Data from Uncirc_1986_H10_HRD10591_00030.txt Node
Date: Wed Jan 03 12:14:32 EST 2024
User: Yrep
Spectrometer: HR+D1059
Trigger mode: 1
Integration Time (sec): 1.000000E-1
Scans to average: 1
Electric dark correction enabled: true
Nonlinearity correction enabled: false
Boxcar width: 0
XAxis mode: Wavelengths
Number of Pixels in Spectrum: 2048
>>>>>Begin Spectral Data<<<<<
223.165	-21.31
223.4	-21.31
223.635	-21.31
223.869	-16.31
224.104	-6.31
224.338	-7.31
224.573	-13.31
224.808	-26.31
225.042	-13.31
225.277	-8.31
225.511	-2.31
225.746	11.69
225.98	-5.31
226.215	11.69
226.449	12.69
226.683	21.69
226.918	27.69
227.152	34.69
227.387	37.69
227.621	32.69
227.856	29.69
228.09	33.69
228.324	53.69
228.559	63.69
228.793	57.69
229.027	64.69
229.262	78.69
229.496	78.69
229.73	79.69
229.964	83.69
230.199	70.69
230.433	78.69
230.667	94.69
230.901	91.69
231.136	78.69
231.37	75.69
231.604	94.69
231.838	85.69
232.072	86.69
232.306	72.69
232.541	87.69
232.775	82.69
233.009	83.69
233.243	90.69
233.477	82.69
233.711	76.69
233.945	81.69
234.179	84.69
234.413	72.69
234.647	82.69
234.881	73.69
235.115	69.69
235.349	68.69
235.583	83.69
235.817	86.69
236.051	89.69
236.285	75.69
236.519	88.69
236.753	75.69
236.987	88.69
237.221	82.69
237.455	68.69
237.689	81.69
237.922	73.69
238.156	76.69
238.39	68.69
238.624	67.69
238.858	78.69
239.091	76.69
239.325	87.69
239.559	99.69
239.793	82.69
240.027	77.69
240.26	89.69
240.494	80.69
240.728	69.69
240.961	69.69
241.195	83.69
241.429	95.69
241.662	88.69
241.896	81.69
242.13	71.69
242.363	80.69
242.597	83.69
242.83	81.69
243.064	82.69
243.298	72.69
243.531	59.69
243.765	68.69
243.998	67.69
244.232	78.69
244.465	73.69
244.699	83.69
244.932	76.69
245.166	70.69
245.399	70.69
245.633	79.69
245.866	90.69
246.099	83.69
246.333	90.69
246.566	70.69
246.8	80.69
247.033	68.69
247.266	82.69
247.5	74.69
247.733	75.69
247.966	81.69
248.2	81.69
248.433	86.69
248.666	74.69
248.899	89.69
249.133	84.69
249.366	106.69
249.599	99.69
249.832	85.69
250.066	75.69
250.299	78.69
250.532	86.69
250.765	63.69
250.998	76.69
251.231	86.69
251.465	86.69
251.698	80.69
251.931	84.69
252.164	81.69
252.397	87.69
252.63	76.69
252.863	78.69
253.096	70.69
253.329	80.69
253.562	87.69
253.795	78.69
254.028	96.69
254.261	71.69
254.494	96.69
254.727	89.69
254.96	72.69
255.193	90.69
255.426	86.69
255.659	82.69
255.892	83.69
256.124	90.69
256.357	70.69
256.59	90.69
256.823	86.69
257.056	75.69
257.289	84.69
257.521	92.69
257.754	76.69
257.987	83.69
258.22	95.69
258.452	85.69
258.685	79.69
258.918	79.69
259.151	83.69
259.383	91.69
259.616	77.69
259.849	105.69
260.081	83.69
260.314	84.69
260.547	79.69
260.779	81.69
261.012	78.69
261.244	67.69
261.477	88.69
261.71	86.69
261.942	105.69
262.175	108.69
262.407	83.69
262.64	86.69
262.872	64.69
263.105	81.69
263.337	94.69
263.57	96.69
263.802	103.69
264.035	92.69
264.267	86.69
264.499	102.69
264.732	80.69
264.964	86.69
265.197	82.69
265.429	59.69
265.661	70.69
265.894	77.69
266.126	95.69
266.358	89.69
266.591	75.69
266.823	86.69
267.055	88.69
267.287	83.69
267.52	86.69
267.752	87.69
267.984	76.69
268.216	82.69
268.448	80.69
268.681	83.69
268.913	82.69
269.145	68.69
269.377	69.69
269.609	84.69
269.841	74.69
270.073	82.69
270.306	84.69
270.538	96.69
270.77	92.69
271.002	73.69
271.234	91.69
271.466	93.69
271.698	90.69
271.93	87.69
272.162	80.69
272.394	87.69
272.626	97.69
272.858	89.69
273.09	83.69
273.322	81.69
273.553	78.69
273.785	71.69
274.017	85.69
274.249	91.69
274.481	84.69
274.713	82.69
274.945	75.69
275.176	78.69
275.408	84.69
275.64	70.69
275.872	80.69
276.104	79.69
276.335	96.69
276.567	105.69
276.799	98.69
277.031	88.69
277.262	85.69
277.494	93.69
277.726	92.69
277.957	73.69
278.189	85.69
278.421	92.69
278.652	86.69
278.884	81.69
279.115	80.69
279.347	106.69
279.579	91.69
279.81	82.69
280.042	74.69
280.273	87.69
280.505	86.69
280.736	86.69
280.968	96.69
281.199	91.69
281.431	94.69
281.662	83.69
281.894	90.69
282.125	102.69
282.356	112.69
282.588	116.69
282.819	105.69
283.051	84.69
283.282	80.69
283.513	80.69
283.745	96.69
283.976	87.69
284.207	79.69
284.439	83.69
284.67	85.69
284.901	87.69
285.132	85.69
285.364	73.69
285.595	94.69
285.826	69.69
286.057	82.69
286.288	82.69
286.52	80.69
286.751	88.69
286.982	84.69
287.213	89.69
287.444	83.69
287.675	95.69
287.906	90.69
288.138	96.69
288.369	97.69
288.6	88.69
288.831	92.69
289.062	88.69
289.293	87.69
289.524	80.69
289.755	91.69
289.986	96.69
290.217	97.69
290.448	97.69
290.679	73.69
290.91	90.69
291.141	76.69
291.371	88.69
291.602	90.69
291.833	89.69
292.064	91.69
292.295	82.69
292.526	81.69
292.757	89.69
292.987	88.69
293.218	76.69
293.449	84.69
293.68	90.69
293.91	83.69
294.141	84.69
294.372	89.69
294.603	86.69
294.833	80.69
295.064	84.69
295.295	79.69
295.525	93.69
295.756	90.69
295.987	95.69
296.217	135.69
296.448	113.69
296.679	86.69
296.909	101.69
297.14	84.69
297.37	91.69
297.601	90.69
297.831	84.69
298.062	76.69
298.292	94.69
298.523	93.69
298.753	83.69
298.984	96.69
299.214	84.69
299.445	92.69
299.675	80.69
299.905	86.69
300.136	95.69
300.366	74.69
300.597	99.69
300.827	92.69
301.057	98.69
301.288	90.69
301.518	99.69
301.748	84.69
301.979	98.69
302.209	81.69
302.439	100.69
302.669	94.69
302.9	90.69
303.13	79.69
303.36	94.69
303.59	92.69
303.82	92.69
304.051	87.69
304.281	90.69
304.511	92.69
304.741	89.69
304.971	82.69
305.201	84.69
305.431	90.69
305.661	70.69
305.891	76.69
306.121	80.69
306.352	82.69
306.582	94.69
306.812	96.69
307.042	95.69
307.272	90.69
307.502	90.69
307.731	83.69
307.961	77.69
308.191	94.69
308.421	91.69
308.651	98.69
308.881	88.69
309.111	83.69
309.341	85.69
309.571	88.69
309.8	70.69
310.03	105.69
310.26	84.69
310.49	89.69
310.72	109.69
310.949	115.69
311.179	100.69
311.409	99.69
311.639	100.69
311.868	96.69
312.098	94.69
312.328	105.69
312.557	99.69
312.787	105.69
313.017	113.69
313.246	92.69
313.476	79.69
313.706	85.69
313.935	87.69
314.165	104.69
314.394	103.69
314.624	90.69
314.853	79.69
315.083	92.69
315.312	89.69
315.542	84.69
315.771	83.69
316.001	87.69
316.23	97.69
316.46	84.69
316.689	87.69
316.919	85.69
317.148	88.69
317.377	93.69
317.607	95.69
317.836	91.69
318.065	80.69
318.295	92.69
318.524	96.69
318.753	96.69
318.983	97.69
319.212	93.69
319.441	93.69
319.67	97.69
319.9	89.69
320.129	83.69
320.358	94.69
320.587	100.69
320.816	85.69
321.046	96.69
321.275	108.69
321.504	98.69
321.733	96.69
321.962	89.69
322.191	101.69
322.42	96.69
322.649	107.69
322.878	103.69
323.108	123.69
323.337	110.69
323.566	115.69
323.795	135.69
324.024	192.69
324.253	321.69
324.482	726.69
324.71	1475.69
324.939	1963.69
325.168	742.69
325.397	242.69
325.626	159.69
325.855	139.69
326.084	116.69
326.313	125.69
326.542	140.69
326.77	219.69
326.999	432.69
327.228	849.69
327.457	1535.69
327.686	1216.69
327.914	326.69
328.143	176.69
328.372	122.69
328.6	119.69
328.829	113.69
329.058	135.69
329.287	115.69
329.515	105.69
329.744	107.69
329.972	104.69
330.201	97.69
330.43	124.69
330.658	101.69
330.887	136.69
331.115	116.69
331.344	98.69
331.572	105.69
331.801	107.69
332.03	90.69
332.258	100.69
332.486	96.69
332.715	99.69
332.943	107.69
333.172	89.69
333.4	99.69
333.629	105.69
333.857	99.69
334.085	107.69
334.314	100.69
334.542	93.69
334.771	107.69
334.999	92.69
335.227	81.69
335.455	90.69
335.684	104.69
335.912	117.69
336.14	99.69
336.369	104.69
336.597	91.69
336.825	100.69
337.053	85.69
337.281	100.69
337.51	93.69
337.738	94.69
337.966	92.69
338.194	102.69
338.422	90.69
338.65	91.69
338.878	79.69
339.106	80.69
339.334	103.69
339.562	87.69
339.79	93.69
340.018	95.69
340.246	78.69
340.474	93.69
340.702	86.69
340.93	97.69
341.158	96.69
341.386	105.69
341.614	89.69
341.842	89.69
342.07	96.69
342.298	75.69
342.526	88.69
342.754	83.69
342.981	82.69
343.209	91.69
343.437	102.69
343.665	71.69
343.893	83.69
344.12	92.69
344.348	90.69
344.576	96.69
344.804	92.69
345.031	102.69
345.259	97.69
345.487	88.69
345.714	88.69
345.942	86.69
346.17	90.69
346.397	95.69
346.625	98.69
346.853	79.69
347.08	88.69
347.308	97.69
347.535	94.69
347.763	97.69
347.99	98.69
348.218	92.69
348.445	99.69
348.673	100.69
348.9	103.69
349.128	96.69
349.355	80.69
349.583	103.69
349.81	87.69
350.037	103.69
350.265	108.69
350.492	103.69
350.72	99.69
350.947	108.69
351.174	94.69
351.402	91.69
351.629	115.69
351.856	103.69
352.083	86.69
352.311	97.69
352.538	99.69
352.765	109.69
352.992	112.69
353.22	106.69
353.447	100.69
353.674	111.69
353.901	103.69
354.128	88.69
354.355	82.69
354.583	92.69
354.81	108.69
355.037	95.69
355.264	104.69
355.491	80.69
355.718	96.69
355.945	90.69
356.172	98.69
356.399	103.69
356.626	98.69
356.853	99.69
357.08	104.69
357.307	94.69
357.534	89.69
357.761	91.69
357.988	101.69
358.215	94.69
358.441	82.69
358.668	85.69
358.895	80.69
359.122	92.69
359.349	111.69
359.576	98.69
359.802	107.69
360.029	105.69
360.256	118.69
360.483	109.69
360.709	90.69
360.936	90.69
361.163	98.69
361.39	114.69
361.616	104.69
361.843	90.69
362.07	97.69
362.296	88.69
362.523	79.69
362.749	86.69
362.976	81.69
363.203	91.69
363.429	96.69
363.656	93.69
363.882	80.69
364.109	90.69
364.335	80.69
364.562	89.69
364.788	92.69
365.015	111.69
365.241	97.69
365.468	89.69
365.694	95.69
365.92	89.69
366.147	90.69
366.373	94.69
366.599	84.69
366.826	103.69
367.052	105.69
367.278	79.69
367.505	85.69
367.731	97.69
367.957	82.69
368.184	94.69
368.41	86.69
368.636	114.69
368.862	108.69
369.089	104.69
369.315	91.69
369.541	100.69
369.767	105.69
369.993	82.69
370.219	90.69
370.445	88.69
370.672	90.69
370.898	98.69
371.124	87.69
371.35	92.69
371.576	101.69
371.802	98.69
372.028	87.69
372.254	89.69
372.48	95.69
372.706	90.69
372.932	91.69
373.158	75.69
373.384	72.69
373.61	93.69
373.835	101.69
374.061	92.69
374.287	89.69
374.513	84.69
374.739	83.69
374.965	101.69
375.191	90.69
375.416	82.69
375.642	89.69
375.868	105.69
376.094	63.69
376.319	88.69
376.545	82.69
376.771	84.69
376.997	89.69
377.222	88.69
377.448	95.69
377.674	96.69
377.899	82.69
378.125	82.69
378.35	75.69
378.576	98.69
378.802	80.69
379.027	68.69
379.253	92.69
379.478	98.69
379.704	87.69
379.929	86.69
380.155	100.69
380.38	95.69
380.606	104.69
380.831	97.69
381.057	95.69
381.282	103.69
381.507	103.69
381.733	90.69
381.958	97.69
382.184	90.69
382.409	105.69
382.634	85.69
382.86	91.69
383.085	96.69
383.31	100.69
383.535	103.69
383.761	98.69
383.986	107.69
384.211	96.69
384.436	98.69
384.662	98.69
384.887	104.69
385.112	96.69
385.337	99.69
385.562	86.69
385.787	103.69
386.013	103.69
386.238	97.69
386.463	88.69
386.688	110.69
386.913	97.69
387.138	106.69
387.363	90.69
387.588	89.69
387.813	123.69
388.038	106.69
388.263	93.69
388.488	96.69
388.713	99.69
388.938	94.69
389.163	92.69
389.387	90.69
389.612	85.69
389.837	89.69
390.062	94.69
390.287	85.69
390.512	96.69
390.736	106.69
390.961	94.69
391.186	98.69
391.411	105.69
391.636	98.69
391.86	86.69
392.085	101.69
392.31	88.69
392.534	94.69
392.759	82.69
392.984	98.69
393.208	86.69
393.433	103.69
393.658	89.69
393.882	83.69
394.107	96.69
394.331	88.69
394.556	94.69
394.78	90.69
395.005	85.69
395.229	91.69
395.454	95.69
395.678	89.69
395.903	86.69
396.127	75.69
396.352	85.69
396.576	81.69
396.801	87.69
397.025	103.69
397.249	89.69
397.474	79.69
397.698	84.69
397.922	79.69
398.147	90.69
398.371	94.69
398.595	81.69
398.82	94.69
399.044	99.69
399.268	93.69
399.492	86.69
399.717	94.69
399.941	90.69
400.165	95.69
400.389	90.69
400.613	92.69
400.837	94.69
401.062	88.69
401.286	83.69
401.51	79.69
401.734	89.69
401.958	99.69
402.182	127.69
402.406	150.69
402.63	104.69
402.854	99.69
403.078	87.69
403.302	91.69
403.526	88.69
403.75	91.69
403.974	95.69
404.198	106.69
404.422	89.69
404.645	82.69
404.869	85.69
405.093	99.69
405.317	106.69
405.541	96.69
405.765	85.69
405.988	96.69
406.212	158.69
406.436	196.69
406.66	131.69
406.883	88.69
407.107	105.69
407.331	97.69
407.555	94.69
407.778	92.69
408.002	86.69
408.226	81.69
408.449	93.69
408.673	88.69
408.896	114.69
409.12	79.69
409.344	96.69
409.567	88.69
409.791	80.69
410.014	101.69
410.238	101.69
410.461	83.69
410.685	97.69
410.908	94.69
411.132	98.69
411.355	88.69
411.578	86.69
411.802	86.69
412.025	89.69
412.249	94.69
412.472	90.69
412.695	92.69
412.919	80.69
413.142	81.69
413.365	88.69
413.589	85.69
413.812	93.69
414.035	94.69
414.258	102.69
414.482	95.69
414.705	100.69
414.928	92.69
415.151	75.69
415.374	84.69
415.597	81.69
415.821	87.69
416.044	89.69
416.267	103.69
416.49	105.69
416.713	85.69
416.936	81.69
417.159	88.69
417.382	87.69
417.605	90.69
417.828	90.69
418.051	89.69
418.274	68.69
418.497	82.69
418.72	82.69
418.943	88.69
419.166	85.69
419.389	100.69
419.611	88.69
419.834	84.69
420.057	80.69
420.28	82.69
420.503	92.69
420.726	84.69
420.948	90.69
421.171	104.69
421.394	100.69
421.617	102.69
421.839	86.69
422.062	88.69
422.285	94.69
422.507	88.69
422.73	108.69
422.953	100.69
423.175	83.69
423.398	81.69
423.621	87.69
423.843	82.69
424.066	92.69
424.288	88.69
424.511	85.69
424.733	105.69
424.956	103.69
425.178	91.69
425.401	82.69
425.623	88.69
425.846	86.69
426.068	80.69
426.291	88.69
426.513	88.69
426.735	105.69
426.958	97.69
427.18	97.69
427.402	137.69
427.625	148.69
427.847	116.69
428.069	99.69
428.292	84.69
428.514	102.69
428.736	85.69
428.958	84.69
429.181	72.69
429.403	91.69
429.625	86.69
429.847	92.69
430.069	92.69
430.292	99.69
430.514	80.69
430.736	87.69
430.958	88.69
431.18	83.69
431.402	87.69
431.624	75.69
431.846	100.69
432.068	96.69
432.29	81.69
432.512	97.69
432.734	81.69
432.956	87.69
433.178	87.69
433.4	114.69
433.622	79.69
433.844	85.69
434.066	107.69
434.287	99.69
434.509	90.69
434.731	99.69
434.953	84.69
435.175	82.69
435.397	90.69
435.618	102.69
435.84	103.69
436.062	123.69
436.284	121.69
436.505	109.69
436.727	96.69
436.949	83.69
437.17	88.69
437.392	99.69
437.614	87.69
437.835	97.69
438.057	108.69
438.278	108.69
438.5	118.69
438.721	125.69
438.943	117.69
439.165	98.69
439.386	95.69
439.608	89.69
439.829	97.69
440.05	118.69
440.272	139.69
440.493	90.69
440.715	96.69
440.936	94.69
441.158	87.69
441.379	97.69
441.6	91.69
441.822	101.69
442.043	94.69
442.264	101.69
442.486	107.69
442.707	94.69
442.928	107.69
443.149	127.69
443.371	111.69
443.592	98.69
443.813	110.69
444.034	103.69
444.255	92.69
444.476	90.69
444.698	99.69
444.919	82.69
445.14	137.69
445.361	124.69
445.582	105.69
445.803	112.69
446.024	126.69
446.245	126.69
446.466	110.69
446.687	90.69
446.908	85.69
447.129	84.69
447.35	95.69
447.571	99.69
447.792	102.69
448.013	114.69
448.234	107.69
448.455	86.69
448.675	109.69
448.896	117.69
449.117	111.69
449.338	116.69
449.559	138.69
449.779	128.69
450	85.69
450.221	90.69
450.442	94.69
450.662	91.69
450.883	120.69
451.104	118.69
451.324	95.69
451.545	98.69
451.766	95.69
451.986	84.69
452.207	107.69
452.428	87.69
452.648	100.69
452.869	112.69
453.089	106.69
453.31	112.69
453.53	98.69
453.751	102.69
453.971	96.69
454.192	103.69
454.412	94.69
454.633	99.69
454.853	84.69
455.073	89.69
455.294	80.69
455.514	105.69
455.734	86.69
455.955	82.69
456.175	78.69
456.395	80.69
456.616	78.69
456.836	87.69
457.056	88.69
457.276	96.69
457.497	92.69
457.717	98.69
457.937	88.69
458.157	100.69
458.377	93.69
458.598	105.69
458.818	133.69
459.038	143.69
459.258	110.69
459.478	102.69
459.698	103.69
459.918	83.69
460.138	99.69
460.358	96.69
460.578	72.69
460.798	89.69
461.018	102.69
461.238	94.69
461.458	94.69
461.678	83.69
461.898	90.69
462.118	98.69
462.338	83.69
462.558	90.69
462.777	80.69
462.997	90.69
463.217	90.69
463.437	87.69
463.657	91.69
463.876	88.69
464.096	84.69
464.316	96.69
464.536	91.69
464.755	88.69
464.975	104.69
465.195	150.69
465.414	139.69
465.634	100.69
465.854	89.69
466.073	83.69
466.293	94.69
466.512	97.69
466.732	74.69
466.951	84.69
467.171	82.69
467.391	91.69
467.61	113.69
467.829	80.69
468.049	71.69
468.268	90.69
468.488	85.69
468.707	87.69
468.927	90.69
469.146	84.69
469.365	100.69
469.585	80.69
469.804	97.69
470.023	97.69
470.243	82.69
470.462	100.69
470.681	119.69
470.901	86.69
471.12	82.69
471.339	90.69
471.558	85.69
471.777	85.69
471.997	66.69
472.216	76.69
472.435	102.69
472.654	86.69
472.873	84.69
473.092	83.69
473.311	93.69
473.53	84.69
473.749	96.69
473.968	91.69
474.187	103.69
474.406	91.69
474.625	88.69
474.844	86.69
475.063	88.69
475.282	96.69
475.501	91.69
475.72	98.69
475.939	80.69
476.158	91.69
476.377	87.69
476.596	95.69
476.814	98.69
477.033	89.69
477.252	89.69
477.471	104.69
477.69	79.69
477.908	79.69
478.127	80.69
478.346	79.69
478.564	105.69
478.783	108.69
479.002	107.69
479.22	96.69
479.439	98.69
479.658	105.69
479.876	88.69
480.095	94.69
480.313	88.69
480.532	93.69
480.751	87.69
480.969	80.69
481.188	108.69
481.406	89.69
481.624	96.69
481.843	82.69
482.061	93.69
482.28	70.69
482.498	91.69
482.717	81.69
482.935	98.69
483.153	79.69
483.372	102.69
483.59	80.69
483.808	93.69
484.027	106.69
484.245	86.69
484.463	98.69
484.681	103.69
484.9	105.69
485.118	96.69
485.336	79.69
485.554	93.69
485.772	105.69
485.99	92.69
486.209	112.69
486.427	105.69
486.645	105.69
486.863	111.69
487.081	100.69
487.299	100.69
487.517	93.69
487.735	92.69
487.953	108.69
488.171	105.69
488.389	94.69
488.607	88.69
488.825	97.69
489.043	84.69
489.261	87.69
489.479	98.69
489.696	97.69
489.914	89.69
490.132	86.69
490.35	109.69
490.568	91.69
490.786	96.69
491.003	82.69
491.221	75.69
491.439	88.69
491.657	95.69
491.874	96.69
492.092	82.69
492.31	92.69
492.527	83.69
492.745	95.69
492.963	91.69
493.18	83.69
493.398	84.69
493.615	96.69
493.833	99.69
494.05	98.69
494.268	80.69
494.485	88.69
494.703	95.69
494.92	88.69
495.138	109.69
495.355	81.69
495.573	88.69
495.79	95.69
496.008	84.69
496.225	87.69
496.442	97.69
496.66	94.69
496.877	88.69
497.094	98.69
497.312	92.69
497.529	96.69
497.746	93.69
497.963	90.69
498.181	100.69
498.398	92.69
498.615	107.69
498.832	88.69
499.049	90.69
499.267	91.69
499.484	90.69
499.701	95.69
499.918	92.69
500.135	98.69
500.352	82.69
500.569	85.69
500.786	96.69
501.003	90.69
501.22	78.69
501.437	107.69
501.654	92.69
501.871	120.69
502.088	100.69
502.305	92.69
502.522	81.69
502.739	101.69
502.956	88.69
503.172	95.69
503.389	88.69
503.606	97.69
503.823	102.69
504.04	108.69
504.256	84.69
504.473	97.69
504.69	95.69
504.907	87.69
505.123	85.69
505.34	99.69
505.557	97.69
505.773	100.69
505.99	86.69
506.207	99.69
506.423	85.69
506.64	99.69
506.856	84.69
507.073	96.69
507.289	94.69
507.506	83.69
507.722	108.69
507.939	103.69
508.155	89.69
508.372	97.69
508.588	101.69
508.805	83.69
509.021	83.69
509.238	96.69
509.454	96.69
509.67	96.69
509.887	101.69
510.103	131.69
510.319	194.69
510.536	710.69
510.752	2124.69
510.968	583.69
511.184	158.69
511.401	130.69
511.617	87.69
511.833	94.69
512.049	104.69
512.265	86.69
512.481	96.69
512.698	95.69
512.914	86.69
513.13	89.69
513.346	102.69
513.562	88.69
513.778	109.69
513.994	87.69
514.21	90.69
514.426	102.69
514.642	139.69
514.858	124.69
515.074	141.69
515.29	393.69
515.506	1252.69
515.721	465.69
515.937	140.69
