Data from Uncirc_1986_H10_HRD10591_00029.txt Node
Date: Wed Jan 03 12:14:32 EST 2024
User: Yrep
Spectrometer: HR+D1059
Trigger mode: 1
Integration Time (sec): 1.000000E-1
Scans to average: 1
Electric dark correction enabled: true
Nonlinearity correction enabled: false
Boxcar width: 0
XAxis mode: Wavelengths
Number of Pixels in Spectrum: 2048
>>>>>Begin Spectral Data<<<<<
223.165	-14.69
223.4	-14.69
223.635	-14.69
223.869	-27.69
224.104	-12.69
224.338	-11.69
224.573	-27.69
224.808	-18.69
225.042	8.31
225.277	-16.69
225.511	-5.69
225.746	16.31
225.98	6.31
226.215	21.31
226.449	11.31
226.683	23.31
226.918	27.31
227.152	21.31
227.387	23.31
227.621	27.31
227.856	40.31
228.09	29.31
228.324	48.31
228.559	51.31
228.793	68.31
229.027	50.31
229.262	65.31
229.496	70.31
229.73	68.31
229.964	69.31
230.199	75.31
230.433	75.31
230.667	85.31
230.901	75.31
231.136	67.31
231.37	72.31
231.604	72.31
231.838	64.31
232.072	84.31
232.306	75.31
232.541	69.31
232.775	78.31
233.009	77.31
233.243	84.31
233.477	69.31
233.711	87.31
233.945	79.31
234.179	64.31
234.413	67.31
234.647	61.31
234.881	88.31
235.115	89.31
235.349	68.31
235.583	68.31
235.817	75.31
236.051	69.31
236.285	83.31
236.519	77.31
236.753	66.31
236.987	71.31
237.221	63.31
237.455	79.31
237.689	73.31
237.922	83.31
238.156	80.31
238.39	82.31
238.624	65.31
238.858	70.31
239.091	73.31
239.325	77.31
239.559	71.31
239.793	72.31
240.027	69.31
240.26	79.31
240.494	70.31
240.728	67.31
240.961	79.31
241.195	79.31
241.429	82.31
241.662	77.31
241.896	61.31
242.13	76.31
242.363	71.31
242.597	67.31
242.83	81.31
243.064	76.31
243.298	78.31
243.531	67.31
243.765	78.31
243.998	72.31
244.232	85.31
244.465	76.31
244.699	93.31
244.932	85.31
245.166	68.31
245.399	71.31
245.633	72.31
245.866	72.31
246.099	73.31
246.333	72.31
246.566	63.31
246.8	97.31
247.033	78.31
247.266	77.31
247.5	79.31
247.733	87.31
247.966	83.31
248.2	80.31
248.433	75.31
248.666	93.31
248.899	80.31
249.133	77.31
249.366	103.31
249.599	98.31
249.832	81.31
250.066	77.31
250.299	75.31
250.532	80.31
250.765	67.31
250.998	69.31
251.231	64.31
251.465	70.31
251.698	82.31
251.931	86.31
252.164	84.31
252.397	68.31
252.63	77.31
252.863	79.31
253.096	83.31
253.329	70.31
253.562	94.31
253.795	76.31
254.028	84.31
254.261	71.31
254.494	79.31
254.727	87.31
254.96	77.31
255.193	67.31
255.426	89.31
255.659	81.31
255.892	75.31
256.124	89.31
256.357	81.31
256.59	60.31
256.823	74.31
257.056	83.31
257.289	83.31
257.521	89.31
257.754	91.31
257.987	72.31
258.22	70.31
258.452	85.31
258.685	74.31
258.918	87.31
259.151	85.31
259.383	82.31
259.616	83.31
259.849	72.31
260.081	69.31
260.314	78.31
260.547	69.31
260.779	92.31
261.012	94.31
261.244	94.31
261.477	72.31
261.71	81.31
261.942	104.31
262.175	106.31
262.407	81.31
262.64	82.31
262.872	83.31
263.105	81.31
263.337	91.31
263.57	83.31
263.802	84.31
264.035	71.31
264.267	86.31
264.499	84.31
264.732	88.31
264.964	78.31
265.197	86.31
265.429	87.31
265.661	71.31
265.894	97.31
266.126	79.31
266.358	80.31
266.591	71.31
266.823	82.31
267.055	97.31
267.287	86.31
267.52	84.31
267.752	79.31
267.984	81.31
268.216	85.31
268.448	75.31
268.681	75.31
268.913	95.31
269.145	84.31
269.377	77.31
269.609	98.31
269.841	79.31
270.073	73.31
270.306	91.31
270.538	79.31
270.77	78.31
271.002	96.31
271.234	97.31
271.466	97.31
271.698	79.31
271.93	72.31
272.162	63.31
272.394	86.31
272.626	79.31
272.858	83.31
273.09	92.31
273.322	92.31
273.553	88.31
273.785	80.31
274.017	72.31
274.249	65.31
274.481	88.31
274.713	72.31
274.945	99.31
275.176	93.31
275.408	81.31
275.64	84.31
275.872	64.31
276.104	83.31
276.335	80.31
276.567	97.31
276.799	93.31
277.031	101.31
277.262	88.31
277.494	75.31
277.726	77.31
277.957	93.31
278.189	73.31
278.421	97.31
278.652	94.31
278.884	68.31
279.115	89.31
279.347	83.31
279.579	88.31
279.81	80.31
280.042	84.31
280.273	82.31
280.505	94.31
280.736	83.31
280.968	81.31
281.199	88.31
281.431	92.31
281.662	93.31
281.894	92.31
282.125	93.31
282.356	118.31
282.588	139.31
282.819	111.31
283.051	83.31
283.282	68.31
283.513	83.31
283.745	103.31
283.976	76.31
284.207	89.31
284.439	78.31
284.67	79.31
284.901	87.31
285.132	75.31
285.364	94.31
285.595	89.31
285.826	95.31
286.057	89.31
286.288	74.31
286.52	85.31
286.751	79.31
286.982	76.31
287.213	82.31
287.444	91.31
287.675	80.31
287.906	88.31
288.138	92.31
288.369	99.31
288.6	100.31
288.831	72.31
289.062	85.31
289.293	93.31
289.524	87.31
289.755	87.31
289.986	72.31
290.217	86.31
290.448	69.31
290.679	78.31
290.91	79.31
291.141	86.31
291.371	92.31
291.602	87.31
291.833	74.31
292.064	94.31
292.295	91.31
292.526	84.31
292.757	83.31
292.987	87.31
293.218	80.31
293.449	93.31
293.68	98.31
293.91	100.31
294.141	88.31
294.372	87.31
294.603	80.31
294.833	79.31
295.064	70.31
295.295	75.31
295.525	93.31
295.756	112.31
295.987	118.31
296.217	134.31
296.448	119.31
296.679	104.31
296.909	86.31
297.14	94.31
297.37	83.31
297.601	101.31
297.831	92.31
298.062	81.31
298.292	95.31
298.523	92.31
298.753	85.31
298.984	94.31
299.214	75.31
299.445	86.31
299.675	86.31
299.905	80.31
300.136	90.31
300.366	91.31
300.597	91.31
300.827	78.31
301.057	93.31
301.288	103.31
301.518	84.31
301.748	101.31
301.979	89.31
302.209	82.31
302.439	79.31
302.669	84.31
302.9	72.31
303.13	92.31
303.36	83.31
303.59	107.31
303.82	94.31
304.051	99.31
304.281	88.31
304.511	91.31
304.741	85.31
304.971	82.31
305.201	89.31
305.431	94.31
305.661	96.31
305.891	86.31
306.121	97.31
306.352	107.31
306.582	98.31
306.812	87.31
307.042	82.31
307.272	85.31
307.502	88.31
307.731	91.31
307.961	85.31
308.191	85.31
308.421	99.31
308.651	101.31
308.881	98.31
309.111	100.31
309.341	90.31
309.571	98.31
309.8	99.31
310.03	84.31
310.26	113.31
310.49	94.31
310.72	108.31
310.949	104.31
311.179	87.31
311.409	75.31
311.639	85.31
311.868	97.31
312.098	90.31
312.328	99.31
312.557	92.31
312.787	110.31
313.017	85.31
313.246	102.31
313.476	86.31
313.706	98.31
313.935	95.31
314.165	95.31
314.394	88.31
314.624	103.31
314.853	104.31
315.083	85.31
315.312	87.31
315.542	92.31
315.771	84.31
316.001	89.31
316.23	95.31
316.46	88.31
316.689	93.31
316.919	71.31
317.148	90.31
317.377	97.31
317.607	93.31
317.836	102.31
318.065	95.31
318.295	97.31
318.524	89.31
318.753	100.31
318.983	95.31
319.212	108.31
319.441	95.31
319.67	109.31
319.9	96.31
320.129	108.31
320.358	109.31
320.587	89.31
320.816	94.31
321.046	99.31
321.275	101.31
321.504	93.31
321.733	94.31
321.962	105.31
322.191	99.31
322.42	106.31
322.649	94.31
322.878	108.31
323.108	117.31
323.337	113.31
323.566	122.31
323.795	135.31
324.024	199.31
324.253	394.31
324.482	766.31
324.71	1533.31
324.939	2051.31
325.168	747.31
325.397	251.31
325.626	133.31
325.855	120.31
326.084	104.31
326.313	132.31
326.542	152.31
326.77	219.31
326.999	437.31
327.228	863.31
327.457	1561.31
327.686	1236.31
327.914	342.31
328.143	188.31
328.372	153.31
328.6	115.31
328.829	114.31
329.058	117.31
329.287	124.31
329.515	103.31
329.744	83.31
329.972	93.31
330.201	112.31
330.43	105.31
330.658	97.31
330.887	126.31
331.115	109.31
331.344	92.31
331.572	97.31
331.801	102.31
332.03	111.31
332.258	92.31
332.486	88.31
332.715	99.31
332.943	105.31
333.172	87.31
333.4	107.31
333.629	79.31
333.857	125.31
334.085	105.31
334.314	83.31
334.542	98.31
334.771	97.31
334.999	93.31
335.227	102.31
335.455	90.31
335.684	104.31
335.912	97.31
336.14	101.31
336.369	102.31
336.597	94.31
336.825	97.31
337.053	77.31
337.281	107.31
337.51	84.31
337.738	91.31
337.966	93.31
338.194	89.31
338.422	91.31
338.65	104.31
338.878	85.31
339.106	83.31
339.334	87.31
339.562	88.31
339.79	104.31
340.018	96.31
340.246	99.31
340.474	92.31
340.702	85.31
340.93	92.31
341.158	93.31
341.386	92.31
341.614	104.31
341.842	89.31
342.07	100.31
342.298	101.31
342.526	86.31
342.754	97.31
342.981	88.31
343.209	90.31
343.437	94.31
343.665	110.31
343.893	101.31
344.12	104.31
344.348	91.31
344.576	95.31
344.804	96.31
345.031	92.31
345.259	109.31
345.487	89.31
345.714	99.31
345.942	83.31
346.17	73.31
346.397	101.31
346.625	98.31
346.853	92.31
347.08	103.31
347.308	88.31
347.535	96.31
347.763	98.31
347.99	80.31
348.218	91.31
348.445	89.31
348.673	86.31
348.9	101.31
349.128	97.31
349.355	96.31
349.583	88.31
349.81	92.31
350.037	87.31
350.265	95.31
350.492	92.31
350.72	83.31
350.947	92.31
351.174	111.31
351.402	116.31
351.629	113.31
351.856	92.31
352.083	104.31
352.311	100.31
352.538	102.31
352.765	107.31
352.992	111.31
353.22	100.31
353.447	94.31
353.674	103.31
353.901	91.31
354.128	95.31
354.355	83.31
354.583	109.31
354.81	93.31
355.037	89.31
355.264	94.31
355.491	107.31
355.718	87.31
355.945	97.31
356.172	98.31
356.399	104.31
356.626	95.31
356.853	88.31
357.08	82.31
357.307	100.31
357.534	100.31
357.761	98.31
357.988	104.31
358.215	88.31
358.441	87.31
358.668	79.31
358.895	94.31
359.122	93.31
359.349	90.31
359.576	91.31
359.802	89.31
360.029	119.31
360.256	118.31
360.483	93.31
360.709	81.31
360.936	99.31
361.163	79.31
361.39	88.31
361.616	90.31
361.843	103.31
362.07	100.31
362.296	91.31
362.523	83.31
362.749	84.31
362.976	77.31
363.203	92.31
363.429	79.31
363.656	92.31
363.882	95.31
364.109	92.31
364.335	95.31
364.562	91.31
364.788	104.31
365.015	106.31
365.241	83.31
365.468	101.31
365.694	103.31
365.92	102.31
366.147	82.31
366.373	100.31
366.599	101.31
366.826	88.31
367.052	79.31
367.278	97.31
367.505	74.31
367.731	75.31
367.957	100.31
368.184	84.31
368.41	84.31
368.636	109.31
368.862	109.31
369.089	104.31
369.315	100.31
369.541	99.31
369.767	88.31
369.993	103.31
370.219	88.31
370.445	76.31
370.672	88.31
370.898	70.31
371.124	78.31
371.35	72.31
371.576	80.31
371.802	90.31
372.028	73.31
372.254	89.31
372.48	84.31
372.706	78.31
372.932	72.31
373.158	80.31
373.384	80.31
373.61	95.31
373.835	100.31
374.061	80.31
374.287	95.31
374.513	95.31
374.739	85.31
374.965	91.31
375.191	84.31
375.416	82.31
375.642	85.31
375.868	83.31
376.094	81.31
376.319	81.31
376.545	83.31
376.771	94.31
376.997	102.31
377.222	97.31
377.448	94.31
377.674	84.31
377.899	83.31
378.125	91.31
378.35	89.31
378.576	83.31
378.802	94.31
379.027	81.31
379.253	86.31
379.478	104.31
379.704	95.31
379.929	91.31
380.155	89.31
380.38	94.31
380.606	81.31
380.831	91.31
381.057	96.31
381.282	89.31
381.507	93.31
381.733	85.31
381.958	83.31
382.184	104.31
382.409	91.31
382.634	92.31
382.86	103.31
383.085	87.31
383.31	105.31
383.535	99.31
383.761	97.31
383.986	103.31
384.211	100.31
384.436	91.31
384.662	99.31
384.887	94.31
385.112	108.31
385.337	108.31
385.562	93.31
385.787	95.31
386.013	99.31
386.238	102.31
386.463	95.31
386.688	115.31
386.913	101.31
387.138	89.31
387.363	91.31
387.588	94.31
387.813	109.31
388.038	97.31
388.263	109.31
388.488	101.31
388.713	97.31
388.938	95.31
389.163	87.31
389.387	102.31
389.612	94.31
389.837	87.31
390.062	83.31
390.287	92.31
390.512	99.31
390.736	88.31
390.961	89.31
391.186	86.31
391.411	91.31
391.636	83.31
391.86	93.31
392.085	75.31
392.31	85.31
392.534	82.31
392.759	78.31
392.984	66.31
393.208	83.31
393.433	88.31
393.658	93.31
393.882	82.31
394.107	88.31
394.331	92.31
394.556	90.31
394.78	84.31
395.005	76.31
395.229	83.31
395.454	85.31
395.678	94.31
395.903	93.31
396.127	82.31
396.352	97.31
396.576	91.31
396.801	83.31
397.025	93.31
397.249	89.31
397.474	89.31
397.698	96.31
397.922	94.31
398.147	96.31
398.371	92.31
398.595	82.31
398.82	84.31
399.044	71.31
399.268	78.31
399.492	85.31
399.717	96.31
399.941	79.31
400.165	98.31
400.389	83.31
400.613	90.31
400.837	84.31
401.062	78.31
401.286	87.31
401.51	86.31
401.734	92.31
401.958	108.31
402.182	120.31
402.406	166.31
402.63	112.31
402.854	105.31
403.078	84.31
403.302	90.31
403.526	79.31
403.75	100.31
403.974	87.31
404.198	86.31
404.422	84.31
404.645	82.31
404.869	74.31
405.093	100.31
405.317	95.31
405.541	87.31
405.765	95.31
405.988	120.31
406.212	172.31
406.436	217.31
406.66	143.31
406.883	86.31
407.107	88.31
407.331	90.31
407.555	105.31
407.778	98.31
408.002	87.31
408.226	87.31
408.449	86.31
408.673	96.31
408.896	95.31
409.12	102.31
409.344	103.31
409.567	89.31
409.791	91.31
410.014	98.31
410.238	99.31
410.461	89.31
410.685	89.31
410.908	108.31
411.132	106.31
411.355	100.31
411.578	92.31
411.802	91.31
412.025	78.31
412.249	81.31
412.472	84.31
412.695	98.31
412.919	83.31
413.142	75.31
413.365	91.31
413.589	86.31
413.812	85.31
414.035	79.31
414.258	88.31
414.482	70.31
414.705	77.31
414.928	87.31
415.151	92.31
415.374	88.31
415.597	90.31
415.821	83.31
416.044	82.31
416.267	82.31
416.49	94.31
416.713	85.31
416.936	85.31
417.159	83.31
417.382	95.31
417.605	77.31
417.828	88.31
418.051	96.31
418.274	100.31
418.497	87.31
418.72	107.31
418.943	78.31
419.166	94.31
419.389	74.31
419.611	84.31
419.834	88.31
420.057	91.31
420.28	83.31
420.503	80.31
420.726	87.31
420.948	98.31
421.171	86.31
421.394	83.31
421.617	80.31
421.839	85.31
422.062	86.31
422.285	89.31
422.507	80.31
422.73	109.31
422.953	97.31
423.175	84.31
423.398	100.31
423.621	86.31
423.843	79.31
424.066	68.31
424.288	93.31
424.511	90.31
424.733	89.31
424.956	89.31
425.178	76.31
425.401	88.31
425.623	96.31
425.846	94.31
426.068	89.31
426.291	85.31
426.513	85.31
426.735	89.31
426.958	90.31
427.18	99.31
427.402	133.31
427.625	163.31
427.847	98.31
428.069	92.31
428.292	64.31
428.514	72.31
428.736	67.31
428.958	86.31
429.181	84.31
429.403	88.31
429.625	76.31
429.847	92.31
430.069	87.31
430.292	97.31
430.514	83.31
430.736	75.31
430.958	82.31
431.18	86.31
431.402	79.31
431.624	88.31
431.846	88.31
432.068	94.31
432.29	85.31
432.512	83.31
432.734	89.31
432.956	83.31
433.178	98.31
433.4	110.31
433.622	99.31
433.844	89.31
434.066	86.31
434.287	78.31
434.509	80.31
434.731	96.31
434.953	101.31
435.175	86.31
435.397	80.31
435.618	102.31
435.84	87.31
436.062	125.31
436.284	98.31
436.505	96.31
436.727	109.31
436.949	89.31
437.17	79.31
437.392	86.31
437.614	92.31
437.835	104.31
438.057	101.31
438.278	106.31
438.5	97.31
438.721	120.31
438.943	96.31
439.165	86.31
439.386	88.31
439.608	93.31
439.829	86.31
440.05	108.31
440.272	126.31
440.493	105.31
440.715	90.31
440.936	79.31
441.158	97.31
441.379	91.31
441.6	77.31
441.822	94.31
442.043	84.31
442.264	85.31
442.486	105.31
442.707	109.31
442.928	114.31
443.149	109.31
443.371	133.31
443.592	115.31
443.813	98.31
444.034	102.31
444.255	91.31
444.476	103.31
444.698	84.31
444.919	99.31
445.14	119.31
445.361	130.31
445.582	96.31
445.803	133.31
446.024	132.31
446.245	118.31
446.466	121.31
446.687	80.31
446.908	79.31
447.129	94.31
447.35	96.31
447.571	86.31
447.792	98.31
448.013	102.31
448.234	101.31
448.455	91.31
448.675	110.31
448.896	126.31
449.117	97.31
449.338	79.31
449.559	121.31
449.779	115.31
450	88.31
450.221	76.31
450.442	94.31
450.662	105.31
450.883	105.31
451.104	122.31
451.324	79.31
451.545	102.31
451.766	91.31
451.986	78.31
452.207	97.31
452.428	86.31
452.648	90.31
452.869	109.31
453.089	108.31
453.31	121.31
453.53	79.31
453.751	92.31
453.971	99.31
454.192	116.31
454.412	101.31
454.633	86.31
454.853	79.31
455.073	84.31
455.294	74.31
455.514	87.31
455.734	90.31
455.955	83.31
456.175	90.31
456.395	91.31
456.616	93.31
456.836	84.31
457.056	77.31
457.276	87.31
457.497	78.31
457.717	73.31
457.937	87.31
458.157	91.31
458.377	81.31
458.598	93.31
458.818	129.31
459.038	134.31
459.258	104.31
459.478	76.31
459.698	102.31
459.918	86.31
460.138	93.31
460.358	81.31
460.578	83.31
460.798	87.31
461.018	70.31
461.238	77.31
461.458	77.31
461.678	81.31
461.898	80.31
462.118	92.31
462.338	88.31
462.558	77.31
462.777	64.31
462.997	89.31
463.217	71.31
463.437	75.31
463.657	91.31
463.876	90.31
464.096	84.31
464.316	95.31
464.536	96.31
464.755	97.31
464.975	92.31
465.195	147.31
465.414	148.31
465.634	95.31
465.854	93.31
466.073	81.31
466.293	93.31
466.512	87.31
466.732	85.31
466.951	92.31
467.171	78.31
467.391	105.31
467.61	101.31
467.829	75.31
468.049	80.31
468.268	80.31
468.488	86.31
468.707	87.31
468.927	80.31
469.146	73.31
469.365	77.31
469.585	77.31
469.804	89.31
470.023	95.31
470.243	90.31
470.462	86.31
470.681	88.31
470.901	81.31
471.12	85.31
471.339	82.31
471.558	79.31
471.777	89.31
471.997	67.31
472.216	80.31
472.435	83.31
472.654	85.31
472.873	75.31
473.092	85.31
473.311	81.31
473.53	88.31
473.749	75.31
473.968	99.31
474.187	89.31
474.406	91.31
474.625	87.31
474.844	91.31
475.063	77.31
475.282	66.31
475.501	85.31
475.72	90.31
475.939	75.31
476.158	76.31
476.377	83.31
476.596	92.31
476.814	80.31
477.033	99.31
477.252	93.31
477.471	87.31
477.69	85.31
477.908	87.31
478.127	84.31
478.346	79.31
478.564	73.31
478.783	79.31
479.002	89.31
479.22	84.31
479.439	94.31
479.658	98.31
479.876	97.31
480.095	86.31
480.313	80.31
480.532	87.31
480.751	83.31
480.969	86.31
481.188	106.31
481.406	102.31
481.624	93.31
481.843	97.31
482.061	89.31
482.28	82.31
482.498	78.31
482.717	86.31
482.935	93.31
483.153	72.31
483.372	79.31
483.59	88.31
483.808	87.31
484.027	88.31
484.245	83.31
484.463	89.31
484.681	85.31
484.9	88.31
485.118	87.31
485.336	89.31
485.554	99.31
485.772	91.31
485.99	98.31
486.209	92.31
486.427	94.31
486.645	104.31
486.863	110.31
487.081	88.31
487.299	89.31
487.517	99.31
487.735	88.31
487.953	91.31
488.171	89.31
488.389	95.31
488.607	94.31
488.825	96.31
489.043	93.31
489.261	78.31
489.479	83.31
489.696	92.31
489.914	80.31
490.132	86.31
490.35	88.31
490.568	90.31
490.786	91.31
491.003	72.31
491.221	87.31
491.439	97.31
491.657	96.31
491.874	77.31
492.092	71.31
492.31	89.31
492.527	72.31
492.745	80.31
492.963	83.31
493.18	87.31
493.398	95.31
493.615	87.31
493.833	84.31
494.05	81.31
494.268	83.31
494.485	83.31
494.703	81.31
494.92	83.31
495.138	84.31
495.355	92.31
495.573	92.31
495.79	99.31
496.008	88.31
496.225	88.31
496.442	88.31
496.66	89.31
496.877	92.31
497.094	99.31
497.312	87.31
497.529	86.31
497.746	83.31
497.963	88.31
498.181	95.31
498.398	104.31
498.615	107.31
498.832	105.31
499.049	88.31
499.267	82.31
499.484	81.31
499.701	85.31
499.918	69.31
500.135	93.31
500.352	85.31
500.569	76.31
500.786	64.31
501.003	86.31
501.22	92.31
501.437	81.31
501.654	90.31
501.871	95.31
502.088	84.31
502.305	88.31
502.522	81.31
502.739	79.31
502.956	81.31
503.172	93.31
503.389	86.31
503.606	109.31
503.823	91.31
504.04	86.31
504.256	87.31
504.473	82.31
504.69	84.31
504.907	97.31
505.123	86.31
505.34	88.31
505.557	90.31
505.773	81.31
505.99	86.31
506.207	86.31
506.423	94.31
506.64	83.31
506.856	87.31
507.073	80.31
507.289	95.31
507.506	104.31
507.722	104.31
507.939	91.31
508.155	87.31
508.372	91.31
508.588	82.31
508.805	89.31
509.021	98.31
509.238	113.31
509.454	88.31
509.67	79.31
509.887	114.31
510.103	120.31
510.319	223.31
510.536	753.31
510.752	2312.31
510.968	627.31
511.184	147.31
511.401	109.31
511.617	96.31
511.833	96.31
512.049	95.31
512.265	75.31
512.481	95.31
512.698	100.31
512.914	85.31
513.13	100.31
513.346	80.31
513.562	89.31
513.778	90.31
513.994	97.31
514.21	91.31
514.426	115.31
514.642	111.31
514.858	119.31
515.074	166.31
515.29	439.31
515.506	1427.31
515.721	524.31
515.937	155.31
516.153	125.31
516.369	101.31
516.585	90.31
