Data from Uncirc_1986_H10_HRD10591_00094.txt Node
Date: Wed Jan 03 12:14:45 EST 2024
User: Yrep
Spectrometer: HR+D1059
Trigger mode: 1
Integration Time (sec): 1.000000E-1
Scans to average: 1
Electric dark correction enabled: true
Nonlinearity correction enabled: false
Boxcar width: 0
XAxis mode: Wavelengths
Number of Pixels in Spectrum: 2048
>>>>>Begin Spectral Data<<<<<
223.165	-21.56
223.4	-21.56
223.635	-21.56
223.869	-21.56
224.104	-12.56
224.338	-19.56
224.573	-19.56
224.808	-6.56
225.042	-5.56
225.277	-4.56
225.511	1.44
225.746	-2.56
225.98	7.44
226.215	15.44
226.449	23.44
226.683	22.44
226.918	21.44
227.152	22.44
227.387	37.44
227.621	32.44
227.856	28.44
228.09	42.44
228.324	63.44
228.559	67.44
228.793	59.44
229.027	64.44
229.262	61.44
229.496	72.44
229.73	74.44
229.964	71.44
230.199	63.44
230.433	79.44
230.667	93.44
230.901	80.44
231.136	52.44
231.37	72.44
231.604	71.44
231.838	79.44
232.072	74.44
232.306	85.44
232.541	87.44
232.775	82.44
233.009	86.44
233.243	86.44
233.477	71.44
233.711	92.44
233.945	80.44
234.179	82.44
234.413	88.44
234.647	91.44
234.881	73.44
235.115	73.44
235.349	83.44
235.583	73.44
235.817	73.44
236.051	78.44
236.285	68.44
236.519	54.44
236.753	92.44
236.987	86.44
237.221	79.44
237.455	84.44
237.689	67.44
237.922	87.44
238.156	72.44
238.39	87.44
238.624	80.44
238.858	64.44
239.091	81.44
239.325	83.44
239.559	70.44
239.793	75.44
240.027	84.44
240.26	83.44
240.494	83.44
240.728	73.44
240.961	79.44
241.195	73.44
241.429	75.44
241.662	81.44
241.896	80.44
242.13	68.44
242.363	79.44
242.597	75.44
242.83	70.44
243.064	79.44
243.298	78.44
243.531	66.44
243.765	62.44
243.998	66.44
244.232	86.44
244.465	96.44
244.699	81.44
244.932	76.44
245.166	71.44
245.399	90.44
245.633	73.44
245.866	88.44
246.099	78.44
246.333	68.44
246.566	90.44
246.8	82.44
247.033	75.44
247.266	86.44
247.5	94.44
247.733	67.44
247.966	73.44
248.2	76.44
248.433	79.44
248.666	85.44
248.899	91.44
249.133	83.44
249.366	99.44
249.599	104.44
249.832	78.44
250.066	67.44
250.299	70.44
250.532	86.44
250.765	79.44
250.998	96.44
251.231	89.44
251.465	83.44
251.698	65.44
251.931	79.44
252.164	66.44
252.397	83.44
252.63	79.44
252.863	82.44
253.096	78.44
253.329	80.44
253.562	75.44
253.795	63.44
254.028	70.44
254.261	71.44
254.494	71.44
254.727	87.44
254.96	91.44
255.193	83.44
255.426	79.44
255.659	92.44
255.892	83.44
256.124	104.44
256.357	94.44
256.59	82.44
256.823	73.44
257.056	67.44
257.289	76.44
257.521	79.44
257.754	85.44
257.987	96.44
258.22	84.44
258.452	74.44
258.685	88.44
258.918	70.44
259.151	84.44
259.383	87.44
259.616	73.44
259.849	73.44
260.081	78.44
260.314	82.44
260.547	86.44
260.779	89.44
261.012	73.44
261.244	78.44
261.477	93.44
261.71	87.44
261.942	122.44
262.175	100.44
262.407	86.44
262.64	88.44
262.872	80.44
263.105	78.44
263.337	85.44
263.57	79.44
263.802	91.44
264.035	88.44
264.267	74.44
264.499	88.44
264.732	86.44
264.964	81.44
265.197	96.44
265.429	75.44
265.661	82.44
265.894	92.44
266.126	92.44
266.358	76.44
266.591	68.44
266.823	80.44
267.055	83.44
267.287	83.44
267.52	74.44
267.752	78.44
267.984	89.44
268.216	92.44
268.448	89.44
268.681	75.44
268.913	91.44
269.145	87.44
269.377	90.44
269.609	91.44
269.841	77.44
270.073	77.44
270.306	78.44
270.538	69.44
270.77	97.44
271.002	96.44
271.234	97.44
271.466	87.44
271.698	94.44
271.93	91.44
272.162	77.44
272.394	74.44
272.626	89.44
272.858	85.44
273.09	66.44
273.322	79.44
273.553	84.44
273.785	98.44
274.017	76.44
274.249	85.44
274.481	100.44
274.713	70.44
274.945	72.44
275.176	97.44
275.408	78.44
275.64	72.44
275.872	94.44
276.104	84.44
276.335	78.44
276.567	90.44
276.799	119.44
277.031	105.44
277.262	106.44
277.494	78.44
277.726	84.44
277.957	89.44
278.189	84.44
278.421	85.44
278.652	82.44
278.884	82.44
279.115	88.44
279.347	80.44
279.579	93.44
279.81	89.44
280.042	92.44
280.273	97.44
280.505	101.44
280.736	92.44
280.968	107.44
281.199	89.44
281.431	100.44
281.662	86.44
281.894	89.44
282.125	96.44
282.356	116.44
282.588	126.44
282.819	114.44
283.051	102.44
283.282	75.44
283.513	106.44
283.745	87.44
283.976	89.44
284.207	99.44
284.439	106.44
284.67	87.44
284.901	78.44
285.132	88.44
285.364	74.44
285.595	84.44
285.826	102.44
286.057	86.44
286.288	83.44
286.52	83.44
286.751	100.44
286.982	85.44
287.213	90.44
287.444	92.44
287.675	96.44
287.906	82.44
288.138	96.44
288.369	80.44
288.6	79.44
288.831	81.44
289.062	75.44
289.293	84.44
289.524	91.44
289.755	81.44
289.986	79.44
290.217	84.44
290.448	92.44
290.679	74.44
290.91	89.44
291.141	97.44
291.371	95.44
291.602	99.44
291.833	81.44
292.064	98.44
292.295	93.44
292.526	75.44
292.757	91.44
292.987	83.44
293.218	80.44
293.449	85.44
293.68	78.44
293.91	86.44
294.141	94.44
294.372	93.44
294.603	84.44
294.833	91.44
295.064	96.44
295.295	91.44
295.525	86.44
295.756	108.44
295.987	115.44
296.217	135.44
296.448	115.44
296.679	83.44
296.909	85.44
297.14	72.44
297.37	96.44
297.601	95.44
297.831	72.44
298.062	85.44
298.292	86.44
298.523	90.44
298.753	76.44
298.984	94.44
299.214	84.44
299.445	91.44
299.675	93.44
299.905	91.44
300.136	83.44
300.366	86.44
300.597	84.44
300.827	81.44
301.057	106.44
301.288	91.44
301.518	88.44
301.748	92.44
301.979	99.44
302.209	87.44
302.439	86.44
302.669	94.44
302.9	92.44
303.13	80.44
303.36	85.44
303.59	98.44
303.82	112.44
304.051	95.44
304.281	104.44
304.511	104.44
304.741	94.44
304.971	94.44
305.201	86.44
305.431	99.44
305.661	83.44
305.891	83.44
306.121	105.44
306.352	98.44
306.582	112.44
306.812	100.44
307.042	82.44
307.272	97.44
307.502	103.44
307.731	101.44
307.961	99.44
308.191	88.44
308.421	86.44
308.651	101.44
308.881	92.44
309.111	87.44
309.341	101.44
309.571	88.44
309.8	90.44
310.03	89.44
310.26	112.44
310.49	92.44
310.72	94.44
310.949	95.44
311.179	86.44
311.409	96.44
311.639	97.44
311.868	105.44
312.098	104.44
312.328	88.44
312.557	94.44
312.787	99.44
313.017	99.44
313.246	105.44
313.476	104.44
313.706	88.44
313.935	90.44
314.165	97.44
314.394	104.44
314.624	107.44
314.853	86.44
315.083	100.44
315.312	87.44
315.542	85.44
315.771	86.44
316.001	90.44
316.23	79.44
316.46	92.44
316.689	82.44
316.919	82.44
317.148	96.44
317.377	97.44
317.607	100.44
317.836	96.44
318.065	100.44
318.295	91.44
318.524	84.44
318.753	96.44
318.983	86.44
319.212	111.44
319.441	105.44
319.67	108.44
319.9	117.44
320.129	94.44
320.358	100.44
320.587	85.44
320.816	117.44
321.046	110.44
321.275	98.44
321.504	91.44
321.733	94.44
321.962	100.44
322.191	99.44
322.42	107.44
322.649	100.44
322.878	112.44
323.108	122.44
323.337	119.44
323.566	128.44
323.795	136.44
324.024	204.44
324.253	371.44
324.482	760.44
324.71	1599.44
324.939	2120.44
325.168	779.44
325.397	233.44
325.626	148.44
325.855	122.44
326.084	114.44
326.313	122.44
326.542	145.44
326.77	220.44
326.999	422.44
327.228	906.44
327.457	1648.44
327.686	1283.44
327.914	356.44
328.143	181.44
328.372	139.44
328.6	137.44
328.829	102.44
329.058	112.44
329.287	116.44
329.515	119.44
329.744	94.44
329.972	103.44
330.201	117.44
330.43	123.44
330.658	111.44
330.887	137.44
331.115	138.44
331.344	91.44
331.572	88.44
331.801	116.44
332.03	99.44
332.258	106.44
332.486	99.44
332.715	97.44
332.943	91.44
333.172	96.44
333.4	100.44
333.629	99.44
333.857	102.44
334.085	111.44
334.314	88.44
334.542	114.44
334.771	106.44
334.999	96.44
335.227	91.44
335.455	102.44
335.684	96.44
335.912	103.44
336.14	90.44
336.369	93.44
336.597	100.44
336.825	100.44
337.053	101.44
337.281	80.44
337.51	103.44
337.738	88.44
337.966	89.44
338.194	86.44
338.422	99.44
338.65	100.44
338.878	98.44
339.106	97.44
339.334	95.44
339.562	85.44
339.79	96.44
340.018	93.44
340.246	94.44
340.474	94.44
340.702	90.44
340.93	102.44
341.158	89.44
341.386	94.44
341.614	87.44
341.842	103.44
342.07	115.44
342.298	90.44
342.526	93.44
342.754	90.44
342.981	92.44
343.209	82.44
343.437	106.44
343.665	79.44
343.893	85.44
344.12	91.44
344.348	103.44
344.576	87.44
344.804	95.44
345.031	101.44
345.259	90.44
345.487	103.44
345.714	103.44
345.942	95.44
346.17	92.44
346.397	106.44
346.625	108.44
346.853	90.44
347.08	95.44
347.308	99.44
347.535	86.44
347.763	101.44
347.99	90.44
348.218	106.44
348.445	100.44
348.673	89.44
348.9	102.44
349.128	96.44
349.355	96.44
349.583	93.44
349.81	82.44
350.037	96.44
350.265	93.44
350.492	96.44
350.72	87.44
350.947	97.44
351.174	114.44
351.402	99.44
351.629	107.44
351.856	103.44
352.083	108.44
352.311	91.44
352.538	105.44
352.765	107.44
352.992	105.44
353.22	102.44
353.447	108.44
353.674	93.44
353.901	102.44
354.128	94.44
354.355	89.44
354.583	108.44
354.81	90.44
355.037	104.44
355.264	79.44
355.491	79.44
355.718	91.44
355.945	99.44
356.172	95.44
356.399	94.44
356.626	94.44
356.853	108.44
357.08	91.44
357.307	96.44
357.534	104.44
357.761	102.44
357.988	97.44
358.215	97.44
358.441	99.44
358.668	96.44
358.895	102.44
359.122	94.44
359.349	95.44
359.576	91.44
359.802	103.44
360.029	106.44
360.256	116.44
360.483	103.44
360.709	84.44
360.936	80.44
361.163	79.44
361.39	63.44
361.616	88.44
361.843	92.44
362.07	103.44
362.296	97.44
362.523	91.44
362.749	85.44
362.976	84.44
363.203	79.44
363.429	73.44
363.656	108.44
363.882	86.44
364.109	103.44
364.335	87.44
364.562	103.44
364.788	94.44
365.015	80.44
365.241	76.44
365.468	115.44
365.694	103.44
365.92	95.44
366.147	84.44
366.373	98.44
366.599	90.44
366.826	91.44
367.052	96.44
367.278	84.44
367.505	85.44
367.731	98.44
367.957	89.44
368.184	88.44
368.41	112.44
368.636	104.44
368.862	106.44
369.089	105.44
369.315	87.44
369.541	90.44
369.767	96.44
369.993	79.44
370.219	79.44
370.445	83.44
370.672	94.44
370.898	85.44
371.124	96.44
371.35	82.44
371.576	83.44
371.802	82.44
372.028	84.44
372.254	88.44
372.48	87.44
372.706	87.44
372.932	82.44
373.158	79.44
373.384	88.44
373.61	104.44
373.835	82.44
374.061	100.44
374.287	76.44
374.513	99.44
374.739	94.44
374.965	90.44
375.191	76.44
375.416	94.44
375.642	88.44
375.868	77.44
376.094	87.44
376.319	103.44
376.545	94.44
376.771	98.44
376.997	100.44
377.222	92.44
377.448	90.44
377.674	73.44
377.899	78.44
378.125	88.44
378.35	98.44
378.576	96.44
378.802	92.44
379.027	105.44
379.253	107.44
379.478	100.44
379.704	87.44
379.929	89.44
380.155	96.44
380.38	92.44
380.606	93.44
380.831	81.44
381.057	97.44
381.282	85.44
381.507	95.44
381.733	109.44
381.958	110.44
382.184	93.44
382.409	96.44
382.634	106.44
382.86	108.44
383.085	103.44
383.31	87.44
383.535	92.44
383.761	95.44
383.986	107.44
384.211	108.44
384.436	87.44
384.662	100.44
384.887	102.44
385.112	95.44
385.337	96.44
385.562	102.44
385.787	110.44
386.013	100.44
386.238	113.44
386.463	104.44
386.688	108.44
386.913	89.44
387.138	89.44
387.363	99.44
387.588	90.44
387.813	90.44
388.038	99.44
388.263	98.44
388.488	106.44
388.713	87.44
388.938	95.44
389.163	107.44
389.387	94.44
389.612	87.44
389.837	96.44
390.062	94.44
390.287	96.44
390.512	89.44
390.736	65.44
390.961	95.44
391.186	94.44
391.411	107.44
391.636	91.44
391.86	87.44
392.085	96.44
392.31	88.44
392.534	86.44
392.759	79.44
392.984	90.44
393.208	93.44
393.433	81.44
393.658	91.44
393.882	96.44
394.107	90.44
394.331	86.44
394.556	84.44
394.78	84.44
395.005	88.44
395.229	76.44
395.454	92.44
395.678	97.44
395.903	103.44
396.127	99.44
396.352	102.44
396.576	91.44
396.801	98.44
397.025	96.44
397.249	96.44
397.474	99.44
397.698	102.44
397.922	88.44
398.147	69.44
398.371	97.44
398.595	95.44
398.82	87.44
399.044	83.44
399.268	83.44
399.492	87.44
399.717	118.44
399.941	94.44
400.165	91.44
400.389	86.44
400.613	100.44
400.837	81.44
401.062	90.44
401.286	91.44
401.51	84.44
401.734	96.44
401.958	108.44
402.182	121.44
402.406	149.44
402.63	104.44
402.854	91.44
403.078	95.44
403.302	72.44
403.526	92.44
403.75	82.44
403.974	95.44
404.198	80.44
404.422	103.44
404.645	92.44
404.869	88.44
405.093	114.44
405.317	104.44
405.541	96.44
405.765	97.44
405.988	118.44
406.212	168.44
406.436	223.44
406.66	133.44
406.883	94.44
407.107	94.44
407.331	96.44
407.555	93.44
407.778	94.44
408.002	98.44
408.226	78.44
408.449	97.44
408.673	94.44
408.896	82.44
409.12	100.44
409.344	97.44
409.567	106.44
409.791	100.44
410.014	88.44
410.238	89.44
410.461	95.44
410.685	94.44
410.908	101.44
411.132	107.44
411.355	88.44
411.578	95.44
411.802	84.44
412.025	94.44
412.249	86.44
412.472	100.44
412.695	94.44
412.919	87.44
413.142	100.44
413.365	88.44
413.589	85.44
413.812	88.44
414.035	96.44
414.258	94.44
414.482	80.44
414.705	89.44
414.928	80.44
415.151	86.44
415.374	90.44
415.597	87.44
415.821	96.44
416.044	90.44
416.267	84.44
416.49	82.44
416.713	87.44
416.936	94.44
417.159	88.44
417.382	82.44
417.605	91.44
417.828	102.44
418.051	98.44
418.274	94.44
418.497	95.44
418.72	90.44
418.943	78.44
419.166	75.44
419.389	97.44
419.611	97.44
419.834	79.44
420.057	94.44
420.28	93.44
420.503	100.44
420.726	89.44
420.948	88.44
421.171	91.44
421.394	105.44
421.617	93.44
421.839	82.44
422.062	94.44
422.285	81.44
422.507	82.44
422.73	101.44
422.953	89.44
423.175	95.44
423.398	91.44
423.621	84.44
423.843	105.44
424.066	104.44
424.288	88.44
424.511	86.44
424.733	91.44
424.956	117.44
425.178	100.44
425.401	98.44
425.623	100.44
425.846	102.44
426.068	94.44
426.291	97.44
426.513	89.44
426.735	98.44
426.958	95.44
427.18	101.44
427.402	138.44
427.625	148.44
427.847	129.44
428.069	110.44
428.292	108.44
428.514	89.44
428.736	80.44
428.958	80.44
429.181	75.44
429.403	83.44
429.625	88.44
429.847	96.44
430.069	102.44
430.292	98.44
430.514	79.44
430.736	88.44
430.958	98.44
431.18	102.44
431.402	92.44
431.624	82.44
431.846	96.44
432.068	91.44
432.29	83.44
432.512	74.44
432.734	99.44
432.956	95.44
433.178	92.44
433.4	81.44
433.622	106.44
433.844	111.44
434.066	88.44
434.287	106.44
434.509	81.44
434.731	89.44
434.953	104.44
435.175	85.44
435.397	84.44
435.618	97.44
435.84	89.44
436.062	106.44
436.284	115.44
436.505	91.44
436.727	105.44
436.949	100.44
437.17	99.44
437.392	79.44
437.614	82.44
437.835	109.44
438.057	122.44
438.278	99.44
438.5	99.44
438.721	116.44
438.943	106.44
439.165	94.44
439.386	86.44
439.608	97.44
439.829	96.44
440.05	100.44
440.272	120.44
440.493	112.44
440.715	90.44
440.936	91.44
441.158	82.44
441.379	82.44
441.6	87.44
441.822	93.44
442.043	96.44
442.264	106.44
442.486	104.44
442.707	90.44
442.928	108.44
443.149	130.44
443.371	123.44
443.592	121.44
443.813	112.44
444.034	96.44
444.255	98.44
444.476	96.44
444.698	105.44
444.919	89.44
445.14	131.44
445.361	126.44
445.582	110.44
445.803	129.44
446.024	119.44
446.245	132.44
446.466	104.44
446.687	88.44
446.908	87.44
447.129	101.44
447.35	92.44
447.571	85.44
447.792	90.44
448.013	97.44
448.234	108.44
448.455	88.44
448.675	124.44
448.896	115.44
449.117	98.44
449.338	100.44
449.559	131.44
449.779	130.44
450	108.44
450.221	97.44
450.442	97.44
450.662	88.44
450.883	102.44
451.104	119.44
451.324	94.44
451.545	100.44
451.766	93.44
451.986	90.44
452.207	92.44
452.428	93.44
452.648	114.44
452.869	114.44
453.089	103.44
453.31	105.44
453.53	103.44
453.751	96.44
453.971	104.44
454.192	99.44
454.412	85.44
454.633	97.44
454.853	82.44
455.073	85.44
455.294	87.44
455.514	92.44
455.734	105.44
455.955	82.44
456.175	71.44
456.395	84.44
456.616	74.44
456.836	89.44
457.056	78.44
457.276	94.44
457.497	63.44
457.717	84.44
457.937	94.44
458.157	97.44
458.377	111.44
458.598	96.44
458.818	130.44
459.038	161.44
459.258	111.44
459.478	83.44
459.698	80.44
459.918	88.44
460.138	85.44
460.358	101.44
460.578	79.44
460.798	87.44
461.018	85.44
461.238	79.44
461.458	79.44
461.678	92.44
461.898	80.44
462.118	93.44
462.338	93.44
462.558	92.44
462.777	90.44
462.997	98.44
463.217	91.44
463.437	78.44
463.657	98.44
463.876	91.44
464.096	83.44
464.316	85.44
464.536	93.44
464.755	95.44
464.975	120.44
465.195	160.44
465.414	146.44
465.634	95.44
465.854	82.44
466.073	113.44
466.293	96.44
466.512	89.44
466.732	92.44
466.951	86.44
467.171	94.44
467.391	96.44
467.61	98.44
467.829	98.44
468.049	90.44
468.268	92.44
468.488	90.44
468.707	100.44
468.927	108.44
469.146	97.44
469.365	84.44
469.585	100.44
469.804	106.44
470.023	107.44
470.243	108.44
470.462	108.44
470.681	117.44
470.901	98.44
471.12	82.44
471.339	80.44
471.558	90.44
471.777	87.44
471.997	103.44
472.216	98.44
472.435	104.44
472.654	90.44
472.873	87.44
473.092	69.44
473.311	86.44
473.53	81.44
473.749	86.44
473.968	100.44
474.187	102.44
474.406	96.44
474.625	89.44
474.844	76.44
475.063	92.44
475.282	102.44
475.501	80.44
475.72	102.44
475.939	83.44
476.158	81.44
476.377	111.44
476.596	86.44
476.814	103.44
477.033	99.44
477.252	84.44
477.471	82.44
477.69	86.44
477.908	87.44
478.127	103.44
478.346	93.44
478.564	92.44
478.783	95.44
479.002	100.44
479.22	96.44
479.439	114.44
479.658	105.44
479.876	97.44
480.095	89.44
480.313	102.44
480.532	92.44
480.751	82.44
480.969	106.44
481.188	138.44
481.406	124.44
481.624	90.44
481.843	102.44
482.061	82.44
482.28	95.44
482.498	81.44
482.717	86.44
482.935	95.44
483.153	82.44
483.372	101.44
483.59	88.44
483.808	88.44
484.027	104.44
484.245	98.44
484.463	87.44
484.681	100.44
484.9	89.44
485.118	122.44
485.336	92.44
485.554	109.44
485.772	99.44
485.99	102.44
486.209	89.44
486.427	88.44
486.645	90.44
486.863	105.44
487.081	113.44
487.299	97.44
487.517	95.44
487.735	103.44
487.953	96.44
488.171	102.44
488.389	101.44
488.607	95.44
488.825	91.44
489.043	94.44
489.261	91.44
489.479	85.44
489.696	96.44
489.914	83.44
490.132	86.44
490.35	94.44
490.568	108.44
490.786	89.44
491.003	86.44
491.221	83.44
491.439	103.44
491.657	118.44
491.874	87.44
492.092	88.44
492.31	95.44
492.527	100.44
492.745	91.44
492.963	103.44
493.18	105.44
493.398	95.44
493.615	114.44
493.833	110.44
494.05	75.44
494.268	76.44
494.485	82.44
494.703	104.44
494.92	79.44
495.138	86.44
495.355	91.44
495.573	92.44
495.79	84.44
496.008	82.44
496.225	94.44
496.442	88.44
496.66	92.44
496.877	105.44
497.094	90.44
497.312	97.44
497.529	98.44
497.746	96.44
497.963	80.44
498.181	95.44
498.398	103.44
498.615	96.44
498.832	96.44
499.049	104.44
499.267	101.44
499.484	110.44
499.701	96.44
499.918	83.44
500.135	88.44
500.352	79.44
500.569	81.44
500.786	94.44
501.003	86.44
501.22	83.44
501.437	100.44
501.654	106.44
501.871	110.44
502.088	113.44
502.305	95.44
502.522	94.44
502.739	86.44
502.956	108.44
503.172	100.44
503.389	91.44
503.606	105.44
503.823	90.44
504.04	95.44
504.256	70.44
504.473	93.44
504.69	93.44
504.907	104.44
505.123	84.44
505.34	97.44
505.557	80.44
505.773	98.44
505.99	99.44
506.207	89.44
506.423	89.44
506.64	87.44
506.856	94.44
507.073	99.44
507.289	108.44
507.506	95.44
507.722	107.44
507.939	111.44
508.155	109.44
508.372	109.44
508.588	111.44
508.805	100.44
509.021	90.44
509.238	87.44
509.454	100.44
509.67	89.44
509.887	100.44
510.103	133.44
510.319	191.44
510.536	709.44
510.752	2194.44
510.968	600.44
511.184	144.44
511.401	115.44
511.617	88.44
511.833	88.44
512.049	87.44
512.265	98.44
512.481	90.44
512.698	87.44
512.914	94.44
513.13	99.44
513.346	108.44
513.562	94.44
513.778	96.44
513.994	94.44
514.21	88.44
514.426	110.44
514.642	122.44
514.858	124.44
515.074	158.44
