Data from Uncirc_1986_H10_HRD10591_00096.txt Node
Date: Wed Jan 03 12:14:45 EST 2024
User: Yrep
Spectrometer: HR+D1059
Trigger mode: 1
Integration Time (sec): 1.000000E-1
Scans to average: 1
Electric dark correction enabled: true
Nonlinearity correction enabled: false
Boxcar width: 0
XAxis mode: Wavelengths
Number of Pixels in Spectrum: 2048
>>>>>Begin Spectral Data<<<<<
223.165	-10.56
223.4	-10.56
223.635	-10.56
223.869	-13.56
224.104	-19.56
224.338	-29.56
224.573	-24.56
224.808	-21.56
225.042	3.44
225.277	-0.56
225.511	0.44
225.746	2.44
225.98	4.44
226.215	17.44
226.449	11.44
226.683	28.44
226.918	15.44
227.152	36.44
227.387	40.44
227.621	47.44
227.856	50.44
228.09	48.44
228.324	46.44
228.559	63.44
228.793	58.44
229.027	55.44
229.262	67.44
229.496	73.44
229.73	101.44
229.964	74.44
230.199	65.44
230.433	71.44
230.667	75.44
230.901	85.44
231.136	78.44
231.37	92.44
231.604	84.44
231.838	72.44
232.072	75.44
232.306	79.44
232.541	84.44
232.775	78.44
233.009	75.44
233.243	92.44
233.477	80.44
233.711	86.44
233.945	92.44
234.179	87.44
234.413	84.44
234.647	94.44
234.881	81.44
235.115	68.44
235.349	83.44
235.583	72.44
235.817	94.44
236.051	84.44
236.285	81.44
236.519	89.44
236.753	85.44
236.987	95.44
237.221	80.44
237.455	88.44
237.689	79.44
237.922	83.44
238.156	74.44
238.39	80.44
238.624	78.44
238.858	73.44
239.091	73.44
239.325	59.44
239.559	69.44
239.793	70.44
240.027	71.44
240.26	84.44
240.494	70.44
240.728	74.44
240.961	73.44
241.195	70.44
241.429	80.44
241.662	59.44
241.896	90.44
242.13	80.44
242.363	86.44
242.597	76.44
242.83	84.44
243.064	82.44
243.298	90.44
243.531	79.44
243.765	102.44
243.998	78.44
244.232	75.44
244.465	78.44
244.699	79.44
244.932	78.44
245.166	82.44
245.399	94.44
245.633	71.44
245.866	68.44
246.099	89.44
246.333	78.44
246.566	78.44
246.8	83.44
247.033	73.44
247.266	60.44
247.5	79.44
247.733	76.44
247.966	78.44
248.2	78.44
248.433	83.44
248.666	83.44
248.899	74.44
249.133	84.44
249.366	101.44
249.599	114.44
249.832	74.44
250.066	75.44
250.299	78.44
250.532	73.44
250.765	67.44
250.998	73.44
251.231	84.44
251.465	81.44
251.698	68.44
251.931	94.44
252.164	89.44
252.397	86.44
252.63	85.44
252.863	74.44
253.096	73.44
253.329	100.44
253.562	65.44
253.795	90.44
254.028	86.44
254.261	87.44
254.494	92.44
254.727	73.44
254.96	84.44
255.193	84.44
255.426	73.44
255.659	84.44
255.892	74.44
256.124	82.44
256.357	87.44
256.59	103.44
256.823	80.44
257.056	95.44
257.289	82.44
257.521	83.44
257.754	87.44
257.987	70.44
258.22	70.44
258.452	72.44
258.685	94.44
258.918	90.44
259.151	80.44
259.383	84.44
259.616	87.44
259.849	82.44
260.081	74.44
260.314	86.44
260.547	90.44
260.779	90.44
261.012	89.44
261.244	85.44
261.477	99.44
261.71	94.44
261.942	117.44
262.175	122.44
262.407	92.44
262.64	80.44
262.872	86.44
263.105	83.44
263.337	82.44
263.57	77.44
263.802	82.44
264.035	95.44
264.267	68.44
264.499	74.44
264.732	81.44
264.964	94.44
265.197	82.44
265.429	84.44
265.661	68.44
265.894	85.44
266.126	87.44
266.358	89.44
266.591	79.44
266.823	74.44
267.055	97.44
267.287	108.44
267.52	104.44
267.752	79.44
267.984	75.44
268.216	98.44
268.448	87.44
268.681	82.44
268.913	85.44
269.145	82.44
269.377	83.44
269.609	94.44
269.841	99.44
270.073	84.44
270.306	76.44
270.538	87.44
270.77	90.44
271.002	89.44
271.234	92.44
271.466	80.44
271.698	79.44
271.93	91.44
272.162	85.44
272.394	98.44
272.626	104.44
272.858	92.44
273.09	91.44
273.322	72.44
273.553	90.44
273.785	95.44
274.017	89.44
274.249	98.44
274.481	89.44
274.713	82.44
274.945	79.44
275.176	85.44
275.408	103.44
275.64	86.44
275.872	89.44
276.104	70.44
276.335	92.44
276.567	109.44
276.799	110.44
277.031	98.44
277.262	84.44
277.494	79.44
277.726	90.44
277.957	92.44
278.189	85.44
278.421	90.44
278.652	79.44
278.884	90.44
279.115	97.44
279.347	72.44
279.579	80.44
279.81	88.44
280.042	95.44
280.273	80.44
280.505	88.44
280.736	86.44
280.968	82.44
281.199	78.44
281.431	72.44
281.662	86.44
281.894	92.44
282.125	101.44
282.356	105.44
282.588	123.44
282.819	106.44
283.051	90.44
283.282	67.44
283.513	83.44
283.745	80.44
283.976	72.44
284.207	88.44
284.439	97.44
284.67	81.44
284.901	92.44
285.132	80.44
285.364	82.44
285.595	95.44
285.826	90.44
286.057	89.44
286.288	83.44
286.52	90.44
286.751	81.44
286.982	101.44
287.213	76.44
287.444	82.44
287.675	101.44
287.906	80.44
288.138	86.44
288.369	86.44
288.6	86.44
288.831	83.44
289.062	89.44
289.293	100.44
289.524	81.44
289.755	88.44
289.986	78.44
290.217	82.44
290.448	92.44
290.679	91.44
290.91	89.44
291.141	89.44
291.371	104.44
291.602	95.44
291.833	76.44
292.064	96.44
292.295	95.44
292.526	96.44
292.757	94.44
292.987	85.44
293.218	86.44
293.449	83.44
293.68	92.44
293.91	98.44
294.141	89.44
294.372	88.44
294.603	80.44
294.833	96.44
295.064	94.44
295.295	88.44
295.525	109.44
295.756	95.44
295.987	118.44
296.217	121.44
296.448	117.44
296.679	100.44
296.909	101.44
297.14	94.44
297.37	104.44
297.601	94.44
297.831	95.44
298.062	86.44
298.292	102.44
298.523	93.44
298.753	91.44
298.984	88.44
299.214	88.44
299.445	86.44
299.675	97.44
299.905	91.44
300.136	92.44
300.366	91.44
300.597	74.44
300.827	108.44
301.057	100.44
301.288	97.44
301.518	92.44
301.748	97.44
301.979	98.44
302.209	89.44
302.439	82.44
302.669	87.44
302.9	75.44
303.13	103.44
303.36	100.44
303.59	95.44
303.82	94.44
304.051	97.44
304.281	106.44
304.511	90.44
304.741	91.44
304.971	97.44
305.201	86.44
305.431	80.44
305.661	92.44
305.891	86.44
306.121	106.44
306.352	113.44
306.582	96.44
306.812	97.44
307.042	94.44
307.272	105.44
307.502	98.44
307.731	95.44
307.961	96.44
308.191	83.44
308.421	81.44
308.651	91.44
308.881	91.44
309.111	106.44
309.341	94.44
309.571	96.44
309.8	91.44
310.03	91.44
310.26	91.44
310.49	92.44
310.72	105.44
310.949	109.44
311.179	98.44
311.409	92.44
311.639	94.44
311.868	98.44
312.098	91.44
312.328	92.44
312.557	102.44
312.787	101.44
313.017	90.44
313.246	88.44
313.476	104.44
313.706	94.44
313.935	96.44
314.165	97.44
314.394	104.44
314.624	101.44
314.853	106.44
315.083	83.44
315.312	95.44
315.542	94.44
315.771	90.44
316.001	95.44
316.23	101.44
316.46	86.44
316.689	90.44
316.919	92.44
317.148	103.44
317.377	92.44
317.607	107.44
317.836	96.44
318.065	71.44
318.295	72.44
318.524	83.44
318.753	107.44
318.983	90.44
319.212	101.44
319.441	99.44
319.67	94.44
319.9	82.44
320.129	90.44
320.358	96.44
320.587	105.44
320.816	94.44
321.046	89.44
321.275	94.44
321.504	87.44
321.733	86.44
321.962	102.44
322.191	89.44
322.42	90.44
322.649	111.44
322.878	107.44
323.108	123.44
323.337	114.44
323.566	112.44
323.795	142.44
324.024	215.44
324.253	356.44
324.482	770.44
324.71	1605.44
324.939	2118.44
325.168	747.44
325.397	239.44
325.626	133.44
325.855	130.44
326.084	129.44
326.313	148.44
326.542	149.44
326.77	216.44
326.999	421.44
327.228	899.44
327.457	1602.44
327.686	1298.44
327.914	367.44
328.143	186.44
328.372	135.44
328.6	134.44
328.829	119.44
329.058	114.44
329.287	128.44
329.515	99.44
329.744	96.44
329.972	100.44
330.201	94.44
330.43	123.44
330.658	116.44
330.887	148.44
331.115	112.44
331.344	104.44
331.572	109.44
331.801	85.44
332.03	101.44
332.258	108.44
332.486	99.44
332.715	98.44
332.943	101.44
333.172	98.44
333.4	92.44
333.629	117.44
333.857	108.44
334.085	114.44
334.314	102.44
334.542	122.44
334.771	110.44
334.999	89.44
335.227	106.44
335.455	97.44
335.684	104.44
335.912	86.44
336.14	90.44
336.369	81.44
336.597	94.44
336.825	110.44
337.053	97.44
337.281	103.44
337.51	91.44
337.738	95.44
337.966	87.44
338.194	86.44
338.422	90.44
338.65	82.44
338.878	86.44
339.106	98.44
339.334	86.44
339.562	86.44
339.79	100.44
340.018	108.44
340.246	87.44
340.474	96.44
340.702	80.44
340.93	80.44
341.158	89.44
341.386	90.44
341.614	104.44
341.842	98.44
342.07	95.44
342.298	81.44
342.526	93.44
342.754	94.44
342.981	84.44
343.209	84.44
343.437	91.44
343.665	112.44
343.893	109.44
344.12	100.44
344.348	92.44
344.576	82.44
344.804	84.44
345.031	87.44
345.259	98.44
345.487	90.44
345.714	95.44
345.942	86.44
346.17	85.44
346.397	105.44
346.625	91.44
346.853	94.44
347.08	99.44
347.308	100.44
347.535	95.44
347.763	101.44
347.99	102.44
348.218	91.44
348.445	95.44
348.673	106.44
348.9	100.44
349.128	96.44
349.355	83.44
349.583	108.44
349.81	107.44
350.037	93.44
350.265	114.44
350.492	89.44
350.72	96.44
350.947	89.44
351.174	114.44
351.402	97.44
351.629	116.44
351.856	89.44
352.083	90.44
352.311	92.44
352.538	99.44
352.765	121.44
352.992	126.44
353.22	106.44
353.447	104.44
353.674	98.44
353.901	97.44
354.128	90.44
354.355	106.44
354.583	92.44
354.81	98.44
355.037	83.44
355.264	92.44
355.491	91.44
355.718	99.44
355.945	90.44
356.172	88.44
356.399	99.44
356.626	102.44
356.853	82.44
357.08	98.44
357.307	87.44
357.534	96.44
357.761	94.44
357.988	91.44
358.215	94.44
358.441	90.44
358.668	84.44
358.895	90.44
359.122	97.44
359.349	72.44
359.576	100.44
359.802	101.44
360.029	102.44
360.256	99.44
360.483	88.44
360.709	83.44
360.936	93.44
361.163	106.44
361.39	82.44
361.616	87.44
361.843	92.44
362.07	94.44
362.296	79.44
362.523	92.44
362.749	115.44
362.976	86.44
363.203	105.44
363.429	84.44
363.656	95.44
363.882	79.44
364.109	82.44
364.335	82.44
364.562	90.44
364.788	95.44
365.015	89.44
365.241	96.44
365.468	107.44
365.694	117.44
365.92	100.44
366.147	90.44
366.373	67.44
366.599	84.44
366.826	84.44
367.052	87.44
367.278	86.44
367.505	98.44
367.731	96.44
367.957	105.44
368.184	88.44
368.41	110.44
368.636	118.44
368.862	113.44
369.089	99.44
369.315	107.44
369.541	92.44
369.767	97.44
369.993	98.44
370.219	97.44
370.445	71.44
370.672	95.44
370.898	90.44
371.124	81.44
371.35	89.44
371.576	87.44
371.802	93.44
372.028	89.44
372.254	95.44
372.48	90.44
372.706	83.44
372.932	82.44
373.158	98.44
373.384	83.44
373.61	96.44
373.835	94.44
374.061	93.44
374.287	98.44
374.513	90.44
374.739	71.44
374.965	89.44
375.191	91.44
375.416	89.44
375.642	93.44
375.868	98.44
376.094	93.44
376.319	81.44
376.545	94.44
376.771	79.44
376.997	98.44
377.222	74.44
377.448	85.44
377.674	98.44
377.899	98.44
378.125	90.44
378.35	96.44
378.576	108.44
378.802	78.44
379.027	88.44
379.253	99.44
379.478	86.44
379.704	88.44
379.929	82.44
380.155	86.44
380.38	101.44
380.606	105.44
380.831	79.44
381.057	92.44
381.282	105.44
381.507	97.44
381.733	86.44
381.958	95.44
382.184	98.44
382.409	91.44
382.634	92.44
382.86	80.44
383.085	97.44
383.31	97.44
383.535	90.44
383.761	107.44
383.986	101.44
384.211	90.44
384.436	91.44
384.662	105.44
384.887	88.44
385.112	97.44
385.337	96.44
385.562	88.44
385.787	96.44
386.013	109.44
386.238	92.44
386.463	93.44
386.688	102.44
386.913	91.44
387.138	92.44
387.363	92.44
387.588	114.44
387.813	90.44
388.038	100.44
388.263	99.44
388.488	98.44
388.713	85.44
388.938	84.44
389.163	98.44
389.387	88.44
389.612	87.44
389.837	102.44
390.062	93.44
390.287	91.44
390.512	90.44
390.736	88.44
390.961	77.44
391.186	107.44
391.411	90.44
391.636	93.44
391.86	84.44
392.085	86.44
392.31	89.44
392.534	92.44
392.759	80.44
392.984	92.44
393.208	83.44
393.433	95.44
393.658	87.44
393.882	98.44
394.107	89.44
394.331	82.44
394.556	88.44
394.78	86.44
395.005	88.44
395.229	86.44
395.454	98.44
395.678	92.44
395.903	94.44
396.127	90.44
396.352	76.44
396.576	97.44
396.801	82.44
397.025	89.44
397.249	85.44
397.474	80.44
397.698	91.44
397.922	92.44
398.147	89.44
398.371	96.44
398.595	88.44
398.82	81.44
399.044	100.44
399.268	82.44
399.492	93.44
399.717	74.44
399.941	83.44
400.165	80.44
400.389	91.44
400.613	113.44
400.837	84.44
401.062	83.44
401.286	76.44
401.51	105.44
401.734	103.44
401.958	93.44
402.182	113.44
402.406	143.44
402.63	111.44
402.854	74.44
403.078	91.44
403.302	89.44
403.526	88.44
403.75	86.44
403.974	103.44
404.198	102.44
404.422	96.44
404.645	96.44
404.869	87.44
405.093	94.44
405.317	86.44
405.541	103.44
405.765	109.44
405.988	112.44
406.212	161.44
406.436	214.44
406.66	145.44
406.883	96.44
407.107	89.44
407.331	88.44
407.555	94.44
407.778	93.44
408.002	95.44
408.226	88.44
408.449	88.44
408.673	82.44
408.896	93.44
409.12	98.44
409.344	97.44
409.567	89.44
409.791	93.44
410.014	99.44
410.238	97.44
410.461	97.44
410.685	74.44
410.908	87.44
411.132	82.44
411.355	99.44
411.578	93.44
411.802	83.44
412.025	82.44
412.249	85.44
412.472	97.44
412.695	111.44
412.919	85.44
413.142	84.44
413.365	84.44
413.589	88.44
413.812	98.44
414.035	94.44
414.258	88.44
414.482	87.44
414.705	84.44
414.928	83.44
415.151	91.44
415.374	83.44
415.597	96.44
415.821	85.44
416.044	85.44
416.267	88.44
416.49	72.44
416.713	96.44
416.936	86.44
417.159	82.44
417.382	80.44
417.605	88.44
417.828	93.44
418.051	84.44
418.274	84.44
418.497	83.44
418.72	97.44
418.943	92.44
419.166	95.44
419.389	87.44
419.611	79.44
419.834	80.44
420.057	86.44
420.28	91.44
420.503	82.44
420.726	89.44
420.948	90.44
421.171	78.44
421.394	84.44
421.617	83.44
421.839	97.44
422.062	93.44
422.285	96.44
422.507	115.44
422.73	104.44
422.953	102.44
423.175	98.44
423.398	93.44
423.621	98.44
423.843	81.44
424.066	68.44
424.288	80.44
424.511	95.44
424.733	95.44
424.956	112.44
425.178	102.44
425.401	94.44
425.623	86.44
425.846	95.44
426.068	85.44
426.291	91.44
426.513	92.44
426.735	94.44
426.958	97.44
427.18	103.44
427.402	129.44
427.625	172.44
427.847	130.44
428.069	91.44
428.292	81.44
428.514	86.44
428.736	95.44
428.958	99.44
429.181	79.44
429.403	82.44
429.625	83.44
429.847	86.44
430.069	98.44
430.292	75.44
430.514	87.44
430.736	80.44
430.958	80.44
431.18	81.44
431.402	78.44
431.624	89.44
431.846	69.44
432.068	75.44
432.29	73.44
432.512	87.44
432.734	92.44
432.956	81.44
433.178	99.44
433.4	91.44
433.622	94.44
433.844	105.44
434.066	86.44
434.287	76.44
434.509	90.44
434.731	82.44
434.953	88.44
435.175	97.44
435.397	84.44
435.618	97.44
435.84	101.44
436.062	121.44
436.284	112.44
436.505	98.44
436.727	111.44
436.949	89.44
437.17	91.44
437.392	84.44
437.614	93.44
437.835	106.44
438.057	110.44
438.278	91.44
438.5	91.44
438.721	117.44
438.943	105.44
439.165	93.44
439.386	74.44
439.608	87.44
439.829	94.44
440.05	120.44
440.272	129.44
440.493	101.44
440.715	86.44
440.936	96.44
441.158	84.44
441.379	84.44
441.6	99.44
441.822	86.44
442.043	100.44
442.264	108.44
442.486	105.44
442.707	90.44
442.928	102.44
443.149	112.44
443.371	111.44
443.592	104.44
443.813	114.44
444.034	102.44
444.255	123.44
444.476	86.44
444.698	89.44
444.919	90.44
445.14	133.44
445.361	135.44
445.582	97.44
445.803	129.44
446.024	116.44
446.245	115.44
446.466	81.44
446.687	74.44
446.908	88.44
447.129	80.44
447.35	92.44
447.571	78.44
447.792	95.44
448.013	105.44
448.234	95.44
448.455	96.44
448.675	110.44
448.896	115.44
449.117	98.44
449.338	74.44
449.559	118.44
449.779	129.44
450	97.44
450.221	75.44
450.442	95.44
450.662	88.44
450.883	101.44
451.104	108.44
451.324	82.44
451.545	87.44
451.766	86.44
451.986	83.44
452.207	92.44
452.428	100.44
452.648	103.44
452.869	103.44
453.089	102.44
453.31	101.44
453.53	100.44
453.751	89.44
453.971	114.44
454.192	107.44
454.412	92.44
454.633	91.44
454.853	80.44
455.073	83.44
455.294	82.44
455.514	103.44
455.734	99.44
455.955	86.44
456.175	95.44
456.395	89.44
456.616	97.44
456.836	100.44
457.056	83.44
457.276	80.44
457.497	90.44
457.717	93.44
457.937	89.44
458.157	86.44
458.377	82.44
458.598	92.44
458.818	139.44
459.038	156.44
459.258	96.44
459.478	92.44
459.698	93.44
459.918	70.44
460.138	89.44
460.358	83.44
460.578	82.44
460.798	98.44
461.018	93.44
461.238	75.44
461.458	78.44
461.678	95.44
461.898	86.44
462.118	84.44
462.338	84.44
462.558	88.44
462.777	80.44
462.997	87.44
463.217	94.44
463.437	90.44
463.657	90.44
463.876	90.44
464.096	102.44
464.316	75.44
464.536	82.44
464.755	88.44
464.975	98.44
465.195	160.44
465.414	145.44
465.634	115.44
465.854	91.44
466.073	95.44
466.293	98.44
466.512	89.44
466.732	67.44
466.951	78.44
467.171	94.44
467.391	100.44
467.61	98.44
467.829	95.44
468.049	79.44
468.268	95.44
468.488	91.44
468.707	82.44
468.927	90.44
469.146	88.44
469.365	86.44
469.585	81.44
469.804	94.44
470.023	96.44
470.243	88.44
470.462	97.44
470.681	98.44
470.901	102.44
471.12	90.44
471.339	83.44
471.558	83.44
471.777	95.44
471.997	90.44
472.216	97.44
472.435	106.44
472.654	85.44
472.873	76.44
473.092	88.44
473.311	72.44
473.53	89.44
473.749	88.44
473.968	90.44
474.187	110.44
474.406	94.44
474.625	94.44
474.844	95.44
475.063	100.44
475.282	77.44
475.501	94.44
475.72	85.44
475.939	82.44
476.158	96.44
476.377	86.44
476.596	98.44
476.814	96.44
477.033	100.44
477.252	98.44
477.471	88.44
477.69	107.44
477.908	86.44
478.127	102.44
478.346	78.44
478.564	90.44
478.783	87.44
479.002	90.44
479.22	90.44
479.439	97.44
479.658	119.44
479.876	92.44
480.095	96.44
480.313	96.44
480.532	85.44
480.751	82.44
480.969	94.44
481.188	143.44
481.406	120.44
481.624	84.44
481.843	94.44
482.061	80.44
482.28	87.44
482.498	97.44
482.717	92.44
482.935	107.44
483.153	85.44
483.372	97.44
483.59	76.44
483.808	80.44
484.027	88.44
484.245	91.44
484.463	82.44
484.681	99.44
484.9	91.44
485.118	91.44
485.336	102.44
485.554	103.44
485.772	95.44
485.99	112.44
486.209	99.44
486.427	103.44
486.645	113.44
486.863	94.44
487.081	106.44
487.299	106.44
487.517	92.44
487.735	86.44
487.953	94.44
488.171	92.44
488.389	102.44
488.607	106.44
488.825	98.44
489.043	96.44
489.261	91.44
489.479	96.44
489.696	96.44
489.914	92.44
490.132	91.44
490.35	94.44
490.568	97.44
490.786	81.44
491.003	98.44
491.221	101.44
491.439	93.44
491.657	84.44
491.874	84.44
492.092	90.44
492.31	84.44
492.527	90.44
492.745	91.44
492.963	82.44
493.18	91.44
493.398	89.44
493.615	98.44
493.833	89.44
494.05	101.44
494.268	93.44
494.485	91.44
494.703	93.44
494.92	80.44
495.138	88.44
495.355	95.44
495.573	84.44
495.79	87.44
496.008	90.44
496.225	99.44
496.442	85.44
496.66	87.44
496.877	87.44
497.094	89.44
497.312	90.44
497.529	88.44
497.746	94.44
497.963	92.44
498.181	82.44
498.398	92.44
498.615	121.44
498.832	97.44
499.049	88.44
499.267	110.44
499.484	89.44
499.701	88.44
499.918	77.44
500.135	78.44
500.352	95.44
500.569	85.44
500.786	97.44
501.003	94.44
501.22	90.44
501.437	80.44
501.654	91.44
501.871	110.44
502.088	88.44
502.305	90.44
502.522	90.44
502.739	89.44
502.956	81.44
503.172	93.44
503.389	83.44
503.606	103.44
503.823	94.44
504.04	84.44
504.256	86.44
504.473	91.44
504.69	103.44
504.907	98.44
505.123	98.44
505.34	94.44
505.557	91.44
505.773	98.44
505.99	93.44
506.207	104.44
506.423	89.44
506.64	92.44
506.856	95.44
507.073	90.44
507.289	103.44
507.506	97.44
507.722	95.44
507.939	92.44
508.155	97.44
508.372	103.44
508.588	83.44
508.805	92.44
509.021	78.44
509.238	98.44
509.454	113.44
509.67	110.44
509.887	114.44
510.103	131.44
510.319	207.44
510.536	711.44
510.752	2222.44
510.968	630.44
511.184	151.44
511.401	111.44
511.617	100.44
511.833	90.44
512.049	92.44
512.265	91.44
512.481	89.44
512.698	95.44
512.914	82.44
513.13	104.44
513.346	83.44
513.562	91.44
513.778	99.44
513.994	92.44
514.21	108.44
514.426	112.44
514.642	127.44
514.858	121.44
515.074	158.44
515.29	425.44
515.506	1338.44
515.721	498.44
515.937	146.44
516.153	111.44
