Data from Mixnoheat4_HRD10591_00019.txt Node
Date: Fri Dec 27 15:04:31 EST 2024
User: Yrep
Spectrometer: HR+D1059
Trigger mode: 1
Integration Time (sec): 1.000000E-1
Scans to average: 1
Electric dark correction enabled: true
Nonlinearity correction enabled: false
Boxcar width: 0
XAxis mode: Wavelengths
Number of Pixels in Spectrum: 2048
>>>>>Begin Spectral Data<<<<<
223.165	-12.12
223.4	-12.12
223.635	-12.12
223.869	-24.12
224.104	-12.12
224.338	-31.12
224.573	-8.12
224.808	-13.12
225.042	-1.12
225.277	-16.12
225.511	-4.12
225.746	2.88
225.98	-1.12
226.215	4.88
226.449	25.88
226.683	26.88
226.918	34.88
227.152	27.88
227.387	28.88
227.621	41.88
227.856	36.88
228.09	44.88
228.324	47.88
228.559	56.88
228.793	43.88
229.027	64.88
229.262	55.88
229.496	71.88
229.73	59.88
229.964	61.88
230.199	78.88
230.433	51.88
230.667	59.88
230.901	83.88
231.136	76.88
231.37	75.88
231.604	76.88
231.838	70.88
232.072	76.88
232.306	68.88
232.541	79.88
232.775	80.88
233.009	66.88
233.243	82.88
233.477	64.88
233.711	82.88
233.945	75.88
234.179	75.88
234.413	75.88
234.647	83.88
234.881	82.88
235.115	78.88
235.349	70.88
235.583	71.88
235.817	70.88
236.051	67.88
236.285	79.88
236.519	70.88
236.753	70.88
236.987	76.88
237.221	77.88
237.455	64.88
237.689	64.88
237.922	65.88
238.156	76.88
238.39	71.88
238.624	68.88
238.858	72.88
239.091	69.88
239.325	59.88
239.559	71.88
239.793	67.88
240.027	74.88
240.26	79.88
240.494	71.88
240.728	55.88
240.961	66.88
241.195	78.88
241.429	86.88
241.662	74.88
241.896	78.88
242.13	67.88
242.363	68.88
242.597	60.88
242.83	80.88
243.064	71.88
243.298	74.88
243.531	70.88
243.765	79.88
243.998	72.88
244.232	67.88
244.465	83.88
244.699	78.88
244.932	77.88
245.166	70.88
245.399	70.88
245.633	69.88
245.866	65.88
246.099	72.88
246.333	75.88
246.566	78.88
246.8	67.88
247.033	68.88
247.266	66.88
247.5	67.88
247.733	86.88
247.966	66.88
248.2	58.88
248.433	71.88
248.666	66.88
248.899	60.88
249.133	72.88
249.366	84.88
249.599	85.88
249.832	86.88
250.066	85.88
250.299	69.88
250.532	70.88
250.765	77.88
250.998	72.88
251.231	66.88
251.465	72.88
251.698	67.88
251.931	83.88
252.164	82.88
252.397	68.88
252.63	68.88
252.863	65.88
253.096	71.88
253.329	77.88
253.562	74.88
253.795	69.88
254.028	89.88
254.261	66.88
254.494	69.88
254.727	70.88
254.96	87.88
255.193	69.88
255.426	83.88
255.659	76.88
255.892	77.88
256.124	82.88
256.357	83.88
256.59	79.88
256.823	77.88
257.056	69.88
257.289	82.88
257.521	77.88
257.754	91.88
257.987	87.88
258.22	74.88
258.452	77.88
258.685	74.88
258.918	71.88
259.151	72.88
259.383	80.88
259.616	68.88
259.849	75.88
260.081	88.88
260.314	70.88
260.547	86.88
260.779	79.88
261.012	68.88
261.244	79.88
261.477	84.88
261.71	67.88
261.942	74.88
262.175	89.88
262.407	63.88
262.64	74.88
262.872	89.88
263.105	83.88
263.337	74.88
263.57	84.88
263.802	79.88
264.035	78.88
264.267	80.88
264.499	80.88
264.732	70.88
264.964	71.88
265.197	76.88
265.429	83.88
265.661	81.88
265.894	83.88
266.126	60.88
266.358	81.88
266.591	71.88
266.823	72.88
267.055	79.88
267.287	74.88
267.52	76.88
267.752	76.88
267.984	84.88
268.216	79.88
268.448	71.88
268.681	81.88
268.913	88.88
269.145	84.88
269.377	74.88
269.609	72.88
269.841	93.88
270.073	76.88
270.306	87.88
270.538	74.88
270.77	63.88
271.002	81.88
271.234	84.88
271.466	74.88
271.698	96.88
271.93	61.88
272.162	77.88
272.394	80.88
272.626	73.88
272.858	80.88
273.09	80.88
273.322	75.88
273.553	75.88
273.785	85.88
274.017	76.88
274.249	64.88
274.481	65.88
274.713	66.88
274.945	72.88
275.176	73.88
275.408	90.88
275.64	76.88
275.872	83.88
276.104	71.88
276.335	79.88
276.567	85.88
276.799	72.88
277.031	88.88
277.262	77.88
277.494	82.88
277.726	93.88
277.957	80.88
278.189	73.88
278.421	76.88
278.652	84.88
278.884	66.88
279.115	73.88
279.347	83.88
279.579	75.88
279.81	70.88
280.042	76.88
280.273	66.88
280.505	81.88
280.736	79.88
280.968	84.88
281.199	80.88
281.431	81.88
281.662	85.88
281.894	86.88
282.125	92.88
282.356	73.88
282.588	85.88
282.819	84.88
283.051	79.88
283.282	102.88
283.513	97.88
283.745	81.88
283.976	90.88
284.207	83.88
284.439	87.88
284.67	85.88
284.901	73.88
285.132	71.88
285.364	91.88
285.595	97.88
285.826	77.88
286.057	82.88
286.288	82.88
286.52	87.88
286.751	84.88
286.982	79.88
287.213	72.88
287.444	80.88
287.675	92.88
287.906	83.88
288.138	78.88
288.369	72.88
288.6	78.88
288.831	85.88
289.062	80.88
289.293	92.88
289.524	64.88
289.755	84.88
289.986	83.88
290.217	74.88
290.448	82.88
290.679	84.88
290.91	92.88
291.141	90.88
291.371	75.88
291.602	76.88
291.833	79.88
292.064	78.88
292.295	82.88
292.526	88.88
292.757	83.88
292.987	72.88
293.218	74.88
293.449	75.88
293.68	80.88
293.91	76.88
294.141	75.88
294.372	70.88
294.603	85.88
294.833	77.88
295.064	77.88
295.295	85.88
295.525	85.88
295.756	68.88
295.987	82.88
296.217	50.88
296.448	75.88
296.679	79.88
296.909	79.88
297.14	78.88
297.37	76.88
297.601	84.88
297.831	87.88
298.062	72.88
298.292	78.88
298.523	76.88
298.753	74.88
298.984	75.88
299.214	90.88
299.445	97.88
299.675	69.88
299.905	73.88
300.136	81.88
300.366	77.88
300.597	79.88
300.827	72.88
301.057	94.88
301.288	84.88
301.518	81.88
301.748	87.88
301.979	100.88
302.209	81.88
302.439	75.88
302.669	79.88
302.9	80.88
303.13	88.88
303.36	75.88
303.59	79.88
303.82	87.88
304.051	81.88
304.281	80.88
304.511	86.88
304.741	83.88
304.971	75.88
305.201	84.88
305.431	85.88
305.661	78.88
305.891	76.88
306.121	88.88
306.352	76.88
306.582	73.88
306.812	88.88
307.042	61.88
307.272	64.88
307.502	68.88
307.731	67.88
307.961	82.88
308.191	83.88
308.421	92.88
308.651	82.88
308.881	86.88
309.111	93.88
309.341	82.88
309.571	77.88
309.8	69.88
310.03	76.88
310.26	82.88
310.49	81.88
310.72	83.88
310.949	77.88
311.179	96.88
311.409	82.88
311.639	76.88
311.868	84.88
312.098	87.88
312.328	75.88
312.557	88.88
312.787	77.88
313.017	91.88
313.246	89.88
313.476	75.88
313.706	85.88
313.935	75.88
314.165	64.88
314.394	74.88
314.624	76.88
314.853	77.88
315.083	88.88
315.312	86.88
315.542	83.88
315.771	76.88
316.001	98.88
316.23	77.88
316.46	73.88
316.689	83.88
316.919	67.88
317.148	85.88
317.377	92.88
317.607	81.88
317.836	82.88
318.065	76.88
318.295	82.88
318.524	82.88
318.753	79.88
318.983	82.88
319.212	79.88
319.441	80.88
319.67	79.88
319.9	89.88
320.129	75.88
320.358	75.88
320.587	77.88
320.816	88.88
321.046	72.88
321.275	101.88
321.504	75.88
321.733	71.88
321.962	77.88
322.191	93.88
322.42	88.88
322.649	72.88
322.878	72.88
323.108	76.88
323.337	83.88
323.566	83.88
323.795	76.88
324.024	78.88
324.253	81.88
324.482	76.88
324.71	69.88
324.939	84.88
325.168	81.88
325.397	89.88
325.626	83.88
325.855	87.88
326.084	89.88
326.313	80.88
326.542	80.88
326.77	90.88
326.999	70.88
327.228	69.88
327.457	72.88
327.686	71.88
327.914	81.88
328.143	76.88
328.372	78.88
328.6	81.88
328.829	91.88
329.058	81.88
329.287	87.88
329.515	73.88
329.744	73.88
329.972	81.88
330.201	86.88
330.43	71.88
330.658	75.88
330.887	71.88
331.115	71.88
331.344	68.88
331.572	84.88
331.801	79.88
332.03	79.88
332.258	74.88
332.486	81.88
332.715	84.88
332.943	96.88
333.172	84.88
333.4	79.88
333.629	79.88
333.857	74.88
334.085	84.88
334.314	82.88
334.542	88.88
334.771	75.88
334.999	76.88
335.227	72.88
335.455	85.88
335.684	68.88
335.912	92.88
336.14	75.88
336.369	74.88
336.597	77.88
336.825	81.88
337.053	81.88
337.281	80.88
337.51	92.88
337.738	68.88
337.966	67.88
338.194	81.88
338.422	84.88
338.65	91.88
338.878	79.88
339.106	72.88
339.334	75.88
339.562	79.88
339.79	86.88
340.018	75.88
340.246	76.88
340.474	88.88
340.702	81.88
340.93	85.88
341.158	77.88
341.386	81.88
341.614	75.88
341.842	72.88
342.07	95.88
342.298	90.88
342.526	91.88
342.754	91.88
342.981	87.88
343.209	78.88
343.437	90.88
343.665	80.88
343.893	81.88
344.12	87.88
344.348	68.88
344.576	86.88
344.804	79.88
345.031	76.88
345.259	74.88
345.487	90.88
345.714	84.88
345.942	74.88
346.17	85.88
346.397	76.88
346.625	79.88
346.853	79.88
347.08	80.88
347.308	93.88
347.535	81.88
347.763	84.88
347.99	88.88
348.218	74.88
348.445	78.88
348.673	91.88
348.9	75.88
349.128	77.88
349.355	83.88
349.583	68.88
349.81	85.88
350.037	89.88
350.265	75.88
350.492	79.88
350.72	69.88
350.947	77.88
351.174	88.88
351.402	78.88
351.629	78.88
351.856	91.88
352.083	87.88
352.311	77.88
352.538	81.88
352.765	84.88
352.992	84.88
353.22	76.88
353.447	78.88
353.674	75.88
353.901	76.88
354.128	77.88
354.355	90.88
354.583	86.88
354.81	81.88
355.037	87.88
355.264	87.88
355.491	78.88
355.718	86.88
355.945	87.88
356.172	71.88
356.399	72.88
356.626	85.88
356.853	71.88
357.08	65.88
357.307	85.88
357.534	73.88
357.761	73.88
357.988	82.88
358.215	101.88
358.441	83.88
358.668	80.88
358.895	73.88
359.122	87.88
359.349	79.88
359.576	73.88
359.802	82.88
360.029	75.88
360.256	67.88
360.483	65.88
360.709	83.88
360.936	88.88
361.163	73.88
361.39	91.88
361.616	73.88
361.843	74.88
362.07	79.88
362.296	86.88
362.523	76.88
362.749	86.88
362.976	91.88
363.203	89.88
363.429	74.88
363.656	89.88
363.882	75.88
364.109	83.88
364.335	93.88
364.562	85.88
364.788	84.88
365.015	73.88
365.241	80.88
365.468	77.88
365.694	72.88
365.92	85.88
366.147	79.88
366.373	54.88
366.599	70.88
366.826	65.88
367.052	71.88
367.278	70.88
367.505	82.88
367.731	87.88
367.957	86.88
368.184	67.88
368.41	86.88
368.636	84.88
368.862	88.88
369.089	68.88
369.315	85.88
369.541	81.88
369.767	68.88
369.993	82.88
370.219	77.88
370.445	76.88
370.672	91.88
370.898	82.88
371.124	77.88
371.35	89.88
371.576	72.88
371.802	87.88
372.028	75.88
372.254	76.88
372.48	74.88
372.706	76.88
372.932	85.88
373.158	90.88
373.384	74.88
373.61	74.88
373.835	84.88
374.061	73.88
374.287	76.88
374.513	77.88
374.739	94.88
374.965	86.88
375.191	82.88
375.416	71.88
375.642	81.88
375.868	84.88
376.094	68.88
376.319	85.88
376.545	85.88
376.771	80.88
376.997	64.88
377.222	80.88
377.448	84.88
377.674	71.88
377.899	77.88
378.125	71.88
378.35	70.88
378.576	77.88
378.802	71.88
379.027	83.88
379.253	71.88
379.478	82.88
379.704	79.88
379.929	70.88
380.155	69.88
380.38	84.88
380.606	87.88
380.831	75.88
381.057	75.88
381.282	76.88
381.507	85.88
381.733	83.88
381.958	76.88
382.184	81.88
382.409	87.88
382.634	72.88
382.86	83.88
383.085	82.88
383.31	81.88
383.535	89.88
383.761	87.88
383.986	79.88
384.211	71.88
384.436	77.88
384.662	71.88
384.887	82.88
385.112	76.88
385.337	70.88
385.562	96.88
385.787	80.88
386.013	79.88
386.238	83.88
386.463	94.88
386.688	86.88
386.913	76.88
387.138	65.88
387.363	85.88
387.588	84.88
387.813	75.88
388.038	68.88
388.263	78.88
388.488	82.88
388.713	81.88
388.938	88.88
389.163	60.88
389.387	87.88
389.612	73.88
389.837	77.88
390.062	106.88
390.287	83.88
390.512	89.88
390.736	81.88
390.961	80.88
391.186	69.88
391.411	77.88
391.636	75.88
391.86	79.88
392.085	73.88
392.31	69.88
392.534	105.88
392.759	75.88
392.984	87.88
393.208	100.88
393.433	100.88
393.658	104.88
393.882	85.88
394.107	79.88
394.331	78.88
394.556	65.88
394.78	91.88
395.005	86.88
395.229	68.88
395.454	73.88
395.678	85.88
395.903	75.88
396.127	82.88
396.352	96.88
396.576	99.88
396.801	111.88
397.025	92.88
397.249	84.88
397.474	70.88
397.698	82.88
397.922	88.88
398.147	81.88
398.371	77.88
398.595	85.88
398.82	80.88
399.044	72.88
399.268	93.88
399.492	75.88
399.717	75.88
399.941	81.88
400.165	72.88
400.389	62.88
400.613	88.88
400.837	84.88
401.062	81.88
401.286	64.88
401.51	77.88
401.734	68.88
401.958	81.88
402.182	89.88
402.406	84.88
402.63	94.88
402.854	86.88
403.078	85.88
403.302	75.88
403.526	72.88
403.75	84.88
403.974	78.88
404.198	99.88
404.422	122.88
404.645	132.88
404.869	115.88
405.093	105.88
405.317	101.88
405.541	80.88
405.765	79.88
405.988	95.88
406.212	73.88
406.436	89.88
406.66	89.88
406.883	82.88
407.107	84.88
407.331	85.88
407.555	75.88
407.778	69.88
408.002	75.88
408.226	86.88
408.449	90.88
408.673	68.88
408.896	77.88
409.12	70.88
409.344	70.88
409.567	79.88
409.791	81.88
410.014	81.88
410.238	87.88
410.461	76.88
410.685	98.88
410.908	64.88
411.132	70.88
411.355	81.88
411.578	73.88
411.802	74.88
412.025	91.88
412.249	90.88
412.472	73.88
412.695	90.88
412.919	69.88
413.142	74.88
413.365	88.88
413.589	82.88
413.812	71.88
414.035	81.88
414.258	75.88
414.482	86.88
414.705	85.88
414.928	84.88
415.151	66.88
415.374	89.88
415.597	77.88
415.821	73.88
416.044	80.88
416.267	80.88
416.49	73.88
416.713	76.88
416.936	69.88
417.159	77.88
417.382	72.88
417.605	87.88
417.828	76.88
418.051	81.88
418.274	95.88
418.497	92.88
418.72	75.88
418.943	75.88
419.166	64.88
419.389	84.88
419.611	86.88
419.834	83.88
420.057	88.88
420.28	82.88
420.503	86.88
420.726	72.88
420.948	72.88
421.171	73.88
421.394	73.88
421.617	64.88
421.839	97.88
422.062	72.88
422.285	97.88
422.507	143.88
422.73	159.88
422.953	119.88
423.175	99.88
423.398	95.88
423.621	77.88
423.843	77.88
424.066	76.88
424.288	99.88
424.511	89.88
424.733	79.88
424.956	81.88
425.178	90.88
425.401	79.88
425.623	76.88
425.846	55.88
426.068	92.88
426.291	61.88
426.513	76.88
426.735	85.88
426.958	84.88
427.18	76.88
427.402	88.88
427.625	71.88
427.847	78.88
428.069	87.88
428.292	79.88
428.514	96.88
428.736	90.88
428.958	99.88
429.181	87.88
429.403	81.88
429.625	82.88
429.847	83.88
430.069	101.88
430.292	105.88
430.514	96.88
430.736	98.88
430.958	95.88
431.18	69.88
431.402	92.88
431.624	71.88
431.846	82.88
432.068	85.88
432.29	83.88
432.512	68.88
432.734	80.88
432.956	89.88
433.178	80.88
433.4	81.88
433.622	77.88
433.844	77.88
434.066	84.88
434.287	79.88
434.509	73.88
434.731	74.88
434.953	76.88
435.175	78.88
435.397	72.88
435.618	90.88
435.84	89.88
436.062	86.88
436.284	77.88
436.505	79.88
436.727	84.88
436.949	77.88
437.17	75.88
437.392	82.88
437.614	83.88
437.835	65.88
438.057	84.88
438.278	62.88
438.5	71.88
438.721	93.88
438.943	76.88
439.165	77.88
439.386	69.88
439.608	73.88
439.829	97.88
440.05	88.88
440.272	80.88
440.493	84.88
440.715	85.88
440.936	92.88
441.158	80.88
441.379	71.88
441.6	83.88
441.822	89.88
442.043	73.88
442.264	84.88
442.486	97.88
442.707	79.88
442.928	80.88
443.149	79.88
443.371	101.88
443.592	102.88
443.813	100.88
444.034	73.88
444.255	90.88
444.476	76.88
444.698	77.88
444.919	81.88
445.14	151.88
445.361	119.88
445.582	124.88
445.803	101.88
446.024	75.88
446.245	83.88
446.466	69.88
446.687	78.88
446.908	74.88
447.129	81.88
447.35	73.88
447.571	76.88
447.792	75.88
448.013	62.88
448.234	80.88
448.455	78.88
448.675	61.88
448.896	67.88
449.117	74.88
449.338	68.88
449.559	66.88
449.779	95.88
450	80.88
450.221	90.88
450.442	81.88
450.662	82.88
450.883	78.88
451.104	84.88
451.324	88.88
451.545	88.88
451.766	81.88
451.986	76.88
452.207	85.88
452.428	76.88
452.648	86.88
452.869	87.88
453.089	84.88
453.31	89.88
453.53	96.88
453.751	76.88
453.971	72.88
454.192	80.88
454.412	74.88
454.633	76.88
454.853	64.88
455.073	83.88
455.294	77.88
455.514	85.88
455.734	74.88
455.955	76.88
456.175	63.88
456.395	77.88
456.616	80.88
456.836	87.88
457.056	80.88
457.276	85.88
457.497	69.88
457.717	76.88
457.937	72.88
458.157	81.88
458.377	83.88
458.598	91.88
458.818	88.88
459.038	73.88
459.258	79.88
459.478	79.88
459.698	79.88
459.918	79.88
460.138	83.88
460.358	77.88
460.578	84.88
460.798	99.88
461.018	94.88
461.238	82.88
461.458	73.88
461.678	88.88
461.898	86.88
462.118	89.88
462.338	96.88
462.558	85.88
462.777	68.88
462.997	82.88
463.217	75.88
463.437	82.88
463.657	89.88
463.876	82.88
464.096	71.88
464.316	73.88
464.536	85.88
464.755	85.88
464.975	73.88
465.195	76.88
465.414	92.88
465.634	80.88
465.854	65.88
466.073	80.88
466.293	64.88
466.512	87.88
466.732	88.88
466.951	84.88
467.171	87.88
467.391	77.88
467.61	84.88
467.829	68.88
468.049	72.88
468.268	89.88
468.488	95.88
468.707	84.88
468.927	82.88
469.146	68.88
469.365	70.88
469.585	70.88
469.804	79.88
470.023	80.88
470.243	63.88
470.462	91.88
470.681	83.88
470.901	79.88
471.12	78.88
471.339	76.88
471.558	75.88
471.777	75.88
471.997	74.88
472.216	78.88
472.435	75.88
472.654	88.88
472.873	101.88
473.092	83.88
473.311	75.88
473.53	81.88
473.749	78.88
473.968	84.88
474.187	95.88
474.406	76.88
474.625	94.88
474.844	97.88
475.063	71.88
475.282	83.88
475.501	76.88
475.72	82.88
475.939	76.88
476.158	79.88
476.377	68.88
476.596	68.88
476.814	75.88
477.033	79.88
477.252	76.88
477.471	81.88
477.69	82.88
477.908	75.88
478.127	75.88
478.346	80.88
478.564	91.88
478.783	83.88
479.002	81.88
479.22	89.88
479.439	69.88
479.658	75.88
479.876	80.88
480.095	83.88
480.313	85.88
480.532	72.88
480.751	84.88
480.969	87.88
481.188	76.88
481.406	81.88
481.624	77.88
481.843	79.88
482.061	88.88
482.28	77.88
482.498	76.88
482.717	74.88
482.935	80.88
483.153	93.88
483.372	80.88
483.59	90.88
483.808	82.88
484.027	85.88
484.245	76.88
484.463	81.88
484.681	90.88
484.9	88.88
485.118	84.88
485.336	99.88
485.554	82.88
485.772	84.88
485.99	84.88
486.209	88.88
486.427	84.88
486.645	74.88
486.863	74.88
487.081	86.88
487.299	94.88
487.517	71.88
487.735	83.88
487.953	95.88
488.171	90.88
488.389	76.88
488.607	76.88
488.825	75.88
489.043	94.88
489.261	84.88
489.479	82.88
489.696	78.88
489.914	72.88
490.132	82.88
490.35	85.88
490.568	76.88
490.786	80.88
491.003	87.88
491.221	90.88
491.439	81.88
491.657	90.88
491.874	85.88
492.092	75.88
492.31	83.88
492.527	74.88
492.745	76.88
492.963	72.88
493.18	75.88
493.398	90.88
493.615	96.88
493.833	74.88
494.05	87.88
494.268	67.88
494.485	72.88
494.703	85.88
494.92	86.88
495.138	68.88
495.355	77.88
495.573	86.88
495.79	76.88
496.008	87.88
496.225	65.88
496.442	79.88
496.66	76.88
496.877	81.88
497.094	88.88
497.312	90.88
497.529	84.88
497.746	86.88
497.963	81.88
498.181	75.88
498.398	80.88
498.615	80.88
498.832	83.88
499.049	87.88
499.267	84.88
499.484	80.88
499.701	83.88
499.918	85.88
500.135	97.88
500.352	89.88
500.569	91.88
500.786	92.88
501.003	81.88
501.22	61.88
501.437	70.88
501.654	82.88
501.871	70.88
502.088	60.88
502.305	77.88
502.522	73.88
502.739	67.88
502.956	88.88
503.172	93.88
503.389	80.88
503.606	78.88
503.823	88.88
504.04	70.88
504.256	86.88
504.473	79.88
504.69	84.88
504.907	83.88
505.123	80.88
505.34	73.88
505.557	88.88
505.773	81.88
505.99	74.88
506.207	95.88
506.423	75.88
506.64	76.88
506.856	81.88
507.073	89.88
507.289	79.88
507.506	71.88
507.722	72.88
507.939	84.88
508.155	90.88
508.372	77.88
508.588	76.88
508.805	92.88
509.021	72.88
509.238	83.88
509.454	83.88
509.67	70.88
509.887	83.88
510.103	84.88
510.319	93.88
510.536	86.88
510.752	65.88
510.968	75.88
511.184	76.88
511.401	81.88
511.617	86.88
511.833	84.88
512.049	80.88
512.265	81.88
512.481	90.88
512.698	76.88
512.914	69.88
513.13	81.88
513.346	72.88
513.562	85.88
513.778	88.88
513.994	68.88
514.21	77.88
514.426	79.88
514.642	84.88
514.858	87.88
515.074	81.88
515.29	72.88
515.506	80.88
515.721	76.88
515.937	91.88
516.153	78.88
516.369	81.88
516.585	85.88
516.801	69.88
517.016	86.88
517.232	72.88
517.448	80.88
517.664	90.88
517.879	73.88
518.095	69.88
518.311	78.88
518.527	98.88
518.742	79.88
518.958	88.88
519.173	76.88
519.389	88.88
519.605	83.88
519.82	78.88
