Data from Mixnoheat4_HRD10591_00020.txt Node
Date: Fri Dec 27 15:04:32 EST 2024
User: Yrep
Spectrometer: HR+D1059
Trigger mode: 1
Integration Time (sec): 1.000000E-1
Scans to average: 1
Electric dark correction enabled: true
Nonlinearity correction enabled: false
Boxcar width: 0
XAxis mode: Wavelengths
Number of Pixels in Spectrum: 2048
>>>>>Begin Spectral Data<<<<<
223.165	-20.19
223.4	-20.19
223.635	-20.19
223.869	-18.19
224.104	-21.19
224.338	-4.19
224.573	-19.19
224.808	-25.19
225.042	3.81
225.277	-6.19
225.511	-14.19
225.746	11.81
225.98	5.81
226.215	12.81
226.449	9.81
226.683	19.81
226.918	26.81
227.152	37.81
227.387	20.81
227.621	32.81
227.856	50.81
228.09	49.81
228.324	53.81
228.559	54.81
228.793	52.81
229.027	66.81
229.262	65.81
229.496	58.81
229.73	57.81
229.964	68.81
230.199	72.81
230.433	71.81
230.667	70.81
230.901	79.81
231.136	67.81
231.37	70.81
231.604	65.81
231.838	85.81
232.072	87.81
232.306	79.81
232.541	80.81
232.775	73.81
233.009	87.81
233.243	79.81
233.477	57.81
233.711	66.81
233.945	86.81
234.179	77.81
234.413	91.81
234.647	84.81
234.881	79.81
235.115	82.81
235.349	72.81
235.583	85.81
235.817	65.81
236.051	73.81
236.285	69.81
236.519	82.81
236.753	83.81
236.987	71.81
237.221	87.81
237.455	90.81
237.689	78.81
237.922	90.81
238.156	85.81
238.39	72.81
238.624	84.81
238.858	77.81
239.091	61.81
239.325	65.81
239.559	79.81
239.793	74.81
240.027	80.81
240.26	78.81
240.494	75.81
240.728	71.81
240.961	80.81
241.195	84.81
241.429	78.81
241.662	71.81
241.896	87.81
242.13	81.81
242.363	83.81
242.597	84.81
242.83	91.81
243.064	78.81
243.298	68.81
243.531	74.81
243.765	85.81
243.998	65.81
244.232	72.81
244.465	85.81
244.699	72.81
244.932	87.81
245.166	77.81
245.399	71.81
245.633	87.81
245.866	77.81
246.099	75.81
246.333	87.81
246.566	78.81
246.8	69.81
247.033	70.81
247.266	79.81
247.5	83.81
247.733	93.81
247.966	79.81
248.2	83.81
248.433	84.81
248.666	88.81
248.899	76.81
249.133	68.81
249.366	77.81
249.599	94.81
249.832	78.81
250.066	85.81
250.299	79.81
250.532	73.81
250.765	92.81
250.998	91.81
251.231	79.81
251.465	75.81
251.698	78.81
251.931	65.81
252.164	74.81
252.397	82.81
252.63	78.81
252.863	81.81
253.096	87.81
253.329	70.81
253.562	74.81
253.795	75.81
254.028	88.81
254.261	69.81
254.494	88.81
254.727	91.81
254.96	88.81
255.193	70.81
255.426	72.81
255.659	46.81
255.892	96.81
256.124	83.81
256.357	87.81
256.59	64.81
256.823	75.81
257.056	81.81
257.289	77.81
257.521	77.81
257.754	78.81
257.987	84.81
258.22	84.81
258.452	74.81
258.685	82.81
258.918	84.81
259.151	87.81
259.383	80.81
259.616	79.81
259.849	82.81
260.081	72.81
260.314	80.81
260.547	73.81
260.779	81.81
261.012	72.81
261.244	71.81
261.477	68.81
261.71	84.81
261.942	83.81
262.175	79.81
262.407	78.81
262.64	81.81
262.872	92.81
263.105	90.81
263.337	93.81
263.57	75.81
263.802	90.81
264.035	73.81
264.267	84.81
264.499	95.81
264.732	88.81
264.964	73.81
265.197	70.81
265.429	104.81
265.661	83.81
265.894	84.81
266.126	83.81
266.358	85.81
266.591	76.81
266.823	75.81
267.055	80.81
267.287	90.81
267.52	80.81
267.752	82.81
267.984	75.81
268.216	83.81
268.448	81.81
268.681	81.81
268.913	94.81
269.145	76.81
269.377	65.81
269.609	80.81
269.841	93.81
270.073	84.81
270.306	77.81
270.538	66.81
270.77	67.81
271.002	90.81
271.234	90.81
271.466	87.81
271.698	81.81
271.93	81.81
272.162	96.81
272.394	84.81
272.626	69.81
272.858	72.81
273.09	76.81
273.322	88.81
273.553	76.81
273.785	69.81
274.017	95.81
274.249	76.81
274.481	65.81
274.713	87.81
274.945	87.81
275.176	80.81
275.408	76.81
275.64	77.81
275.872	83.81
276.104	93.81
276.335	89.81
276.567	68.81
276.799	84.81
277.031	85.81
277.262	76.81
277.494	89.81
277.726	84.81
277.957	93.81
278.189	76.81
278.421	81.81
278.652	69.81
278.884	69.81
279.115	93.81
279.347	81.81
279.579	81.81
279.81	81.81
280.042	68.81
280.273	78.81
280.505	76.81
280.736	81.81
280.968	88.81
281.199	81.81
281.431	69.81
281.662	86.81
281.894	90.81
282.125	87.81
282.356	89.81
282.588	88.81
282.819	85.81
283.051	86.81
283.282	75.81
283.513	99.81
283.745	95.81
283.976	84.81
284.207	96.81
284.439	79.81
284.67	86.81
284.901	71.81
285.132	86.81
285.364	69.81
285.595	88.81
285.826	92.81
286.057	92.81
286.288	96.81
286.52	85.81
286.751	71.81
286.982	84.81
287.213	67.81
287.444	81.81
287.675	92.81
287.906	96.81
288.138	94.81
288.369	93.81
288.6	85.81
288.831	83.81
289.062	88.81
289.293	86.81
289.524	89.81
289.755	90.81
289.986	76.81
290.217	77.81
290.448	90.81
290.679	91.81
290.91	82.81
291.141	86.81
291.371	92.81
291.602	90.81
291.833	81.81
292.064	80.81
292.295	83.81
292.526	87.81
292.757	93.81
292.987	72.81
293.218	68.81
293.449	84.81
293.68	80.81
293.91	83.81
294.141	92.81
294.372	84.81
294.603	86.81
294.833	84.81
295.064	77.81
295.295	89.81
295.525	86.81
295.756	84.81
295.987	72.81
296.217	78.81
296.448	71.81
296.679	76.81
296.909	81.81
297.14	93.81
297.37	89.81
297.601	86.81
297.831	80.81
298.062	87.81
298.292	87.81
298.523	83.81
298.753	80.81
298.984	89.81
299.214	85.81
299.445	92.81
299.675	84.81
299.905	88.81
300.136	90.81
300.366	76.81
300.597	90.81
300.827	85.81
301.057	72.81
301.288	88.81
301.518	80.81
301.748	73.81
301.979	96.81
302.209	88.81
302.439	81.81
302.669	86.81
302.9	99.81
303.13	90.81
303.36	89.81
303.59	80.81
303.82	83.81
304.051	87.81
304.281	88.81
304.511	98.81
304.741	78.81
304.971	99.81
305.201	80.81
305.431	94.81
305.661	93.81
305.891	76.81
306.121	76.81
306.352	95.81
306.582	84.81
306.812	86.81
307.042	94.81
307.272	95.81
307.502	92.81
307.731	90.81
307.961	88.81
308.191	101.81
308.421	95.81
308.651	80.81
308.881	86.81
309.111	86.81
309.341	106.81
309.571	95.81
309.8	81.81
310.03	92.81
310.26	88.81
310.49	83.81
310.72	80.81
310.949	77.81
311.179	100.81
311.409	88.81
311.639	85.81
311.868	87.81
312.098	88.81
312.328	78.81
312.557	83.81
312.787	93.81
313.017	88.81
313.246	82.81
313.476	102.81
313.706	92.81
313.935	85.81
314.165	85.81
314.394	67.81
314.624	92.81
314.853	93.81
315.083	94.81
315.312	92.81
315.542	93.81
315.771	89.81
316.001	90.81
316.23	93.81
316.46	92.81
316.689	81.81
316.919	81.81
317.148	79.81
317.377	76.81
317.607	93.81
317.836	79.81
318.065	79.81
318.295	78.81
318.524	67.81
318.753	91.81
318.983	91.81
319.212	80.81
319.441	94.81
319.67	79.81
319.9	89.81
320.129	87.81
320.358	78.81
320.587	79.81
320.816	87.81
321.046	90.81
321.275	94.81
321.504	84.81
321.733	94.81
321.962	85.81
322.191	72.81
322.42	101.81
322.649	84.81
322.878	94.81
323.108	83.81
323.337	97.81
323.566	80.81
323.795	77.81
324.024	92.81
324.253	87.81
324.482	82.81
324.71	90.81
324.939	89.81
325.168	87.81
325.397	87.81
325.626	94.81
325.855	72.81
326.084	99.81
326.313	79.81
326.542	87.81
326.77	85.81
326.999	79.81
327.228	87.81
327.457	88.81
327.686	99.81
327.914	81.81
328.143	77.81
328.372	78.81
328.6	78.81
328.829	66.81
329.058	81.81
329.287	83.81
329.515	89.81
329.744	92.81
329.972	88.81
330.201	94.81
330.43	78.81
330.658	87.81
330.887	78.81
331.115	87.81
331.344	92.81
331.572	79.81
331.801	77.81
332.03	84.81
332.258	90.81
332.486	92.81
332.715	74.81
332.943	78.81
333.172	89.81
333.4	89.81
333.629	81.81
333.857	65.81
334.085	80.81
334.314	80.81
334.542	90.81
334.771	82.81
334.999	86.81
335.227	87.81
335.455	93.81
335.684	96.81
335.912	87.81
336.14	90.81
336.369	70.81
336.597	87.81
336.825	84.81
337.053	93.81
337.281	95.81
337.51	80.81
337.738	89.81
337.966	79.81
338.194	96.81
338.422	83.81
338.65	91.81
338.878	78.81
339.106	66.81
339.334	86.81
339.562	76.81
339.79	89.81
340.018	81.81
340.246	80.81
340.474	84.81
340.702	82.81
340.93	93.81
341.158	86.81
341.386	81.81
341.614	82.81
341.842	96.81
342.07	85.81
342.298	89.81
342.526	84.81
342.754	85.81
342.981	102.81
343.209	88.81
343.437	94.81
343.665	93.81
343.893	88.81
344.12	90.81
344.348	77.81
344.576	102.81
344.804	83.81
345.031	93.81
345.259	87.81
345.487	89.81
345.714	79.81
345.942	81.81
346.17	76.81
346.397	74.81
346.625	90.81
346.853	79.81
347.08	76.81
347.308	85.81
347.535	74.81
347.763	73.81
347.99	100.81
348.218	67.81
348.445	88.81
348.673	79.81
348.9	84.81
349.128	81.81
349.355	76.81
349.583	73.81
349.81	78.81
350.037	86.81
350.265	93.81
350.492	85.81
350.72	102.81
350.947	96.81
351.174	99.81
351.402	87.81
351.629	73.81
351.856	89.81
352.083	96.81
352.311	71.81
352.538	88.81
352.765	73.81
352.992	96.81
353.22	82.81
353.447	83.81
353.674	94.81
353.901	83.81
354.128	87.81
354.355	81.81
354.583	76.81
354.81	87.81
355.037	88.81
355.264	99.81
355.491	80.81
355.718	71.81
355.945	94.81
356.172	93.81
356.399	82.81
356.626	81.81
356.853	88.81
357.08	90.81
357.307	81.81
357.534	81.81
357.761	82.81
357.988	103.81
358.215	102.81
358.441	92.81
358.668	69.81
358.895	70.81
359.122	76.81
359.349	85.81
359.576	88.81
359.802	71.81
360.029	78.81
360.256	96.81
360.483	99.81
360.709	84.81
360.936	91.81
361.163	90.81
361.39	80.81
361.616	95.81
361.843	72.81
362.07	79.81
362.296	101.81
362.523	94.81
362.749	85.81
362.976	95.81
363.203	96.81
363.429	81.81
363.656	111.81
363.882	89.81
364.109	94.81
364.335	104.81
364.562	93.81
364.788	83.81
365.015	87.81
365.241	90.81
365.468	104.81
365.694	85.81
365.92	79.81
366.147	105.81
366.373	91.81
366.599	92.81
366.826	85.81
367.052	71.81
367.278	86.81
367.505	85.81
367.731	106.81
367.957	82.81
368.184	88.81
368.41	85.81
368.636	76.81
368.862	85.81
369.089	83.81
369.315	88.81
369.541	94.81
369.767	82.81
369.993	84.81
370.219	83.81
370.445	82.81
370.672	75.81
370.898	91.81
371.124	90.81
371.35	72.81
371.576	85.81
371.802	78.81
372.028	88.81
372.254	87.81
372.48	69.81
372.706	80.81
372.932	72.81
373.158	83.81
373.384	91.81
373.61	87.81
373.835	96.81
374.061	75.81
374.287	81.81
374.513	84.81
374.739	76.81
374.965	81.81
375.191	70.81
375.416	83.81
375.642	87.81
375.868	85.81
376.094	87.81
376.319	83.81
376.545	92.81
376.771	72.81
376.997	80.81
377.222	80.81
377.448	82.81
377.674	80.81
377.899	81.81
378.125	86.81
378.35	88.81
378.576	81.81
378.802	88.81
379.027	88.81
379.253	79.81
379.478	82.81
379.704	85.81
379.929	73.81
380.155	77.81
380.38	88.81
380.606	88.81
380.831	86.81
381.057	84.81
381.282	70.81
381.507	76.81
381.733	88.81
381.958	84.81
382.184	83.81
382.409	99.81
382.634	95.81
382.86	86.81
383.085	87.81
383.31	92.81
383.535	91.81
383.761	102.81
383.986	78.81
384.211	90.81
384.436	90.81
384.662	81.81
384.887	71.81
385.112	88.81
385.337	68.81
385.562	81.81
385.787	91.81
386.013	77.81
386.238	79.81
386.463	84.81
386.688	87.81
386.913	78.81
387.138	84.81
387.363	83.81
387.588	84.81
387.813	92.81
388.038	84.81
388.263	97.81
388.488	91.81
388.713	75.81
388.938	90.81
389.163	81.81
389.387	81.81
389.612	78.81
389.837	84.81
390.062	83.81
390.287	62.81
390.512	83.81
390.736	85.81
390.961	75.81
391.186	76.81
391.411	93.81
391.636	73.81
391.86	82.81
392.085	83.81
392.31	81.81
392.534	85.81
392.759	88.81
392.984	96.81
393.208	113.81
393.433	127.81
393.658	103.81
393.882	83.81
394.107	77.81
394.331	94.81
394.556	90.81
394.78	91.81
395.005	91.81
395.229	84.81
395.454	87.81
395.678	91.81
395.903	90.81
396.127	96.81
396.352	107.81
396.576	99.81
396.801	133.81
397.025	120.81
397.249	96.81
397.474	81.81
397.698	88.81
397.922	83.81
398.147	85.81
398.371	69.81
398.595	78.81
398.82	88.81
399.044	75.81
399.268	74.81
399.492	72.81
399.717	72.81
399.941	60.81
400.165	95.81
400.389	81.81
400.613	90.81
400.837	93.81
401.062	87.81
401.286	79.81
401.51	87.81
401.734	72.81
401.958	74.81
402.182	83.81
402.406	97.81
402.63	80.81
402.854	77.81
403.078	77.81
403.302	87.81
403.526	90.81
403.75	81.81
403.974	86.81
404.198	94.81
404.422	128.81
404.645	122.81
404.869	111.81
405.093	100.81
405.317	97.81
405.541	99.81
405.765	68.81
405.988	86.81
406.212	79.81
406.436	88.81
406.66	88.81
406.883	78.81
407.107	77.81
407.331	83.81
407.555	72.81
407.778	96.81
408.002	92.81
408.226	81.81
408.449	87.81
408.673	92.81
408.896	77.81
409.12	96.81
409.344	84.81
409.567	79.81
409.791	101.81
410.014	88.81
410.238	67.81
410.461	84.81
410.685	74.81
410.908	72.81
411.132	89.81
411.355	74.81
411.578	88.81
411.802	98.81
412.025	83.81
412.249	81.81
412.472	80.81
412.695	75.81
412.919	99.81
413.142	93.81
413.365	78.81
413.589	89.81
413.812	84.81
414.035	85.81
414.258	83.81
414.482	84.81
414.705	81.81
414.928	86.81
415.151	79.81
415.374	89.81
415.597	81.81
415.821	80.81
416.044	70.81
416.267	74.81
416.49	74.81
416.713	87.81
416.936	86.81
417.159	92.81
417.382	86.81
417.605	78.81
417.828	103.81
418.051	65.81
418.274	70.81
418.497	69.81
418.72	93.81
418.943	71.81
419.166	68.81
419.389	83.81
419.611	89.81
419.834	94.81
420.057	99.81
420.28	84.81
420.503	89.81
420.726	90.81
420.948	81.81
421.171	87.81
421.394	107.81
421.617	91.81
421.839	87.81
422.062	83.81
422.285	95.81
422.507	124.81
422.73	164.81
422.953	159.81
423.175	99.81
423.398	91.81
423.621	87.81
423.843	90.81
424.066	94.81
424.288	85.81
424.511	83.81
424.733	80.81
424.956	83.81
425.178	73.81
425.401	73.81
425.623	87.81
425.846	92.81
426.068	73.81
426.291	91.81
426.513	78.81
426.735	79.81
426.958	80.81
427.18	101.81
427.402	79.81
427.625	83.81
427.847	83.81
428.069	91.81
428.292	89.81
428.514	99.81
428.736	90.81
428.958	100.81
429.181	104.81
429.403	89.81
429.625	93.81
429.847	79.81
430.069	109.81
430.292	110.81
430.514	109.81
430.736	107.81
430.958	100.81
431.18	96.81
431.402	87.81
431.624	108.81
431.846	90.81
432.068	101.81
432.29	89.81
432.512	95.81
432.734	78.81
432.956	79.81
433.178	80.81
433.4	83.81
433.622	78.81
433.844	102.81
434.066	89.81
434.287	96.81
434.509	92.81
434.731	82.81
434.953	83.81
435.175	92.81
435.397	87.81
435.618	79.81
435.84	83.81
436.062	82.81
436.284	74.81
436.505	77.81
436.727	77.81
436.949	87.81
437.17	73.81
437.392	69.81
437.614	79.81
437.835	92.81
438.057	80.81
438.278	79.81
438.5	87.81
438.721	87.81
438.943	91.81
439.165	85.81
439.386	85.81
439.608	87.81
439.829	80.81
440.05	83.81
440.272	88.81
440.493	74.81
440.715	91.81
440.936	89.81
441.158	86.81
441.379	91.81
441.6	80.81
441.822	77.81
442.043	70.81
442.264	85.81
442.486	108.81
442.707	103.81
442.928	85.81
443.149	94.81
443.371	96.81
443.592	118.81
443.813	111.81
444.034	89.81
444.255	87.81
444.476	77.81
444.698	89.81
444.919	89.81
445.14	155.81
445.361	139.81
445.582	136.81
445.803	127.81
446.024	93.81
446.245	91.81
446.466	77.81
446.687	83.81
446.908	83.81
447.129	83.81
447.35	85.81
447.571	83.81
447.792	83.81
448.013	76.81
448.234	104.81
448.455	82.81
448.675	87.81
448.896	85.81
449.117	83.81
449.338	81.81
449.559	88.81
449.779	84.81
450	84.81
450.221	86.81
450.442	73.81
450.662	79.81
450.883	79.81
451.104	93.81
451.324	97.81
451.545	81.81
451.766	87.81
451.986	81.81
452.207	76.81
452.428	85.81
452.648	87.81
452.869	69.81
453.089	79.81
453.31	75.81
453.53	85.81
453.751	79.81
453.971	95.81
454.192	78.81
454.412	79.81
454.633	76.81
454.853	83.81
455.073	82.81
455.294	80.81
455.514	86.81
455.734	88.81
455.955	89.81
456.175	78.81
456.395	85.81
456.616	83.81
456.836	92.81
457.056	76.81
457.276	68.81
457.497	82.81
457.717	84.81
457.937	83.81
458.157	82.81
458.377	83.81
458.598	80.81
458.818	91.81
459.038	83.81
459.258	89.81
459.478	83.81
459.698	87.81
459.918	81.81
460.138	76.81
460.358	103.81
460.578	80.81
460.798	96.81
461.018	93.81
461.238	78.81
461.458	84.81
461.678	87.81
461.898	82.81
462.118	94.81
462.338	94.81
462.558	83.81
462.777	87.81
462.997	82.81
463.217	74.81
463.437	74.81
463.657	80.81
463.876	77.81
464.096	83.81
464.316	68.81
464.536	80.81
464.755	95.81
464.975	86.81
465.195	86.81
465.414	104.81
465.634	87.81
465.854	76.81
466.073	68.81
466.293	82.81
466.512	83.81
466.732	72.81
466.951	85.81
467.171	85.81
467.391	89.81
467.61	65.81
467.829	74.81
468.049	90.81
468.268	75.81
468.488	80.81
468.707	87.81
468.927	87.81
469.146	80.81
469.365	72.81
469.585	80.81
469.804	80.81
470.023	92.81
470.243	88.81
470.462	95.81
470.681	80.81
470.901	82.81
471.12	88.81
471.339	77.81
471.558	89.81
471.777	101.81
471.997	98.81
472.216	85.81
472.435	81.81
472.654	80.81
472.873	85.81
473.092	95.81
473.311	86.81
473.53	84.81
473.749	79.81
473.968	93.81
474.187	89.81
474.406	86.81
474.625	95.81
474.844	90.81
475.063	92.81
475.282	82.81
475.501	99.81
475.72	78.81
475.939	79.81
476.158	91.81
476.377	89.81
476.596	83.81
476.814	85.81
477.033	87.81
477.252	77.81
477.471	85.81
477.69	75.81
477.908	84.81
478.127	93.81
478.346	83.81
478.564	76.81
478.783	72.81
479.002	86.81
479.22	89.81
479.439	93.81
479.658	77.81
479.876	90.81
480.095	95.81
480.313	84.81
480.532	82.81
480.751	94.81
480.969	97.81
481.188	84.81
481.406	82.81
481.624	80.81
481.843	85.81
482.061	81.81
482.28	66.81
482.498	87.81
482.717	77.81
482.935	73.81
483.153	75.81
483.372	86.81
483.59	89.81
483.808	80.81
484.027	92.81
484.245	88.81
484.463	87.81
484.681	86.81
484.9	85.81
485.118	79.81
485.336	88.81
485.554	103.81
485.772	88.81
485.99	90.81
486.209	77.81
486.427	78.81
486.645	79.81
486.863	92.81
487.081	100.81
487.299	81.81
487.517	78.81
487.735	93.81
487.953	86.81
488.171	86.81
488.389	88.81
488.607	94.81
488.825	77.81
489.043	80.81
489.261	98.81
489.479	87.81
489.696	92.81
489.914	92.81
490.132	80.81
490.35	84.81
490.568	81.81
490.786	88.81
491.003	87.81
491.221	94.81
491.439	86.81
491.657	79.81
491.874	86.81
492.092	85.81
492.31	87.81
492.527	76.81
492.745	79.81
492.963	78.81
493.18	93.81
493.398	93.81
493.615	86.81
493.833	89.81
494.05	78.81
494.268	86.81
494.485	89.81
494.703	91.81
494.92	73.81
495.138	80.81
495.355	78.81
495.573	83.81
495.79	101.81
496.008	88.81
496.225	82.81
496.442	79.81
496.66	96.81
496.877	81.81
497.094	84.81
497.312	87.81
497.529	80.81
497.746	77.81
497.963	87.81
498.181	74.81
498.398	78.81
498.615	84.81
498.832	84.81
499.049	94.81
499.267	80.81
499.484	82.81
499.701	81.81
499.918	80.81
500.135	100.81
500.352	88.81
500.569	90.81
500.786	83.81
501.003	82.81
501.22	77.81
501.437	74.81
501.654	72.81
501.871	85.81
502.088	91.81
502.305	101.81
502.522	85.81
502.739	73.81
502.956	88.81
503.172	83.81
503.389	85.81
503.606	81.81
503.823	89.81
504.04	89.81
504.256	92.81
504.473	87.81
504.69	93.81
504.907	93.81
505.123	76.81
505.34	84.81
505.557	75.81
505.773	84.81
505.99	101.81
506.207	89.81
506.423	84.81
506.64	96.81
506.856	93.81
507.073	80.81
507.289	69.81
507.506	64.81
507.722	89.81
507.939	100.81
508.155	99.81
508.372	85.81
508.588	85.81
508.805	97.81
509.021	69.81
509.238	88.81
509.454	86.81
509.67	96.81
509.887	81.81
510.103	95.81
510.319	92.81
510.536	95.81
510.752	88.81
510.968	75.81
511.184	83.81
511.401	80.81
511.617	85.81
511.833	91.81
512.049	92.81
512.265	85.81
512.481	100.81
512.698	88.81
512.914	97.81
513.13	86.81
513.346	71.81
513.562	93.81
513.778	89.81
513.994	78.81
514.21	101.81
514.426	79.81
514.642	85.81
514.858	88.81
515.074	83.81
515.29	83.81
515.506	68.81
515.721	83.81
515.937	82.81
516.153	83.81
516.369	90.81
516.585	88.81
516.801	78.81
517.016	68.81
517.232	84.81
517.448	94.81
517.664	73.81
517.879	86.81
518.095	91.81
518.311	89.81
518.527	87.81
518.742	87.81
518.958	88.81
519.173	92.81
519.389	73.81
