Data from Mixnoheat4_HRD10591_00016.txt Node
Date: Fri Dec 27 15:04:28 EST 2024
User: Yrep
Spectrometer: HR+D1059
Trigger mode: 1
Integration Time (sec): 1.000000E-1
Scans to average: 1
Electric dark correction enabled: true
Nonlinearity correction enabled: false
Boxcar width: 0
XAxis mode: Wavelengths
Number of Pixels in Spectrum: 2048
>>>>>Begin Spectral Data<<<<<
223.165	-12.88
223.4	-12.88
223.635	-12.88
223.869	-10.88
224.104	-26.88
224.338	-18.88
224.573	-12.88
224.808	-21.88
225.042	-14.88
225.277	-13.88
225.511	-2.88
225.746	18.12
225.98	19.12
226.215	14.12
226.449	12.12
226.683	22.12
226.918	18.12
227.152	32.12
227.387	45.12
227.621	37.12
227.856	44.12
228.09	42.12
228.324	47.12
228.559	50.12
228.793	48.12
229.027	60.12
229.262	55.12
229.496	69.12
229.73	77.12
229.964	78.12
230.199	69.12
230.433	70.12
230.667	65.12
230.901	74.12
231.136	86.12
231.37	74.12
231.604	76.12
231.838	84.12
232.072	77.12
232.306	89.12
232.541	87.12
232.775	78.12
233.009	63.12
233.243	69.12
233.477	73.12
233.711	74.12
233.945	64.12
234.179	85.12
234.413	100.12
234.647	89.12
234.881	77.12
235.115	99.12
235.349	69.12
235.583	73.12
235.817	78.12
236.051	75.12
236.285	71.12
236.519	80.12
236.753	81.12
236.987	90.12
237.221	61.12
237.455	75.12
237.689	84.12
237.922	86.12
238.156	73.12
238.39	71.12
238.624	67.12
238.858	71.12
239.091	74.12
239.325	80.12
239.559	72.12
239.793	65.12
240.027	85.12
240.26	66.12
240.494	75.12
240.728	89.12
240.961	84.12
241.195	85.12
241.429	82.12
241.662	78.12
241.896	76.12
242.13	69.12
242.363	76.12
242.597	88.12
242.83	89.12
243.064	79.12
243.298	64.12
243.531	67.12
243.765	73.12
243.998	94.12
244.232	88.12
244.465	79.12
244.699	74.12
244.932	77.12
245.166	72.12
245.399	72.12
245.633	72.12
245.866	79.12
246.099	70.12
246.333	65.12
246.566	74.12
246.8	71.12
247.033	87.12
247.266	81.12
247.5	69.12
247.733	75.12
247.966	78.12
248.2	67.12
248.433	71.12
248.666	76.12
248.899	71.12
249.133	74.12
249.366	81.12
249.599	87.12
249.832	69.12
250.066	78.12
250.299	89.12
250.532	91.12
250.765	87.12
250.998	89.12
251.231	84.12
251.465	73.12
251.698	62.12
251.931	80.12
252.164	73.12
252.397	73.12
252.63	80.12
252.863	86.12
253.096	88.12
253.329	86.12
253.562	75.12
253.795	73.12
254.028	77.12
254.261	75.12
254.494	74.12
254.727	81.12
254.96	88.12
255.193	78.12
255.426	79.12
255.659	82.12
255.892	87.12
256.124	81.12
256.357	85.12
256.59	87.12
256.823	68.12
257.056	61.12
257.289	85.12
257.521	73.12
257.754	81.12
257.987	76.12
258.22	80.12
258.452	83.12
258.685	79.12
258.918	74.12
259.151	67.12
259.383	71.12
259.616	81.12
259.849	92.12
260.081	76.12
260.314	88.12
260.547	88.12
260.779	83.12
261.012	77.12
261.244	83.12
261.477	89.12
261.71	75.12
261.942	80.12
262.175	72.12
262.407	78.12
262.64	79.12
262.872	77.12
263.105	86.12
263.337	89.12
263.57	90.12
263.802	96.12
264.035	87.12
264.267	86.12
264.499	68.12
264.732	76.12
264.964	79.12
265.197	87.12
265.429	82.12
265.661	81.12
265.894	83.12
266.126	85.12
266.358	85.12
266.591	95.12
266.823	77.12
267.055	78.12
267.287	80.12
267.52	78.12
267.752	97.12
267.984	81.12
268.216	97.12
268.448	74.12
268.681	73.12
268.913	98.12
269.145	66.12
269.377	76.12
269.609	73.12
269.841	82.12
270.073	82.12
270.306	82.12
270.538	72.12
270.77	94.12
271.002	94.12
271.234	86.12
271.466	82.12
271.698	85.12
271.93	76.12
272.162	84.12
272.394	74.12
272.626	72.12
272.858	81.12
273.09	75.12
273.322	63.12
273.553	81.12
273.785	70.12
274.017	78.12
274.249	90.12
274.481	85.12
274.713	88.12
274.945	73.12
275.176	76.12
275.408	89.12
275.64	74.12
275.872	96.12
276.104	74.12
276.335	83.12
276.567	81.12
276.799	64.12
277.031	98.12
277.262	89.12
277.494	88.12
277.726	71.12
277.957	74.12
278.189	75.12
278.421	86.12
278.652	78.12
278.884	92.12
279.115	103.12
279.347	80.12
279.579	87.12
279.81	76.12
280.042	85.12
280.273	98.12
280.505	81.12
280.736	78.12
280.968	85.12
281.199	81.12
281.431	78.12
281.662	78.12
281.894	81.12
282.125	84.12
282.356	82.12
282.588	86.12
282.819	79.12
283.051	95.12
283.282	86.12
283.513	99.12
283.745	85.12
283.976	99.12
284.207	85.12
284.439	93.12
284.67	75.12
284.901	80.12
285.132	85.12
285.364	81.12
285.595	99.12
285.826	85.12
286.057	79.12
286.288	67.12
286.52	86.12
286.751	88.12
286.982	76.12
287.213	74.12
287.444	78.12
287.675	78.12
287.906	76.12
288.138	98.12
288.369	86.12
288.6	76.12
288.831	66.12
289.062	82.12
289.293	92.12
289.524	86.12
289.755	96.12
289.986	81.12
290.217	101.12
290.448	85.12
290.679	81.12
290.91	82.12
291.141	87.12
291.371	78.12
291.602	74.12
291.833	75.12
292.064	77.12
292.295	94.12
292.526	85.12
292.757	70.12
292.987	90.12
293.218	80.12
293.449	87.12
293.68	100.12
293.91	82.12
294.141	82.12
294.372	86.12
294.603	90.12
294.833	74.12
295.064	79.12
295.295	92.12
295.525	83.12
295.756	87.12
295.987	79.12
296.217	87.12
296.448	79.12
296.679	81.12
296.909	87.12
297.14	81.12
297.37	98.12
297.601	81.12
297.831	87.12
298.062	85.12
298.292	83.12
298.523	84.12
298.753	101.12
298.984	74.12
299.214	84.12
299.445	87.12
299.675	91.12
299.905	93.12
300.136	90.12
300.366	81.12
300.597	82.12
300.827	82.12
301.057	85.12
301.288	99.12
301.518	92.12
301.748	90.12
301.979	100.12
302.209	81.12
302.439	78.12
302.669	87.12
302.9	97.12
303.13	84.12
303.36	84.12
303.59	90.12
303.82	97.12
304.051	94.12
304.281	94.12
304.511	83.12
304.741	89.12
304.971	64.12
305.201	87.12
305.431	80.12
305.661	77.12
305.891	86.12
306.121	84.12
306.352	88.12
306.582	85.12
306.812	77.12
307.042	90.12
307.272	81.12
307.502	84.12
307.731	72.12
307.961	75.12
308.191	73.12
308.421	83.12
308.651	79.12
308.881	85.12
309.111	86.12
309.341	84.12
309.571	75.12
309.8	88.12
310.03	75.12
310.26	85.12
310.49	88.12
310.72	78.12
310.949	69.12
311.179	75.12
311.409	68.12
311.639	79.12
311.868	79.12
312.098	84.12
312.328	100.12
312.557	81.12
312.787	86.12
313.017	87.12
313.246	80.12
313.476	91.12
313.706	83.12
313.935	63.12
314.165	86.12
314.394	84.12
314.624	75.12
314.853	74.12
315.083	69.12
315.312	87.12
315.542	84.12
315.771	69.12
316.001	78.12
316.23	94.12
316.46	84.12
316.689	92.12
316.919	99.12
317.148	89.12
317.377	93.12
317.607	88.12
317.836	81.12
318.065	78.12
318.295	90.12
318.524	92.12
318.753	83.12
318.983	85.12
319.212	89.12
319.441	87.12
319.67	87.12
319.9	93.12
320.129	82.12
320.358	90.12
320.587	80.12
320.816	78.12
321.046	94.12
321.275	84.12
321.504	90.12
321.733	85.12
321.962	85.12
322.191	83.12
322.42	89.12
322.649	84.12
322.878	84.12
323.108	85.12
323.337	84.12
323.566	77.12
323.795	91.12
324.024	81.12
324.253	76.12
324.482	93.12
324.71	91.12
324.939	89.12
325.168	87.12
325.397	88.12
325.626	84.12
325.855	85.12
326.084	81.12
326.313	86.12
326.542	78.12
326.77	89.12
326.999	76.12
327.228	89.12
327.457	87.12
327.686	93.12
327.914	83.12
328.143	91.12
328.372	65.12
328.6	83.12
328.829	84.12
329.058	84.12
329.287	72.12
329.515	63.12
329.744	84.12
329.972	87.12
330.201	79.12
330.43	82.12
330.658	79.12
330.887	86.12
331.115	83.12
331.344	85.12
331.572	84.12
331.801	76.12
332.03	84.12
332.258	94.12
332.486	68.12
332.715	78.12
332.943	77.12
333.172	77.12
333.4	78.12
333.629	94.12
333.857	81.12
334.085	79.12
334.314	92.12
334.542	85.12
334.771	87.12
334.999	91.12
335.227	74.12
335.455	79.12
335.684	73.12
335.912	83.12
336.14	92.12
336.369	90.12
336.597	81.12
336.825	73.12
337.053	75.12
337.281	77.12
337.51	69.12
337.738	84.12
337.966	77.12
338.194	89.12
338.422	81.12
338.65	81.12
338.878	90.12
339.106	83.12
339.334	86.12
339.562	81.12
339.79	81.12
340.018	86.12
340.246	77.12
340.474	92.12
340.702	89.12
340.93	85.12
341.158	73.12
341.386	83.12
341.614	85.12
341.842	74.12
342.07	73.12
342.298	92.12
342.526	81.12
342.754	78.12
342.981	81.12
343.209	93.12
343.437	87.12
343.665	76.12
343.893	76.12
344.12	78.12
344.348	75.12
344.576	81.12
344.804	90.12
345.031	84.12
345.259	71.12
345.487	82.12
345.714	83.12
345.942	92.12
346.17	100.12
346.397	79.12
346.625	76.12
346.853	69.12
347.08	87.12
347.308	89.12
347.535	81.12
347.763	85.12
347.99	62.12
348.218	81.12
348.445	82.12
348.673	85.12
348.9	92.12
349.128	80.12
349.355	90.12
349.583	90.12
349.81	84.12
350.037	87.12
350.265	101.12
350.492	76.12
350.72	73.12
350.947	76.12
351.174	93.12
351.402	90.12
351.629	78.12
351.856	90.12
352.083	87.12
352.311	92.12
352.538	90.12
352.765	89.12
352.992	79.12
353.22	76.12
353.447	72.12
353.674	75.12
353.901	91.12
354.128	85.12
354.355	91.12
354.583	77.12
354.81	83.12
355.037	85.12
355.264	81.12
355.491	94.12
355.718	87.12
355.945	89.12
356.172	85.12
356.399	87.12
356.626	82.12
356.853	82.12
357.08	81.12
357.307	86.12
357.534	83.12
357.761	83.12
357.988	78.12
358.215	83.12
358.441	86.12
358.668	82.12
358.895	83.12
359.122	82.12
359.349	84.12
359.576	87.12
359.802	79.12
360.029	85.12
360.256	83.12
360.483	84.12
360.709	79.12
360.936	87.12
361.163	81.12
361.39	76.12
361.616	70.12
361.843	97.12
362.07	93.12
362.296	80.12
362.523	84.12
362.749	79.12
362.976	81.12
363.203	86.12
363.429	86.12
363.656	87.12
363.882	78.12
364.109	82.12
364.335	88.12
364.562	85.12
364.788	79.12
365.015	84.12
365.241	73.12
365.468	101.12
365.694	75.12
365.92	81.12
366.147	93.12
366.373	75.12
366.599	91.12
366.826	76.12
367.052	98.12
367.278	84.12
367.505	90.12
367.731	98.12
367.957	99.12
368.184	84.12
368.41	71.12
368.636	90.12
368.862	87.12
369.089	84.12
369.315	74.12
369.541	84.12
369.767	81.12
369.993	84.12
370.219	99.12
370.445	92.12
370.672	78.12
370.898	81.12
371.124	87.12
371.35	90.12
371.576	83.12
371.802	82.12
372.028	64.12
372.254	90.12
372.48	92.12
372.706	76.12
372.932	91.12
373.158	82.12
373.384	89.12
373.61	93.12
373.835	89.12
374.061	78.12
374.287	82.12
374.513	79.12
374.739	88.12
374.965	78.12
375.191	76.12
375.416	70.12
375.642	76.12
375.868	80.12
376.094	75.12
376.319	80.12
376.545	74.12
376.771	74.12
376.997	85.12
377.222	94.12
377.448	88.12
377.674	82.12
377.899	79.12
378.125	75.12
378.35	82.12
378.576	76.12
378.802	75.12
379.027	77.12
379.253	100.12
379.478	80.12
379.704	97.12
379.929	71.12
380.155	73.12
380.38	76.12
380.606	89.12
380.831	86.12
381.057	91.12
381.282	88.12
381.507	74.12
381.733	82.12
381.958	87.12
382.184	87.12
382.409	66.12
382.634	73.12
382.86	79.12
383.085	87.12
383.31	69.12
383.535	84.12
383.761	79.12
383.986	78.12
384.211	73.12
384.436	71.12
384.662	87.12
384.887	76.12
385.112	71.12
385.337	82.12
385.562	87.12
385.787	85.12
386.013	93.12
386.238	75.12
386.463	85.12
386.688	88.12
386.913	83.12
387.138	70.12
387.363	74.12
387.588	83.12
387.813	82.12
388.038	83.12
388.263	84.12
388.488	69.12
388.713	76.12
388.938	75.12
389.163	87.12
389.387	82.12
389.612	82.12
389.837	78.12
390.062	94.12
390.287	81.12
390.512	90.12
390.736	78.12
390.961	69.12
391.186	86.12
391.411	74.12
391.636	75.12
391.86	87.12
392.085	78.12
392.31	88.12
392.534	79.12
392.759	82.12
392.984	97.12
393.208	102.12
393.433	107.12
393.658	99.12
393.882	77.12
394.107	84.12
394.331	78.12
394.556	102.12
394.78	85.12
395.005	86.12
395.229	73.12
395.454	79.12
395.678	85.12
395.903	70.12
396.127	81.12
396.352	89.12
396.576	91.12
396.801	106.12
397.025	96.12
397.249	85.12
397.474	82.12
397.698	75.12
397.922	88.12
398.147	85.12
398.371	87.12
398.595	85.12
398.82	94.12
399.044	72.12
399.268	78.12
399.492	96.12
399.717	71.12
399.941	85.12
400.165	58.12
400.389	90.12
400.613	95.12
400.837	85.12
401.062	87.12
401.286	78.12
401.51	83.12
401.734	83.12
401.958	82.12
402.182	86.12
402.406	66.12
402.63	72.12
402.854	77.12
403.078	80.12
403.302	86.12
403.526	85.12
403.75	85.12
403.974	92.12
404.198	97.12
404.422	109.12
404.645	118.12
404.869	109.12
405.093	104.12
405.317	89.12
405.541	78.12
405.765	99.12
405.988	73.12
406.212	83.12
406.436	75.12
406.66	83.12
406.883	90.12
407.107	88.12
407.331	81.12
407.555	75.12
407.778	86.12
408.002	67.12
408.226	68.12
408.449	98.12
408.673	78.12
408.896	86.12
409.12	79.12
409.344	92.12
409.567	86.12
409.791	93.12
410.014	75.12
410.238	93.12
410.461	81.12
410.685	76.12
410.908	83.12
411.132	75.12
411.355	82.12
411.578	83.12
411.802	89.12
412.025	90.12
412.249	82.12
412.472	72.12
412.695	79.12
412.919	82.12
413.142	69.12
413.365	83.12
413.589	75.12
413.812	86.12
414.035	90.12
414.258	85.12
414.482	86.12
414.705	80.12
414.928	79.12
415.151	67.12
415.374	83.12
415.597	94.12
415.821	77.12
416.044	84.12
416.267	77.12
416.49	70.12
416.713	69.12
416.936	84.12
417.159	82.12
417.382	77.12
417.605	74.12
417.828	77.12
418.051	85.12
418.274	78.12
418.497	73.12
418.72	72.12
418.943	68.12
419.166	73.12
419.389	78.12
419.611	81.12
419.834	87.12
420.057	87.12
420.28	79.12
420.503	85.12
420.726	81.12
420.948	87.12
421.171	88.12
421.394	77.12
421.617	84.12
421.839	88.12
422.062	91.12
422.285	94.12
422.507	126.12
422.73	133.12
422.953	131.12
423.175	96.12
423.398	76.12
423.621	69.12
423.843	69.12
424.066	89.12
424.288	82.12
424.511	92.12
424.733	91.12
424.956	79.12
425.178	83.12
425.401	66.12
425.623	79.12
425.846	82.12
426.068	75.12
426.291	88.12
426.513	85.12
426.735	78.12
426.958	77.12
427.18	76.12
427.402	83.12
427.625	100.12
427.847	78.12
428.069	95.12
428.292	83.12
428.514	82.12
428.736	79.12
428.958	95.12
429.181	93.12
429.403	75.12
429.625	83.12
429.847	89.12
430.069	103.12
430.292	94.12
430.514	100.12
430.736	107.12
430.958	84.12
431.18	89.12
431.402	74.12
431.624	89.12
431.846	89.12
432.068	92.12
432.29	79.12
432.512	93.12
432.734	84.12
432.956	82.12
433.178	78.12
433.4	79.12
433.622	83.12
433.844	83.12
434.066	83.12
434.287	75.12
434.509	85.12
434.731	103.12
434.953	85.12
435.175	79.12
435.397	86.12
435.618	82.12
435.84	81.12
436.062	87.12
436.284	82.12
436.505	82.12
436.727	79.12
436.949	78.12
437.17	80.12
437.392	79.12
437.614	79.12
437.835	89.12
438.057	85.12
438.278	74.12
438.5	80.12
438.721	93.12
438.943	81.12
439.165	88.12
439.386	84.12
439.608	85.12
439.829	69.12
440.05	78.12
440.272	72.12
440.493	79.12
440.715	74.12
440.936	73.12
441.158	67.12
441.379	81.12
441.6	86.12
441.822	83.12
442.043	78.12
442.264	68.12
442.486	94.12
442.707	97.12
442.928	78.12
443.149	83.12
443.371	104.12
443.592	97.12
443.813	82.12
444.034	74.12
444.255	82.12
444.476	90.12
444.698	73.12
444.919	86.12
445.14	150.12
445.361	125.12
445.582	123.12
445.803	96.12
446.024	79.12
446.245	72.12
446.466	65.12
446.687	67.12
446.908	82.12
447.129	83.12
447.35	91.12
447.571	78.12
447.792	74.12
448.013	79.12
448.234	79.12
448.455	78.12
448.675	86.12
448.896	81.12
449.117	79.12
449.338	77.12
449.559	86.12
449.779	95.12
450	87.12
450.221	68.12
450.442	71.12
450.662	87.12
450.883	82.12
451.104	71.12
451.324	73.12
451.545	83.12
451.766	76.12
451.986	75.12
452.207	74.12
452.428	69.12
452.648	78.12
452.869	81.12
453.089	73.12
453.31	83.12
453.53	90.12
453.751	99.12
453.971	89.12
454.192	82.12
454.412	71.12
454.633	73.12
454.853	75.12
455.073	67.12
455.294	80.12
455.514	83.12
455.734	80.12
455.955	83.12
456.175	75.12
456.395	90.12
456.616	96.12
456.836	67.12
457.056	60.12
457.276	77.12
457.497	68.12
457.717	83.12
457.937	73.12
458.157	85.12
458.377	92.12
458.598	75.12
458.818	77.12
459.038	70.12
459.258	74.12
459.478	72.12
459.698	81.12
459.918	87.12
460.138	68.12
460.358	87.12
460.578	86.12
460.798	81.12
461.018	103.12
461.238	94.12
461.458	72.12
461.678	79.12
461.898	77.12
462.118	76.12
462.338	86.12
462.558	76.12
462.777	83.12
462.997	70.12
463.217	85.12
463.437	82.12
463.657	84.12
463.876	87.12
464.096	89.12
464.316	90.12
464.536	87.12
464.755	94.12
464.975	76.12
465.195	77.12
465.414	76.12
465.634	93.12
465.854	88.12
466.073	83.12
466.293	69.12
466.512	85.12
466.732	77.12
466.951	68.12
467.171	80.12
467.391	70.12
467.61	77.12
467.829	71.12
468.049	88.12
468.268	88.12
468.488	73.12
468.707	81.12
468.927	83.12
469.146	72.12
469.365	79.12
469.585	77.12
469.804	78.12
470.023	76.12
470.243	85.12
470.462	101.12
470.681	82.12
470.901	80.12
471.12	64.12
471.339	86.12
471.558	71.12
471.777	86.12
471.997	70.12
472.216	85.12
472.435	71.12
472.654	93.12
472.873	102.12
473.092	87.12
473.311	91.12
473.53	103.12
473.749	71.12
473.968	82.12
474.187	76.12
474.406	85.12
474.625	83.12
474.844	87.12
475.063	88.12
475.282	72.12
475.501	81.12
475.72	76.12
475.939	85.12
476.158	91.12
476.377	76.12
476.596	82.12
476.814	79.12
477.033	97.12
477.252	83.12
477.471	82.12
477.69	76.12
477.908	75.12
478.127	72.12
478.346	89.12
478.564	86.12
478.783	69.12
479.002	68.12
479.22	75.12
479.439	89.12
479.658	68.12
479.876	81.12
480.095	69.12
480.313	85.12
480.532	72.12
480.751	71.12
480.969	73.12
481.188	85.12
481.406	91.12
481.624	83.12
481.843	87.12
482.061	75.12
482.28	90.12
482.498	77.12
482.717	81.12
482.935	73.12
483.153	82.12
483.372	87.12
483.59	91.12
483.808	86.12
484.027	79.12
484.245	89.12
484.463	80.12
484.681	92.12
484.9	80.12
485.118	85.12
485.336	92.12
485.554	83.12
485.772	67.12
485.99	73.12
486.209	75.12
486.427	87.12
486.645	83.12
486.863	86.12
487.081	77.12
487.299	73.12
487.517	77.12
487.735	94.12
487.953	83.12
488.171	84.12
488.389	84.12
488.607	89.12
488.825	83.12
489.043	71.12
489.261	77.12
489.479	83.12
489.696	83.12
489.914	75.12
490.132	93.12
490.35	75.12
490.568	69.12
490.786	81.12
491.003	81.12
491.221	97.12
491.439	84.12
491.657	78.12
491.874	94.12
492.092	89.12
492.31	68.12
492.527	72.12
492.745	88.12
492.963	85.12
493.18	77.12
493.398	86.12
493.615	81.12
493.833	85.12
494.05	90.12
494.268	69.12
494.485	98.12
494.703	87.12
494.92	78.12
495.138	83.12
495.355	95.12
495.573	83.12
495.79	76.12
496.008	90.12
496.225	94.12
496.442	73.12
496.66	74.12
496.877	84.12
497.094	89.12
497.312	69.12
497.529	90.12
497.746	73.12
497.963	84.12
498.181	91.12
498.398	84.12
498.615	87.12
498.832	74.12
499.049	79.12
499.267	91.12
499.484	83.12
499.701	87.12
499.918	94.12
500.135	91.12
500.352	92.12
500.569	84.12
500.786	78.12
501.003	90.12
501.22	83.12
501.437	82.12
501.654	82.12
501.871	77.12
502.088	79.12
502.305	78.12
502.522	72.12
502.739	76.12
502.956	83.12
503.172	79.12
503.389	81.12
503.606	74.12
503.823	86.12
504.04	81.12
504.256	91.12
504.473	79.12
504.69	80.12
504.907	62.12
505.123	87.12
505.34	79.12
505.557	89.12
505.773	93.12
505.99	84.12
506.207	98.12
506.423	85.12
506.64	80.12
506.856	78.12
507.073	80.12
507.289	88.12
507.506	87.12
507.722	91.12
507.939	76.12
508.155	88.12
508.372	67.12
508.588	77.12
508.805	85.12
509.021	71.12
509.238	87.12
509.454	70.12
509.67	77.12
509.887	70.12
510.103	73.12
510.319	74.12
510.536	89.12
510.752	89.12
510.968	72.12
511.184	66.12
511.401	81.12
511.617	79.12
511.833	79.12
512.049	107.12
512.265	91.12
512.481	89.12
512.698	91.12
512.914	73.12
513.13	94.12
513.346	78.12
513.562	80.12
513.778	92.12
513.994	85.12
514.21	82.12
514.426	71.12
514.642	91.12
514.858	85.12
515.074	73.12
515.29	90.12
515.506	89.12
515.721	92.12
515.937	97.12
516.153	85.12
516.369	73.12
516.585	87.12
516.801	76.12
517.016	82.12
517.232	86.12
517.448	104.12
517.664	69.12
517.879	64.12
518.095	82.12
518.311	76.12
518.527	90.12
518.742	84.12
518.958	90.12
519.173	100.12
519.389	97.12
519.605	84.12
