Data from Mixnoheat4_HRD10591_00001.txt Node
Date: Fri Dec 27 15:04:13 EST 2024
User: Yrep
Spectrometer: HR+D1059
Trigger mode: 1
Integration Time (sec): 1.000000E-1
Scans to average: 1
Electric dark correction enabled: true
Nonlinearity correction enabled: false
Boxcar width: 0
XAxis mode: Wavelengths
Number of Pixels in Spectrum: 2048
>>>>>Begin Spectral Data<<<<<
223.165	-20.62
223.4	-20.62
223.635	-20.62
223.869	-12.62
224.104	-27.62
224.338	-12.62
224.573	-2.62
224.808	-10.62
225.042	-9.62
225.277	-5.62
225.511	5.38
225.746	-2.62
225.98	6.38
226.215	4.38
226.449	22.38
226.683	15.38
226.918	18.38
227.152	32.38
227.387	29.38
227.621	43.38
227.856	49.38
228.09	41.38
228.324	43.38
228.559	47.38
228.793	53.38
229.027	60.38
229.262	63.38
229.496	70.38
229.73	71.38
229.964	72.38
230.199	69.38
230.433	68.38
230.667	72.38
230.901	71.38
231.136	62.38
231.37	67.38
231.604	81.38
231.838	76.38
232.072	90.38
232.306	85.38
232.541	85.38
232.775	71.38
233.009	87.38
233.243	63.38
233.477	75.38
233.711	74.38
233.945	72.38
234.179	76.38
234.413	78.38
234.647	86.38
234.881	81.38
235.115	61.38
235.349	76.38
235.583	69.38
235.817	76.38
236.051	76.38
236.285	73.38
236.519	75.38
236.753	82.38
236.987	77.38
237.221	70.38
237.455	84.38
237.689	68.38
237.922	72.38
238.156	85.38
238.39	77.38
238.624	70.38
238.858	63.38
239.091	64.38
239.325	69.38
239.559	74.38
239.793	73.38
240.027	83.38
240.26	75.38
240.494	90.38
240.728	63.38
240.961	84.38
241.195	76.38
241.429	77.38
241.662	78.38
241.896	63.38
242.13	70.38
242.363	66.38
242.597	80.38
242.83	97.38
243.064	83.38
243.298	78.38
243.531	72.38
243.765	84.38
243.998	86.38
244.232	73.38
244.465	85.38
244.699	69.38
244.932	78.38
245.166	73.38
245.399	76.38
245.633	79.38
245.866	77.38
246.099	76.38
246.333	73.38
246.566	70.38
246.8	82.38
247.033	68.38
247.266	70.38
247.5	85.38
247.733	84.38
247.966	81.38
248.2	79.38
248.433	83.38
248.666	74.38
248.899	82.38
249.133	91.38
249.366	86.38
249.599	73.38
249.832	87.38
250.066	83.38
250.299	69.38
250.532	78.38
250.765	56.38
250.998	81.38
251.231	73.38
251.465	68.38
251.698	73.38
251.931	76.38
252.164	67.38
252.397	82.38
252.63	65.38
252.863	70.38
253.096	74.38
253.329	78.38
253.562	73.38
253.795	58.38
254.028	61.38
254.261	75.38
254.494	64.38
254.727	88.38
254.96	61.38
255.193	85.38
255.426	73.38
255.659	77.38
255.892	86.38
256.124	86.38
256.357	76.38
256.59	88.38
256.823	81.38
257.056	70.38
257.289	73.38
257.521	75.38
257.754	69.38
257.987	90.38
258.22	82.38
258.452	77.38
258.685	65.38
258.918	76.38
259.151	82.38
259.383	80.38
259.616	71.38
259.849	73.38
260.081	74.38
260.314	87.38
260.547	73.38
260.779	76.38
261.012	74.38
261.244	73.38
261.477	87.38
261.71	70.38
261.942	89.38
262.175	95.38
262.407	79.38
262.64	67.38
262.872	75.38
263.105	74.38
263.337	82.38
263.57	88.38
263.802	77.38
264.035	87.38
264.267	71.38
264.499	78.38
264.732	83.38
264.964	80.38
265.197	71.38
265.429	81.38
265.661	86.38
265.894	79.38
266.126	77.38
266.358	78.38
266.591	78.38
266.823	89.38
267.055	77.38
267.287	92.38
267.52	73.38
267.752	82.38
267.984	64.38
268.216	74.38
268.448	82.38
268.681	91.38
268.913	87.38
269.145	77.38
269.377	74.38
269.609	78.38
269.841	73.38
270.073	82.38
270.306	86.38
270.538	77.38
270.77	72.38
271.002	88.38
271.234	89.38
271.466	91.38
271.698	85.38
271.93	72.38
272.162	114.38
272.394	77.38
272.626	73.38
272.858	81.38
273.09	79.38
273.322	82.38
273.553	68.38
273.785	84.38
274.017	76.38
274.249	97.38
274.481	72.38
274.713	76.38
274.945	74.38
275.176	71.38
275.408	76.38
275.64	85.38
275.872	88.38
276.104	90.38
276.335	90.38
276.567	67.38
276.799	89.38
277.031	73.38
277.262	72.38
277.494	86.38
277.726	69.38
277.957	86.38
278.189	84.38
278.421	83.38
278.652	75.38
278.884	61.38
279.115	88.38
279.347	81.38
279.579	100.38
279.81	79.38
280.042	66.38
280.273	82.38
280.505	85.38
280.736	88.38
280.968	80.38
281.199	73.38
281.431	69.38
281.662	99.38
281.894	85.38
282.125	81.38
282.356	93.38
282.588	78.38
282.819	85.38
283.051	89.38
283.282	82.38
283.513	81.38
283.745	89.38
283.976	84.38
284.207	77.38
284.439	77.38
284.67	87.38
284.901	72.38
285.132	83.38
285.364	72.38
285.595	71.38
285.826	90.38
286.057	78.38
286.288	67.38
286.52	79.38
286.751	73.38
286.982	84.38
287.213	80.38
287.444	65.38
287.675	86.38
287.906	95.38
288.138	77.38
288.369	90.38
288.6	79.38
288.831	85.38
289.062	67.38
289.293	83.38
289.524	78.38
289.755	92.38
289.986	71.38
290.217	101.38
290.448	82.38
290.679	79.38
290.91	98.38
291.141	82.38
291.371	99.38
291.602	83.38
291.833	89.38
292.064	78.38
292.295	85.38
292.526	86.38
292.757	78.38
292.987	85.38
293.218	89.38
293.449	89.38
293.68	64.38
293.91	67.38
294.141	81.38
294.372	71.38
294.603	82.38
294.833	97.38
295.064	61.38
295.295	84.38
295.525	77.38
295.756	87.38
295.987	86.38
296.217	94.38
296.448	83.38
296.679	80.38
296.909	82.38
297.14	93.38
297.37	74.38
297.601	77.38
297.831	76.38
298.062	91.38
298.292	80.38
298.523	83.38
298.753	81.38
298.984	81.38
299.214	88.38
299.445	78.38
299.675	91.38
299.905	75.38
300.136	79.38
300.366	84.38
300.597	72.38
300.827	99.38
301.057	79.38
301.288	90.38
301.518	80.38
301.748	69.38
301.979	94.38
302.209	68.38
302.439	88.38
302.669	80.38
302.9	83.38
303.13	84.38
303.36	87.38
303.59	66.38
303.82	77.38
304.051	79.38
304.281	68.38
304.511	71.38
304.741	88.38
304.971	89.38
305.201	91.38
305.431	79.38
305.661	83.38
305.891	100.38
306.121	95.38
306.352	81.38
306.582	84.38
306.812	72.38
307.042	84.38
307.272	86.38
307.502	76.38
307.731	86.38
307.961	87.38
308.191	78.38
308.421	84.38
308.651	86.38
308.881	74.38
309.111	98.38
309.341	87.38
309.571	82.38
309.8	69.38
310.03	85.38
310.26	80.38
310.49	79.38
310.72	81.38
310.949	78.38
311.179	80.38
311.409	77.38
311.639	78.38
311.868	80.38
312.098	78.38
312.328	83.38
312.557	91.38
312.787	84.38
313.017	73.38
313.246	80.38
313.476	75.38
313.706	82.38
313.935	78.38
314.165	80.38
314.394	85.38
314.624	81.38
314.853	70.38
315.083	94.38
315.312	95.38
315.542	81.38
315.771	92.38
316.001	87.38
316.23	80.38
316.46	69.38
316.689	75.38
316.919	82.38
317.148	82.38
317.377	92.38
317.607	68.38
317.836	80.38
318.065	82.38
318.295	85.38
318.524	81.38
318.753	71.38
318.983	84.38
319.212	91.38
319.441	90.38
319.67	78.38
319.9	93.38
320.129	105.38
320.358	84.38
320.587	73.38
320.816	88.38
321.046	78.38
321.275	82.38
321.504	88.38
321.733	81.38
321.962	90.38
322.191	82.38
322.42	85.38
322.649	63.38
322.878	61.38
323.108	86.38
323.337	75.38
323.566	79.38
323.795	90.38
324.024	98.38
324.253	81.38
324.482	84.38
324.71	78.38
324.939	82.38
325.168	92.38
325.397	86.38
325.626	97.38
325.855	88.38
326.084	89.38
326.313	73.38
326.542	72.38
326.77	90.38
326.999	80.38
327.228	86.38
327.457	77.38
327.686	91.38
327.914	68.38
328.143	77.38
328.372	74.38
328.6	71.38
328.829	90.38
329.058	78.38
329.287	87.38
329.515	81.38
329.744	84.38
329.972	85.38
330.201	85.38
330.43	75.38
330.658	85.38
330.887	78.38
331.115	65.38
331.344	76.38
331.572	73.38
331.801	84.38
332.03	76.38
332.258	86.38
332.486	78.38
332.715	88.38
332.943	88.38
333.172	85.38
333.4	62.38
333.629	94.38
333.857	83.38
334.085	88.38
334.314	92.38
334.542	81.38
334.771	77.38
334.999	67.38
335.227	70.38
335.455	69.38
335.684	78.38
335.912	93.38
336.14	83.38
336.369	78.38
336.597	84.38
336.825	78.38
337.053	59.38
337.281	74.38
337.51	74.38
337.738	81.38
337.966	75.38
338.194	79.38
338.422	83.38
338.65	94.38
338.878	84.38
339.106	84.38
339.334	79.38
339.562	82.38
339.79	79.38
340.018	86.38
340.246	84.38
340.474	74.38
340.702	96.38
340.93	70.38
341.158	81.38
341.386	83.38
341.614	77.38
341.842	91.38
342.07	75.38
342.298	95.38
342.526	91.38
342.754	81.38
342.981	74.38
343.209	91.38
343.437	92.38
343.665	78.38
343.893	91.38
344.12	81.38
344.348	78.38
344.576	92.38
344.804	71.38
345.031	75.38
345.259	81.38
345.487	82.38
345.714	83.38
345.942	70.38
346.17	79.38
346.397	87.38
346.625	84.38
346.853	79.38
347.08	73.38
347.308	100.38
347.535	100.38
347.763	86.38
347.99	87.38
348.218	90.38
348.445	84.38
348.673	101.38
348.9	86.38
349.128	80.38
349.355	92.38
349.583	83.38
349.81	66.38
350.037	72.38
350.265	77.38
350.492	73.38
350.72	99.38
350.947	89.38
351.174	86.38
351.402	91.38
351.629	98.38
351.856	82.38
352.083	74.38
352.311	75.38
352.538	79.38
352.765	82.38
352.992	91.38
353.22	78.38
353.447	72.38
353.674	78.38
353.901	77.38
354.128	89.38
354.355	90.38
354.583	83.38
354.81	88.38
355.037	89.38
355.264	75.38
355.491	78.38
355.718	72.38
355.945	86.38
356.172	92.38
356.399	90.38
356.626	78.38
356.853	78.38
357.08	83.38
357.307	87.38
357.534	66.38
357.761	76.38
357.988	74.38
358.215	98.38
358.441	85.38
358.668	74.38
358.895	61.38
359.122	81.38
359.349	85.38
359.576	86.38
359.802	73.38
360.029	67.38
360.256	81.38
360.483	80.38
360.709	69.38
360.936	79.38
361.163	70.38
361.39	76.38
361.616	78.38
361.843	82.38
362.07	88.38
362.296	81.38
362.523	80.38
362.749	80.38
362.976	94.38
363.203	82.38
363.429	62.38
363.656	77.38
363.882	84.38
364.109	88.38
364.335	82.38
364.562	84.38
364.788	74.38
365.015	82.38
365.241	80.38
365.468	89.38
365.694	86.38
365.92	69.38
366.147	69.38
366.373	87.38
366.599	87.38
366.826	94.38
367.052	88.38
367.278	90.38
367.505	91.38
367.731	85.38
367.957	83.38
368.184	84.38
368.41	82.38
368.636	85.38
368.862	84.38
369.089	90.38
369.315	88.38
369.541	93.38
369.767	84.38
369.993	77.38
370.219	71.38
370.445	83.38
370.672	69.38
370.898	80.38
371.124	79.38
371.35	86.38
371.576	75.38
371.802	82.38
372.028	80.38
372.254	86.38
372.48	65.38
372.706	84.38
372.932	75.38
373.158	78.38
373.384	74.38
373.61	67.38
373.835	86.38
374.061	69.38
374.287	75.38
374.513	84.38
374.739	77.38
374.965	84.38
375.191	89.38
375.416	75.38
375.642	86.38
375.868	95.38
376.094	62.38
376.319	58.38
376.545	79.38
376.771	87.38
376.997	83.38
377.222	86.38
377.448	91.38
377.674	90.38
377.899	78.38
378.125	83.38
378.35	85.38
378.576	88.38
378.802	85.38
379.027	78.38
379.253	83.38
379.478	74.38
379.704	78.38
379.929	78.38
380.155	75.38
380.38	91.38
380.606	73.38
380.831	80.38
381.057	80.38
381.282	68.38
381.507	87.38
381.733	77.38
381.958	81.38
382.184	84.38
382.409	76.38
382.634	79.38
382.86	81.38
383.085	74.38
383.31	83.38
383.535	83.38
383.761	72.38
383.986	67.38
384.211	91.38
384.436	57.38
384.662	68.38
384.887	81.38
385.112	87.38
385.337	78.38
385.562	85.38
385.787	83.38
386.013	83.38
386.238	90.38
386.463	74.38
386.688	90.38
386.913	79.38
387.138	74.38
387.363	78.38
387.588	84.38
387.813	77.38
388.038	72.38
388.263	97.38
388.488	74.38
388.713	83.38
388.938	93.38
389.163	73.38
389.387	74.38
389.612	65.38
389.837	57.38
390.062	85.38
390.287	82.38
390.512	85.38
390.736	74.38
390.961	94.38
391.186	72.38
391.411	83.38
391.636	67.38
391.86	98.38
392.085	79.38
392.31	91.38
392.534	82.38
392.759	89.38
392.984	82.38
393.208	89.38
393.433	103.38
393.658	86.38
393.882	94.38
394.107	81.38
394.331	71.38
394.556	86.38
394.78	66.38
395.005	81.38
395.229	72.38
395.454	90.38
395.678	77.38
395.903	93.38
396.127	89.38
396.352	88.38
396.576	102.38
396.801	100.38
397.025	93.38
397.249	91.38
397.474	87.38
397.698	82.38
397.922	78.38
398.147	73.38
398.371	73.38
398.595	86.38
398.82	79.38
399.044	77.38
399.268	90.38
399.492	77.38
399.717	78.38
399.941	77.38
400.165	88.38
400.389	81.38
400.613	75.38
400.837	69.38
401.062	76.38
401.286	75.38
401.51	76.38
401.734	91.38
401.958	83.38
402.182	87.38
402.406	84.38
402.63	92.38
402.854	82.38
403.078	90.38
403.302	69.38
403.526	83.38
403.75	77.38
403.974	75.38
404.198	88.38
404.422	118.38
404.645	115.38
404.869	110.38
405.093	103.38
405.317	78.38
405.541	86.38
405.765	85.38
405.988	88.38
406.212	83.38
406.436	82.38
406.66	74.38
406.883	103.38
407.107	90.38
407.331	83.38
407.555	78.38
407.778	77.38
408.002	92.38
408.226	92.38
408.449	73.38
408.673	64.38
408.896	73.38
409.12	84.38
409.344	72.38
409.567	72.38
409.791	83.38
410.014	81.38
410.238	60.38
410.461	91.38
410.685	73.38
410.908	88.38
411.132	85.38
411.355	76.38
411.578	84.38
411.802	71.38
412.025	78.38
412.249	79.38
412.472	81.38
412.695	86.38
412.919	83.38
413.142	82.38
413.365	72.38
413.589	70.38
413.812	81.38
414.035	91.38
414.258	80.38
414.482	87.38
414.705	91.38
414.928	86.38
415.151	83.38
415.374	85.38
415.597	79.38
415.821	81.38
416.044	81.38
416.267	76.38
416.49	82.38
416.713	71.38
416.936	94.38
417.159	78.38
417.382	67.38
417.605	71.38
417.828	86.38
418.051	72.38
418.274	86.38
418.497	83.38
418.72	76.38
418.943	87.38
419.166	94.38
419.389	86.38
419.611	81.38
419.834	75.38
420.057	84.38
420.28	81.38
420.503	87.38
420.726	83.38
420.948	79.38
421.171	75.38
421.394	81.38
421.617	82.38
421.839	87.38
422.062	88.38
422.285	89.38
422.507	115.38
422.73	129.38
422.953	109.38
423.175	77.38
423.398	91.38
423.621	88.38
423.843	94.38
424.066	83.38
424.288	92.38
424.511	79.38
424.733	92.38
424.956	74.38
425.178	92.38
425.401	78.38
425.623	73.38
425.846	89.38
426.068	85.38
426.291	90.38
426.513	90.38
426.735	92.38
426.958	90.38
427.18	73.38
427.402	77.38
427.625	88.38
427.847	78.38
428.069	78.38
428.292	91.38
428.514	74.38
428.736	90.38
428.958	97.38
429.181	75.38
429.403	89.38
429.625	88.38
429.847	84.38
430.069	90.38
430.292	112.38
430.514	102.38
430.736	74.38
430.958	92.38
431.18	75.38
431.402	86.38
431.624	89.38
431.846	88.38
432.068	96.38
432.29	91.38
432.512	87.38
432.734	77.38
432.956	90.38
433.178	102.38
433.4	79.38
433.622	72.38
433.844	80.38
434.066	77.38
434.287	83.38
434.509	88.38
434.731	85.38
434.953	74.38
435.175	82.38
435.397	85.38
435.618	86.38
435.84	71.38
436.062	73.38
436.284	68.38
436.505	71.38
436.727	74.38
436.949	82.38
437.17	81.38
437.392	84.38
437.614	77.38
437.835	80.38
438.057	67.38
438.278	88.38
438.5	85.38
438.721	97.38
438.943	95.38
439.165	86.38
439.386	97.38
439.608	84.38
439.829	67.38
440.05	72.38
440.272	64.38
440.493	77.38
440.715	75.38
440.936	84.38
441.158	82.38
441.379	85.38
441.6	87.38
441.822	89.38
442.043	77.38
442.264	93.38
442.486	85.38
442.707	76.38
442.928	98.38
443.149	85.38
443.371	92.38
443.592	100.38
443.813	100.38
444.034	90.38
444.255	83.38
444.476	73.38
444.698	89.38
444.919	85.38
445.14	142.38
445.361	139.38
445.582	119.38
445.803	93.38
446.024	74.38
446.245	96.38
446.466	78.38
446.687	86.38
446.908	85.38
447.129	87.38
447.35	91.38
447.571	83.38
447.792	95.38
448.013	87.38
448.234	89.38
448.455	76.38
448.675	87.38
448.896	70.38
449.117	85.38
449.338	74.38
449.559	76.38
449.779	82.38
450	75.38
450.221	73.38
450.442	74.38
450.662	81.38
450.883	77.38
451.104	88.38
451.324	99.38
451.545	89.38
451.766	84.38
451.986	84.38
452.207	77.38
452.428	84.38
452.648	87.38
452.869	78.38
453.089	76.38
453.31	71.38
453.53	88.38
453.751	82.38
453.971	77.38
454.192	66.38
454.412	87.38
454.633	79.38
454.853	76.38
455.073	98.38
455.294	69.38
455.514	92.38
455.734	93.38
455.955	102.38
456.175	78.38
456.395	100.38
456.616	79.38
456.836	84.38
457.056	80.38
457.276	84.38
457.497	79.38
457.717	90.38
457.937	81.38
458.157	77.38
458.377	82.38
458.598	89.38
458.818	79.38
459.038	84.38
459.258	93.38
459.478	68.38
459.698	78.38
459.918	86.38
460.138	87.38
460.358	78.38
460.578	77.38
460.798	88.38
461.018	82.38
461.238	88.38
461.458	79.38
461.678	83.38
461.898	73.38
462.118	79.38
462.338	93.38
462.558	95.38
462.777	71.38
462.997	98.38
463.217	72.38
463.437	95.38
463.657	81.38
463.876	68.38
464.096	77.38
464.316	78.38
464.536	83.38
464.755	91.38
464.975	78.38
465.195	82.38
465.414	89.38
465.634	88.38
465.854	90.38
466.073	74.38
466.293	78.38
466.512	68.38
466.732	74.38
466.951	74.38
467.171	74.38
467.391	85.38
467.61	80.38
467.829	82.38
468.049	80.38
468.268	79.38
468.488	77.38
468.707	80.38
468.927	89.38
469.146	69.38
469.365	73.38
469.585	85.38
469.804	86.38
470.023	92.38
470.243	89.38
470.462	93.38
470.681	106.38
470.901	77.38
471.12	84.38
471.339	94.38
471.558	82.38
471.777	73.38
471.997	81.38
472.216	79.38
472.435	78.38
472.654	83.38
472.873	74.38
473.092	80.38
473.311	82.38
473.53	89.38
473.749	87.38
473.968	86.38
474.187	87.38
474.406	83.38
474.625	88.38
474.844	77.38
475.063	96.38
475.282	89.38
475.501	81.38
475.72	77.38
475.939	85.38
476.158	82.38
476.377	81.38
476.596	73.38
476.814	75.38
477.033	86.38
477.252	89.38
477.471	84.38
477.69	79.38
477.908	83.38
478.127	86.38
478.346	85.38
478.564	82.38
478.783	85.38
479.002	82.38
479.22	83.38
479.439	93.38
479.658	79.38
479.876	69.38
480.095	78.38
480.313	76.38
480.532	82.38
480.751	84.38
480.969	78.38
481.188	76.38
481.406	96.38
481.624	82.38
481.843	60.38
482.061	82.38
482.28	78.38
482.498	81.38
482.717	90.38
482.935	71.38
483.153	82.38
483.372	85.38
483.59	77.38
483.808	79.38
484.027	71.38
484.245	80.38
484.463	84.38
484.681	97.38
484.9	83.38
485.118	86.38
485.336	79.38
485.554	76.38
485.772	71.38
485.99	84.38
486.209	77.38
486.427	82.38
486.645	86.38
486.863	91.38
487.081	86.38
487.299	85.38
487.517	83.38
487.735	93.38
487.953	86.38
488.171	97.38
488.389	91.38
488.607	88.38
488.825	94.38
489.043	77.38
489.261	100.38
489.479	83.38
489.696	87.38
489.914	72.38
490.132	69.38
490.35	91.38
490.568	92.38
490.786	91.38
491.003	81.38
491.221	84.38
491.439	90.38
491.657	80.38
491.874	81.38
492.092	86.38
492.31	85.38
492.527	90.38
492.745	70.38
492.963	72.38
493.18	90.38
493.398	79.38
493.615	83.38
493.833	86.38
494.05	81.38
494.268	82.38
494.485	94.38
494.703	87.38
494.92	80.38
495.138	86.38
495.355	88.38
495.573	94.38
495.79	89.38
496.008	88.38
496.225	88.38
496.442	83.38
496.66	78.38
496.877	89.38
497.094	75.38
497.312	67.38
497.529	85.38
497.746	76.38
497.963	81.38
498.181	84.38
498.398	83.38
498.615	77.38
498.832	88.38
499.049	80.38
499.267	94.38
499.484	92.38
499.701	94.38
499.918	90.38
500.135	87.38
500.352	71.38
500.569	85.38
500.786	78.38
501.003	76.38
501.22	92.38
501.437	97.38
501.654	87.38
501.871	73.38
502.088	85.38
502.305	69.38
502.522	82.38
502.739	71.38
502.956	78.38
503.172	85.38
503.389	81.38
503.606	95.38
503.823	83.38
504.04	82.38
504.256	104.38
504.473	102.38
504.69	90.38
504.907	100.38
505.123	84.38
505.34	85.38
505.557	88.38
505.773	85.38
505.99	92.38
506.207	96.38
506.423	114.38
506.64	82.38
506.856	89.38
507.073	77.38
507.289	83.38
507.506	91.38
507.722	93.38
507.939	100.38
508.155	94.38
508.372	78.38
508.588	89.38
508.805	91.38
509.021	80.38
509.238	94.38
509.454	84.38
509.67	78.38
509.887	82.38
510.103	89.38
510.319	76.38
510.536	81.38
510.752	88.38
510.968	86.38
511.184	81.38
511.401	78.38
511.617	85.38
511.833	78.38
512.049	94.38
512.265	81.38
512.481	87.38
512.698	91.38
512.914	88.38
513.13	79.38
513.346	76.38
513.562	82.38
513.778	79.38
513.994	77.38
514.21	84.38
514.426	102.38
514.642	84.38
514.858	93.38
515.074	92.38
515.29	84.38
515.506	80.38
515.721	91.38
515.937	99.38
516.153	92.38
516.369	88.38
516.585	88.38
516.801	85.38
517.016	67.38
517.232	82.38
517.448	84.38
517.664	89.38
517.879	80.38
518.095	79.38
518.311	90.38
518.527	88.38
518.742	93.38
518.958	79.38
519.173	77.38
519.389	94.38
519.605	92.38
519.82	78.38
