Data from Mixnoheat4_HRD10591_00003.txt Node
Date: Fri Dec 27 15:04:15 EST 2024
User: Yrep
Spectrometer: HR+D1059
Trigger mode: 1
Integration Time (sec): 1.000000E-1
Scans to average: 1
Electric dark correction enabled: true
Nonlinearity correction enabled: false
Boxcar width: 0
XAxis mode: Wavelengths
Number of Pixels in Spectrum: 2048
>>>>>Begin Spectral Data<<<<<
223.165	-21.25
223.4	-21.25
223.635	-21.25
223.869	-15.25
224.104	-21.25
224.338	-6.25
224.573	-19.25
224.808	-15.25
225.042	-7.25
225.277	-6.25
225.511	-8.25
225.746	-1.25
225.98	8.75
226.215	14.75
226.449	14.75
226.683	21.75
226.918	28.75
227.152	32.75
227.387	27.75
227.621	21.75
227.856	45.75
228.09	38.75
228.324	49.75
228.559	53.75
228.793	58.75
229.027	75.75
229.262	66.75
229.496	67.75
229.73	59.75
229.964	68.75
230.199	72.75
230.433	68.75
230.667	70.75
230.901	77.75
231.136	97.75
231.37	72.75
231.604	81.75
231.838	89.75
232.072	86.75
232.306	77.75
232.541	72.75
232.775	79.75
233.009	66.75
233.243	73.75
233.477	65.75
233.711	70.75
233.945	76.75
234.179	70.75
234.413	71.75
234.647	79.75
234.881	75.75
235.115	63.75
235.349	73.75
235.583	72.75
235.817	85.75
236.051	62.75
236.285	57.75
236.519	74.75
236.753	72.75
236.987	87.75
237.221	68.75
237.455	74.75
237.689	70.75
237.922	66.75
238.156	62.75
238.39	83.75
238.624	65.75
238.858	80.75
239.091	80.75
239.325	73.75
239.559	94.75
239.793	76.75
240.027	70.75
240.26	66.75
240.494	73.75
240.728	59.75
240.961	79.75
241.195	68.75
241.429	91.75
241.662	68.75
241.896	73.75
242.13	73.75
242.363	83.75
242.597	77.75
242.83	76.75
243.064	82.75
243.298	63.75
243.531	71.75
243.765	78.75
243.998	78.75
244.232	82.75
244.465	84.75
244.699	76.75
244.932	69.75
245.166	75.75
245.399	81.75
245.633	76.75
245.866	72.75
246.099	80.75
246.333	80.75
246.566	87.75
246.8	68.75
247.033	66.75
247.266	78.75
247.5	68.75
247.733	77.75
247.966	92.75
248.2	76.75
248.433	62.75
248.666	71.75
248.899	73.75
249.133	84.75
249.366	68.75
249.599	69.75
249.832	75.75
250.066	82.75
250.299	74.75
250.532	67.75
250.765	79.75
250.998	83.75
251.231	79.75
251.465	76.75
251.698	83.75
251.931	84.75
252.164	74.75
252.397	84.75
252.63	69.75
252.863	83.75
253.096	74.75
253.329	72.75
253.562	85.75
253.795	71.75
254.028	81.75
254.261	86.75
254.494	75.75
254.727	94.75
254.96	71.75
255.193	71.75
255.426	70.75
255.659	76.75
255.892	95.75
256.124	77.75
256.357	86.75
256.59	75.75
256.823	85.75
257.056	68.75
257.289	69.75
257.521	62.75
257.754	70.75
257.987	69.75
258.22	87.75
258.452	78.75
258.685	76.75
258.918	91.75
259.151	90.75
259.383	88.75
259.616	75.75
259.849	87.75
260.081	67.75
260.314	84.75
260.547	74.75
260.779	61.75
261.012	62.75
261.244	82.75
261.477	80.75
261.71	89.75
261.942	81.75
262.175	82.75
262.407	94.75
262.64	83.75
262.872	91.75
263.105	74.75
263.337	83.75
263.57	79.75
263.802	83.75
264.035	80.75
264.267	80.75
264.499	81.75
264.732	80.75
264.964	76.75
265.197	99.75
265.429	84.75
265.661	87.75
265.894	78.75
266.126	79.75
266.358	72.75
266.591	89.75
266.823	90.75
267.055	106.75
267.287	81.75
267.52	80.75
267.752	77.75
267.984	84.75
268.216	67.75
268.448	82.75
268.681	88.75
268.913	75.75
269.145	93.75
269.377	84.75
269.609	66.75
269.841	75.75
270.073	73.75
270.306	84.75
270.538	87.75
270.77	84.75
271.002	82.75
271.234	90.75
271.466	91.75
271.698	87.75
271.93	80.75
272.162	78.75
272.394	91.75
272.626	84.75
272.858	82.75
273.09	81.75
273.322	75.75
273.553	77.75
273.785	70.75
274.017	90.75
274.249	81.75
274.481	78.75
274.713	88.75
274.945	83.75
275.176	84.75
275.408	63.75
275.64	93.75
275.872	74.75
276.104	92.75
276.335	77.75
276.567	77.75
276.799	78.75
277.031	84.75
277.262	75.75
277.494	92.75
277.726	70.75
277.957	92.75
278.189	83.75
278.421	71.75
278.652	74.75
278.884	69.75
279.115	83.75
279.347	82.75
279.579	72.75
279.81	80.75
280.042	84.75
280.273	87.75
280.505	89.75
280.736	83.75
280.968	68.75
281.199	76.75
281.431	98.75
281.662	96.75
281.894	81.75
282.125	88.75
282.356	85.75
282.588	68.75
282.819	81.75
283.051	82.75
283.282	72.75
283.513	90.75
283.745	82.75
283.976	65.75
284.207	77.75
284.439	84.75
284.67	79.75
284.901	86.75
285.132	85.75
285.364	91.75
285.595	80.75
285.826	83.75
286.057	90.75
286.288	88.75
286.52	83.75
286.751	86.75
286.982	87.75
287.213	92.75
287.444	75.75
287.675	77.75
287.906	83.75
288.138	94.75
288.369	78.75
288.6	78.75
288.831	92.75
289.062	78.75
289.293	75.75
289.524	88.75
289.755	84.75
289.986	77.75
290.217	84.75
290.448	78.75
290.679	94.75
290.91	80.75
291.141	73.75
291.371	89.75
291.602	88.75
291.833	80.75
292.064	83.75
292.295	83.75
292.526	81.75
292.757	78.75
292.987	87.75
293.218	77.75
293.449	79.75
293.68	75.75
293.91	93.75
294.141	97.75
294.372	63.75
294.603	84.75
294.833	73.75
295.064	77.75
295.295	71.75
295.525	74.75
295.756	78.75
295.987	68.75
296.217	74.75
296.448	83.75
296.679	92.75
296.909	84.75
297.14	88.75
297.37	85.75
297.601	96.75
297.831	84.75
298.062	90.75
298.292	97.75
298.523	80.75
298.753	82.75
298.984	90.75
299.214	82.75
299.445	80.75
299.675	89.75
299.905	89.75
300.136	81.75
300.366	91.75
300.597	76.75
300.827	73.75
301.057	77.75
301.288	87.75
301.518	88.75
301.748	88.75
301.979	104.75
302.209	77.75
302.439	75.75
302.669	76.75
302.9	86.75
303.13	73.75
303.36	84.75
303.59	96.75
303.82	76.75
304.051	78.75
304.281	110.75
304.511	84.75
304.741	87.75
304.971	86.75
305.201	97.75
305.431	90.75
305.661	97.75
305.891	78.75
306.121	98.75
306.352	82.75
306.582	88.75
306.812	85.75
307.042	81.75
307.272	94.75
307.502	75.75
307.731	94.75
307.961	80.75
308.191	82.75
308.421	86.75
308.651	77.75
308.881	89.75
309.111	85.75
309.341	71.75
309.571	82.75
309.8	81.75
310.03	77.75
310.26	86.75
310.49	103.75
310.72	84.75
310.949	78.75
311.179	82.75
311.409	81.75
311.639	88.75
311.868	88.75
312.098	94.75
312.328	98.75
312.557	78.75
312.787	72.75
313.017	90.75
313.246	89.75
313.476	84.75
313.706	93.75
313.935	83.75
314.165	91.75
314.394	70.75
314.624	85.75
314.853	100.75
315.083	76.75
315.312	69.75
315.542	91.75
315.771	90.75
316.001	89.75
316.23	83.75
316.46	85.75
316.689	88.75
316.919	91.75
317.148	86.75
317.377	86.75
317.607	83.75
317.836	86.75
318.065	78.75
318.295	74.75
318.524	86.75
318.753	87.75
318.983	90.75
319.212	75.75
319.441	80.75
319.67	89.75
319.9	74.75
320.129	73.75
320.358	84.75
320.587	75.75
320.816	86.75
321.046	88.75
321.275	93.75
321.504	70.75
321.733	80.75
321.962	91.75
322.191	75.75
322.42	80.75
322.649	96.75
322.878	81.75
323.108	83.75
323.337	92.75
323.566	84.75
323.795	77.75
324.024	78.75
324.253	74.75
324.482	78.75
324.71	74.75
324.939	80.75
325.168	91.75
325.397	90.75
325.626	96.75
325.855	76.75
326.084	77.75
326.313	99.75
326.542	77.75
326.77	85.75
326.999	72.75
327.228	91.75
327.457	85.75
327.686	88.75
327.914	90.75
328.143	97.75
328.372	80.75
328.6	89.75
328.829	75.75
329.058	77.75
329.287	93.75
329.515	94.75
329.744	84.75
329.972	69.75
330.201	89.75
330.43	74.75
330.658	84.75
330.887	84.75
331.115	77.75
331.344	80.75
331.572	89.75
331.801	77.75
332.03	79.75
332.258	85.75
332.486	76.75
332.715	72.75
332.943	85.75
333.172	79.75
333.4	69.75
333.629	91.75
333.857	82.75
334.085	90.75
334.314	88.75
334.542	88.75
334.771	90.75
334.999	75.75
335.227	74.75
335.455	93.75
335.684	92.75
335.912	90.75
336.14	74.75
336.369	74.75
336.597	74.75
336.825	86.75
337.053	94.75
337.281	87.75
337.51	72.75
337.738	93.75
337.966	78.75
338.194	83.75
338.422	88.75
338.65	85.75
338.878	78.75
339.106	81.75
339.334	93.75
339.562	86.75
339.79	82.75
340.018	89.75
340.246	81.75
340.474	80.75
340.702	84.75
340.93	87.75
341.158	86.75
341.386	80.75
341.614	77.75
341.842	88.75
342.07	88.75
342.298	78.75
342.526	85.75
342.754	77.75
342.981	93.75
343.209	89.75
343.437	104.75
343.665	78.75
343.893	74.75
344.12	76.75
344.348	81.75
344.576	79.75
344.804	88.75
345.031	92.75
345.259	79.75
345.487	91.75
345.714	77.75
345.942	73.75
346.17	68.75
346.397	67.75
346.625	83.75
346.853	87.75
347.08	90.75
347.308	76.75
347.535	80.75
347.763	60.75
347.99	85.75
348.218	80.75
348.445	84.75
348.673	90.75
348.9	84.75
349.128	66.75
349.355	90.75
349.583	81.75
349.81	89.75
350.037	96.75
350.265	72.75
350.492	75.75
350.72	75.75
350.947	91.75
351.174	73.75
351.402	89.75
351.629	77.75
351.856	70.75
352.083	68.75
352.311	79.75
352.538	88.75
352.765	86.75
352.992	92.75
353.22	74.75
353.447	67.75
353.674	91.75
353.901	91.75
354.128	95.75
354.355	80.75
354.583	88.75
354.81	80.75
355.037	86.75
355.264	81.75
355.491	81.75
355.718	80.75
355.945	98.75
356.172	85.75
356.399	108.75
356.626	82.75
356.853	80.75
357.08	89.75
357.307	86.75
357.534	84.75
357.761	89.75
357.988	93.75
358.215	84.75
358.441	86.75
358.668	82.75
358.895	82.75
359.122	81.75
359.349	81.75
359.576	81.75
359.802	78.75
360.029	84.75
360.256	69.75
360.483	87.75
360.709	86.75
360.936	82.75
361.163	87.75
361.39	81.75
361.616	84.75
361.843	77.75
362.07	80.75
362.296	76.75
362.523	76.75
362.749	78.75
362.976	80.75
363.203	89.75
363.429	91.75
363.656	85.75
363.882	88.75
364.109	77.75
364.335	88.75
364.562	92.75
364.788	98.75
365.015	106.75
365.241	85.75
365.468	80.75
365.694	83.75
365.92	61.75
366.147	65.75
366.373	82.75
366.599	88.75
366.826	81.75
367.052	98.75
367.278	100.75
367.505	81.75
367.731	84.75
367.957	77.75
368.184	93.75
368.41	86.75
368.636	72.75
368.862	84.75
369.089	87.75
369.315	91.75
369.541	87.75
369.767	79.75
369.993	72.75
370.219	82.75
370.445	86.75
370.672	84.75
370.898	88.75
371.124	75.75
371.35	86.75
371.576	92.75
371.802	90.75
372.028	91.75
372.254	77.75
372.48	76.75
372.706	81.75
372.932	93.75
373.158	83.75
373.384	90.75
373.61	93.75
373.835	74.75
374.061	84.75
374.287	82.75
374.513	92.75
374.739	96.75
374.965	96.75
375.191	89.75
375.416	82.75
375.642	82.75
375.868	83.75
376.094	76.75
376.319	89.75
376.545	73.75
376.771	83.75
376.997	77.75
377.222	75.75
377.448	79.75
377.674	90.75
377.899	91.75
378.125	89.75
378.35	83.75
378.576	83.75
378.802	76.75
379.027	86.75
379.253	93.75
379.478	70.75
379.704	80.75
379.929	81.75
380.155	83.75
380.38	78.75
380.606	90.75
380.831	80.75
381.057	89.75
381.282	91.75
381.507	75.75
381.733	89.75
381.958	76.75
382.184	71.75
382.409	81.75
382.634	81.75
382.86	89.75
383.085	74.75
383.31	91.75
383.535	83.75
383.761	68.75
383.986	84.75
384.211	92.75
384.436	81.75
384.662	72.75
384.887	68.75
385.112	70.75
385.337	89.75
385.562	68.75
385.787	86.75
386.013	92.75
386.238	88.75
386.463	78.75
386.688	100.75
386.913	83.75
387.138	73.75
387.363	91.75
387.588	96.75
387.813	87.75
388.038	91.75
388.263	83.75
388.488	93.75
388.713	73.75
388.938	76.75
389.163	96.75
389.387	99.75
389.612	73.75
389.837	77.75
390.062	81.75
390.287	87.75
390.512	76.75
390.736	90.75
390.961	89.75
391.186	91.75
391.411	90.75
391.636	92.75
391.86	110.75
392.085	96.75
392.31	97.75
392.534	92.75
392.759	88.75
392.984	75.75
393.208	103.75
393.433	117.75
393.658	105.75
393.882	96.75
394.107	82.75
394.331	100.75
394.556	90.75
394.78	78.75
395.005	85.75
395.229	88.75
395.454	85.75
395.678	81.75
395.903	107.75
396.127	88.75
396.352	100.75
396.576	108.75
396.801	117.75
397.025	108.75
397.249	95.75
397.474	86.75
397.698	92.75
397.922	85.75
398.147	92.75
398.371	90.75
398.595	76.75
398.82	72.75
399.044	84.75
399.268	84.75
399.492	81.75
399.717	78.75
399.941	92.75
400.165	91.75
400.389	76.75
400.613	69.75
400.837	84.75
401.062	83.75
401.286	92.75
401.51	75.75
401.734	74.75
401.958	86.75
402.182	70.75
402.406	89.75
402.63	87.75
402.854	83.75
403.078	74.75
403.302	98.75
403.526	85.75
403.75	80.75
403.974	86.75
404.198	102.75
404.422	117.75
404.645	105.75
404.869	109.75
405.093	96.75
405.317	75.75
405.541	82.75
405.765	81.75
405.988	76.75
406.212	79.75
406.436	88.75
406.66	85.75
406.883	85.75
407.107	83.75
407.331	87.75
407.555	80.75
407.778	81.75
408.002	86.75
408.226	87.75
408.449	92.75
408.673	62.75
408.896	81.75
409.12	83.75
409.344	88.75
409.567	82.75
409.791	86.75
410.014	81.75
410.238	77.75
410.461	85.75
410.685	86.75
410.908	80.75
411.132	93.75
411.355	84.75
411.578	85.75
411.802	77.75
412.025	92.75
412.249	84.75
412.472	78.75
412.695	74.75
412.919	78.75
413.142	82.75
413.365	80.75
413.589	74.75
413.812	84.75
414.035	84.75
414.258	83.75
414.482	95.75
414.705	80.75
414.928	96.75
415.151	83.75
415.374	79.75
415.597	75.75
415.821	70.75
416.044	79.75
416.267	91.75
416.49	84.75
416.713	73.75
416.936	84.75
417.159	70.75
417.382	83.75
417.605	88.75
417.828	83.75
418.051	73.75
418.274	89.75
418.497	74.75
418.72	74.75
418.943	75.75
419.166	76.75
419.389	82.75
419.611	88.75
419.834	72.75
420.057	80.75
420.28	71.75
420.503	82.75
420.726	88.75
420.948	86.75
421.171	76.75
421.394	84.75
421.617	88.75
421.839	82.75
422.062	76.75
422.285	98.75
422.507	106.75
422.73	146.75
422.953	146.75
423.175	106.75
423.398	86.75
423.621	90.75
423.843	100.75
424.066	82.75
424.288	84.75
424.511	96.75
424.733	86.75
424.956	76.75
425.178	89.75
425.401	80.75
425.623	77.75
425.846	80.75
426.068	73.75
426.291	80.75
426.513	67.75
426.735	91.75
426.958	74.75
427.18	85.75
427.402	90.75
427.625	85.75
427.847	82.75
428.069	79.75
428.292	105.75
428.514	98.75
428.736	80.75
428.958	81.75
429.181	108.75
429.403	94.75
429.625	91.75
429.847	110.75
430.069	96.75
430.292	116.75
430.514	110.75
430.736	96.75
430.958	101.75
431.18	88.75
431.402	83.75
431.624	89.75
431.846	98.75
432.068	90.75
432.29	76.75
432.512	84.75
432.734	94.75
432.956	83.75
433.178	96.75
433.4	69.75
433.622	96.75
433.844	89.75
434.066	90.75
434.287	83.75
434.509	62.75
434.731	74.75
434.953	73.75
435.175	80.75
435.397	88.75
435.618	90.75
435.84	83.75
436.062	87.75
436.284	71.75
436.505	77.75
436.727	84.75
436.949	84.75
437.17	67.75
437.392	88.75
437.614	78.75
437.835	77.75
438.057	72.75
438.278	81.75
438.5	89.75
438.721	88.75
438.943	77.75
439.165	69.75
439.386	82.75
439.608	92.75
439.829	85.75
440.05	90.75
440.272	73.75
440.493	78.75
440.715	80.75
440.936	86.75
441.158	80.75
441.379	68.75
441.6	82.75
441.822	81.75
442.043	93.75
442.264	85.75
442.486	90.75
442.707	104.75
442.928	84.75
443.149	83.75
443.371	104.75
443.592	110.75
443.813	97.75
444.034	97.75
444.255	89.75
444.476	78.75
444.698	88.75
444.919	86.75
445.14	162.75
445.361	135.75
445.582	145.75
445.803	112.75
446.024	100.75
446.245	88.75
446.466	84.75
446.687	90.75
446.908	91.75
447.129	87.75
447.35	80.75
447.571	82.75
447.792	90.75
448.013	87.75
448.234	78.75
448.455	75.75
448.675	80.75
448.896	80.75
449.117	71.75
449.338	82.75
449.559	75.75
449.779	96.75
450	66.75
450.221	87.75
450.442	75.75
450.662	78.75
450.883	83.75
451.104	75.75
451.324	85.75
451.545	83.75
451.766	85.75
451.986	54.75
452.207	93.75
452.428	100.75
452.648	76.75
452.869	92.75
453.089	62.75
453.31	72.75
453.53	94.75
453.751	91.75
453.971	89.75
454.192	74.75
454.412	91.75
454.633	84.75
454.853	89.75
455.073	99.75
455.294	86.75
455.514	70.75
455.734	74.75
455.955	66.75
456.175	72.75
456.395	78.75
456.616	80.75
456.836	77.75
457.056	89.75
457.276	97.75
457.497	84.75
457.717	85.75
457.937	83.75
458.157	78.75
458.377	96.75
458.598	80.75
458.818	77.75
459.038	78.75
459.258	70.75
459.478	82.75
459.698	76.75
459.918	89.75
460.138	100.75
460.358	86.75
460.578	93.75
460.798	92.75
461.018	92.75
461.238	80.75
461.458	75.75
461.678	87.75
461.898	83.75
462.118	78.75
462.338	73.75
462.558	68.75
462.777	78.75
462.997	78.75
463.217	87.75
463.437	83.75
463.657	74.75
463.876	79.75
464.096	83.75
464.316	56.75
464.536	94.75
464.755	85.75
464.975	85.75
465.195	86.75
465.414	96.75
465.634	71.75
465.854	84.75
466.073	81.75
466.293	73.75
466.512	67.75
466.732	74.75
466.951	85.75
467.171	64.75
467.391	63.75
467.61	71.75
467.829	87.75
468.049	81.75
468.268	83.75
468.488	75.75
468.707	85.75
468.927	73.75
469.146	64.75
469.365	82.75
469.585	86.75
469.804	82.75
470.023	84.75
470.243	99.75
470.462	88.75
470.681	71.75
470.901	72.75
471.12	103.75
471.339	87.75
471.558	89.75
471.777	75.75
471.997	69.75
472.216	79.75
472.435	84.75
472.654	73.75
472.873	82.75
473.092	88.75
473.311	84.75
473.53	86.75
473.749	82.75
473.968	89.75
474.187	86.75
474.406	88.75
474.625	79.75
474.844	83.75
475.063	88.75
475.282	74.75
475.501	73.75
475.72	89.75
475.939	77.75
476.158	88.75
476.377	77.75
476.596	78.75
476.814	68.75
477.033	81.75
477.252	79.75
477.471	78.75
477.69	81.75
477.908	80.75
478.127	86.75
478.346	67.75
478.564	73.75
478.783	87.75
479.002	80.75
479.22	84.75
479.439	87.75
479.658	78.75
479.876	88.75
480.095	84.75
480.313	72.75
480.532	93.75
480.751	82.75
480.969	82.75
481.188	88.75
481.406	87.75
481.624	95.75
481.843	87.75
482.061	86.75
482.28	79.75
482.498	80.75
482.717	72.75
482.935	97.75
483.153	79.75
483.372	89.75
483.59	77.75
483.808	85.75
484.027	85.75
484.245	72.75
484.463	77.75
484.681	81.75
484.9	78.75
485.118	85.75
485.336	82.75
485.554	84.75
485.772	90.75
485.99	71.75
486.209	96.75
486.427	75.75
486.645	81.75
486.863	78.75
487.081	92.75
487.299	91.75
487.517	86.75
487.735	80.75
487.953	82.75
488.171	90.75
488.389	89.75
488.607	90.75
488.825	88.75
489.043	77.75
489.261	88.75
489.479	83.75
489.696	81.75
489.914	74.75
490.132	87.75
490.35	74.75
490.568	97.75
490.786	79.75
491.003	72.75
491.221	72.75
491.439	77.75
491.657	81.75
491.874	73.75
492.092	80.75
492.31	82.75
492.527	96.75
492.745	81.75
492.963	72.75
493.18	86.75
493.398	81.75
493.615	84.75
493.833	96.75
494.05	91.75
494.268	96.75
494.485	85.75
494.703	75.75
494.92	73.75
495.138	66.75
495.355	74.75
495.573	84.75
495.79	73.75
496.008	79.75
496.225	70.75
496.442	98.75
496.66	100.75
496.877	88.75
497.094	96.75
497.312	87.75
497.529	81.75
497.746	85.75
497.963	79.75
498.181	83.75
498.398	69.75
498.615	80.75
498.832	90.75
499.049	75.75
499.267	79.75
499.484	78.75
499.701	99.75
499.918	89.75
500.135	77.75
500.352	89.75
500.569	85.75
500.786	89.75
501.003	85.75
501.22	67.75
501.437	84.75
501.654	76.75
501.871	83.75
502.088	86.75
502.305	86.75
502.522	70.75
502.739	87.75
502.956	79.75
503.172	85.75
503.389	76.75
503.606	91.75
503.823	104.75
504.04	100.75
504.256	79.75
504.473	98.75
504.69	77.75
504.907	100.75
505.123	78.75
505.34	90.75
505.557	74.75
505.773	79.75
505.99	85.75
506.207	88.75
506.423	66.75
506.64	82.75
506.856	84.75
507.073	90.75
507.289	81.75
507.506	83.75
507.722	85.75
507.939	89.75
508.155	102.75
508.372	68.75
508.588	89.75
508.805	90.75
509.021	74.75
509.238	83.75
509.454	84.75
509.67	101.75
509.887	90.75
510.103	77.75
510.319	76.75
510.536	80.75
510.752	85.75
510.968	91.75
511.184	67.75
511.401	73.75
511.617	69.75
511.833	64.75
512.049	70.75
512.265	71.75
512.481	99.75
512.698	70.75
512.914	85.75
513.13	83.75
513.346	87.75
513.562	83.75
513.778	81.75
513.994	90.75
514.21	81.75
514.426	82.75
514.642	87.75
514.858	83.75
515.074	81.75
515.29	82.75
515.506	80.75
515.721	74.75
515.937	81.75
516.153	86.75
516.369	72.75
516.585	65.75
516.801	91.75
517.016	87.75
517.232	81.75
517.448	91.75
517.664	66.75
517.879	93.75
518.095	87.75
518.311	83.75
518.527	93.75
518.742	94.75
518.958	109.75
519.173	79.75
519.389	88.75
