Data from Mixnoheat4_HRD10591_00011.txt Node
Date: Fri Dec 27 15:04:23 EST 2024
User: Yrep
Spectrometer: HR+D1059
Trigger mode: 1
Integration Time (sec): 1.000000E-1
Scans to average: 1
Electric dark correction enabled: true
Nonlinearity correction enabled: false
Boxcar width: 0
XAxis mode: Wavelengths
Number of Pixels in Spectrum: 2048
>>>>>Begin Spectral Data<<<<<
223.165	-10.56
223.4	-10.56
223.635	-10.56
223.869	-9.56
224.104	-18.56
224.338	-27.56
224.573	-13.56
224.808	-10.56
225.042	-3.56
225.277	-7.56
225.511	-1.56
225.746	-0.56
225.98	7.44
226.215	15.44
226.449	3.44
226.683	18.44
226.918	34.44
227.152	24.44
227.387	41.44
227.621	46.44
227.856	46.44
228.09	40.44
228.324	60.44
228.559	61.44
228.793	45.44
229.027	62.44
229.262	75.44
229.496	60.44
229.73	64.44
229.964	87.44
230.199	65.44
230.433	67.44
230.667	80.44
230.901	81.44
231.136	80.44
231.37	89.44
231.604	83.44
231.838	82.44
232.072	84.44
232.306	77.44
232.541	84.44
232.775	87.44
233.009	96.44
233.243	82.44
233.477	92.44
233.711	79.44
233.945	85.44
234.179	94.44
234.413	84.44
234.647	72.44
234.881	90.44
235.115	80.44
235.349	86.44
235.583	82.44
235.817	78.44
236.051	75.44
236.285	88.44
236.519	73.44
236.753	77.44
236.987	71.44
237.221	60.44
237.455	66.44
237.689	77.44
237.922	75.44
238.156	65.44
238.39	70.44
238.624	73.44
238.858	71.44
239.091	73.44
239.325	73.44
239.559	81.44
239.793	82.44
240.027	85.44
240.26	83.44
240.494	76.44
240.728	64.44
240.961	82.44
241.195	73.44
241.429	70.44
241.662	72.44
241.896	78.44
242.13	79.44
242.363	70.44
242.597	82.44
242.83	77.44
243.064	86.44
243.298	83.44
243.531	80.44
243.765	86.44
243.998	66.44
244.232	75.44
244.465	95.44
244.699	75.44
244.932	69.44
245.166	73.44
245.399	74.44
245.633	72.44
245.866	95.44
246.099	82.44
246.333	82.44
246.566	81.44
246.8	84.44
247.033	79.44
247.266	91.44
247.5	82.44
247.733	94.44
247.966	78.44
248.2	84.44
248.433	80.44
248.666	66.44
248.899	73.44
249.133	81.44
249.366	88.44
249.599	80.44
249.832	79.44
250.066	80.44
250.299	80.44
250.532	73.44
250.765	65.44
250.998	83.44
251.231	74.44
251.465	77.44
251.698	73.44
251.931	83.44
252.164	78.44
252.397	84.44
252.63	80.44
252.863	90.44
253.096	84.44
253.329	80.44
253.562	84.44
253.795	100.44
254.028	81.44
254.261	75.44
254.494	83.44
254.727	87.44
254.96	75.44
255.193	74.44
255.426	74.44
255.659	78.44
255.892	87.44
256.124	75.44
256.357	87.44
256.59	91.44
256.823	88.44
257.056	76.44
257.289	79.44
257.521	96.44
257.754	79.44
257.987	87.44
258.22	79.44
258.452	78.44
258.685	83.44
258.918	83.44
259.151	76.44
259.383	79.44
259.616	72.44
259.849	84.44
260.081	92.44
260.314	82.44
260.547	85.44
260.779	83.44
261.012	79.44
261.244	74.44
261.477	84.44
261.71	84.44
261.942	73.44
262.175	92.44
262.407	71.44
262.64	89.44
262.872	76.44
263.105	84.44
263.337	89.44
263.57	78.44
263.802	79.44
264.035	87.44
264.267	94.44
264.499	90.44
264.732	78.44
264.964	77.44
265.197	88.44
265.429	70.44
265.661	94.44
265.894	91.44
266.126	70.44
266.358	66.44
266.591	75.44
266.823	81.44
267.055	95.44
267.287	81.44
267.52	100.44
267.752	79.44
267.984	85.44
268.216	89.44
268.448	88.44
268.681	88.44
268.913	91.44
269.145	87.44
269.377	73.44
269.609	80.44
269.841	96.44
270.073	82.44
270.306	74.44
270.538	78.44
270.77	73.44
271.002	80.44
271.234	78.44
271.466	89.44
271.698	90.44
271.93	72.44
272.162	91.44
272.394	84.44
272.626	69.44
272.858	87.44
273.09	77.44
273.322	86.44
273.553	90.44
273.785	86.44
274.017	81.44
274.249	93.44
274.481	100.44
274.713	70.44
274.945	76.44
275.176	82.44
275.408	84.44
275.64	81.44
275.872	75.44
276.104	88.44
276.335	97.44
276.567	87.44
276.799	79.44
277.031	87.44
277.262	84.44
277.494	94.44
277.726	81.44
277.957	90.44
278.189	88.44
278.421	97.44
278.652	100.44
278.884	94.44
279.115	92.44
279.347	89.44
279.579	90.44
279.81	89.44
280.042	88.44
280.273	102.44
280.505	89.44
280.736	82.44
280.968	87.44
281.199	85.44
281.431	84.44
281.662	72.44
281.894	90.44
282.125	84.44
282.356	81.44
282.588	76.44
282.819	86.44
283.051	82.44
283.282	78.44
283.513	90.44
283.745	76.44
283.976	75.44
284.207	80.44
284.439	82.44
284.67	87.44
284.901	89.44
285.132	86.44
285.364	93.44
285.595	87.44
285.826	88.44
286.057	88.44
286.288	75.44
286.52	91.44
286.751	82.44
286.982	102.44
287.213	80.44
287.444	90.44
287.675	76.44
287.906	80.44
288.138	71.44
288.369	96.44
288.6	77.44
288.831	81.44
289.062	101.44
289.293	89.44
289.524	91.44
289.755	94.44
289.986	80.44
290.217	88.44
290.448	81.44
290.679	78.44
290.91	81.44
291.141	90.44
291.371	88.44
291.602	82.44
291.833	78.44
292.064	84.44
292.295	88.44
292.526	95.44
292.757	78.44
292.987	89.44
293.218	85.44
293.449	93.44
293.68	92.44
293.91	74.44
294.141	89.44
294.372	82.44
294.603	94.44
294.833	72.44
295.064	92.44
295.295	89.44
295.525	83.44
295.756	87.44
295.987	89.44
296.217	89.44
296.448	88.44
296.679	94.44
296.909	86.44
297.14	81.44
297.37	88.44
297.601	72.44
297.831	89.44
298.062	69.44
298.292	91.44
298.523	80.44
298.753	69.44
298.984	85.44
299.214	85.44
299.445	101.44
299.675	82.44
299.905	87.44
300.136	78.44
300.366	94.44
300.597	92.44
300.827	96.44
301.057	72.44
301.288	77.44
301.518	87.44
301.748	92.44
301.979	91.44
302.209	80.44
302.439	93.44
302.669	92.44
302.9	91.44
303.13	73.44
303.36	100.44
303.59	88.44
303.82	83.44
304.051	93.44
304.281	96.44
304.511	81.44
304.741	82.44
304.971	88.44
305.201	73.44
305.431	79.44
305.661	80.44
305.891	89.44
306.121	84.44
306.352	72.44
306.582	81.44
306.812	110.44
307.042	85.44
307.272	92.44
307.502	91.44
307.731	90.44
307.961	96.44
308.191	91.44
308.421	95.44
308.651	89.44
308.881	85.44
309.111	89.44
309.341	85.44
309.571	86.44
309.8	101.44
310.03	84.44
310.26	80.44
310.49	84.44
310.72	87.44
310.949	81.44
311.179	83.44
311.409	86.44
311.639	80.44
311.868	71.44
312.098	81.44
312.328	84.44
312.557	106.44
312.787	82.44
313.017	80.44
313.246	90.44
313.476	81.44
313.706	79.44
313.935	101.44
314.165	92.44
314.394	91.44
314.624	89.44
314.853	81.44
315.083	88.44
315.312	90.44
315.542	81.44
315.771	81.44
316.001	95.44
316.23	92.44
316.46	84.44
316.689	90.44
316.919	91.44
317.148	84.44
317.377	85.44
317.607	82.44
317.836	97.44
318.065	78.44
318.295	103.44
318.524	88.44
318.753	88.44
318.983	85.44
319.212	93.44
319.441	88.44
319.67	90.44
319.9	93.44
320.129	89.44
320.358	92.44
320.587	86.44
320.816	88.44
321.046	71.44
321.275	88.44
321.504	90.44
321.733	91.44
321.962	78.44
322.191	92.44
322.42	77.44
322.649	91.44
322.878	85.44
323.108	73.44
323.337	90.44
323.566	86.44
323.795	89.44
324.024	76.44
324.253	82.44
324.482	81.44
324.71	85.44
324.939	83.44
325.168	87.44
325.397	92.44
325.626	85.44
325.855	85.44
326.084	91.44
326.313	94.44
326.542	86.44
326.77	77.44
326.999	80.44
327.228	86.44
327.457	81.44
327.686	92.44
327.914	77.44
328.143	91.44
328.372	87.44
328.6	87.44
328.829	92.44
329.058	97.44
329.287	74.44
329.515	88.44
329.744	92.44
329.972	85.44
330.201	90.44
330.43	82.44
330.658	86.44
330.887	85.44
331.115	87.44
331.344	96.44
331.572	95.44
331.801	94.44
332.03	82.44
332.258	90.44
332.486	79.44
332.715	107.44
332.943	100.44
333.172	78.44
333.4	81.44
333.629	92.44
333.857	93.44
334.085	90.44
334.314	85.44
334.542	68.44
334.771	86.44
334.999	85.44
335.227	77.44
335.455	75.44
335.684	81.44
335.912	95.44
336.14	84.44
336.369	93.44
336.597	81.44
336.825	73.44
337.053	93.44
337.281	84.44
337.51	78.44
337.738	86.44
337.966	84.44
338.194	82.44
338.422	76.44
338.65	77.44
338.878	98.44
339.106	93.44
339.334	86.44
339.562	82.44
339.79	79.44
340.018	74.44
340.246	73.44
340.474	89.44
340.702	79.44
340.93	90.44
341.158	87.44
341.386	77.44
341.614	97.44
341.842	80.44
342.07	77.44
342.298	78.44
342.526	75.44
342.754	86.44
342.981	89.44
343.209	79.44
343.437	109.44
343.665	80.44
343.893	93.44
344.12	80.44
344.348	91.44
344.576	86.44
344.804	92.44
345.031	96.44
345.259	96.44
345.487	92.44
345.714	91.44
345.942	81.44
346.17	89.44
346.397	84.44
346.625	77.44
346.853	75.44
347.08	89.44
347.308	100.44
347.535	86.44
347.763	77.44
347.99	76.44
348.218	93.44
348.445	80.44
348.673	80.44
348.9	96.44
349.128	89.44
349.355	82.44
349.583	87.44
349.81	87.44
350.037	70.44
350.265	77.44
350.492	79.44
350.72	96.44
350.947	100.44
351.174	78.44
351.402	84.44
351.629	84.44
351.856	90.44
352.083	96.44
352.311	75.44
352.538	87.44
352.765	102.44
352.992	96.44
353.22	90.44
353.447	97.44
353.674	80.44
353.901	85.44
354.128	73.44
354.355	75.44
354.583	80.44
354.81	85.44
355.037	90.44
355.264	78.44
355.491	85.44
355.718	77.44
355.945	75.44
356.172	81.44
356.399	72.44
356.626	70.44
356.853	80.44
357.08	93.44
357.307	88.44
357.534	94.44
357.761	85.44
357.988	80.44
358.215	89.44
358.441	78.44
358.668	81.44
358.895	86.44
359.122	86.44
359.349	96.44
359.576	88.44
359.802	73.44
360.029	77.44
360.256	79.44
360.483	79.44
360.709	88.44
360.936	94.44
361.163	83.44
361.39	91.44
361.616	80.44
361.843	98.44
362.07	80.44
362.296	91.44
362.523	90.44
362.749	90.44
362.976	81.44
363.203	96.44
363.429	88.44
363.656	92.44
363.882	85.44
364.109	87.44
364.335	97.44
364.562	75.44
364.788	77.44
365.015	87.44
365.241	103.44
365.468	83.44
365.694	85.44
365.92	91.44
366.147	87.44
366.373	94.44
366.599	85.44
366.826	87.44
367.052	79.44
367.278	81.44
367.505	72.44
367.731	82.44
367.957	84.44
368.184	74.44
368.41	100.44
368.636	85.44
368.862	96.44
369.089	97.44
369.315	85.44
369.541	98.44
369.767	86.44
369.993	83.44
370.219	84.44
370.445	98.44
370.672	83.44
370.898	83.44
371.124	84.44
371.35	91.44
371.576	83.44
371.802	84.44
372.028	80.44
372.254	89.44
372.48	85.44
372.706	76.44
372.932	90.44
373.158	88.44
373.384	87.44
373.61	89.44
373.835	82.44
374.061	82.44
374.287	85.44
374.513	87.44
374.739	93.44
374.965	92.44
375.191	74.44
375.416	89.44
375.642	90.44
375.868	101.44
376.094	78.44
376.319	96.44
376.545	94.44
376.771	74.44
376.997	81.44
377.222	96.44
377.448	88.44
377.674	70.44
377.899	84.44
378.125	79.44
378.35	72.44
378.576	88.44
378.802	65.44
379.027	80.44
379.253	86.44
379.478	84.44
379.704	85.44
379.929	79.44
380.155	70.44
380.38	90.44
380.606	83.44
380.831	86.44
381.057	88.44
381.282	86.44
381.507	98.44
381.733	86.44
381.958	96.44
382.184	90.44
382.409	73.44
382.634	98.44
382.86	86.44
383.085	66.44
383.31	74.44
383.535	84.44
383.761	84.44
383.986	86.44
384.211	92.44
384.436	78.44
384.662	84.44
384.887	92.44
385.112	87.44
385.337	94.44
385.562	96.44
385.787	92.44
386.013	75.44
386.238	81.44
386.463	83.44
386.688	102.44
386.913	86.44
387.138	86.44
387.363	87.44
387.588	89.44
387.813	102.44
388.038	94.44
388.263	97.44
388.488	96.44
388.713	73.44
388.938	90.44
389.163	76.44
389.387	86.44
389.612	73.44
389.837	91.44
390.062	78.44
390.287	86.44
390.512	80.44
390.736	83.44
390.961	80.44
391.186	92.44
391.411	75.44
391.636	74.44
391.86	92.44
392.085	96.44
392.31	94.44
392.534	86.44
392.759	80.44
392.984	96.44
393.208	102.44
393.433	106.44
393.658	89.44
393.882	95.44
394.107	77.44
394.331	96.44
394.556	100.44
394.78	80.44
395.005	89.44
395.229	100.44
395.454	86.44
395.678	69.44
395.903	108.44
396.127	105.44
396.352	104.44
396.576	95.44
396.801	99.44
397.025	97.44
397.249	80.44
397.474	99.44
397.698	92.44
397.922	86.44
398.147	90.44
398.371	84.44
398.595	83.44
398.82	94.44
399.044	87.44
399.268	83.44
399.492	73.44
399.717	70.44
399.941	75.44
400.165	87.44
400.389	91.44
400.613	100.44
400.837	86.44
401.062	98.44
401.286	81.44
401.51	88.44
401.734	79.44
401.958	93.44
402.182	98.44
402.406	88.44
402.63	92.44
402.854	74.44
403.078	70.44
403.302	96.44
403.526	92.44
403.75	71.44
403.974	90.44
404.198	103.44
404.422	108.44
404.645	124.44
404.869	91.44
405.093	94.44
405.317	71.44
405.541	72.44
405.765	86.44
405.988	77.44
406.212	94.44
406.436	79.44
406.66	83.44
406.883	90.44
407.107	78.44
407.331	81.44
407.555	75.44
407.778	76.44
408.002	84.44
408.226	91.44
408.449	75.44
408.673	71.44
408.896	86.44
409.12	83.44
409.344	72.44
409.567	80.44
409.791	76.44
410.014	94.44
410.238	74.44
410.461	83.44
410.685	92.44
410.908	75.44
411.132	84.44
411.355	85.44
411.578	85.44
411.802	70.44
412.025	78.44
412.249	75.44
412.472	83.44
412.695	83.44
412.919	77.44
413.142	88.44
413.365	77.44
413.589	76.44
413.812	85.44
414.035	85.44
414.258	81.44
414.482	90.44
414.705	79.44
414.928	79.44
415.151	74.44
415.374	77.44
415.597	76.44
415.821	88.44
416.044	79.44
416.267	80.44
416.49	89.44
416.713	80.44
416.936	95.44
417.159	90.44
417.382	92.44
417.605	81.44
417.828	89.44
418.051	87.44
418.274	85.44
418.497	73.44
418.72	66.44
418.943	75.44
419.166	92.44
419.389	65.44
419.611	95.44
419.834	88.44
420.057	78.44
420.28	84.44
420.503	74.44
420.726	83.44
420.948	86.44
421.171	85.44
421.394	96.44
421.617	70.44
421.839	94.44
422.062	90.44
422.285	100.44
422.507	118.44
422.73	134.44
422.953	122.44
423.175	114.44
423.398	84.44
423.621	92.44
423.843	92.44
424.066	78.44
424.288	78.44
424.511	79.44
424.733	80.44
424.956	76.44
425.178	77.44
425.401	78.44
425.623	79.44
425.846	79.44
426.068	77.44
426.291	102.44
426.513	80.44
426.735	76.44
426.958	78.44
427.18	76.44
427.402	97.44
427.625	76.44
427.847	73.44
428.069	86.44
428.292	93.44
428.514	89.44
428.736	93.44
428.958	74.44
429.181	89.44
429.403	80.44
429.625	77.44
429.847	88.44
430.069	112.44
430.292	108.44
430.514	83.44
430.736	97.44
430.958	104.44
431.18	91.44
431.402	83.44
431.624	90.44
431.846	92.44
432.068	86.44
432.29	85.44
432.512	92.44
432.734	85.44
432.956	79.44
433.178	88.44
433.4	84.44
433.622	87.44
433.844	91.44
434.066	85.44
434.287	86.44
434.509	90.44
434.731	88.44
434.953	79.44
435.175	84.44
435.397	81.44
435.618	95.44
435.84	89.44
436.062	85.44
436.284	91.44
436.505	94.44
436.727	85.44
436.949	81.44
437.17	76.44
437.392	77.44
437.614	77.44
437.835	75.44
438.057	78.44
438.278	100.44
438.5	68.44
438.721	84.44
438.943	90.44
439.165	74.44
439.386	86.44
439.608	78.44
439.829	81.44
440.05	84.44
440.272	78.44
440.493	80.44
440.715	86.44
440.936	94.44
441.158	78.44
441.379	80.44
441.6	85.44
441.822	85.44
442.043	73.44
442.264	72.44
442.486	105.44
442.707	101.44
442.928	98.44
443.149	102.44
443.371	101.44
443.592	118.44
443.813	87.44
444.034	73.44
444.255	86.44
444.476	94.44
444.698	96.44
444.919	82.44
445.14	141.44
445.361	136.44
445.582	118.44
445.803	100.44
446.024	94.44
446.245	84.44
446.466	86.44
446.687	87.44
446.908	82.44
447.129	94.44
447.35	80.44
447.571	80.44
447.792	73.44
448.013	81.44
448.234	90.44
448.455	90.44
448.675	71.44
448.896	87.44
449.117	100.44
449.338	94.44
449.559	76.44
449.779	93.44
450	81.44
450.221	89.44
450.442	78.44
450.662	85.44
450.883	84.44
451.104	78.44
451.324	80.44
451.545	78.44
451.766	91.44
451.986	76.44
452.207	79.44
452.428	89.44
452.648	95.44
452.869	90.44
453.089	87.44
453.31	87.44
453.53	87.44
453.751	71.44
453.971	72.44
454.192	95.44
454.412	73.44
454.633	81.44
454.853	84.44
455.073	82.44
455.294	70.44
455.514	68.44
455.734	88.44
455.955	72.44
456.175	82.44
456.395	84.44
456.616	87.44
456.836	85.44
457.056	96.44
457.276	79.44
457.497	88.44
457.717	69.44
457.937	76.44
458.157	80.44
458.377	79.44
458.598	81.44
458.818	86.44
459.038	92.44
459.258	71.44
459.478	79.44
459.698	91.44
459.918	89.44
460.138	72.44
460.358	78.44
460.578	87.44
460.798	86.44
461.018	87.44
461.238	82.44
461.458	80.44
461.678	80.44
461.898	91.44
462.118	97.44
462.338	80.44
462.558	89.44
462.777	69.44
462.997	84.44
463.217	81.44
463.437	75.44
463.657	81.44
463.876	85.44
464.096	89.44
464.316	85.44
464.536	79.44
464.755	70.44
464.975	79.44
465.195	88.44
465.414	85.44
465.634	93.44
465.854	80.44
466.073	81.44
466.293	95.44
466.512	86.44
466.732	99.44
466.951	83.44
467.171	102.44
467.391	68.44
467.61	84.44
467.829	82.44
468.049	75.44
468.268	93.44
468.488	66.44
468.707	79.44
468.927	86.44
469.146	84.44
469.365	84.44
469.585	93.44
469.804	79.44
470.023	85.44
470.243	93.44
470.462	93.44
470.681	87.44
470.901	74.44
471.12	74.44
471.339	75.44
471.558	79.44
471.777	87.44
471.997	83.44
472.216	94.44
472.435	70.44
472.654	82.44
472.873	84.44
473.092	95.44
473.311	77.44
473.53	85.44
473.749	79.44
473.968	94.44
474.187	98.44
474.406	76.44
474.625	80.44
474.844	93.44
475.063	78.44
475.282	72.44
475.501	73.44
475.72	88.44
475.939	74.44
476.158	81.44
476.377	73.44
476.596	80.44
476.814	74.44
477.033	77.44
477.252	86.44
477.471	81.44
477.69	83.44
477.908	74.44
478.127	99.44
478.346	100.44
478.564	79.44
478.783	89.44
479.002	79.44
479.22	66.44
479.439	51.44
479.658	84.44
479.876	82.44
480.095	94.44
480.313	83.44
480.532	82.44
480.751	93.44
480.969	85.44
481.188	84.44
481.406	82.44
481.624	89.44
481.843	73.44
482.061	86.44
482.28	78.44
482.498	82.44
482.717	85.44
482.935	98.44
483.153	80.44
483.372	83.44
483.59	90.44
483.808	64.44
484.027	84.44
484.245	79.44
484.463	88.44
484.681	82.44
484.9	93.44
485.118	87.44
485.336	75.44
485.554	101.44
485.772	86.44
485.99	70.44
486.209	101.44
486.427	81.44
486.645	77.44
486.863	88.44
487.081	86.44
487.299	87.44
487.517	84.44
487.735	97.44
487.953	88.44
488.171	87.44
488.389	107.44
488.607	99.44
488.825	78.44
489.043	73.44
489.261	90.44
489.479	87.44
489.696	86.44
489.914	71.44
490.132	81.44
490.35	78.44
490.568	81.44
490.786	84.44
491.003	79.44
491.221	79.44
491.439	94.44
491.657	90.44
491.874	89.44
492.092	74.44
492.31	88.44
492.527	78.44
492.745	83.44
492.963	81.44
493.18	85.44
493.398	80.44
493.615	90.44
493.833	79.44
494.05	83.44
494.268	95.44
494.485	87.44
494.703	86.44
494.92	87.44
495.138	93.44
495.355	74.44
495.573	92.44
495.79	88.44
496.008	76.44
496.225	83.44
496.442	77.44
496.66	87.44
496.877	84.44
497.094	91.44
497.312	81.44
497.529	75.44
497.746	80.44
497.963	79.44
498.181	72.44
498.398	94.44
498.615	75.44
498.832	80.44
499.049	85.44
499.267	88.44
499.484	94.44
499.701	91.44
499.918	97.44
500.135	90.44
500.352	75.44
500.569	82.44
500.786	89.44
501.003	84.44
501.22	90.44
501.437	92.44
501.654	81.44
501.871	92.44
502.088	79.44
502.305	74.44
502.522	77.44
502.739	79.44
502.956	84.44
503.172	80.44
503.389	80.44
503.606	66.44
503.823	80.44
504.04	101.44
504.256	82.44
504.473	97.44
504.69	81.44
504.907	83.44
505.123	73.44
505.34	75.44
505.557	91.44
505.773	83.44
505.99	85.44
506.207	71.44
506.423	78.44
506.64	73.44
506.856	87.44
507.073	75.44
507.289	95.44
507.506	94.44
507.722	75.44
507.939	91.44
508.155	73.44
508.372	85.44
508.588	71.44
508.805	93.44
509.021	81.44
509.238	73.44
509.454	102.44
509.67	98.44
509.887	81.44
510.103	96.44
510.319	86.44
510.536	81.44
510.752	93.44
510.968	86.44
511.184	85.44
511.401	87.44
511.617	90.44
511.833	76.44
512.049	96.44
512.265	82.44
512.481	90.44
512.698	85.44
512.914	87.44
513.13	87.44
513.346	101.44
513.562	85.44
513.778	93.44
513.994	96.44
514.21	93.44
514.426	90.44
514.642	83.44
514.858	78.44
515.074	76.44
515.29	80.44
515.506	94.44
515.721	70.44
515.937	89.44
516.153	89.44
516.369	64.44
516.585	85.44
516.801	75.44
517.016	90.44
517.232	87.44
517.448	89.44
517.664	77.44
517.879	93.44
518.095	79.44
518.311	80.44
518.527	81.44
518.742	84.44
518.958	101.44
519.173	102.44
519.389	95.44
