Data from Mixnoheat4_HRD10591_00017.txt Node
Date: Fri Dec 27 15:04:29 EST 2024
User: Yrep
Spectrometer: HR+D1059
Trigger mode: 1
Integration Time (sec): 1.000000E-1
Scans to average: 1
Electric dark correction enabled: true
Nonlinearity correction enabled: false
Boxcar width: 0
XAxis mode: Wavelengths
Number of Pixels in Spectrum: 2048
>>>>>Begin Spectral Data<<<<<
223.165	-14
223.4	-14
223.635	-14
223.869	-28
224.104	-6
224.338	-27
224.573	-11
224.808	-19
225.042	-9
225.277	-11
225.511	1
225.746	11
225.98	6
226.215	24
226.449	26
226.683	7
226.918	19
227.152	31
227.387	25
227.621	40
227.856	37
228.09	47
228.324	57
228.559	53
228.793	47
229.027	59
229.262	61
229.496	75
229.73	83
229.964	86
230.199	85
230.433	77
230.667	75
230.901	80
231.136	83
231.37	82
231.604	84
231.838	80
232.072	88
232.306	78
232.541	95
232.775	94
233.009	89
233.243	71
233.477	72
233.711	73
233.945	82
234.179	86
234.413	87
234.647	82
234.881	74
235.115	88
235.349	81
235.583	75
235.817	81
236.051	86
236.285	76
236.519	88
236.753	80
236.987	65
237.221	70
237.455	81
237.689	88
237.922	76
238.156	76
238.39	84
238.624	87
238.858	73
239.091	74
239.325	78
239.559	76
239.793	80
240.027	94
240.26	69
240.494	79
240.728	76
240.961	80
241.195	74
241.429	85
241.662	69
241.896	73
242.13	77
242.363	76
242.597	77
242.83	75
243.064	66
243.298	84
243.531	65
243.765	73
243.998	81
244.232	70
244.465	70
244.699	77
244.932	72
245.166	78
245.399	73
245.633	67
245.866	72
246.099	82
246.333	75
246.566	73
246.8	86
247.033	83
247.266	72
247.5	87
247.733	79
247.966	78
248.2	76
248.433	66
248.666	77
248.899	90
249.133	104
249.366	86
249.599	73
249.832	80
250.066	84
250.299	95
250.532	92
250.765	92
250.998	89
251.231	76
251.465	84
251.698	66
251.931	86
252.164	80
252.397	79
252.63	78
252.863	84
253.096	81
253.329	80
253.562	62
253.795	72
254.028	75
254.261	74
254.494	87
254.727	96
254.96	64
255.193	80
255.426	82
255.659	77
255.892	85
256.124	77
256.357	89
256.59	81
256.823	76
257.056	71
257.289	83
257.521	95
257.754	77
257.987	76
258.22	77
258.452	78
258.685	85
258.918	74
259.151	78
259.383	79
259.616	90
259.849	74
260.081	79
260.314	76
260.547	92
260.779	76
261.012	94
261.244	81
261.477	78
261.71	101
261.942	78
262.175	77
262.407	79
262.64	79
262.872	96
263.105	83
263.337	79
263.57	88
263.802	88
264.035	81
264.267	79
264.499	85
264.732	72
264.964	69
265.197	68
265.429	99
265.661	82
265.894	73
266.126	86
266.358	95
266.591	79
266.823	81
267.055	87
267.287	96
267.52	82
267.752	92
267.984	91
268.216	82
268.448	86
268.681	93
268.913	72
269.145	93
269.377	76
269.609	82
269.841	79
270.073	70
270.306	74
270.538	70
270.77	89
271.002	82
271.234	80
271.466	79
271.698	83
271.93	83
272.162	88
272.394	95
272.626	82
272.858	84
273.09	70
273.322	90
273.553	86
273.785	89
274.017	78
274.249	87
274.481	109
274.713	82
274.945	86
275.176	88
275.408	80
275.64	76
275.872	94
276.104	98
276.335	87
276.567	85
276.799	84
277.031	78
277.262	74
277.494	89
277.726	77
277.957	75
278.189	78
278.421	76
278.652	81
278.884	73
279.115	82
279.347	82
279.579	81
279.81	94
280.042	92
280.273	94
280.505	75
280.736	82
280.968	86
281.199	65
281.431	69
281.662	73
281.894	83
282.125	85
282.356	74
282.588	90
282.819	84
283.051	85
283.282	88
283.513	85
283.745	91
283.976	90
284.207	76
284.439	88
284.67	78
284.901	81
285.132	86
285.364	91
285.595	81
285.826	89
286.057	88
286.288	90
286.52	78
286.751	68
286.982	85
287.213	82
287.444	72
287.675	93
287.906	88
288.138	90
288.369	77
288.6	88
288.831	79
289.062	91
289.293	96
289.524	95
289.755	74
289.986	84
290.217	89
290.448	90
290.679	79
290.91	74
291.141	68
291.371	81
291.602	87
291.833	84
292.064	82
292.295	96
292.526	97
292.757	98
292.987	105
293.218	80
293.449	81
293.68	75
293.91	75
294.141	77
294.372	87
294.603	85
294.833	85
295.064	75
295.295	70
295.525	82
295.756	85
295.987	80
296.217	87
296.448	79
296.679	92
296.909	79
297.14	76
297.37	84
297.601	85
297.831	85
298.062	94
298.292	95
298.523	80
298.753	82
298.984	78
299.214	83
299.445	89
299.675	76
299.905	101
300.136	77
300.366	88
300.597	92
300.827	88
301.057	79
301.288	95
301.518	88
301.748	85
301.979	99
302.209	81
302.439	74
302.669	77
302.9	81
303.13	82
303.36	85
303.59	78
303.82	78
304.051	95
304.281	86
304.511	87
304.741	86
304.971	92
305.201	80
305.431	93
305.661	82
305.891	69
306.121	95
306.352	83
306.582	77
306.812	83
307.042	71
307.272	64
307.502	96
307.731	96
307.961	89
308.191	94
308.421	97
308.651	80
308.881	79
309.111	83
309.341	104
309.571	88
309.8	105
310.03	93
310.26	74
310.49	89
310.72	87
310.949	80
311.179	64
311.409	90
311.639	83
311.868	72
312.098	76
312.328	95
312.557	100
312.787	77
313.017	94
313.246	89
313.476	79
313.706	90
313.935	85
314.165	100
314.394	82
314.624	80
314.853	103
315.083	78
315.312	81
315.542	90
315.771	84
316.001	71
316.23	94
316.46	91
316.689	72
316.919	90
317.148	89
317.377	89
317.607	89
317.836	74
318.065	79
318.295	80
318.524	92
318.753	89
318.983	93
319.212	92
319.441	82
319.67	86
319.9	89
320.129	80
320.358	69
320.587	75
320.816	88
321.046	92
321.275	88
321.504	75
321.733	82
321.962	85
322.191	93
322.42	84
322.649	90
322.878	72
323.108	87
323.337	82
323.566	77
323.795	80
324.024	82
324.253	85
324.482	79
324.71	84
324.939	87
325.168	96
325.397	89
325.626	92
325.855	78
326.084	88
326.313	86
326.542	83
326.77	90
326.999	81
327.228	84
327.457	84
327.686	91
327.914	71
328.143	89
328.372	86
328.6	80
328.829	84
329.058	88
329.287	97
329.515	87
329.744	86
329.972	84
330.201	80
330.43	88
330.658	74
330.887	84
331.115	64
331.344	86
331.572	102
331.801	91
332.03	93
332.258	95
332.486	93
332.715	90
332.943	87
333.172	89
333.4	71
333.629	97
333.857	86
334.085	91
334.314	96
334.542	98
334.771	98
334.999	78
335.227	64
335.455	74
335.684	73
335.912	87
336.14	89
336.369	98
336.597	92
336.825	87
337.053	94
337.281	84
337.51	79
337.738	82
337.966	76
338.194	85
338.422	86
338.65	77
338.878	94
339.106	85
339.334	69
339.562	80
339.79	92
340.018	85
340.246	78
340.474	104
340.702	88
340.93	94
341.158	81
341.386	80
341.614	82
341.842	81
342.07	86
342.298	88
342.526	85
342.754	74
342.981	87
343.209	83
343.437	100
343.665	93
343.893	89
344.12	87
344.348	89
344.576	94
344.804	87
345.031	84
345.259	69
345.487	74
345.714	89
345.942	84
346.17	80
346.397	93
346.625	84
346.853	73
347.08	74
347.308	93
347.535	91
347.763	85
347.99	87
348.218	87
348.445	96
348.673	86
348.9	92
349.128	85
349.355	100
349.583	88
349.81	84
350.037	75
350.265	87
350.492	87
350.72	90
350.947	90
351.174	87
351.402	77
351.629	84
351.856	90
352.083	80
352.311	72
352.538	89
352.765	98
352.992	87
353.22	90
353.447	66
353.674	95
353.901	94
354.128	81
354.355	84
354.583	81
354.81	97
355.037	82
355.264	94
355.491	87
355.718	82
355.945	83
356.172	72
356.399	85
356.626	90
356.853	100
357.08	93
357.307	91
357.534	81
357.761	75
357.988	90
358.215	86
358.441	84
358.668	82
358.895	90
359.122	84
359.349	77
359.576	80
359.802	87
360.029	87
360.256	103
360.483	87
360.709	85
360.936	105
361.163	100
361.39	82
361.616	75
361.843	72
362.07	89
362.296	92
362.523	89
362.749	92
362.976	87
363.203	93
363.429	77
363.656	90
363.882	81
364.109	81
364.335	91
364.562	93
364.788	94
365.015	87
365.241	94
365.468	93
365.694	96
365.92	84
366.147	80
366.373	91
366.599	88
366.826	82
367.052	74
367.278	80
367.505	81
367.731	79
367.957	82
368.184	74
368.41	73
368.636	76
368.862	93
369.089	74
369.315	85
369.541	83
369.767	83
369.993	84
370.219	73
370.445	85
370.672	85
370.898	91
371.124	70
371.35	80
371.576	88
371.802	80
372.028	82
372.254	78
372.48	80
372.706	83
372.932	92
373.158	89
373.384	90
373.61	82
373.835	84
374.061	78
374.287	84
374.513	90
374.739	88
374.965	89
375.191	91
375.416	90
375.642	76
375.868	90
376.094	74
376.319	81
376.545	80
376.771	81
376.997	88
377.222	62
377.448	96
377.674	89
377.899	81
378.125	85
378.35	78
378.576	78
378.802	81
379.027	84
379.253	89
379.478	72
379.704	86
379.929	84
380.155	77
380.38	89
380.606	70
380.831	91
381.057	106
381.282	97
381.507	78
381.733	77
381.958	81
382.184	81
382.409	88
382.634	75
382.86	80
383.085	73
383.31	80
383.535	84
383.761	81
383.986	98
384.211	72
384.436	79
384.662	87
384.887	78
385.112	66
385.337	69
385.562	88
385.787	85
386.013	95
386.238	81
386.463	87
386.688	101
386.913	76
387.138	72
387.363	87
387.588	88
387.813	90
388.038	96
388.263	79
388.488	97
388.713	85
388.938	85
389.163	79
389.387	63
389.612	91
389.837	88
390.062	78
390.287	77
390.512	88
390.736	87
390.961	90
391.186	85
391.411	80
391.636	84
391.86	85
392.085	89
392.31	90
392.534	83
392.759	79
392.984	108
393.208	100
393.433	112
393.658	95
393.882	89
394.107	95
394.331	89
394.556	91
394.78	89
395.005	73
395.229	83
395.454	88
395.678	81
395.903	93
396.127	101
396.352	102
396.576	85
396.801	90
397.025	90
397.249	96
397.474	88
397.698	69
397.922	85
398.147	91
398.371	86
398.595	78
398.82	94
399.044	76
399.268	84
399.492	77
399.717	92
399.941	88
400.165	90
400.389	88
400.613	94
400.837	90
401.062	78
401.286	82
401.51	78
401.734	87
401.958	67
402.182	87
402.406	85
402.63	87
402.854	77
403.078	99
403.302	81
403.526	89
403.75	98
403.974	78
404.198	77
404.422	113
404.645	120
404.869	107
405.093	100
405.317	78
405.541	82
405.765	82
405.988	81
406.212	97
406.436	91
406.66	79
406.883	75
407.107	79
407.331	85
407.555	86
407.778	87
408.002	80
408.226	72
408.449	84
408.673	73
408.896	77
409.12	73
409.344	86
409.567	82
409.791	93
410.014	81
410.238	89
410.461	89
410.685	76
410.908	74
411.132	82
411.355	85
411.578	104
411.802	85
412.025	77
412.249	81
412.472	72
412.695	92
412.919	77
413.142	79
413.365	92
413.589	85
413.812	76
414.035	78
414.258	74
414.482	79
414.705	75
414.928	90
415.151	89
415.374	84
415.597	84
415.821	95
416.044	88
416.267	72
416.49	83
416.713	84
416.936	70
417.159	62
417.382	75
417.605	66
417.828	85
418.051	87
418.274	80
418.497	81
418.72	80
418.943	73
419.166	92
419.389	75
419.611	82
419.834	97
420.057	89
420.28	101
420.503	76
420.726	84
420.948	71
421.171	83
421.394	84
421.617	69
421.839	76
422.062	80
422.285	101
422.507	124
422.73	149
422.953	137
423.175	103
423.398	82
423.621	72
423.843	91
424.066	81
424.288	90
424.511	93
424.733	94
424.956	78
425.178	95
425.401	77
425.623	77
425.846	73
426.068	83
426.291	79
426.513	84
426.735	86
426.958	101
427.18	91
427.402	76
427.625	80
427.847	71
428.069	81
428.292	80
428.514	93
428.736	87
428.958	88
429.181	100
429.403	82
429.625	87
429.847	80
430.069	107
430.292	99
430.514	100
430.736	80
430.958	96
431.18	84
431.402	80
431.624	96
431.846	73
432.068	74
432.29	84
432.512	80
432.734	81
432.956	81
433.178	77
433.4	81
433.622	73
433.844	87
434.066	88
434.287	90
434.509	85
434.731	78
434.953	78
435.175	78
435.397	85
435.618	73
435.84	74
436.062	89
436.284	90
436.505	95
436.727	74
436.949	83
437.17	69
437.392	83
437.614	70
437.835	87
438.057	87
438.278	77
438.5	85
438.721	77
438.943	74
439.165	82
439.386	73
439.608	86
439.829	66
440.05	71
440.272	82
440.493	87
440.715	80
440.936	87
441.158	89
441.379	78
441.6	71
441.822	84
442.043	83
442.264	92
442.486	95
442.707	89
442.928	77
443.149	95
443.371	92
443.592	113
443.813	86
444.034	88
444.255	78
444.476	70
444.698	84
444.919	80
445.14	143
445.361	121
445.582	124
445.803	125
446.024	83
446.245	88
446.466	84
446.687	77
446.908	84
447.129	86
447.35	78
447.571	82
447.792	103
448.013	98
448.234	86
448.455	79
448.675	80
448.896	77
449.117	74
449.338	71
449.559	73
449.779	80
450	84
450.221	89
450.442	84
450.662	89
450.883	79
451.104	78
451.324	84
451.545	80
451.766	97
451.986	84
452.207	80
452.428	72
452.648	77
452.869	76
453.089	97
453.31	113
453.53	92
453.751	85
453.971	66
454.192	91
454.412	79
454.633	74
454.853	78
455.073	80
455.294	80
455.514	82
455.734	91
455.955	81
456.175	89
456.395	76
456.616	71
456.836	80
457.056	79
457.276	67
457.497	82
457.717	79
457.937	87
458.157	79
458.377	81
458.598	81
458.818	91
459.038	84
459.258	73
459.478	80
459.698	88
459.918	80
460.138	89
460.358	82
460.578	87
460.798	80
461.018	88
461.238	93
461.458	84
461.678	85
461.898	85
462.118	87
462.338	84
462.558	98
462.777	77
462.997	75
463.217	77
463.437	82
463.657	77
463.876	90
464.096	77
464.316	77
464.536	88
464.755	85
464.975	81
465.195	76
465.414	78
465.634	78
465.854	76
466.073	66
466.293	78
466.512	90
466.732	79
466.951	93
467.171	86
467.391	85
467.61	84
467.829	82
468.049	93
468.268	90
468.488	87
468.707	91
468.927	84
469.146	85
469.365	79
469.585	76
469.804	74
470.023	80
470.243	91
470.462	103
470.681	83
470.901	82
471.12	96
471.339	80
471.558	85
471.777	81
471.997	87
472.216	80
472.435	88
472.654	83
472.873	87
473.092	68
473.311	79
473.53	90
473.749	71
473.968	88
474.187	89
474.406	72
474.625	78
474.844	88
475.063	85
475.282	81
475.501	81
475.72	75
475.939	79
476.158	85
476.377	77
476.596	69
476.814	66
477.033	72
477.252	75
477.471	78
477.69	79
477.908	83
478.127	70
478.346	84
478.564	76
478.783	78
479.002	80
479.22	82
479.439	79
479.658	78
479.876	82
480.095	85
480.313	88
480.532	76
480.751	84
480.969	87
481.188	86
481.406	84
481.624	84
481.843	86
482.061	76
482.28	81
482.498	78
482.717	81
482.935	102
483.153	89
483.372	82
483.59	77
483.808	81
484.027	88
484.245	72
484.463	90
484.681	84
484.9	104
485.118	96
485.336	91
485.554	79
485.772	87
485.99	80
486.209	91
486.427	76
486.645	73
486.863	75
487.081	75
487.299	68
487.517	97
487.735	84
487.953	79
488.171	88
488.389	80
488.607	73
488.825	74
489.043	75
489.261	99
489.479	101
489.696	78
489.914	86
490.132	78
490.35	79
490.568	88
490.786	82
491.003	76
491.221	90
491.439	80
491.657	93
491.874	87
492.092	81
492.31	83
492.527	85
492.745	85
492.963	80
493.18	92
493.398	77
493.615	76
493.833	81
494.05	90
494.268	88
494.485	100
494.703	96
494.92	89
495.138	84
495.355	90
495.573	96
495.79	81
496.008	87
496.225	92
496.442	93
496.66	81
496.877	89
497.094	94
497.312	74
497.529	81
497.746	92
497.963	78
498.181	88
498.398	94
498.615	71
498.832	83
499.049	71
499.267	83
499.484	93
499.701	91
499.918	73
500.135	68
500.352	86
500.569	80
500.786	97
501.003	88
501.22	84
501.437	79
501.654	87
501.871	80
502.088	75
502.305	87
502.522	93
502.739	82
502.956	75
503.172	87
503.389	79
503.606	79
503.823	89
504.04	103
504.256	91
504.473	92
504.69	81
504.907	80
505.123	82
505.34	85
505.557	68
505.773	79
505.99	75
506.207	80
506.423	76
506.64	75
506.856	84
507.073	79
507.289	96
507.506	93
507.722	96
507.939	81
508.155	97
508.372	89
508.588	90
508.805	90
509.021	94
509.238	85
509.454	77
509.67	93
509.887	83
510.103	87
510.319	92
510.536	77
510.752	90
510.968	85
511.184	71
511.401	92
511.617	95
511.833	73
512.049	88
512.265	88
512.481	90
512.698	104
512.914	83
513.13	72
513.346	70
513.562	73
513.778	90
513.994	81
514.21	89
514.426	81
514.642	93
514.858	96
515.074	83
515.29	99
515.506	63
515.721	87
515.937	83
516.153	92
516.369	81
516.585	80
516.801	85
517.016	81
517.232	81
517.448	84
517.664	87
517.879	96
518.095	90
518.311	84
518.527	83
518.742	93
518.958	84
519.173	94
519.389	88
519.605	86
519.82	88
520.036	85
520.251	78
520.467	82
520.682	76
520.898	81
521.113	73
521.329	81
521.544	74
521.76	91
521.975	76
522.19	73
522.406	84
522.621	79
522.836	86
523.052	82
523.267	85
523.482	77
523.698	78
523.913	90
524.128	87
524.343	86
524.559	101
524.774	86
524.989	89
525.204	84
525.419	104
525.634	86
525.849	75
526.064	96
526.28	101
526.495	110
526.71	119
526.925	112
527.14	122
527.355	101
527.57	86
527.785	91
527.999	91
528.214	75
528.429	92
528.644	100
528.859	88
529.074	82
529.289	89
529.503	86
529.718	78
529.933	76
530.148	88
530.363	91
530.577	102
530.792	97
531.007	83
531.221	78
531.436	73
531.651	94
531.865	74
532.08	94
532.295	94
532.509	85
532.724	81
532.938	87
533.153	82
533.367	94
533.582	88
533.796	87
534.011	89
534.225	89
534.44	88
534.654	87
534.868	88
535.083	112
535.297	101
535.511	86
535.726	80
535.94	101
536.154	95
536.369	90
536.583	74
536.797	90
537.011	83
537.225	100
537.44	90
537.654	80
537.868	90
538.082	84
538.296	85
538.51	80
538.724	82
538.938	93
539.153	88
539.367	92
539.581	80
539.795	75
540.009	90
540.222	93
540.436	97
540.65	90
540.864	90
541.078	97
541.292	77
541.506	80
541.72	89
541.934	77
542.147	81
542.361	103
542.575	72
542.789	87
543.002	89
543.216	76
543.43	68
543.644	93
543.857	88
544.071	89
544.285	84
544.498	92
544.712	101
544.925	100
545.139	78
545.352	87
545.566	80
545.779	86
545.993	91
546.206	91
546.42	83
546.633	100
546.847	92
547.06	89
547.274	80
547.487	94
547.7	80
547.914	105
548.127	87
548.34	97
548.554	96
548.767	96
548.98	107
549.193	86
549.407	84
549.62	89
549.833	90
550.046	95
550.259	96
550.473	91
550.686	96
550.899	88
551.112	105
551.325	99
551.538	102
551.751	103
551.964	83
552.177	97
552.39	97
552.603	95
552.816	90
553.029	101
553.242	82
553.455	76
553.667	107
553.88	81
554.093	92
554.306	86
554.519	96
554.732	109
554.944	105
555.157	87
555.37	103
555.583	71
555.795	104
556.008	97
556.221	102
556.433	90
556.646	79
556.859	90
557.071	79
557.284	104
557.496	81
557.709	79
557.921	92
558.134	89
558.346	101
558.559	101
558.771	118
558.984	144
559.196	125
559.409	116
559.621	116
559.833	104
560.046	105
560.258	114
560.47	115
560.683	103
560.895	78
561.107	88
561.32	89
561.532	101
561.744	90
561.956	70
562.168	77
562.381	96
562.593	84
562.805	95
563.017	85
563.229	84
563.441	93
563.653	88
563.865	84
564.077	91
564.289	94
564.501	84
564.713	95
564.925	88
565.137	93
565.349	86
565.561	81
565.773	72
565.985	80
566.197	82
566.408	84
566.62	80
566.832	79
567.044	88
567.255	101
567.467	93
567.679	86
567.891	81
568.102	90
568.314	88
568.526	85
568.737	93
568.949	77
569.161	78
569.372	80
569.584	85
569.795	102
570.007	94
570.218	81
570.43	88
570.641	81
570.853	95
571.064	77
571.276	87
571.487	88
571.698	77
571.91	86
572.121	103
572.333	83
572.544	72
572.755	100
572.966	87
573.178	91
573.389	82
573.6	80
573.811	77
574.023	87
574.234	84
574.445	73
574.656	80
574.867	79
575.078	82
575.289	79
575.501	72
575.712	72
575.923	101
576.134	86
576.345	86
576.556	74
576.767	90
576.978	78
577.188	103
577.399	87
577.61	90
577.821	81
578.032	89
578.243	80
578.454	84
578.665	92
578.875	88
579.086	92
579.297	85
579.508	109
579.718	89
579.929	90
580.14	96
580.35	82
580.561	101
580.772	93
580.982	97
581.193	98
581.403	93
581.614	93
581.825	92
582.035	86
582.246	82
582.456	89
582.667	88
582.877	80
583.087	79
583.298	90
583.508	78
583.719	91
583.929	104
584.139	76
584.35	74
584.56	83
584.77	84
584.981	78
585.191	91
585.401	81
585.611	92
585.821	106
586.032	96
586.242	97
586.452	91
586.662	92
586.872	95
587.082	84
587.292	85
587.502	74
587.713	86
587.923	73
588.133	90
588.343	88
588.553	89
588.762	101
588.972	96
589.182	144
