Data from Mixnoheat4_HRD10591_00006.txt Node
Date: Fri Dec 27 15:04:18 EST 2024
User: Yrep
Spectrometer: HR+D1059
Trigger mode: 1
Integration Time (sec): 1.000000E-1
Scans to average: 1
Electric dark correction enabled: true
Nonlinearity correction enabled: false
Boxcar width: 0
XAxis mode: Wavelengths
Number of Pixels in Spectrum: 2048
>>>>>Begin Spectral Data<<<<<
223.165	-15.88
223.4	-15.88
223.635	-15.88
223.869	-9.88
224.104	-28.88
224.338	-7.88
224.573	-13.88
224.808	-9.88
225.042	-9.88
225.277	-6.88
225.511	-8.88
225.746	-1.88
225.98	13.12
226.215	1.12
226.449	16.12
226.683	18.12
226.918	28.12
227.152	37.12
227.387	32.12
227.621	40.12
227.856	40.12
228.09	54.12
228.324	37.12
228.559	62.12
228.793	74.12
229.027	65.12
229.262	65.12
229.496	51.12
229.73	67.12
229.964	71.12
230.199	83.12
230.433	71.12
230.667	80.12
230.901	86.12
231.136	76.12
231.37	75.12
231.604	68.12
231.838	81.12
232.072	82.12
232.306	76.12
232.541	79.12
232.775	74.12
233.009	85.12
233.243	76.12
233.477	75.12
233.711	74.12
233.945	86.12
234.179	89.12
234.413	91.12
234.647	82.12
234.881	59.12
235.115	68.12
235.349	75.12
235.583	75.12
235.817	59.12
236.051	83.12
236.285	70.12
236.519	67.12
236.753	83.12
236.987	64.12
237.221	74.12
237.455	79.12
237.689	73.12
237.922	79.12
238.156	79.12
238.39	67.12
238.624	66.12
238.858	89.12
239.091	59.12
239.325	76.12
239.559	71.12
239.793	70.12
240.027	77.12
240.26	72.12
240.494	73.12
240.728	67.12
240.961	77.12
241.195	78.12
241.429	75.12
241.662	71.12
241.896	83.12
242.13	81.12
242.363	68.12
242.597	63.12
242.83	101.12
243.064	68.12
243.298	73.12
243.531	79.12
243.765	87.12
243.998	80.12
244.232	67.12
244.465	68.12
244.699	58.12
244.932	59.12
245.166	72.12
245.399	73.12
245.633	74.12
245.866	66.12
246.099	69.12
246.333	80.12
246.566	90.12
246.8	67.12
247.033	61.12
247.266	74.12
247.5	76.12
247.733	76.12
247.966	74.12
248.2	70.12
248.433	69.12
248.666	84.12
248.899	75.12
249.133	75.12
249.366	76.12
249.599	76.12
249.832	66.12
250.066	79.12
250.299	73.12
250.532	57.12
250.765	78.12
250.998	65.12
251.231	74.12
251.465	78.12
251.698	72.12
251.931	81.12
252.164	71.12
252.397	77.12
252.63	70.12
252.863	82.12
253.096	71.12
253.329	72.12
253.562	85.12
253.795	69.12
254.028	81.12
254.261	74.12
254.494	74.12
254.727	66.12
254.96	90.12
255.193	77.12
255.426	75.12
255.659	75.12
255.892	77.12
256.124	88.12
256.357	73.12
256.59	80.12
256.823	72.12
257.056	79.12
257.289	75.12
257.521	64.12
257.754	80.12
257.987	74.12
258.22	82.12
258.452	75.12
258.685	90.12
258.918	82.12
259.151	78.12
259.383	85.12
259.616	76.12
259.849	79.12
260.081	71.12
260.314	72.12
260.547	98.12
260.779	88.12
261.012	66.12
261.244	81.12
261.477	84.12
261.71	86.12
261.942	69.12
262.175	65.12
262.407	75.12
262.64	61.12
262.872	74.12
263.105	71.12
263.337	70.12
263.57	65.12
263.802	89.12
264.035	81.12
264.267	68.12
264.499	82.12
264.732	82.12
264.964	92.12
265.197	83.12
265.429	77.12
265.661	84.12
265.894	92.12
266.126	81.12
266.358	87.12
266.591	86.12
266.823	80.12
267.055	79.12
267.287	82.12
267.52	71.12
267.752	73.12
267.984	76.12
268.216	71.12
268.448	85.12
268.681	82.12
268.913	76.12
269.145	72.12
269.377	78.12
269.609	75.12
269.841	92.12
270.073	99.12
270.306	76.12
270.538	83.12
270.77	76.12
271.002	83.12
271.234	83.12
271.466	76.12
271.698	91.12
271.93	86.12
272.162	68.12
272.394	90.12
272.626	74.12
272.858	81.12
273.09	90.12
273.322	79.12
273.553	78.12
273.785	74.12
274.017	82.12
274.249	96.12
274.481	77.12
274.713	86.12
274.945	90.12
275.176	84.12
275.408	83.12
275.64	80.12
275.872	90.12
276.104	84.12
276.335	78.12
276.567	72.12
276.799	78.12
277.031	84.12
277.262	85.12
277.494	85.12
277.726	85.12
277.957	83.12
278.189	87.12
278.421	68.12
278.652	80.12
278.884	74.12
279.115	80.12
279.347	72.12
279.579	88.12
279.81	70.12
280.042	87.12
280.273	90.12
280.505	70.12
280.736	82.12
280.968	78.12
281.199	81.12
281.431	77.12
281.662	80.12
281.894	69.12
282.125	86.12
282.356	81.12
282.588	79.12
282.819	93.12
283.051	87.12
283.282	88.12
283.513	87.12
283.745	78.12
283.976	62.12
284.207	85.12
284.439	73.12
284.67	79.12
284.901	83.12
285.132	73.12
285.364	70.12
285.595	84.12
285.826	87.12
286.057	83.12
286.288	79.12
286.52	76.12
286.751	98.12
286.982	96.12
287.213	59.12
287.444	78.12
287.675	68.12
287.906	86.12
288.138	79.12
288.369	84.12
288.6	77.12
288.831	94.12
289.062	76.12
289.293	87.12
289.524	90.12
289.755	83.12
289.986	82.12
290.217	83.12
290.448	80.12
290.679	100.12
290.91	87.12
291.141	91.12
291.371	84.12
291.602	90.12
291.833	72.12
292.064	77.12
292.295	90.12
292.526	83.12
292.757	87.12
292.987	83.12
293.218	72.12
293.449	77.12
293.68	77.12
293.91	81.12
294.141	78.12
294.372	98.12
294.603	77.12
294.833	82.12
295.064	88.12
295.295	67.12
295.525	75.12
295.756	67.12
295.987	94.12
296.217	81.12
296.448	78.12
296.679	71.12
296.909	88.12
297.14	95.12
297.37	75.12
297.601	71.12
297.831	68.12
298.062	68.12
298.292	84.12
298.523	84.12
298.753	91.12
298.984	82.12
299.214	82.12
299.445	71.12
299.675	67.12
299.905	63.12
300.136	82.12
300.366	82.12
300.597	78.12
300.827	91.12
301.057	73.12
301.288	85.12
301.518	89.12
301.748	67.12
301.979	92.12
302.209	81.12
302.439	79.12
302.669	79.12
302.9	73.12
303.13	84.12
303.36	83.12
303.59	88.12
303.82	87.12
304.051	73.12
304.281	89.12
304.511	101.12
304.741	75.12
304.971	85.12
305.201	92.12
305.431	97.12
305.661	76.12
305.891	88.12
306.121	64.12
306.352	84.12
306.582	82.12
306.812	78.12
307.042	79.12
307.272	90.12
307.502	77.12
307.731	84.12
307.961	77.12
308.191	73.12
308.421	77.12
308.651	71.12
308.881	80.12
309.111	87.12
309.341	86.12
309.571	94.12
309.8	85.12
310.03	80.12
310.26	81.12
310.49	72.12
310.72	86.12
310.949	83.12
311.179	87.12
311.409	86.12
311.639	74.12
311.868	90.12
312.098	79.12
312.328	90.12
312.557	84.12
312.787	71.12
313.017	87.12
313.246	82.12
313.476	72.12
313.706	75.12
313.935	79.12
314.165	79.12
314.394	82.12
314.624	87.12
314.853	91.12
315.083	102.12
315.312	90.12
315.542	84.12
315.771	74.12
316.001	75.12
316.23	84.12
316.46	83.12
316.689	87.12
316.919	95.12
317.148	77.12
317.377	80.12
317.607	90.12
317.836	80.12
318.065	81.12
318.295	82.12
318.524	78.12
318.753	88.12
318.983	82.12
319.212	97.12
319.441	74.12
319.67	82.12
319.9	82.12
320.129	91.12
320.358	90.12
320.587	92.12
320.816	88.12
321.046	87.12
321.275	82.12
321.504	74.12
321.733	78.12
321.962	86.12
322.191	93.12
322.42	81.12
322.649	83.12
322.878	90.12
323.108	98.12
323.337	92.12
323.566	70.12
323.795	95.12
324.024	85.12
324.253	81.12
324.482	89.12
324.71	75.12
324.939	83.12
325.168	86.12
325.397	99.12
325.626	76.12
325.855	91.12
326.084	64.12
326.313	85.12
326.542	96.12
326.77	85.12
326.999	77.12
327.228	95.12
327.457	88.12
327.686	98.12
327.914	79.12
328.143	85.12
328.372	88.12
328.6	82.12
328.829	98.12
329.058	76.12
329.287	83.12
329.515	90.12
329.744	87.12
329.972	88.12
330.201	79.12
330.43	71.12
330.658	83.12
330.887	85.12
331.115	78.12
331.344	70.12
331.572	79.12
331.801	97.12
332.03	84.12
332.258	71.12
332.486	95.12
332.715	87.12
332.943	82.12
333.172	83.12
333.4	75.12
333.629	72.12
333.857	87.12
334.085	82.12
334.314	85.12
334.542	82.12
334.771	91.12
334.999	84.12
335.227	77.12
335.455	73.12
335.684	77.12
335.912	88.12
336.14	87.12
336.369	83.12
336.597	81.12
336.825	89.12
337.053	82.12
337.281	88.12
337.51	76.12
337.738	90.12
337.966	73.12
338.194	75.12
338.422	92.12
338.65	80.12
338.878	92.12
339.106	77.12
339.334	82.12
339.562	84.12
339.79	76.12
340.018	69.12
340.246	89.12
340.474	85.12
340.702	70.12
340.93	66.12
341.158	82.12
341.386	95.12
341.614	73.12
341.842	96.12
342.07	93.12
342.298	82.12
342.526	74.12
342.754	78.12
342.981	68.12
343.209	80.12
343.437	83.12
343.665	79.12
343.893	87.12
344.12	82.12
344.348	82.12
344.576	81.12
344.804	89.12
345.031	82.12
345.259	83.12
345.487	83.12
345.714	77.12
345.942	68.12
346.17	85.12
346.397	83.12
346.625	75.12
346.853	94.12
347.08	78.12
347.308	84.12
347.535	89.12
347.763	90.12
347.99	83.12
348.218	74.12
348.445	82.12
348.673	79.12
348.9	80.12
349.128	90.12
349.355	80.12
349.583	87.12
349.81	81.12
350.037	76.12
350.265	90.12
350.492	82.12
350.72	74.12
350.947	67.12
351.174	84.12
351.402	75.12
351.629	72.12
351.856	74.12
352.083	76.12
352.311	91.12
352.538	83.12
352.765	87.12
352.992	95.12
353.22	85.12
353.447	84.12
353.674	75.12
353.901	88.12
354.128	68.12
354.355	86.12
354.583	91.12
354.81	68.12
355.037	91.12
355.264	76.12
355.491	71.12
355.718	80.12
355.945	92.12
356.172	75.12
356.399	78.12
356.626	93.12
356.853	89.12
357.08	100.12
357.307	79.12
357.534	86.12
357.761	79.12
357.988	82.12
358.215	93.12
358.441	86.12
358.668	89.12
358.895	75.12
359.122	87.12
359.349	76.12
359.576	84.12
359.802	88.12
360.029	83.12
360.256	72.12
360.483	79.12
360.709	75.12
360.936	84.12
361.163	90.12
361.39	89.12
361.616	89.12
361.843	83.12
362.07	89.12
362.296	77.12
362.523	72.12
362.749	92.12
362.976	80.12
363.203	102.12
363.429	81.12
363.656	95.12
363.882	82.12
364.109	101.12
364.335	94.12
364.562	83.12
364.788	74.12
365.015	73.12
365.241	90.12
365.468	86.12
365.694	74.12
365.92	80.12
366.147	57.12
366.373	93.12
366.599	73.12
366.826	65.12
367.052	89.12
367.278	86.12
367.505	75.12
367.731	82.12
367.957	91.12
368.184	72.12
368.41	89.12
368.636	72.12
368.862	90.12
369.089	84.12
369.315	76.12
369.541	87.12
369.767	88.12
369.993	78.12
370.219	79.12
370.445	83.12
370.672	87.12
370.898	84.12
371.124	77.12
371.35	67.12
371.576	81.12
371.802	75.12
372.028	86.12
372.254	76.12
372.48	92.12
372.706	85.12
372.932	82.12
373.158	85.12
373.384	78.12
373.61	87.12
373.835	100.12
374.061	90.12
374.287	93.12
374.513	90.12
374.739	92.12
374.965	96.12
375.191	88.12
375.416	76.12
375.642	82.12
375.868	80.12
376.094	87.12
376.319	75.12
376.545	72.12
376.771	89.12
376.997	77.12
377.222	71.12
377.448	78.12
377.674	89.12
377.899	74.12
378.125	87.12
378.35	87.12
378.576	93.12
378.802	95.12
379.027	89.12
379.253	84.12
379.478	76.12
379.704	76.12
379.929	85.12
380.155	73.12
380.38	93.12
380.606	74.12
380.831	93.12
381.057	92.12
381.282	91.12
381.507	86.12
381.733	85.12
381.958	86.12
382.184	73.12
382.409	75.12
382.634	84.12
382.86	85.12
383.085	76.12
383.31	78.12
383.535	86.12
383.761	83.12
383.986	66.12
384.211	94.12
384.436	82.12
384.662	96.12
384.887	80.12
385.112	83.12
385.337	87.12
385.562	80.12
385.787	77.12
386.013	92.12
386.238	88.12
386.463	83.12
386.688	94.12
386.913	93.12
387.138	86.12
387.363	91.12
387.588	78.12
387.813	82.12
388.038	80.12
388.263	76.12
388.488	100.12
388.713	90.12
388.938	82.12
389.163	78.12
389.387	84.12
389.612	94.12
389.837	63.12
390.062	94.12
390.287	92.12
390.512	79.12
390.736	81.12
390.961	72.12
391.186	86.12
391.411	84.12
391.636	91.12
391.86	80.12
392.085	71.12
392.31	89.12
392.534	80.12
392.759	96.12
392.984	92.12
393.208	95.12
393.433	95.12
393.658	101.12
393.882	104.12
394.107	83.12
394.331	94.12
394.556	98.12
394.78	88.12
395.005	70.12
395.229	78.12
395.454	85.12
395.678	86.12
395.903	98.12
396.127	88.12
396.352	88.12
396.576	95.12
396.801	94.12
397.025	91.12
397.249	90.12
397.474	77.12
397.698	71.12
397.922	80.12
398.147	75.12
398.371	78.12
398.595	82.12
398.82	96.12
399.044	88.12
399.268	92.12
399.492	85.12
399.717	78.12
399.941	57.12
400.165	77.12
400.389	73.12
400.613	96.12
400.837	77.12
401.062	81.12
401.286	78.12
401.51	90.12
401.734	70.12
401.958	76.12
402.182	75.12
402.406	76.12
402.63	88.12
402.854	82.12
403.078	89.12
403.302	87.12
403.526	76.12
403.75	78.12
403.974	87.12
404.198	92.12
404.422	105.12
404.645	87.12
404.869	96.12
405.093	99.12
405.317	82.12
405.541	76.12
405.765	84.12
405.988	79.12
406.212	71.12
406.436	79.12
406.66	80.12
406.883	85.12
407.107	84.12
407.331	82.12
407.555	87.12
407.778	84.12
408.002	80.12
408.226	68.12
408.449	82.12
408.673	92.12
408.896	88.12
409.12	80.12
409.344	85.12
409.567	78.12
409.791	81.12
410.014	86.12
410.238	90.12
410.461	92.12
410.685	83.12
410.908	84.12
411.132	89.12
411.355	84.12
411.578	93.12
411.802	80.12
412.025	89.12
412.249	76.12
412.472	81.12
412.695	78.12
412.919	78.12
413.142	79.12
413.365	79.12
413.589	76.12
413.812	88.12
414.035	78.12
414.258	89.12
414.482	75.12
414.705	83.12
414.928	84.12
415.151	73.12
415.374	86.12
415.597	90.12
415.821	91.12
416.044	69.12
416.267	72.12
416.49	76.12
416.713	69.12
416.936	93.12
417.159	78.12
417.382	82.12
417.605	94.12
417.828	97.12
418.051	88.12
418.274	93.12
418.497	82.12
418.72	98.12
418.943	85.12
419.166	88.12
419.389	80.12
419.611	87.12
419.834	72.12
420.057	92.12
420.28	90.12
420.503	82.12
420.726	92.12
420.948	80.12
421.171	83.12
421.394	78.12
421.617	89.12
421.839	93.12
422.062	106.12
422.285	96.12
422.507	112.12
422.73	120.12
422.953	106.12
423.175	91.12
423.398	96.12
423.621	80.12
423.843	82.12
424.066	87.12
424.288	76.12
424.511	84.12
424.733	92.12
424.956	68.12
425.178	77.12
425.401	90.12
425.623	72.12
425.846	91.12
426.068	76.12
426.291	68.12
426.513	78.12
426.735	79.12
426.958	98.12
427.18	85.12
427.402	78.12
427.625	93.12
427.847	83.12
428.069	81.12
428.292	105.12
428.514	88.12
428.736	78.12
428.958	85.12
429.181	85.12
429.403	76.12
429.625	88.12
429.847	99.12
430.069	88.12
430.292	92.12
430.514	103.12
430.736	91.12
430.958	93.12
431.18	84.12
431.402	86.12
431.624	69.12
431.846	95.12
432.068	89.12
432.29	91.12
432.512	99.12
432.734	88.12
432.956	81.12
433.178	94.12
433.4	86.12
433.622	88.12
433.844	86.12
434.066	76.12
434.287	71.12
434.509	75.12
434.731	88.12
434.953	90.12
435.175	92.12
435.397	72.12
435.618	77.12
435.84	74.12
436.062	70.12
436.284	76.12
436.505	86.12
436.727	64.12
436.949	72.12
437.17	78.12
437.392	82.12
437.614	68.12
437.835	73.12
438.057	71.12
438.278	81.12
438.5	79.12
438.721	86.12
438.943	84.12
439.165	80.12
439.386	72.12
439.608	94.12
439.829	76.12
440.05	92.12
440.272	69.12
440.493	80.12
440.715	79.12
440.936	70.12
441.158	73.12
441.379	84.12
441.6	74.12
441.822	68.12
442.043	71.12
442.264	82.12
442.486	89.12
442.707	84.12
442.928	87.12
443.149	81.12
443.371	90.12
443.592	107.12
443.813	102.12
444.034	87.12
444.255	69.12
444.476	70.12
444.698	85.12
444.919	80.12
445.14	139.12
445.361	132.12
445.582	113.12
445.803	116.12
446.024	87.12
446.245	74.12
446.466	75.12
446.687	95.12
446.908	82.12
447.129	80.12
447.35	94.12
447.571	81.12
447.792	83.12
448.013	66.12
448.234	53.12
448.455	71.12
448.675	82.12
448.896	81.12
449.117	77.12
449.338	94.12
449.559	72.12
449.779	85.12
450	91.12
450.221	80.12
450.442	79.12
450.662	79.12
450.883	93.12
451.104	78.12
451.324	77.12
451.545	74.12
451.766	88.12
451.986	86.12
452.207	87.12
452.428	82.12
452.648	79.12
452.869	84.12
453.089	80.12
453.31	77.12
453.53	95.12
453.751	92.12
453.971	82.12
454.192	82.12
454.412	77.12
454.633	84.12
454.853	77.12
455.073	86.12
455.294	84.12
455.514	74.12
455.734	83.12
455.955	81.12
456.175	81.12
456.395	74.12
456.616	91.12
456.836	83.12
457.056	81.12
457.276	82.12
457.497	77.12
457.717	76.12
457.937	86.12
458.157	89.12
458.377	82.12
458.598	78.12
458.818	93.12
459.038	81.12
459.258	75.12
459.478	79.12
459.698	80.12
459.918	75.12
460.138	74.12
460.358	80.12
460.578	77.12
460.798	79.12
461.018	89.12
461.238	82.12
461.458	96.12
461.678	86.12
461.898	80.12
462.118	76.12
462.338	100.12
462.558	72.12
462.777	82.12
462.997	92.12
463.217	68.12
463.437	74.12
463.657	68.12
463.876	93.12
464.096	90.12
464.316	68.12
464.536	82.12
464.755	84.12
464.975	73.12
465.195	72.12
465.414	79.12
465.634	71.12
465.854	72.12
466.073	75.12
466.293	84.12
466.512	82.12
466.732	84.12
466.951	88.12
467.171	89.12
467.391	82.12
467.61	72.12
467.829	94.12
468.049	80.12
468.268	90.12
468.488	72.12
468.707	83.12
468.927	83.12
469.146	89.12
469.365	99.12
469.585	84.12
469.804	80.12
470.023	80.12
470.243	78.12
470.462	96.12
470.681	73.12
470.901	73.12
471.12	87.12
471.339	86.12
471.558	79.12
471.777	72.12
471.997	85.12
472.216	86.12
472.435	83.12
472.654	79.12
472.873	83.12
473.092	83.12
473.311	94.12
473.53	70.12
473.749	78.12
473.968	64.12
474.187	83.12
474.406	82.12
474.625	71.12
474.844	90.12
475.063	78.12
475.282	76.12
475.501	88.12
475.72	81.12
475.939	84.12
476.158	80.12
476.377	74.12
476.596	82.12
476.814	82.12
477.033	80.12
477.252	86.12
477.471	93.12
477.69	83.12
477.908	83.12
478.127	88.12
478.346	76.12
478.564	85.12
478.783	84.12
479.002	90.12
479.22	90.12
479.439	70.12
479.658	86.12
479.876	90.12
480.095	86.12
480.313	83.12
480.532	81.12
480.751	99.12
480.969	88.12
481.188	82.12
481.406	86.12
481.624	76.12
481.843	93.12
482.061	75.12
482.28	80.12
482.498	82.12
482.717	77.12
482.935	78.12
483.153	82.12
483.372	83.12
483.59	84.12
483.808	79.12
484.027	90.12
484.245	82.12
484.463	74.12
484.681	71.12
484.9	76.12
485.118	76.12
485.336	75.12
485.554	89.12
485.772	83.12
485.99	95.12
486.209	77.12
486.427	80.12
486.645	89.12
486.863	80.12
487.081	83.12
487.299	82.12
487.517	84.12
487.735	89.12
487.953	86.12
488.171	89.12
488.389	84.12
488.607	73.12
488.825	89.12
489.043	81.12
489.261	82.12
489.479	69.12
489.696	91.12
489.914	78.12
490.132	74.12
490.35	69.12
490.568	82.12
490.786	77.12
491.003	94.12
491.221	88.12
491.439	98.12
491.657	81.12
491.874	83.12
492.092	83.12
492.31	77.12
492.527	73.12
492.745	90.12
492.963	80.12
493.18	83.12
493.398	85.12
493.615	77.12
493.833	72.12
494.05	83.12
494.268	74.12
494.485	76.12
494.703	77.12
494.92	92.12
495.138	74.12
495.355	82.12
495.573	84.12
495.79	76.12
496.008	90.12
496.225	88.12
496.442	76.12
496.66	81.12
496.877	79.12
497.094	92.12
497.312	96.12
497.529	96.12
497.746	89.12
497.963	83.12
498.181	73.12
498.398	84.12
498.615	78.12
498.832	76.12
499.049	80.12
499.267	86.12
499.484	80.12
499.701	92.12
499.918	68.12
500.135	88.12
500.352	84.12
500.569	76.12
500.786	86.12
501.003	84.12
501.22	89.12
501.437	86.12
501.654	82.12
501.871	87.12
502.088	79.12
502.305	79.12
502.522	78.12
502.739	73.12
502.956	96.12
503.172	82.12
503.389	79.12
503.606	72.12
503.823	58.12
504.04	90.12
504.256	81.12
504.473	72.12
504.69	82.12
504.907	74.12
505.123	83.12
505.34	72.12
505.557	92.12
505.773	84.12
505.99	102.12
506.207	70.12
506.423	75.12
506.64	77.12
506.856	72.12
507.073	85.12
507.289	83.12
507.506	74.12
507.722	83.12
507.939	83.12
508.155	93.12
508.372	81.12
508.588	85.12
508.805	85.12
509.021	90.12
509.238	92.12
509.454	68.12
509.67	77.12
509.887	86.12
510.103	83.12
510.319	77.12
510.536	87.12
510.752	78.12
510.968	94.12
511.184	85.12
511.401	86.12
511.617	74.12
511.833	77.12
512.049	77.12
512.265	94.12
512.481	99.12
512.698	82.12
512.914	84.12
513.13	92.12
513.346	86.12
513.562	77.12
513.778	89.12
513.994	86.12
514.21	84.12
514.426	76.12
514.642	79.12
514.858	80.12
515.074	84.12
515.29	97.12
515.506	86.12
515.721	79.12
515.937	88.12
516.153	86.12
516.369	90.12
516.585	80.12
516.801	87.12
517.016	67.12
517.232	82.12
517.448	84.12
517.664	71.12
517.879	78.12
518.095	65.12
518.311	72.12
518.527	77.12
518.742	85.12
518.958	79.12
519.173	81.12
519.389	88.12
519.605	78.12
519.82	79.12
