Data from Mixnoheat4_HRD10591_00009.txt Node
Date: Fri Dec 27 15:04:21 EST 2024
User: Yrep
Spectrometer: HR+D1059
Trigger mode: 1
Integration Time (sec): 1.000000E-1
Scans to average: 1
Electric dark correction enabled: true
Nonlinearity correction enabled: false
Boxcar width: 0
XAxis mode: Wavelengths
Number of Pixels in Spectrum: 2048
>>>>>Begin Spectral Data<<<<<
223.165	-7.94
223.4	-7.94
223.635	-7.94
223.869	-5.94
224.104	-10.94
224.338	-14.94
224.573	-14.94
224.808	-22.94
225.042	-3.94
225.277	-10.94
225.511	-9.94
225.746	5.06
225.98	3.06
226.215	12.06
226.449	14.06
226.683	26.06
226.918	16.06
227.152	26.06
227.387	36.06
227.621	25.06
227.856	49.06
228.09	34.06
228.324	50.06
228.559	38.06
228.793	46.06
229.027	66.06
229.262	59.06
229.496	67.06
229.73	68.06
229.964	72.06
230.199	67.06
230.433	71.06
230.667	69.06
230.901	54.06
231.136	63.06
231.37	80.06
231.604	65.06
231.838	81.06
232.072	89.06
232.306	81.06
232.541	82.06
232.775	82.06
233.009	81.06
233.243	94.06
233.477	70.06
233.711	59.06
233.945	71.06
234.179	65.06
234.413	89.06
234.647	74.06
234.881	74.06
235.115	75.06
235.349	73.06
235.583	76.06
235.817	70.06
236.051	71.06
236.285	85.06
236.519	74.06
236.753	81.06
236.987	68.06
237.221	83.06
237.455	85.06
237.689	77.06
237.922	66.06
238.156	71.06
238.39	72.06
238.624	76.06
238.858	79.06
239.091	75.06
239.325	73.06
239.559	80.06
239.793	75.06
240.027	70.06
240.26	69.06
240.494	81.06
240.728	76.06
240.961	59.06
241.195	75.06
241.429	79.06
241.662	80.06
241.896	64.06
242.13	74.06
242.363	72.06
242.597	75.06
242.83	88.06
243.064	78.06
243.298	64.06
243.531	59.06
243.765	71.06
243.998	88.06
244.232	69.06
244.465	75.06
244.699	75.06
244.932	76.06
245.166	82.06
245.399	76.06
245.633	68.06
245.866	89.06
246.099	83.06
246.333	64.06
246.566	53.06
246.8	70.06
247.033	80.06
247.266	73.06
247.5	77.06
247.733	83.06
247.966	78.06
248.2	68.06
248.433	74.06
248.666	66.06
248.899	67.06
249.133	75.06
249.366	72.06
249.599	80.06
249.832	82.06
250.066	81.06
250.299	76.06
250.532	85.06
250.765	69.06
250.998	99.06
251.231	69.06
251.465	88.06
251.698	86.06
251.931	80.06
252.164	76.06
252.397	68.06
252.63	75.06
252.863	74.06
253.096	80.06
253.329	83.06
253.562	85.06
253.795	76.06
254.028	61.06
254.261	77.06
254.494	76.06
254.727	77.06
254.96	79.06
255.193	81.06
255.426	85.06
255.659	86.06
255.892	95.06
256.124	70.06
256.357	83.06
256.59	89.06
256.823	83.06
257.056	84.06
257.289	92.06
257.521	88.06
257.754	75.06
257.987	62.06
258.22	76.06
258.452	85.06
258.685	83.06
258.918	83.06
259.151	93.06
259.383	85.06
259.616	80.06
259.849	68.06
260.081	72.06
260.314	77.06
260.547	79.06
260.779	71.06
261.012	84.06
261.244	76.06
261.477	91.06
261.71	87.06
261.942	90.06
262.175	83.06
262.407	74.06
262.64	74.06
262.872	78.06
263.105	84.06
263.337	92.06
263.57	79.06
263.802	80.06
264.035	74.06
264.267	76.06
264.499	70.06
264.732	86.06
264.964	80.06
265.197	57.06
265.429	81.06
265.661	74.06
265.894	89.06
266.126	75.06
266.358	84.06
266.591	85.06
266.823	85.06
267.055	68.06
267.287	82.06
267.52	69.06
267.752	80.06
267.984	76.06
268.216	99.06
268.448	76.06
268.681	87.06
268.913	93.06
269.145	85.06
269.377	83.06
269.609	78.06
269.841	81.06
270.073	85.06
270.306	72.06
270.538	74.06
270.77	92.06
271.002	76.06
271.234	92.06
271.466	85.06
271.698	77.06
271.93	87.06
272.162	87.06
272.394	82.06
272.626	76.06
272.858	82.06
273.09	75.06
273.322	81.06
273.553	86.06
273.785	78.06
274.017	77.06
274.249	82.06
274.481	80.06
274.713	67.06
274.945	60.06
275.176	77.06
275.408	77.06
275.64	65.06
275.872	62.06
276.104	72.06
276.335	96.06
276.567	83.06
276.799	86.06
277.031	72.06
277.262	78.06
277.494	87.06
277.726	75.06
277.957	80.06
278.189	79.06
278.421	70.06
278.652	74.06
278.884	74.06
279.115	82.06
279.347	76.06
279.579	76.06
279.81	76.06
280.042	88.06
280.273	82.06
280.505	80.06
280.736	75.06
280.968	90.06
281.199	80.06
281.431	82.06
281.662	84.06
281.894	65.06
282.125	85.06
282.356	81.06
282.588	68.06
282.819	83.06
283.051	92.06
283.282	76.06
283.513	89.06
283.745	96.06
283.976	80.06
284.207	75.06
284.439	101.06
284.67	92.06
284.901	87.06
285.132	91.06
285.364	67.06
285.595	78.06
285.826	76.06
286.057	92.06
286.288	91.06
286.52	75.06
286.751	81.06
286.982	70.06
287.213	86.06
287.444	91.06
287.675	74.06
287.906	74.06
288.138	79.06
288.369	86.06
288.6	97.06
288.831	84.06
289.062	87.06
289.293	67.06
289.524	88.06
289.755	82.06
289.986	99.06
290.217	86.06
290.448	77.06
290.679	73.06
290.91	80.06
291.141	81.06
291.371	86.06
291.602	89.06
291.833	75.06
292.064	77.06
292.295	76.06
292.526	75.06
292.757	83.06
292.987	92.06
293.218	76.06
293.449	79.06
293.68	70.06
293.91	73.06
294.141	83.06
294.372	88.06
294.603	81.06
294.833	100.06
295.064	78.06
295.295	78.06
295.525	88.06
295.756	86.06
295.987	85.06
296.217	83.06
296.448	73.06
296.679	88.06
296.909	96.06
297.14	89.06
297.37	66.06
297.601	90.06
297.831	95.06
298.062	67.06
298.292	86.06
298.523	84.06
298.753	91.06
298.984	84.06
299.214	69.06
299.445	76.06
299.675	74.06
299.905	69.06
300.136	68.06
300.366	86.06
300.597	86.06
300.827	83.06
301.057	97.06
301.288	96.06
301.518	90.06
301.748	71.06
301.979	99.06
302.209	82.06
302.439	79.06
302.669	85.06
302.9	104.06
303.13	67.06
303.36	83.06
303.59	92.06
303.82	65.06
304.051	104.06
304.281	72.06
304.511	73.06
304.741	87.06
304.971	76.06
305.201	83.06
305.431	87.06
305.661	76.06
305.891	91.06
306.121	87.06
306.352	79.06
306.582	85.06
306.812	90.06
307.042	80.06
307.272	77.06
307.502	88.06
307.731	79.06
307.961	83.06
308.191	89.06
308.421	92.06
308.651	78.06
308.881	93.06
309.111	75.06
309.341	90.06
309.571	98.06
309.8	95.06
310.03	81.06
310.26	77.06
310.49	79.06
310.72	84.06
310.949	70.06
311.179	76.06
311.409	77.06
311.639	76.06
311.868	85.06
312.098	89.06
312.328	77.06
312.557	89.06
312.787	78.06
313.017	84.06
313.246	88.06
313.476	77.06
313.706	77.06
313.935	88.06
314.165	95.06
314.394	83.06
314.624	86.06
314.853	95.06
315.083	90.06
315.312	89.06
315.542	69.06
315.771	81.06
316.001	84.06
316.23	94.06
316.46	83.06
316.689	79.06
316.919	80.06
317.148	93.06
317.377	96.06
317.607	76.06
317.836	77.06
318.065	75.06
318.295	88.06
318.524	85.06
318.753	78.06
318.983	86.06
319.212	81.06
319.441	99.06
319.67	79.06
319.9	78.06
320.129	81.06
320.358	76.06
320.587	77.06
320.816	78.06
321.046	100.06
321.275	89.06
321.504	79.06
321.733	81.06
321.962	86.06
322.191	88.06
322.42	84.06
322.649	83.06
322.878	78.06
323.108	81.06
323.337	82.06
323.566	93.06
323.795	84.06
324.024	76.06
324.253	76.06
324.482	78.06
324.71	87.06
324.939	92.06
325.168	82.06
325.397	90.06
325.626	83.06
325.855	97.06
326.084	84.06
326.313	89.06
326.542	86.06
326.77	81.06
326.999	87.06
327.228	87.06
327.457	87.06
327.686	88.06
327.914	92.06
328.143	80.06
328.372	88.06
328.6	84.06
328.829	84.06
329.058	86.06
329.287	87.06
329.515	94.06
329.744	66.06
329.972	78.06
330.201	93.06
330.43	90.06
330.658	80.06
330.887	93.06
331.115	86.06
331.344	79.06
331.572	88.06
331.801	99.06
332.03	87.06
332.258	76.06
332.486	84.06
332.715	93.06
332.943	79.06
333.172	90.06
333.4	90.06
333.629	83.06
333.857	96.06
334.085	77.06
334.314	82.06
334.542	90.06
334.771	98.06
334.999	93.06
335.227	87.06
335.455	90.06
335.684	94.06
335.912	100.06
336.14	101.06
336.369	80.06
336.597	75.06
336.825	88.06
337.053	78.06
337.281	73.06
337.51	90.06
337.738	88.06
337.966	69.06
338.194	80.06
338.422	83.06
338.65	84.06
338.878	76.06
339.106	89.06
339.334	85.06
339.562	82.06
339.79	94.06
340.018	89.06
340.246	91.06
340.474	77.06
340.702	96.06
340.93	74.06
341.158	84.06
341.386	88.06
341.614	74.06
341.842	86.06
342.07	75.06
342.298	92.06
342.526	92.06
342.754	76.06
342.981	84.06
343.209	89.06
343.437	96.06
343.665	81.06
343.893	77.06
344.12	88.06
344.348	89.06
344.576	78.06
344.804	77.06
345.031	88.06
345.259	90.06
345.487	91.06
345.714	92.06
345.942	83.06
346.17	84.06
346.397	67.06
346.625	86.06
346.853	83.06
347.08	78.06
347.308	83.06
347.535	80.06
347.763	87.06
347.99	73.06
348.218	80.06
348.445	90.06
348.673	80.06
348.9	86.06
349.128	98.06
349.355	81.06
349.583	80.06
349.81	80.06
350.037	83.06
350.265	85.06
350.492	79.06
350.72	71.06
350.947	95.06
351.174	78.06
351.402	77.06
351.629	90.06
351.856	89.06
352.083	88.06
352.311	71.06
352.538	88.06
352.765	75.06
352.992	95.06
353.22	94.06
353.447	99.06
353.674	82.06
353.901	75.06
354.128	75.06
354.355	69.06
354.583	87.06
354.81	75.06
355.037	81.06
355.264	83.06
355.491	90.06
355.718	85.06
355.945	80.06
356.172	81.06
356.399	90.06
356.626	80.06
356.853	90.06
357.08	90.06
357.307	76.06
357.534	98.06
357.761	81.06
357.988	88.06
358.215	97.06
358.441	84.06
358.668	79.06
358.895	90.06
359.122	87.06
359.349	77.06
359.576	93.06
359.802	79.06
360.029	91.06
360.256	66.06
360.483	74.06
360.709	88.06
360.936	78.06
361.163	94.06
361.39	96.06
361.616	81.06
361.843	92.06
362.07	80.06
362.296	105.06
362.523	89.06
362.749	84.06
362.976	77.06
363.203	89.06
363.429	81.06
363.656	83.06
363.882	94.06
364.109	94.06
364.335	79.06
364.562	90.06
364.788	82.06
365.015	80.06
365.241	84.06
365.468	88.06
365.694	73.06
365.92	88.06
366.147	102.06
366.373	82.06
366.599	81.06
366.826	84.06
367.052	98.06
367.278	89.06
367.505	91.06
367.731	97.06
367.957	89.06
368.184	72.06
368.41	78.06
368.636	92.06
368.862	77.06
369.089	86.06
369.315	88.06
369.541	106.06
369.767	84.06
369.993	89.06
370.219	86.06
370.445	92.06
370.672	88.06
370.898	73.06
371.124	95.06
371.35	91.06
371.576	84.06
371.802	94.06
372.028	65.06
372.254	89.06
372.48	78.06
372.706	86.06
372.932	82.06
373.158	82.06
373.384	89.06
373.61	94.06
373.835	77.06
374.061	87.06
374.287	85.06
374.513	87.06
374.739	84.06
374.965	90.06
375.191	71.06
375.416	89.06
375.642	85.06
375.868	92.06
376.094	97.06
376.319	83.06
376.545	76.06
376.771	90.06
376.997	84.06
377.222	74.06
377.448	84.06
377.674	82.06
377.899	82.06
378.125	80.06
378.35	75.06
378.576	66.06
378.802	82.06
379.027	90.06
379.253	83.06
379.478	88.06
379.704	84.06
379.929	89.06
380.155	80.06
380.38	83.06
380.606	77.06
380.831	77.06
381.057	83.06
381.282	87.06
381.507	84.06
381.733	81.06
381.958	77.06
382.184	82.06
382.409	82.06
382.634	84.06
382.86	96.06
383.085	75.06
383.31	78.06
383.535	88.06
383.761	84.06
383.986	84.06
384.211	83.06
384.436	85.06
384.662	87.06
384.887	79.06
385.112	91.06
385.337	73.06
385.562	82.06
385.787	82.06
386.013	68.06
386.238	84.06
386.463	77.06
386.688	108.06
386.913	85.06
387.138	63.06
387.363	93.06
387.588	94.06
387.813	98.06
388.038	87.06
388.263	84.06
388.488	90.06
388.713	93.06
388.938	80.06
389.163	81.06
389.387	97.06
389.612	79.06
389.837	76.06
390.062	90.06
390.287	92.06
390.512	79.06
390.736	79.06
390.961	77.06
391.186	96.06
391.411	79.06
391.636	85.06
391.86	77.06
392.085	83.06
392.31	85.06
392.534	104.06
392.759	83.06
392.984	103.06
393.208	108.06
393.433	118.06
393.658	100.06
393.882	98.06
394.107	99.06
394.331	92.06
394.556	86.06
394.78	93.06
395.005	89.06
395.229	93.06
395.454	86.06
395.678	65.06
395.903	94.06
396.127	95.06
396.352	96.06
396.576	92.06
396.801	101.06
397.025	104.06
397.249	87.06
397.474	87.06
397.698	85.06
397.922	76.06
398.147	81.06
398.371	80.06
398.595	84.06
398.82	71.06
399.044	75.06
399.268	82.06
399.492	83.06
399.717	85.06
399.941	81.06
400.165	62.06
400.389	86.06
400.613	84.06
400.837	76.06
401.062	79.06
401.286	89.06
401.51	88.06
401.734	91.06
401.958	85.06
402.182	71.06
402.406	89.06
402.63	82.06
402.854	81.06
403.078	82.06
403.302	75.06
403.526	72.06
403.75	83.06
403.974	90.06
404.198	88.06
404.422	121.06
404.645	122.06
404.869	97.06
405.093	99.06
405.317	85.06
405.541	77.06
405.765	99.06
405.988	89.06
406.212	92.06
406.436	95.06
406.66	96.06
406.883	77.06
407.107	74.06
407.331	88.06
407.555	76.06
407.778	83.06
408.002	85.06
408.226	80.06
408.449	89.06
408.673	85.06
408.896	69.06
409.12	85.06
409.344	80.06
409.567	92.06
409.791	82.06
410.014	79.06
410.238	82.06
410.461	89.06
410.685	85.06
410.908	81.06
411.132	83.06
411.355	82.06
411.578	74.06
411.802	86.06
412.025	97.06
412.249	82.06
412.472	85.06
412.695	89.06
412.919	86.06
413.142	90.06
413.365	101.06
413.589	79.06
413.812	70.06
414.035	85.06
414.258	80.06
414.482	89.06
414.705	81.06
414.928	88.06
415.151	79.06
415.374	69.06
415.597	88.06
415.821	87.06
416.044	78.06
416.267	86.06
416.49	91.06
416.713	65.06
416.936	82.06
417.159	82.06
417.382	77.06
417.605	87.06
417.828	86.06
418.051	82.06
418.274	79.06
418.497	77.06
418.72	75.06
418.943	82.06
419.166	64.06
419.389	72.06
419.611	76.06
419.834	81.06
420.057	82.06
420.28	83.06
420.503	98.06
420.726	86.06
420.948	85.06
421.171	89.06
421.394	79.06
421.617	86.06
421.839	84.06
422.062	95.06
422.285	104.06
422.507	141.06
422.73	147.06
422.953	134.06
423.175	112.06
423.398	85.06
423.621	86.06
423.843	86.06
424.066	71.06
424.288	82.06
424.511	83.06
424.733	66.06
424.956	69.06
425.178	84.06
425.401	88.06
425.623	69.06
425.846	88.06
426.068	62.06
426.291	86.06
426.513	84.06
426.735	86.06
426.958	86.06
427.18	90.06
427.402	74.06
427.625	85.06
427.847	73.06
428.069	84.06
428.292	98.06
428.514	98.06
428.736	96.06
428.958	97.06
429.181	102.06
429.403	91.06
429.625	80.06
429.847	89.06
430.069	100.06
430.292	112.06
430.514	109.06
430.736	80.06
430.958	99.06
431.18	83.06
431.402	82.06
431.624	84.06
431.846	108.06
432.068	109.06
432.29	103.06
432.512	90.06
432.734	87.06
432.956	80.06
433.178	91.06
433.4	78.06
433.622	81.06
433.844	76.06
434.066	83.06
434.287	73.06
434.509	95.06
434.731	78.06
434.953	72.06
435.175	87.06
435.397	85.06
435.618	87.06
435.84	88.06
436.062	70.06
436.284	71.06
436.505	81.06
436.727	77.06
436.949	79.06
437.17	91.06
437.392	86.06
437.614	66.06
437.835	81.06
438.057	72.06
438.278	83.06
438.5	97.06
438.721	78.06
438.943	86.06
439.165	84.06
439.386	78.06
439.608	77.06
439.829	79.06
440.05	77.06
440.272	84.06
440.493	92.06
440.715	84.06
440.936	74.06
441.158	82.06
441.379	79.06
441.6	80.06
441.822	79.06
442.043	93.06
442.264	84.06
442.486	59.06
442.707	91.06
442.928	82.06
443.149	96.06
443.371	114.06
443.592	120.06
443.813	90.06
444.034	84.06
444.255	82.06
444.476	92.06
444.698	85.06
444.919	88.06
445.14	155.06
445.361	141.06
445.582	142.06
445.803	118.06
446.024	89.06
446.245	74.06
446.466	82.06
446.687	86.06
446.908	68.06
447.129	86.06
447.35	78.06
447.571	85.06
447.792	78.06
448.013	72.06
448.234	74.06
448.455	81.06
448.675	75.06
448.896	77.06
449.117	91.06
449.338	77.06
449.559	78.06
449.779	86.06
450	76.06
450.221	86.06
450.442	90.06
450.662	86.06
450.883	76.06
451.104	75.06
451.324	89.06
451.545	90.06
451.766	80.06
451.986	85.06
452.207	74.06
452.428	74.06
452.648	82.06
452.869	84.06
453.089	73.06
453.31	89.06
453.53	92.06
453.751	84.06
453.971	92.06
454.192	90.06
454.412	80.06
454.633	73.06
454.853	84.06
455.073	77.06
455.294	82.06
455.514	84.06
455.734	66.06
455.955	81.06
456.175	82.06
456.395	77.06
456.616	85.06
456.836	91.06
457.056	72.06
457.276	82.06
457.497	78.06
457.717	83.06
457.937	93.06
458.157	82.06
458.377	91.06
458.598	93.06
458.818	106.06
459.038	84.06
459.258	78.06
459.478	83.06
459.698	76.06
459.918	96.06
460.138	80.06
460.358	74.06
460.578	87.06
460.798	92.06
461.018	94.06
461.238	74.06
461.458	97.06
461.678	76.06
461.898	82.06
462.118	93.06
462.338	79.06
462.558	75.06
462.777	75.06
462.997	79.06
463.217	84.06
463.437	84.06
463.657	96.06
463.876	72.06
464.096	79.06
464.316	90.06
464.536	90.06
464.755	74.06
464.975	74.06
465.195	87.06
465.414	85.06
465.634	72.06
465.854	72.06
466.073	78.06
466.293	59.06
466.512	84.06
466.732	96.06
466.951	82.06
467.171	84.06
467.391	79.06
467.61	68.06
467.829	80.06
468.049	84.06
468.268	84.06
468.488	80.06
468.707	87.06
468.927	81.06
469.146	82.06
469.365	86.06
469.585	75.06
469.804	82.06
470.023	76.06
470.243	82.06
470.462	89.06
470.681	89.06
470.901	74.06
471.12	84.06
471.339	77.06
471.558	84.06
471.777	75.06
471.997	67.06
472.216	75.06
472.435	85.06
472.654	88.06
472.873	96.06
473.092	92.06
473.311	75.06
473.53	76.06
473.749	76.06
473.968	82.06
474.187	91.06
474.406	84.06
474.625	96.06
474.844	110.06
475.063	89.06
475.282	75.06
475.501	80.06
475.72	98.06
475.939	80.06
476.158	97.06
476.377	77.06
476.596	69.06
476.814	96.06
477.033	88.06
477.252	87.06
477.471	76.06
477.69	87.06
477.908	74.06
478.127	76.06
478.346	69.06
478.564	83.06
478.783	93.06
479.002	87.06
479.22	77.06
479.439	93.06
479.658	77.06
479.876	87.06
480.095	89.06
480.313	88.06
480.532	97.06
480.751	89.06
480.969	78.06
481.188	86.06
481.406	90.06
481.624	78.06
481.843	92.06
482.061	73.06
482.28	60.06
482.498	82.06
482.717	82.06
482.935	91.06
483.153	74.06
483.372	97.06
483.59	91.06
483.808	92.06
484.027	81.06
484.245	78.06
484.463	80.06
484.681	90.06
484.9	87.06
485.118	81.06
485.336	86.06
485.554	93.06
485.772	99.06
485.99	84.06
486.209	80.06
486.427	73.06
486.645	97.06
486.863	77.06
487.081	88.06
487.299	78.06
487.517	86.06
487.735	92.06
487.953	94.06
488.171	96.06
488.389	88.06
488.607	78.06
488.825	76.06
489.043	81.06
489.261	94.06
489.479	82.06
489.696	84.06
489.914	69.06
490.132	90.06
490.35	83.06
490.568	80.06
490.786	96.06
491.003	82.06
491.221	72.06
491.439	88.06
491.657	76.06
491.874	73.06
492.092	84.06
492.31	95.06
492.527	82.06
492.745	91.06
492.963	75.06
493.18	76.06
493.398	99.06
493.615	78.06
493.833	80.06
494.05	79.06
494.268	81.06
494.485	82.06
494.703	77.06
494.92	85.06
495.138	92.06
495.355	94.06
495.573	89.06
495.79	80.06
496.008	76.06
496.225	73.06
496.442	69.06
496.66	91.06
496.877	72.06
497.094	81.06
497.312	77.06
497.529	74.06
497.746	105.06
497.963	80.06
498.181	93.06
498.398	79.06
498.615	72.06
498.832	93.06
499.049	97.06
499.267	82.06
499.484	95.06
499.701	95.06
499.918	86.06
500.135	85.06
500.352	82.06
500.569	78.06
500.786	92.06
501.003	82.06
501.22	85.06
501.437	81.06
501.654	77.06
501.871	87.06
502.088	94.06
502.305	83.06
502.522	86.06
502.739	81.06
502.956	76.06
503.172	94.06
503.389	77.06
503.606	76.06
503.823	86.06
504.04	86.06
504.256	89.06
504.473	77.06
504.69	95.06
504.907	100.06
505.123	78.06
505.34	70.06
505.557	85.06
505.773	87.06
505.99	89.06
506.207	85.06
506.423	102.06
506.64	87.06
506.856	81.06
507.073	85.06
507.289	82.06
507.506	84.06
507.722	73.06
507.939	82.06
508.155	85.06
508.372	88.06
508.588	85.06
508.805	93.06
509.021	81.06
509.238	73.06
509.454	75.06
509.67	70.06
509.887	77.06
510.103	91.06
510.319	88.06
510.536	102.06
510.752	86.06
510.968	89.06
511.184	97.06
511.401	70.06
511.617	86.06
511.833	71.06
512.049	80.06
512.265	79.06
512.481	92.06
512.698	89.06
512.914	94.06
513.13	88.06
513.346	71.06
513.562	96.06
513.778	74.06
513.994	71.06
514.21	82.06
514.426	87.06
514.642	86.06
514.858	70.06
515.074	78.06
515.29	89.06
515.506	88.06
515.721	82.06
515.937	78.06
516.153	97.06
516.369	77.06
516.585	76.06
516.801	80.06
517.016	84.06
517.232	63.06
517.448	72.06
517.664	69.06
517.879	89.06
518.095	77.06
518.311	81.06
518.527	97.06
518.742	87.06
518.958	80.06
519.173	89.06
519.389	87.06
519.605	81.06
