Data from Mixnoheat4_HRD10591_00012.txt Node
Date: Fri Dec 27 15:04:24 EST 2024
User: Yrep
Spectrometer: HR+D1059
Trigger mode: 1
Integration Time (sec): 1.000000E-1
Scans to average: 1
Electric dark correction enabled: true
Nonlinearity correction enabled: false
Boxcar width: 0
XAxis mode: Wavelengths
Number of Pixels in Spectrum: 2048
>>>>>Begin Spectral Data<<<<<
223.165	-30.25
223.4	-30.25
223.635	-30.25
223.869	-13.25
224.104	-25.25
224.338	-27.25
224.573	-8.25
224.808	-1.25
225.042	-15.25
225.277	-9.25
225.511	-0.25
225.746	4.75
225.98	9.75
226.215	5.75
226.449	11.75
226.683	26.75
226.918	35.75
227.152	35.75
227.387	35.75
227.621	37.75
227.856	41.75
228.09	36.75
228.324	47.75
228.559	59.75
228.793	57.75
229.027	64.75
229.262	45.75
229.496	60.75
229.73	72.75
229.964	69.75
230.199	67.75
230.433	77.75
230.667	64.75
230.901	82.75
231.136	79.75
231.37	71.75
231.604	61.75
231.838	75.75
232.072	71.75
232.306	86.75
232.541	70.75
232.775	81.75
233.009	76.75
233.243	63.75
233.477	78.75
233.711	85.75
233.945	88.75
234.179	74.75
234.413	85.75
234.647	78.75
234.881	81.75
235.115	61.75
235.349	63.75
235.583	85.75
235.817	94.75
236.051	63.75
236.285	67.75
236.519	75.75
236.753	82.75
236.987	90.75
237.221	56.75
237.455	67.75
237.689	81.75
237.922	79.75
238.156	76.75
238.39	71.75
238.624	65.75
238.858	78.75
239.091	81.75
239.325	73.75
239.559	78.75
239.793	72.75
240.027	71.75
240.26	75.75
240.494	81.75
240.728	72.75
240.961	75.75
241.195	61.75
241.429	74.75
241.662	67.75
241.896	71.75
242.13	81.75
242.363	68.75
242.597	70.75
242.83	79.75
243.064	66.75
243.298	75.75
243.531	74.75
243.765	85.75
243.998	74.75
244.232	71.75
244.465	78.75
244.699	86.75
244.932	68.75
245.166	74.75
245.399	78.75
245.633	73.75
245.866	73.75
246.099	75.75
246.333	77.75
246.566	89.75
246.8	81.75
247.033	75.75
247.266	73.75
247.5	77.75
247.733	69.75
247.966	82.75
248.2	78.75
248.433	65.75
248.666	71.75
248.899	81.75
249.133	81.75
249.366	72.75
249.599	78.75
249.832	71.75
250.066	78.75
250.299	74.75
250.532	72.75
250.765	82.75
250.998	63.75
251.231	68.75
251.465	79.75
251.698	78.75
251.931	81.75
252.164	78.75
252.397	75.75
252.63	72.75
252.863	76.75
253.096	79.75
253.329	64.75
253.562	77.75
253.795	87.75
254.028	82.75
254.261	78.75
254.494	73.75
254.727	82.75
254.96	73.75
255.193	82.75
255.426	73.75
255.659	78.75
255.892	87.75
256.124	71.75
256.357	75.75
256.59	71.75
256.823	77.75
257.056	74.75
257.289	81.75
257.521	69.75
257.754	92.75
257.987	75.75
258.22	74.75
258.452	84.75
258.685	80.75
258.918	78.75
259.151	74.75
259.383	84.75
259.616	77.75
259.849	60.75
260.081	76.75
260.314	82.75
260.547	79.75
260.779	64.75
261.012	83.75
261.244	71.75
261.477	80.75
261.71	73.75
261.942	76.75
262.175	89.75
262.407	73.75
262.64	81.75
262.872	84.75
263.105	79.75
263.337	86.75
263.57	69.75
263.802	81.75
264.035	84.75
264.267	83.75
264.499	97.75
264.732	77.75
264.964	76.75
265.197	81.75
265.429	90.75
265.661	67.75
265.894	67.75
266.126	79.75
266.358	97.75
266.591	76.75
266.823	74.75
267.055	82.75
267.287	92.75
267.52	83.75
267.752	77.75
267.984	69.75
268.216	86.75
268.448	87.75
268.681	91.75
268.913	84.75
269.145	77.75
269.377	78.75
269.609	75.75
269.841	89.75
270.073	69.75
270.306	67.75
270.538	75.75
270.77	80.75
271.002	83.75
271.234	58.75
271.466	88.75
271.698	86.75
271.93	84.75
272.162	78.75
272.394	84.75
272.626	92.75
272.858	74.75
273.09	81.75
273.322	85.75
273.553	81.75
273.785	87.75
274.017	66.75
274.249	68.75
274.481	78.75
274.713	66.75
274.945	79.75
275.176	78.75
275.408	77.75
275.64	79.75
275.872	88.75
276.104	84.75
276.335	63.75
276.567	80.75
276.799	84.75
277.031	86.75
277.262	84.75
277.494	60.75
277.726	74.75
277.957	77.75
278.189	71.75
278.421	81.75
278.652	74.75
278.884	72.75
279.115	80.75
279.347	66.75
279.579	76.75
279.81	98.75
280.042	87.75
280.273	87.75
280.505	78.75
280.736	81.75
280.968	75.75
281.199	73.75
281.431	84.75
281.662	86.75
281.894	76.75
282.125	75.75
282.356	72.75
282.588	75.75
282.819	84.75
283.051	73.75
283.282	90.75
283.513	66.75
283.745	86.75
283.976	67.75
284.207	81.75
284.439	76.75
284.67	67.75
284.901	71.75
285.132	82.75
285.364	86.75
285.595	87.75
285.826	79.75
286.057	94.75
286.288	74.75
286.52	83.75
286.751	92.75
286.982	85.75
287.213	82.75
287.444	81.75
287.675	70.75
287.906	73.75
288.138	70.75
288.369	93.75
288.6	79.75
288.831	77.75
289.062	86.75
289.293	78.75
289.524	88.75
289.755	82.75
289.986	85.75
290.217	87.75
290.448	73.75
290.679	84.75
290.91	86.75
291.141	82.75
291.371	98.75
291.602	86.75
291.833	89.75
292.064	89.75
292.295	82.75
292.526	79.75
292.757	81.75
292.987	83.75
293.218	76.75
293.449	72.75
293.68	82.75
293.91	74.75
294.141	80.75
294.372	66.75
294.603	77.75
294.833	78.75
295.064	80.75
295.295	76.75
295.525	76.75
295.756	79.75
295.987	79.75
296.217	78.75
296.448	72.75
296.679	82.75
296.909	88.75
297.14	90.75
297.37	87.75
297.601	97.75
297.831	83.75
298.062	99.75
298.292	92.75
298.523	87.75
298.753	92.75
298.984	78.75
299.214	75.75
299.445	77.75
299.675	70.75
299.905	66.75
300.136	89.75
300.366	87.75
300.597	74.75
300.827	72.75
301.057	82.75
301.288	93.75
301.518	89.75
301.748	81.75
301.979	101.75
302.209	84.75
302.439	81.75
302.669	93.75
302.9	81.75
303.13	82.75
303.36	82.75
303.59	63.75
303.82	79.75
304.051	90.75
304.281	92.75
304.511	94.75
304.741	76.75
304.971	77.75
305.201	81.75
305.431	78.75
305.661	80.75
305.891	83.75
306.121	88.75
306.352	72.75
306.582	74.75
306.812	87.75
307.042	95.75
307.272	84.75
307.502	81.75
307.731	74.75
307.961	87.75
308.191	85.75
308.421	93.75
308.651	87.75
308.881	70.75
309.111	74.75
309.341	87.75
309.571	98.75
309.8	75.75
310.03	81.75
310.26	83.75
310.49	80.75
310.72	88.75
310.949	78.75
311.179	73.75
311.409	76.75
311.639	76.75
311.868	82.75
312.098	87.75
312.328	78.75
312.557	83.75
312.787	83.75
313.017	72.75
313.246	86.75
313.476	77.75
313.706	92.75
313.935	86.75
314.165	86.75
314.394	81.75
314.624	86.75
314.853	80.75
315.083	89.75
315.312	70.75
315.542	97.75
315.771	87.75
316.001	85.75
316.23	87.75
316.46	69.75
316.689	75.75
316.919	94.75
317.148	83.75
317.377	93.75
317.607	87.75
317.836	81.75
318.065	84.75
318.295	86.75
318.524	77.75
318.753	77.75
318.983	81.75
319.212	78.75
319.441	85.75
319.67	75.75
319.9	91.75
320.129	94.75
320.358	90.75
320.587	82.75
320.816	85.75
321.046	74.75
321.275	84.75
321.504	78.75
321.733	75.75
321.962	87.75
322.191	80.75
322.42	79.75
322.649	95.75
322.878	67.75
323.108	80.75
323.337	90.75
323.566	77.75
323.795	70.75
324.024	87.75
324.253	91.75
324.482	80.75
324.71	86.75
324.939	79.75
325.168	86.75
325.397	78.75
325.626	78.75
325.855	78.75
326.084	83.75
326.313	70.75
326.542	78.75
326.77	78.75
326.999	80.75
327.228	91.75
327.457	84.75
327.686	69.75
327.914	98.75
328.143	76.75
328.372	78.75
328.6	81.75
328.829	88.75
329.058	91.75
329.287	64.75
329.515	84.75
329.744	83.75
329.972	78.75
330.201	76.75
330.43	78.75
330.658	78.75
330.887	85.75
331.115	84.75
331.344	77.75
331.572	76.75
331.801	87.75
332.03	74.75
332.258	79.75
332.486	81.75
332.715	82.75
332.943	77.75
333.172	91.75
333.4	76.75
333.629	83.75
333.857	79.75
334.085	85.75
334.314	77.75
334.542	73.75
334.771	76.75
334.999	81.75
335.227	69.75
335.455	77.75
335.684	97.75
335.912	79.75
336.14	67.75
336.369	86.75
336.597	84.75
336.825	82.75
337.053	84.75
337.281	91.75
337.51	79.75
337.738	76.75
337.966	82.75
338.194	79.75
338.422	82.75
338.65	91.75
338.878	99.75
339.106	67.75
339.334	84.75
339.562	77.75
339.79	81.75
340.018	79.75
340.246	89.75
340.474	83.75
340.702	80.75
340.93	82.75
341.158	79.75
341.386	86.75
341.614	81.75
341.842	89.75
342.07	90.75
342.298	98.75
342.526	79.75
342.754	84.75
342.981	66.75
343.209	83.75
343.437	109.75
343.665	79.75
343.893	74.75
344.12	85.75
344.348	91.75
344.576	87.75
344.804	80.75
345.031	86.75
345.259	90.75
345.487	86.75
345.714	84.75
345.942	82.75
346.17	73.75
346.397	80.75
346.625	92.75
346.853	79.75
347.08	65.75
347.308	77.75
347.535	74.75
347.763	62.75
347.99	80.75
348.218	84.75
348.445	82.75
348.673	68.75
348.9	81.75
349.128	70.75
349.355	83.75
349.583	92.75
349.81	77.75
350.037	80.75
350.265	88.75
350.492	68.75
350.72	86.75
350.947	87.75
351.174	88.75
351.402	88.75
351.629	88.75
351.856	90.75
352.083	89.75
352.311	83.75
352.538	87.75
352.765	80.75
352.992	91.75
353.22	79.75
353.447	88.75
353.674	81.75
353.901	83.75
354.128	81.75
354.355	78.75
354.583	70.75
354.81	86.75
355.037	80.75
355.264	78.75
355.491	73.75
355.718	90.75
355.945	82.75
356.172	91.75
356.399	87.75
356.626	69.75
356.853	87.75
357.08	78.75
357.307	75.75
357.534	78.75
357.761	78.75
357.988	81.75
358.215	75.75
358.441	90.75
358.668	71.75
358.895	87.75
359.122	68.75
359.349	88.75
359.576	95.75
359.802	70.75
360.029	83.75
360.256	82.75
360.483	71.75
360.709	77.75
360.936	89.75
361.163	71.75
361.39	88.75
361.616	86.75
361.843	80.75
362.07	83.75
362.296	88.75
362.523	83.75
362.749	83.75
362.976	89.75
363.203	91.75
363.429	88.75
363.656	72.75
363.882	76.75
364.109	86.75
364.335	89.75
364.562	89.75
364.788	81.75
365.015	71.75
365.241	76.75
365.468	92.75
365.694	89.75
365.92	76.75
366.147	73.75
366.373	81.75
366.599	75.75
366.826	86.75
367.052	90.75
367.278	98.75
367.505	69.75
367.731	85.75
367.957	81.75
368.184	82.75
368.41	90.75
368.636	94.75
368.862	89.75
369.089	77.75
369.315	79.75
369.541	91.75
369.767	89.75
369.993	87.75
370.219	84.75
370.445	88.75
370.672	81.75
370.898	75.75
371.124	82.75
371.35	74.75
371.576	79.75
371.802	92.75
372.028	97.75
372.254	77.75
372.48	83.75
372.706	83.75
372.932	83.75
373.158	84.75
373.384	74.75
373.61	89.75
373.835	80.75
374.061	86.75
374.287	82.75
374.513	89.75
374.739	80.75
374.965	64.75
375.191	79.75
375.416	74.75
375.642	77.75
375.868	86.75
376.094	91.75
376.319	83.75
376.545	98.75
376.771	79.75
376.997	92.75
377.222	63.75
377.448	65.75
377.674	88.75
377.899	91.75
378.125	85.75
378.35	78.75
378.576	100.75
378.802	75.75
379.027	86.75
379.253	92.75
379.478	85.75
379.704	97.75
379.929	81.75
380.155	80.75
380.38	84.75
380.606	80.75
380.831	75.75
381.057	76.75
381.282	83.75
381.507	86.75
381.733	66.75
381.958	79.75
382.184	83.75
382.409	79.75
382.634	83.75
382.86	80.75
383.085	81.75
383.31	74.75
383.535	72.75
383.761	85.75
383.986	95.75
384.211	73.75
384.436	91.75
384.662	86.75
384.887	66.75
385.112	87.75
385.337	87.75
385.562	68.75
385.787	90.75
386.013	81.75
386.238	87.75
386.463	75.75
386.688	87.75
386.913	94.75
387.138	84.75
387.363	78.75
387.588	78.75
387.813	86.75
388.038	88.75
388.263	77.75
388.488	94.75
388.713	74.75
388.938	57.75
389.163	85.75
389.387	94.75
389.612	87.75
389.837	75.75
390.062	61.75
390.287	84.75
390.512	87.75
390.736	75.75
390.961	71.75
391.186	72.75
391.411	74.75
391.636	73.75
391.86	93.75
392.085	87.75
392.31	66.75
392.534	66.75
392.759	82.75
392.984	99.75
393.208	103.75
393.433	112.75
393.658	101.75
393.882	87.75
394.107	87.75
394.331	90.75
394.556	78.75
394.78	91.75
395.005	90.75
395.229	93.75
395.454	91.75
395.678	80.75
395.903	86.75
396.127	93.75
396.352	102.75
396.576	81.75
396.801	107.75
397.025	90.75
397.249	83.75
397.474	93.75
397.698	81.75
397.922	82.75
398.147	86.75
398.371	79.75
398.595	90.75
398.82	79.75
399.044	89.75
399.268	71.75
399.492	87.75
399.717	105.75
399.941	75.75
400.165	74.75
400.389	82.75
400.613	78.75
400.837	79.75
401.062	82.75
401.286	88.75
401.51	82.75
401.734	85.75
401.958	86.75
402.182	87.75
402.406	73.75
402.63	87.75
402.854	84.75
403.078	83.75
403.302	95.75
403.526	86.75
403.75	93.75
403.974	83.75
404.198	85.75
404.422	122.75
404.645	129.75
404.869	117.75
405.093	91.75
405.317	100.75
405.541	84.75
405.765	82.75
405.988	86.75
406.212	78.75
406.436	97.75
406.66	78.75
406.883	75.75
407.107	74.75
407.331	76.75
407.555	74.75
407.778	93.75
408.002	84.75
408.226	77.75
408.449	82.75
408.673	80.75
408.896	73.75
409.12	73.75
409.344	90.75
409.567	89.75
409.791	64.75
410.014	67.75
410.238	88.75
410.461	78.75
410.685	76.75
410.908	71.75
411.132	88.75
411.355	85.75
411.578	80.75
411.802	64.75
412.025	71.75
412.249	75.75
412.472	85.75
412.695	71.75
412.919	87.75
413.142	71.75
413.365	103.75
413.589	63.75
413.812	84.75
414.035	84.75
414.258	83.75
414.482	89.75
414.705	65.75
414.928	74.75
415.151	86.75
415.374	76.75
415.597	75.75
415.821	69.75
416.044	73.75
416.267	80.75
416.49	78.75
416.713	89.75
416.936	75.75
417.159	85.75
417.382	86.75
417.605	82.75
417.828	79.75
418.051	76.75
418.274	73.75
418.497	82.75
418.72	74.75
418.943	77.75
419.166	77.75
419.389	74.75
419.611	77.75
419.834	80.75
420.057	78.75
420.28	66.75
420.503	68.75
420.726	81.75
420.948	71.75
421.171	83.75
421.394	73.75
421.617	72.75
421.839	88.75
422.062	103.75
422.285	99.75
422.507	118.75
422.73	142.75
422.953	141.75
423.175	105.75
423.398	89.75
423.621	73.75
423.843	83.75
424.066	82.75
424.288	77.75
424.511	71.75
424.733	74.75
424.956	94.75
425.178	77.75
425.401	69.75
425.623	67.75
425.846	89.75
426.068	79.75
426.291	82.75
426.513	78.75
426.735	91.75
426.958	88.75
427.18	83.75
427.402	83.75
427.625	79.75
427.847	94.75
428.069	87.75
428.292	87.75
428.514	98.75
428.736	81.75
428.958	90.75
429.181	94.75
429.403	94.75
429.625	82.75
429.847	89.75
430.069	105.75
430.292	103.75
430.514	93.75
430.736	89.75
430.958	97.75
431.18	88.75
431.402	93.75
431.624	79.75
431.846	87.75
432.068	87.75
432.29	76.75
432.512	83.75
432.734	101.75
432.956	77.75
433.178	83.75
433.4	83.75
433.622	75.75
433.844	97.75
434.066	81.75
434.287	80.75
434.509	73.75
434.731	59.75
434.953	91.75
435.175	84.75
435.397	85.75
435.618	84.75
435.84	80.75
436.062	76.75
436.284	89.75
436.505	74.75
436.727	83.75
436.949	83.75
437.17	73.75
437.392	86.75
437.614	90.75
437.835	66.75
438.057	71.75
438.278	78.75
438.5	83.75
438.721	91.75
438.943	75.75
439.165	101.75
439.386	82.75
439.608	85.75
439.829	81.75
440.05	76.75
440.272	85.75
440.493	81.75
440.715	85.75
440.936	74.75
441.158	84.75
441.379	84.75
441.6	92.75
441.822	83.75
442.043	70.75
442.264	74.75
442.486	91.75
442.707	104.75
442.928	98.75
443.149	84.75
443.371	97.75
443.592	128.75
443.813	101.75
444.034	92.75
444.255	89.75
444.476	84.75
444.698	77.75
444.919	92.75
445.14	144.75
445.361	127.75
445.582	126.75
445.803	109.75
446.024	89.75
446.245	81.75
446.466	93.75
446.687	61.75
446.908	82.75
447.129	89.75
447.35	82.75
447.571	93.75
447.792	69.75
448.013	71.75
448.234	79.75
448.455	71.75
448.675	71.75
448.896	74.75
449.117	78.75
449.338	81.75
449.559	82.75
449.779	64.75
450	72.75
450.221	85.75
450.442	86.75
450.662	85.75
450.883	90.75
451.104	91.75
451.324	87.75
451.545	77.75
451.766	75.75
451.986	71.75
452.207	92.75
452.428	94.75
452.648	85.75
452.869	72.75
453.089	70.75
453.31	80.75
453.53	73.75
453.751	77.75
453.971	75.75
454.192	74.75
454.412	86.75
454.633	74.75
454.853	68.75
455.073	70.75
455.294	71.75
455.514	97.75
455.734	78.75
455.955	78.75
456.175	81.75
456.395	81.75
456.616	79.75
456.836	100.75
457.056	84.75
457.276	76.75
457.497	89.75
457.717	73.75
457.937	80.75
458.157	88.75
458.377	76.75
458.598	83.75
458.818	73.75
459.038	84.75
459.258	88.75
459.478	82.75
459.698	74.75
459.918	83.75
460.138	84.75
460.358	73.75
460.578	86.75
460.798	92.75
461.018	100.75
461.238	85.75
461.458	86.75
461.678	90.75
461.898	89.75
462.118	78.75
462.338	67.75
462.558	77.75
462.777	68.75
462.997	89.75
463.217	81.75
463.437	79.75
463.657	67.75
463.876	79.75
464.096	71.75
464.316	81.75
464.536	74.75
464.755	78.75
464.975	77.75
465.195	66.75
465.414	83.75
465.634	75.75
465.854	76.75
466.073	89.75
466.293	86.75
466.512	82.75
466.732	81.75
466.951	74.75
467.171	75.75
467.391	76.75
467.61	87.75
467.829	73.75
468.049	84.75
468.268	79.75
468.488	66.75
468.707	72.75
468.927	83.75
469.146	74.75
469.365	87.75
469.585	75.75
469.804	83.75
470.023	87.75
470.243	84.75
470.462	63.75
470.681	59.75
470.901	82.75
471.12	87.75
471.339	85.75
471.558	84.75
471.777	86.75
471.997	82.75
472.216	86.75
472.435	83.75
472.654	74.75
472.873	86.75
473.092	77.75
473.311	75.75
473.53	72.75
473.749	90.75
473.968	79.75
474.187	77.75
474.406	86.75
474.625	77.75
474.844	91.75
475.063	76.75
475.282	87.75
475.501	82.75
475.72	94.75
475.939	77.75
476.158	74.75
476.377	85.75
476.596	82.75
476.814	54.75
477.033	78.75
477.252	86.75
477.471	82.75
477.69	74.75
477.908	86.75
478.127	88.75
478.346	76.75
478.564	70.75
478.783	86.75
479.002	100.75
479.22	84.75
479.439	81.75
479.658	73.75
479.876	75.75
480.095	105.75
480.313	92.75
480.532	75.75
480.751	71.75
480.969	74.75
481.188	88.75
481.406	92.75
481.624	79.75
481.843	81.75
482.061	88.75
482.28	82.75
482.498	83.75
482.717	76.75
482.935	84.75
483.153	90.75
483.372	86.75
483.59	81.75
483.808	100.75
484.027	78.75
484.245	92.75
484.463	84.75
484.681	92.75
484.9	74.75
485.118	74.75
485.336	78.75
485.554	84.75
485.772	75.75
485.99	91.75
486.209	74.75
486.427	80.75
486.645	88.75
486.863	83.75
487.081	90.75
487.299	72.75
487.517	72.75
487.735	93.75
487.953	93.75
488.171	96.75
488.389	92.75
488.607	75.75
488.825	75.75
489.043	73.75
489.261	85.75
489.479	84.75
489.696	76.75
489.914	63.75
490.132	87.75
490.35	74.75
490.568	80.75
490.786	81.75
491.003	80.75
491.221	75.75
491.439	74.75
491.657	74.75
491.874	86.75
492.092	83.75
492.31	92.75
492.527	79.75
492.745	83.75
492.963	85.75
493.18	87.75
493.398	79.75
493.615	86.75
493.833	76.75
494.05	79.75
494.268	66.75
494.485	89.75
494.703	76.75
494.92	81.75
495.138	89.75
495.355	84.75
495.573	85.75
495.79	74.75
496.008	87.75
496.225	84.75
496.442	77.75
496.66	66.75
496.877	83.75
497.094	89.75
497.312	81.75
497.529	74.75
497.746	96.75
497.963	76.75
498.181	81.75
498.398	81.75
498.615	88.75
498.832	97.75
499.049	93.75
499.267	71.75
499.484	77.75
499.701	85.75
499.918	83.75
500.135	81.75
500.352	78.75
500.569	69.75
500.786	86.75
501.003	75.75
501.22	101.75
501.437	93.75
501.654	86.75
501.871	88.75
502.088	74.75
502.305	96.75
502.522	85.75
502.739	95.75
502.956	98.75
503.172	91.75
503.389	90.75
503.606	78.75
503.823	92.75
504.04	82.75
504.256	104.75
504.473	82.75
504.69	71.75
504.907	84.75
505.123	105.75
505.34	88.75
505.557	80.75
505.773	92.75
505.99	84.75
506.207	81.75
506.423	74.75
506.64	81.75
506.856	76.75
507.073	82.75
507.289	63.75
507.506	75.75
507.722	84.75
507.939	66.75
508.155	81.75
508.372	89.75
508.588	89.75
508.805	91.75
509.021	81.75
509.238	81.75
509.454	83.75
509.67	80.75
509.887	82.75
510.103	80.75
510.319	86.75
510.536	88.75
510.752	83.75
510.968	72.75
511.184	57.75
511.401	94.75
511.617	94.75
511.833	78.75
512.049	72.75
512.265	77.75
512.481	90.75
512.698	80.75
512.914	87.75
513.13	104.75
513.346	86.75
513.562	95.75
513.778	85.75
513.994	76.75
514.21	75.75
514.426	75.75
514.642	75.75
514.858	75.75
515.074	86.75
515.29	98.75
515.506	87.75
515.721	80.75
515.937	73.75
516.153	73.75
516.369	81.75
516.585	101.75
516.801	71.75
517.016	91.75
517.232	89.75
517.448	88.75
517.664	88.75
517.879	84.75
518.095	73.75
518.311	83.75
518.527	82.75
518.742	82.75
518.958	101.75
519.173	88.75
519.389	87.75
519.605	89.75
