Data from Mixnoheat4_HRD10591_00010.txt Node
Date: Fri Dec 27 15:04:22 EST 2024
User: Yrep
Spectrometer: HR+D1059
Trigger mode: 1
Integration Time (sec): 1.000000E-1
Scans to average: 1
Electric dark correction enabled: true
Nonlinearity correction enabled: false
Boxcar width: 0
XAxis mode: Wavelengths
Number of Pixels in Spectrum: 2048
>>>>>Begin Spectral Data<<<<<
223.165	-22.19
223.4	-22.19
223.635	-22.19
223.869	-18.19
224.104	-10.19
224.338	-20.19
224.573	-18.19
224.808	-16.19
225.042	-4.19
225.277	-2.19
225.511	-9.19
225.746	-0.19
225.98	16.81
226.215	10.81
226.449	18.81
226.683	22.81
226.918	16.81
227.152	34.81
227.387	45.81
227.621	48.81
227.856	62.81
228.09	44.81
228.324	53.81
228.559	72.81
228.793	75.81
229.027	68.81
229.262	65.81
229.496	66.81
229.73	55.81
229.964	79.81
230.199	77.81
230.433	73.81
230.667	69.81
230.901	73.81
231.136	83.81
231.37	62.81
231.604	82.81
231.838	84.81
232.072	72.81
232.306	74.81
232.541	82.81
232.775	73.81
233.009	75.81
233.243	80.81
233.477	90.81
233.711	89.81
233.945	81.81
234.179	81.81
234.413	79.81
234.647	77.81
234.881	71.81
235.115	72.81
235.349	68.81
235.583	83.81
235.817	75.81
236.051	84.81
236.285	84.81
236.519	77.81
236.753	76.81
236.987	79.81
237.221	76.81
237.455	83.81
237.689	89.81
237.922	81.81
238.156	74.81
238.39	71.81
238.624	81.81
238.858	73.81
239.091	64.81
239.325	69.81
239.559	83.81
239.793	76.81
240.027	68.81
240.26	79.81
240.494	84.81
240.728	82.81
240.961	96.81
241.195	71.81
241.429	69.81
241.662	78.81
241.896	72.81
242.13	73.81
242.363	67.81
242.597	71.81
242.83	83.81
243.064	71.81
243.298	53.81
243.531	63.81
243.765	73.81
243.998	77.81
244.232	83.81
244.465	88.81
244.699	69.81
244.932	76.81
245.166	71.81
245.399	70.81
245.633	83.81
245.866	82.81
246.099	60.81
246.333	70.81
246.566	94.81
246.8	70.81
247.033	73.81
247.266	77.81
247.5	75.81
247.733	84.81
247.966	84.81
248.2	90.81
248.433	93.81
248.666	93.81
248.899	75.81
249.133	79.81
249.366	91.81
249.599	75.81
249.832	77.81
250.066	69.81
250.299	79.81
250.532	76.81
250.765	72.81
250.998	65.81
251.231	85.81
251.465	89.81
251.698	74.81
251.931	82.81
252.164	78.81
252.397	67.81
252.63	79.81
252.863	79.81
253.096	97.81
253.329	81.81
253.562	76.81
253.795	89.81
254.028	90.81
254.261	85.81
254.494	71.81
254.727	82.81
254.96	81.81
255.193	83.81
255.426	82.81
255.659	74.81
255.892	83.81
256.124	78.81
256.357	90.81
256.59	81.81
256.823	71.81
257.056	85.81
257.289	90.81
257.521	81.81
257.754	82.81
257.987	81.81
258.22	78.81
258.452	78.81
258.685	76.81
258.918	80.81
259.151	80.81
259.383	77.81
259.616	87.81
259.849	87.81
260.081	82.81
260.314	74.81
260.547	96.81
260.779	78.81
261.012	79.81
261.244	74.81
261.477	84.81
261.71	95.81
261.942	84.81
262.175	76.81
262.407	74.81
262.64	83.81
262.872	74.81
263.105	74.81
263.337	66.81
263.57	81.81
263.802	77.81
264.035	73.81
264.267	72.81
264.499	84.81
264.732	75.81
264.964	82.81
265.197	77.81
265.429	87.81
265.661	91.81
265.894	77.81
266.126	75.81
266.358	74.81
266.591	83.81
266.823	82.81
267.055	91.81
267.287	78.81
267.52	89.81
267.752	66.81
267.984	70.81
268.216	77.81
268.448	77.81
268.681	80.81
268.913	89.81
269.145	83.81
269.377	91.81
269.609	83.81
269.841	88.81
270.073	75.81
270.306	85.81
270.538	87.81
270.77	100.81
271.002	73.81
271.234	69.81
271.466	84.81
271.698	86.81
271.93	79.81
272.162	81.81
272.394	74.81
272.626	77.81
272.858	72.81
273.09	71.81
273.322	70.81
273.553	71.81
273.785	77.81
274.017	92.81
274.249	81.81
274.481	74.81
274.713	78.81
274.945	86.81
275.176	92.81
275.408	86.81
275.64	85.81
275.872	89.81
276.104	67.81
276.335	73.81
276.567	86.81
276.799	88.81
277.031	77.81
277.262	72.81
277.494	95.81
277.726	82.81
277.957	82.81
278.189	83.81
278.421	62.81
278.652	81.81
278.884	80.81
279.115	103.81
279.347	84.81
279.579	82.81
279.81	82.81
280.042	74.81
280.273	69.81
280.505	78.81
280.736	88.81
280.968	70.81
281.199	84.81
281.431	79.81
281.662	69.81
281.894	90.81
282.125	81.81
282.356	82.81
282.588	79.81
282.819	86.81
283.051	86.81
283.282	75.81
283.513	88.81
283.745	80.81
283.976	80.81
284.207	93.81
284.439	92.81
284.67	87.81
284.901	89.81
285.132	87.81
285.364	77.81
285.595	87.81
285.826	82.81
286.057	77.81
286.288	92.81
286.52	93.81
286.751	81.81
286.982	76.81
287.213	74.81
287.444	81.81
287.675	94.81
287.906	92.81
288.138	90.81
288.369	89.81
288.6	93.81
288.831	99.81
289.062	89.81
289.293	91.81
289.524	76.81
289.755	91.81
289.986	85.81
290.217	83.81
290.448	88.81
290.679	86.81
290.91	88.81
291.141	84.81
291.371	80.81
291.602	90.81
291.833	83.81
292.064	71.81
292.295	73.81
292.526	91.81
292.757	78.81
292.987	82.81
293.218	79.81
293.449	78.81
293.68	81.81
293.91	77.81
294.141	86.81
294.372	81.81
294.603	95.81
294.833	91.81
295.064	76.81
295.295	102.81
295.525	89.81
295.756	97.81
295.987	87.81
296.217	89.81
296.448	83.81
296.679	85.81
296.909	89.81
297.14	92.81
297.37	76.81
297.601	91.81
297.831	90.81
298.062	88.81
298.292	83.81
298.523	92.81
298.753	80.81
298.984	78.81
299.214	74.81
299.445	84.81
299.675	81.81
299.905	84.81
300.136	78.81
300.366	78.81
300.597	92.81
300.827	73.81
301.057	73.81
301.288	95.81
301.518	74.81
301.748	91.81
301.979	115.81
302.209	98.81
302.439	87.81
302.669	83.81
302.9	77.81
303.13	77.81
303.36	73.81
303.59	85.81
303.82	93.81
304.051	78.81
304.281	95.81
304.511	85.81
304.741	90.81
304.971	82.81
305.201	97.81
305.431	93.81
305.661	76.81
305.891	87.81
306.121	84.81
306.352	85.81
306.582	84.81
306.812	84.81
307.042	76.81
307.272	90.81
307.502	86.81
307.731	99.81
307.961	84.81
308.191	91.81
308.421	78.81
308.651	100.81
308.881	87.81
309.111	94.81
309.341	79.81
309.571	94.81
309.8	86.81
310.03	83.81
310.26	86.81
310.49	81.81
310.72	77.81
310.949	88.81
311.179	71.81
311.409	89.81
311.639	81.81
311.868	91.81
312.098	93.81
312.328	85.81
312.557	82.81
312.787	93.81
313.017	85.81
313.246	92.81
313.476	79.81
313.706	82.81
313.935	83.81
314.165	94.81
314.394	79.81
314.624	85.81
314.853	87.81
315.083	89.81
315.312	87.81
315.542	68.81
315.771	79.81
316.001	93.81
316.23	67.81
316.46	75.81
316.689	75.81
316.919	69.81
317.148	90.81
317.377	86.81
317.607	73.81
317.836	83.81
318.065	95.81
318.295	94.81
318.524	84.81
318.753	82.81
318.983	80.81
319.212	98.81
319.441	81.81
319.67	97.81
319.9	87.81
320.129	86.81
320.358	83.81
320.587	106.81
320.816	77.81
321.046	75.81
321.275	93.81
321.504	100.81
321.733	89.81
321.962	83.81
322.191	81.81
322.42	85.81
322.649	76.81
322.878	82.81
323.108	79.81
323.337	89.81
323.566	89.81
323.795	91.81
324.024	92.81
324.253	80.81
324.482	89.81
324.71	89.81
324.939	93.81
325.168	87.81
325.397	90.81
325.626	74.81
325.855	82.81
326.084	76.81
326.313	90.81
326.542	86.81
326.77	97.81
326.999	76.81
327.228	99.81
327.457	73.81
327.686	92.81
327.914	100.81
328.143	87.81
328.372	86.81
328.6	100.81
328.829	100.81
329.058	90.81
329.287	80.81
329.515	78.81
329.744	83.81
329.972	88.81
330.201	88.81
330.43	88.81
330.658	79.81
330.887	97.81
331.115	85.81
331.344	82.81
331.572	96.81
331.801	94.81
332.03	86.81
332.258	81.81
332.486	75.81
332.715	89.81
332.943	78.81
333.172	93.81
333.4	79.81
333.629	76.81
333.857	85.81
334.085	92.81
334.314	86.81
334.542	94.81
334.771	88.81
334.999	102.81
335.227	76.81
335.455	92.81
335.684	86.81
335.912	102.81
336.14	84.81
336.369	89.81
336.597	102.81
336.825	61.81
337.053	74.81
337.281	89.81
337.51	84.81
337.738	86.81
337.966	85.81
338.194	57.81
338.422	85.81
338.65	89.81
338.878	88.81
339.106	84.81
339.334	101.81
339.562	88.81
339.79	80.81
340.018	83.81
340.246	79.81
340.474	102.81
340.702	81.81
340.93	81.81
341.158	84.81
341.386	70.81
341.614	84.81
341.842	85.81
342.07	83.81
342.298	81.81
342.526	78.81
342.754	77.81
342.981	79.81
343.209	76.81
343.437	101.81
343.665	90.81
343.893	87.81
344.12	95.81
344.348	72.81
344.576	79.81
344.804	88.81
345.031	82.81
345.259	76.81
345.487	86.81
345.714	88.81
345.942	71.81
346.17	84.81
346.397	89.81
346.625	88.81
346.853	73.81
347.08	93.81
347.308	84.81
347.535	86.81
347.763	99.81
347.99	97.81
348.218	97.81
348.445	83.81
348.673	86.81
348.9	83.81
349.128	77.81
349.355	73.81
349.583	77.81
349.81	94.81
350.037	78.81
350.265	89.81
350.492	81.81
350.72	103.81
350.947	79.81
351.174	85.81
351.402	84.81
351.629	83.81
351.856	85.81
352.083	93.81
352.311	91.81
352.538	94.81
352.765	82.81
352.992	92.81
353.22	86.81
353.447	82.81
353.674	89.81
353.901	81.81
354.128	86.81
354.355	85.81
354.583	90.81
354.81	83.81
355.037	85.81
355.264	87.81
355.491	69.81
355.718	81.81
355.945	82.81
356.172	83.81
356.399	87.81
356.626	90.81
356.853	85.81
357.08	98.81
357.307	106.81
357.534	81.81
357.761	83.81
357.988	78.81
358.215	80.81
358.441	78.81
358.668	94.81
358.895	80.81
359.122	94.81
359.349	88.81
359.576	78.81
359.802	87.81
360.029	84.81
360.256	70.81
360.483	78.81
360.709	74.81
360.936	82.81
361.163	83.81
361.39	75.81
361.616	80.81
361.843	76.81
362.07	92.81
362.296	91.81
362.523	91.81
362.749	80.81
362.976	87.81
363.203	95.81
363.429	84.81
363.656	75.81
363.882	92.81
364.109	86.81
364.335	81.81
364.562	93.81
364.788	83.81
365.015	91.81
365.241	78.81
365.468	86.81
365.694	90.81
365.92	98.81
366.147	93.81
366.373	89.81
366.599	77.81
366.826	83.81
367.052	85.81
367.278	83.81
367.505	85.81
367.731	84.81
367.957	88.81
368.184	74.81
368.41	102.81
368.636	105.81
368.862	84.81
369.089	81.81
369.315	66.81
369.541	85.81
369.767	73.81
369.993	83.81
370.219	92.81
370.445	86.81
370.672	86.81
370.898	78.81
371.124	66.81
371.35	90.81
371.576	77.81
371.802	83.81
372.028	94.81
372.254	77.81
372.48	93.81
372.706	82.81
372.932	85.81
373.158	81.81
373.384	102.81
373.61	94.81
373.835	90.81
374.061	86.81
374.287	88.81
374.513	84.81
374.739	77.81
374.965	73.81
375.191	80.81
375.416	95.81
375.642	88.81
375.868	73.81
376.094	85.81
376.319	85.81
376.545	79.81
376.771	81.81
376.997	88.81
377.222	82.81
377.448	76.81
377.674	86.81
377.899	81.81
378.125	72.81
378.35	84.81
378.576	85.81
378.802	74.81
379.027	89.81
379.253	94.81
379.478	86.81
379.704	75.81
379.929	94.81
380.155	74.81
380.38	79.81
380.606	82.81
380.831	77.81
381.057	71.81
381.282	87.81
381.507	83.81
381.733	94.81
381.958	72.81
382.184	100.81
382.409	97.81
382.634	80.81
382.86	81.81
383.085	83.81
383.31	81.81
383.535	80.81
383.761	77.81
383.986	74.81
384.211	73.81
384.436	87.81
384.662	80.81
384.887	81.81
385.112	79.81
385.337	74.81
385.562	94.81
385.787	82.81
386.013	72.81
386.238	72.81
386.463	78.81
386.688	72.81
386.913	88.81
387.138	101.81
387.363	72.81
387.588	85.81
387.813	86.81
388.038	78.81
388.263	79.81
388.488	94.81
388.713	75.81
388.938	79.81
389.163	83.81
389.387	80.81
389.612	91.81
389.837	87.81
390.062	88.81
390.287	77.81
390.512	76.81
390.736	87.81
390.961	90.81
391.186	90.81
391.411	76.81
391.636	79.81
391.86	82.81
392.085	80.81
392.31	76.81
392.534	100.81
392.759	97.81
392.984	91.81
393.208	99.81
393.433	117.81
393.658	111.81
393.882	91.81
394.107	89.81
394.331	87.81
394.556	94.81
394.78	79.81
395.005	82.81
395.229	90.81
395.454	75.81
395.678	87.81
395.903	86.81
396.127	92.81
396.352	109.81
396.576	88.81
396.801	104.81
397.025	107.81
397.249	100.81
397.474	93.81
397.698	93.81
397.922	85.81
398.147	88.81
398.371	80.81
398.595	86.81
398.82	86.81
399.044	88.81
399.268	77.81
399.492	87.81
399.717	99.81
399.941	83.81
400.165	87.81
400.389	80.81
400.613	75.81
400.837	75.81
401.062	72.81
401.286	69.81
401.51	76.81
401.734	71.81
401.958	74.81
402.182	78.81
402.406	87.81
402.63	86.81
402.854	89.81
403.078	74.81
403.302	79.81
403.526	90.81
403.75	76.81
403.974	75.81
404.198	105.81
404.422	115.81
404.645	102.81
404.869	95.81
405.093	95.81
405.317	77.81
405.541	85.81
405.765	83.81
405.988	73.81
406.212	90.81
406.436	87.81
406.66	85.81
406.883	79.81
407.107	77.81
407.331	78.81
407.555	79.81
407.778	90.81
408.002	86.81
408.226	78.81
408.449	82.81
408.673	90.81
408.896	81.81
409.12	84.81
409.344	89.81
409.567	93.81
409.791	83.81
410.014	94.81
410.238	79.81
410.461	104.81
410.685	87.81
410.908	91.81
411.132	85.81
411.355	77.81
411.578	98.81
411.802	89.81
412.025	79.81
412.249	82.81
412.472	84.81
412.695	82.81
412.919	76.81
413.142	85.81
413.365	92.81
413.589	79.81
413.812	77.81
414.035	79.81
414.258	89.81
414.482	80.81
414.705	77.81
414.928	86.81
415.151	71.81
415.374	78.81
415.597	74.81
415.821	92.81
416.044	79.81
416.267	68.81
416.49	81.81
416.713	77.81
416.936	83.81
417.159	81.81
417.382	80.81
417.605	85.81
417.828	81.81
418.051	67.81
418.274	87.81
418.497	87.81
418.72	86.81
418.943	92.81
419.166	82.81
419.389	83.81
419.611	88.81
419.834	86.81
420.057	94.81
420.28	74.81
420.503	69.81
420.726	83.81
420.948	85.81
421.171	86.81
421.394	86.81
421.617	101.81
421.839	71.81
422.062	95.81
422.285	114.81
422.507	134.81
422.73	171.81
422.953	136.81
423.175	115.81
423.398	97.81
423.621	90.81
423.843	97.81
424.066	79.81
424.288	62.81
424.511	69.81
424.733	83.81
424.956	105.81
425.178	86.81
425.401	87.81
425.623	90.81
425.846	93.81
426.068	77.81
426.291	85.81
426.513	85.81
426.735	82.81
426.958	81.81
427.18	79.81
427.402	86.81
427.625	100.81
427.847	77.81
428.069	107.81
428.292	88.81
428.514	83.81
428.736	94.81
428.958	114.81
429.181	107.81
429.403	74.81
429.625	71.81
429.847	81.81
430.069	106.81
430.292	107.81
430.514	93.81
430.736	97.81
430.958	89.81
431.18	92.81
431.402	85.81
431.624	85.81
431.846	102.81
432.068	91.81
432.29	82.81
432.512	85.81
432.734	81.81
432.956	88.81
433.178	92.81
433.4	73.81
433.622	90.81
433.844	74.81
434.066	76.81
434.287	74.81
434.509	92.81
434.731	86.81
434.953	87.81
435.175	82.81
435.397	77.81
435.618	75.81
435.84	84.81
436.062	88.81
436.284	72.81
436.505	81.81
436.727	86.81
436.949	79.81
437.17	84.81
437.392	65.81
437.614	84.81
437.835	86.81
438.057	74.81
438.278	87.81
438.5	84.81
438.721	70.81
438.943	85.81
439.165	96.81
439.386	90.81
439.608	94.81
439.829	92.81
440.05	77.81
440.272	92.81
440.493	75.81
440.715	72.81
440.936	85.81
441.158	69.81
441.379	81.81
441.6	102.81
441.822	71.81
442.043	91.81
442.264	86.81
442.486	104.81
442.707	111.81
442.928	79.81
443.149	90.81
443.371	103.81
443.592	120.81
443.813	115.81
444.034	92.81
444.255	83.81
444.476	96.81
444.698	83.81
444.919	89.81
445.14	155.81
445.361	127.81
445.582	125.81
445.803	124.81
446.024	97.81
446.245	92.81
446.466	78.81
446.687	77.81
446.908	81.81
447.129	91.81
447.35	86.81
447.571	87.81
447.792	75.81
448.013	87.81
448.234	99.81
448.455	81.81
448.675	89.81
448.896	93.81
449.117	78.81
449.338	81.81
449.559	78.81
449.779	77.81
450	72.81
450.221	64.81
450.442	92.81
450.662	90.81
450.883	82.81
451.104	90.81
451.324	81.81
451.545	82.81
451.766	78.81
451.986	81.81
452.207	75.81
452.428	93.81
452.648	79.81
452.869	93.81
453.089	85.81
453.31	75.81
453.53	76.81
453.751	77.81
453.971	88.81
454.192	85.81
454.412	78.81
454.633	81.81
454.853	85.81
455.073	97.81
455.294	74.81
455.514	73.81
455.734	98.81
455.955	92.81
456.175	81.81
456.395	75.81
456.616	85.81
456.836	81.81
457.056	79.81
457.276	99.81
457.497	77.81
457.717	71.81
457.937	75.81
458.157	95.81
458.377	91.81
458.598	90.81
458.818	97.81
459.038	83.81
459.258	81.81
459.478	84.81
459.698	82.81
459.918	79.81
460.138	80.81
460.358	88.81
460.578	95.81
460.798	91.81
461.018	89.81
461.238	81.81
461.458	83.81
461.678	76.81
461.898	63.81
462.118	88.81
462.338	87.81
462.558	79.81
462.777	79.81
462.997	80.81
463.217	65.81
463.437	88.81
463.657	79.81
463.876	76.81
464.096	88.81
464.316	79.81
464.536	67.81
464.755	77.81
464.975	64.81
465.195	69.81
465.414	83.81
465.634	74.81
465.854	100.81
466.073	71.81
466.293	84.81
466.512	66.81
466.732	83.81
466.951	82.81
467.171	81.81
467.391	84.81
467.61	87.81
467.829	79.81
468.049	82.81
468.268	61.81
468.488	72.81
468.707	71.81
468.927	81.81
469.146	85.81
469.365	93.81
469.585	77.81
469.804	84.81
470.023	85.81
470.243	85.81
470.462	91.81
470.681	91.81
470.901	78.81
471.12	87.81
471.339	92.81
471.558	97.81
471.777	91.81
471.997	82.81
472.216	69.81
472.435	93.81
472.654	79.81
472.873	93.81
473.092	82.81
473.311	81.81
473.53	84.81
473.749	87.81
473.968	92.81
474.187	86.81
474.406	98.81
474.625	82.81
474.844	73.81
475.063	77.81
475.282	79.81
475.501	80.81
475.72	78.81
475.939	77.81
476.158	84.81
476.377	94.81
476.596	94.81
476.814	68.81
477.033	85.81
477.252	81.81
477.471	89.81
477.69	88.81
477.908	87.81
478.127	92.81
478.346	96.81
478.564	98.81
478.783	82.81
479.002	85.81
479.22	73.81
479.439	83.81
479.658	78.81
479.876	71.81
480.095	94.81
480.313	77.81
480.532	75.81
480.751	82.81
480.969	89.81
481.188	63.81
481.406	89.81
481.624	92.81
481.843	88.81
482.061	83.81
482.28	75.81
482.498	83.81
482.717	83.81
482.935	75.81
483.153	86.81
483.372	82.81
483.59	93.81
483.808	99.81
484.027	89.81
484.245	85.81
484.463	89.81
484.681	102.81
484.9	80.81
485.118	78.81
485.336	85.81
485.554	82.81
485.772	90.81
485.99	73.81
486.209	101.81
486.427	81.81
486.645	88.81
486.863	89.81
487.081	86.81
487.299	85.81
487.517	89.81
487.735	76.81
487.953	113.81
488.171	108.81
488.389	87.81
488.607	78.81
488.825	85.81
489.043	78.81
489.261	89.81
489.479	90.81
489.696	77.81
489.914	76.81
490.132	82.81
490.35	72.81
490.568	79.81
490.786	80.81
491.003	84.81
491.221	75.81
491.439	87.81
491.657	84.81
491.874	83.81
492.092	87.81
492.31	90.81
492.527	86.81
492.745	94.81
492.963	93.81
493.18	87.81
493.398	71.81
493.615	85.81
493.833	78.81
494.05	89.81
494.268	86.81
494.485	104.81
494.703	79.81
494.92	93.81
495.138	76.81
495.355	88.81
495.573	85.81
495.79	80.81
496.008	91.81
496.225	97.81
496.442	89.81
496.66	79.81
496.877	88.81
497.094	93.81
497.312	90.81
497.529	76.81
497.746	81.81
497.963	90.81
498.181	85.81
498.398	73.81
498.615	83.81
498.832	88.81
499.049	91.81
499.267	90.81
499.484	97.81
499.701	77.81
499.918	102.81
500.135	86.81
500.352	85.81
500.569	94.81
500.786	100.81
501.003	76.81
501.22	86.81
501.437	94.81
501.654	79.81
501.871	75.81
502.088	83.81
502.305	77.81
502.522	85.81
502.739	90.81
502.956	89.81
503.172	78.81
503.389	73.81
503.606	85.81
503.823	78.81
504.04	97.81
504.256	83.81
504.473	101.81
504.69	76.81
504.907	102.81
505.123	75.81
505.34	82.81
505.557	68.81
505.773	72.81
505.99	90.81
506.207	74.81
506.423	81.81
506.64	86.81
506.856	86.81
507.073	75.81
507.289	80.81
507.506	75.81
507.722	83.81
507.939	79.81
508.155	93.81
508.372	83.81
508.588	77.81
508.805	68.81
509.021	81.81
509.238	107.81
509.454	83.81
509.67	80.81
509.887	81.81
510.103	80.81
510.319	81.81
510.536	88.81
510.752	70.81
510.968	88.81
511.184	85.81
511.401	82.81
511.617	100.81
511.833	102.81
512.049	85.81
512.265	87.81
512.481	94.81
512.698	95.81
512.914	96.81
513.13	91.81
513.346	86.81
513.562	93.81
513.778	89.81
513.994	70.81
514.21	84.81
514.426	84.81
514.642	84.81
514.858	76.81
515.074	91.81
515.29	84.81
515.506	76.81
515.721	81.81
515.937	78.81
516.153	70.81
516.369	91.81
516.585	79.81
516.801	99.81
517.016	73.81
517.232	89.81
517.448	93.81
517.664	88.81
517.879	69.81
518.095	74.81
518.311	75.81
518.527	89.81
518.742	88.81
518.958	76.81
519.173	103.81
