Data from Mixnoheat4_HRD10591_00018.txt Node
Date: Fri Dec 27 15:04:30 EST 2024
User: Yrep
Spectrometer: HR+D1059
Trigger mode: 1
Integration Time (sec): 1.000000E-1
Scans to average: 1
Electric dark correction enabled: true
Nonlinearity correction enabled: false
Boxcar width: 0
XAxis mode: Wavelengths
Number of Pixels in Spectrum: 2048
>>>>>Begin Spectral Data<<<<<
223.165	-27.56
223.4	-27.56
223.635	-27.56
223.869	-21.56
224.104	-15.56
224.338	-17.56
224.573	-4.56
224.808	-15.56
225.042	-16.56
225.277	-2.56
225.511	-0.56
225.746	4.44
225.98	16.44
226.215	12.44
226.449	8.44
226.683	28.44
226.918	28.44
227.152	23.44
227.387	39.44
227.621	55.44
227.856	30.44
228.09	36.44
228.324	50.44
228.559	57.44
228.793	71.44
229.027	62.44
229.262	72.44
229.496	56.44
229.73	64.44
229.964	70.44
230.199	72.44
230.433	77.44
230.667	89.44
230.901	75.44
231.136	71.44
231.37	79.44
231.604	72.44
231.838	87.44
232.072	70.44
232.306	79.44
232.541	80.44
232.775	71.44
233.009	89.44
233.243	61.44
233.477	71.44
233.711	72.44
233.945	80.44
234.179	93.44
234.413	71.44
234.647	85.44
234.881	71.44
235.115	75.44
235.349	72.44
235.583	82.44
235.817	75.44
236.051	76.44
236.285	84.44
236.519	81.44
236.753	76.44
236.987	68.44
237.221	74.44
237.455	80.44
237.689	87.44
237.922	64.44
238.156	65.44
238.39	68.44
238.624	67.44
238.858	82.44
239.091	67.44
239.325	74.44
239.559	75.44
239.793	73.44
240.027	74.44
240.26	86.44
240.494	76.44
240.728	64.44
240.961	82.44
241.195	78.44
241.429	71.44
241.662	54.44
241.896	64.44
242.13	71.44
242.363	79.44
242.597	63.44
242.83	84.44
243.064	77.44
243.298	72.44
243.531	68.44
243.765	75.44
243.998	70.44
244.232	70.44
244.465	71.44
244.699	95.44
244.932	77.44
245.166	69.44
245.399	83.44
245.633	82.44
245.866	76.44
246.099	84.44
246.333	75.44
246.566	79.44
246.8	89.44
247.033	84.44
247.266	82.44
247.5	78.44
247.733	77.44
247.966	74.44
248.2	77.44
248.433	75.44
248.666	60.44
248.899	74.44
249.133	87.44
249.366	77.44
249.599	85.44
249.832	73.44
250.066	80.44
250.299	78.44
250.532	86.44
250.765	78.44
250.998	75.44
251.231	86.44
251.465	89.44
251.698	74.44
251.931	86.44
252.164	87.44
252.397	75.44
252.63	66.44
252.863	68.44
253.096	71.44
253.329	91.44
253.562	82.44
253.795	85.44
254.028	86.44
254.261	81.44
254.494	80.44
254.727	63.44
254.96	75.44
255.193	74.44
255.426	86.44
255.659	82.44
255.892	86.44
256.124	79.44
256.357	78.44
256.59	71.44
256.823	69.44
257.056	87.44
257.289	74.44
257.521	79.44
257.754	69.44
257.987	84.44
258.22	80.44
258.452	84.44
258.685	79.44
258.918	79.44
259.151	89.44
259.383	66.44
259.616	77.44
259.849	76.44
260.081	79.44
260.314	74.44
260.547	73.44
260.779	71.44
261.012	69.44
261.244	84.44
261.477	86.44
261.71	74.44
261.942	69.44
262.175	81.44
262.407	80.44
262.64	76.44
262.872	78.44
263.105	84.44
263.337	90.44
263.57	78.44
263.802	82.44
264.035	76.44
264.267	82.44
264.499	81.44
264.732	88.44
264.964	77.44
265.197	95.44
265.429	84.44
265.661	75.44
265.894	86.44
266.126	85.44
266.358	76.44
266.591	69.44
266.823	74.44
267.055	91.44
267.287	85.44
267.52	72.44
267.752	96.44
267.984	87.44
268.216	64.44
268.448	80.44
268.681	74.44
268.913	94.44
269.145	87.44
269.377	91.44
269.609	85.44
269.841	88.44
270.073	74.44
270.306	75.44
270.538	71.44
270.77	76.44
271.002	90.44
271.234	85.44
271.466	92.44
271.698	61.44
271.93	73.44
272.162	74.44
272.394	91.44
272.626	79.44
272.858	83.44
273.09	96.44
273.322	77.44
273.553	84.44
273.785	88.44
274.017	83.44
274.249	80.44
274.481	88.44
274.713	80.44
274.945	79.44
275.176	74.44
275.408	77.44
275.64	87.44
275.872	84.44
276.104	83.44
276.335	82.44
276.567	79.44
276.799	77.44
277.031	71.44
277.262	74.44
277.494	73.44
277.726	85.44
277.957	84.44
278.189	75.44
278.421	77.44
278.652	87.44
278.884	82.44
279.115	91.44
279.347	86.44
279.579	81.44
279.81	80.44
280.042	88.44
280.273	90.44
280.505	88.44
280.736	79.44
280.968	89.44
281.199	84.44
281.431	83.44
281.662	84.44
281.894	87.44
282.125	83.44
282.356	88.44
282.588	77.44
282.819	91.44
283.051	79.44
283.282	73.44
283.513	80.44
283.745	71.44
283.976	87.44
284.207	86.44
284.439	64.44
284.67	70.44
284.901	87.44
285.132	87.44
285.364	86.44
285.595	77.44
285.826	93.44
286.057	77.44
286.288	82.44
286.52	78.44
286.751	77.44
286.982	86.44
287.213	82.44
287.444	80.44
287.675	74.44
287.906	73.44
288.138	72.44
288.369	89.44
288.6	95.44
288.831	66.44
289.062	83.44
289.293	75.44
289.524	78.44
289.755	87.44
289.986	78.44
290.217	86.44
290.448	80.44
290.679	90.44
290.91	86.44
291.141	86.44
291.371	92.44
291.602	68.44
291.833	50.44
292.064	87.44
292.295	89.44
292.526	92.44
292.757	78.44
292.987	77.44
293.218	78.44
293.449	85.44
293.68	82.44
293.91	76.44
294.141	92.44
294.372	87.44
294.603	74.44
294.833	72.44
295.064	83.44
295.295	72.44
295.525	85.44
295.756	93.44
295.987	88.44
296.217	72.44
296.448	90.44
296.679	76.44
296.909	72.44
297.14	79.44
297.37	77.44
297.601	88.44
297.831	79.44
298.062	78.44
298.292	75.44
298.523	91.44
298.753	96.44
298.984	83.44
299.214	84.44
299.445	79.44
299.675	96.44
299.905	87.44
300.136	76.44
300.366	83.44
300.597	89.44
300.827	85.44
301.057	82.44
301.288	79.44
301.518	62.44
301.748	64.44
301.979	74.44
302.209	78.44
302.439	94.44
302.669	84.44
302.9	95.44
303.13	91.44
303.36	78.44
303.59	79.44
303.82	71.44
304.051	88.44
304.281	90.44
304.511	97.44
304.741	88.44
304.971	76.44
305.201	81.44
305.431	78.44
305.661	88.44
305.891	91.44
306.121	88.44
306.352	92.44
306.582	89.44
306.812	94.44
307.042	83.44
307.272	100.44
307.502	87.44
307.731	86.44
307.961	72.44
308.191	76.44
308.421	89.44
308.651	80.44
308.881	88.44
309.111	95.44
309.341	80.44
309.571	71.44
309.8	91.44
310.03	76.44
310.26	85.44
310.49	85.44
310.72	96.44
310.949	81.44
311.179	83.44
311.409	92.44
311.639	89.44
311.868	90.44
312.098	84.44
312.328	73.44
312.557	86.44
312.787	91.44
313.017	92.44
313.246	83.44
313.476	76.44
313.706	80.44
313.935	83.44
314.165	78.44
314.394	81.44
314.624	75.44
314.853	91.44
315.083	73.44
315.312	90.44
315.542	95.44
315.771	94.44
316.001	76.44
316.23	89.44
316.46	83.44
316.689	77.44
316.919	79.44
317.148	99.44
317.377	82.44
317.607	80.44
317.836	86.44
318.065	99.44
318.295	91.44
318.524	85.44
318.753	89.44
318.983	78.44
319.212	103.44
319.441	76.44
319.67	78.44
319.9	85.44
320.129	74.44
320.358	77.44
320.587	77.44
320.816	84.44
321.046	89.44
321.275	81.44
321.504	77.44
321.733	80.44
321.962	102.44
322.191	84.44
322.42	70.44
322.649	88.44
322.878	85.44
323.108	89.44
323.337	75.44
323.566	88.44
323.795	76.44
324.024	80.44
324.253	79.44
324.482	87.44
324.71	87.44
324.939	87.44
325.168	92.44
325.397	64.44
325.626	82.44
325.855	83.44
326.084	87.44
326.313	79.44
326.542	91.44
326.77	78.44
326.999	75.44
327.228	90.44
327.457	94.44
327.686	87.44
327.914	88.44
328.143	92.44
328.372	85.44
328.6	85.44
328.829	79.44
329.058	87.44
329.287	95.44
329.515	77.44
329.744	79.44
329.972	84.44
330.201	88.44
330.43	78.44
330.658	82.44
330.887	78.44
331.115	86.44
331.344	73.44
331.572	83.44
331.801	81.44
332.03	70.44
332.258	80.44
332.486	95.44
332.715	90.44
332.943	82.44
333.172	82.44
333.4	74.44
333.629	80.44
333.857	86.44
334.085	80.44
334.314	76.44
334.542	77.44
334.771	83.44
334.999	83.44
335.227	88.44
335.455	78.44
335.684	90.44
335.912	80.44
336.14	87.44
336.369	78.44
336.597	72.44
336.825	87.44
337.053	93.44
337.281	78.44
337.51	70.44
337.738	90.44
337.966	95.44
338.194	79.44
338.422	80.44
338.65	82.44
338.878	91.44
339.106	84.44
339.334	82.44
339.562	80.44
339.79	81.44
340.018	75.44
340.246	80.44
340.474	84.44
340.702	77.44
340.93	87.44
341.158	87.44
341.386	91.44
341.614	74.44
341.842	86.44
342.07	75.44
342.298	68.44
342.526	85.44
342.754	73.44
342.981	91.44
343.209	84.44
343.437	85.44
343.665	91.44
343.893	79.44
344.12	68.44
344.348	84.44
344.576	82.44
344.804	86.44
345.031	89.44
345.259	86.44
345.487	82.44
345.714	81.44
345.942	86.44
346.17	90.44
346.397	83.44
346.625	79.44
346.853	66.44
347.08	75.44
347.308	87.44
347.535	85.44
347.763	79.44
347.99	83.44
348.218	94.44
348.445	82.44
348.673	84.44
348.9	79.44
349.128	93.44
349.355	66.44
349.583	91.44
349.81	80.44
350.037	72.44
350.265	86.44
350.492	82.44
350.72	82.44
350.947	60.44
351.174	92.44
351.402	67.44
351.629	79.44
351.856	88.44
352.083	72.44
352.311	84.44
352.538	80.44
352.765	82.44
352.992	96.44
353.22	82.44
353.447	89.44
353.674	71.44
353.901	79.44
354.128	84.44
354.355	87.44
354.583	72.44
354.81	87.44
355.037	87.44
355.264	90.44
355.491	88.44
355.718	78.44
355.945	87.44
356.172	88.44
356.399	74.44
356.626	81.44
356.853	96.44
357.08	89.44
357.307	83.44
357.534	82.44
357.761	91.44
357.988	78.44
358.215	81.44
358.441	84.44
358.668	73.44
358.895	93.44
359.122	82.44
359.349	88.44
359.576	85.44
359.802	78.44
360.029	64.44
360.256	74.44
360.483	67.44
360.709	83.44
360.936	89.44
361.163	69.44
361.39	82.44
361.616	91.44
361.843	77.44
362.07	90.44
362.296	79.44
362.523	81.44
362.749	78.44
362.976	86.44
363.203	93.44
363.429	95.44
363.656	80.44
363.882	91.44
364.109	75.44
364.335	102.44
364.562	70.44
364.788	79.44
365.015	92.44
365.241	78.44
365.468	76.44
365.694	90.44
365.92	91.44
366.147	77.44
366.373	84.44
366.599	79.44
366.826	71.44
367.052	84.44
367.278	71.44
367.505	94.44
367.731	102.44
367.957	79.44
368.184	80.44
368.41	92.44
368.636	76.44
368.862	79.44
369.089	78.44
369.315	86.44
369.541	82.44
369.767	85.44
369.993	82.44
370.219	79.44
370.445	77.44
370.672	77.44
370.898	85.44
371.124	80.44
371.35	82.44
371.576	82.44
371.802	77.44
372.028	80.44
372.254	85.44
372.48	87.44
372.706	78.44
372.932	87.44
373.158	77.44
373.384	86.44
373.61	71.44
373.835	106.44
374.061	76.44
374.287	82.44
374.513	87.44
374.739	99.44
374.965	75.44
375.191	79.44
375.416	87.44
375.642	78.44
375.868	94.44
376.094	96.44
376.319	74.44
376.545	78.44
376.771	75.44
376.997	80.44
377.222	80.44
377.448	72.44
377.674	85.44
377.899	79.44
378.125	78.44
378.35	84.44
378.576	71.44
378.802	101.44
379.027	88.44
379.253	88.44
379.478	93.44
379.704	76.44
379.929	79.44
380.155	79.44
380.38	73.44
380.606	88.44
380.831	84.44
381.057	100.44
381.282	84.44
381.507	83.44
381.733	93.44
381.958	89.44
382.184	88.44
382.409	73.44
382.634	89.44
382.86	86.44
383.085	83.44
383.31	86.44
383.535	91.44
383.761	83.44
383.986	75.44
384.211	90.44
384.436	91.44
384.662	88.44
384.887	83.44
385.112	74.44
385.337	87.44
385.562	74.44
385.787	84.44
386.013	93.44
386.238	74.44
386.463	75.44
386.688	101.44
386.913	70.44
387.138	69.44
387.363	76.44
387.588	79.44
387.813	83.44
388.038	78.44
388.263	92.44
388.488	67.44
388.713	70.44
388.938	84.44
389.163	85.44
389.387	84.44
389.612	79.44
389.837	82.44
390.062	82.44
390.287	61.44
390.512	85.44
390.736	59.44
390.961	74.44
391.186	77.44
391.411	78.44
391.636	81.44
391.86	84.44
392.085	79.44
392.31	77.44
392.534	74.44
392.759	92.44
392.984	86.44
393.208	109.44
393.433	112.44
393.658	111.44
393.882	83.44
394.107	77.44
394.331	82.44
394.556	85.44
394.78	79.44
395.005	77.44
395.229	79.44
395.454	91.44
395.678	70.44
395.903	86.44
396.127	98.44
396.352	76.44
396.576	93.44
396.801	108.44
397.025	102.44
397.249	76.44
397.474	103.44
397.698	69.44
397.922	84.44
398.147	72.44
398.371	73.44
398.595	82.44
398.82	78.44
399.044	71.44
399.268	82.44
399.492	93.44
399.717	70.44
399.941	79.44
400.165	84.44
400.389	74.44
400.613	82.44
400.837	75.44
401.062	78.44
401.286	75.44
401.51	82.44
401.734	78.44
401.958	84.44
402.182	82.44
402.406	82.44
402.63	82.44
402.854	88.44
403.078	77.44
403.302	95.44
403.526	83.44
403.75	81.44
403.974	92.44
404.198	85.44
404.422	114.44
404.645	124.44
404.869	112.44
405.093	108.44
405.317	93.44
405.541	87.44
405.765	79.44
405.988	81.44
406.212	74.44
406.436	83.44
406.66	94.44
406.883	77.44
407.107	82.44
407.331	64.44
407.555	75.44
407.778	87.44
408.002	86.44
408.226	80.44
408.449	87.44
408.673	81.44
408.896	85.44
409.12	83.44
409.344	96.44
409.567	80.44
409.791	77.44
410.014	85.44
410.238	75.44
410.461	72.44
410.685	72.44
410.908	77.44
411.132	79.44
411.355	82.44
411.578	70.44
411.802	86.44
412.025	76.44
412.249	73.44
412.472	96.44
412.695	91.44
412.919	82.44
413.142	73.44
413.365	70.44
413.589	81.44
413.812	74.44
414.035	70.44
414.258	80.44
414.482	73.44
414.705	79.44
414.928	86.44
415.151	79.44
415.374	83.44
415.597	73.44
415.821	79.44
416.044	76.44
416.267	80.44
416.49	78.44
416.713	79.44
416.936	84.44
417.159	76.44
417.382	82.44
417.605	82.44
417.828	79.44
418.051	81.44
418.274	67.44
418.497	84.44
418.72	88.44
418.943	69.44
419.166	83.44
419.389	90.44
419.611	93.44
419.834	72.44
420.057	82.44
420.28	82.44
420.503	84.44
420.726	76.44
420.948	80.44
421.171	100.44
421.394	83.44
421.617	93.44
421.839	99.44
422.062	75.44
422.285	75.44
422.507	130.44
422.73	152.44
422.953	136.44
423.175	112.44
423.398	93.44
423.621	100.44
423.843	79.44
424.066	88.44
424.288	88.44
424.511	91.44
424.733	70.44
424.956	88.44
425.178	86.44
425.401	85.44
425.623	74.44
425.846	77.44
426.068	92.44
426.291	84.44
426.513	76.44
426.735	81.44
426.958	83.44
427.18	85.44
427.402	77.44
427.625	72.44
427.847	78.44
428.069	84.44
428.292	92.44
428.514	93.44
428.736	89.44
428.958	81.44
429.181	86.44
429.403	83.44
429.625	90.44
429.847	87.44
430.069	99.44
430.292	115.44
430.514	96.44
430.736	88.44
430.958	99.44
431.18	83.44
431.402	84.44
431.624	81.44
431.846	90.44
432.068	88.44
432.29	74.44
432.512	91.44
432.734	80.44
432.956	90.44
433.178	89.44
433.4	91.44
433.622	89.44
433.844	81.44
434.066	82.44
434.287	86.44
434.509	89.44
434.731	90.44
434.953	80.44
435.175	62.44
435.397	91.44
435.618	87.44
435.84	93.44
436.062	65.44
436.284	71.44
436.505	73.44
436.727	76.44
436.949	75.44
437.17	76.44
437.392	81.44
437.614	80.44
437.835	74.44
438.057	86.44
438.278	80.44
438.5	80.44
438.721	87.44
438.943	73.44
439.165	80.44
439.386	76.44
439.608	92.44
439.829	79.44
440.05	71.44
440.272	77.44
440.493	91.44
440.715	89.44
440.936	85.44
441.158	79.44
441.379	74.44
441.6	82.44
441.822	85.44
442.043	92.44
442.264	85.44
442.486	81.44
442.707	100.44
442.928	96.44
443.149	80.44
443.371	95.44
443.592	99.44
443.813	99.44
444.034	74.44
444.255	70.44
444.476	70.44
444.698	87.44
444.919	83.44
445.14	144.44
445.361	125.44
445.582	131.44
445.803	100.44
446.024	95.44
446.245	78.44
446.466	72.44
446.687	91.44
446.908	83.44
447.129	80.44
447.35	78.44
447.571	90.44
447.792	89.44
448.013	82.44
448.234	89.44
448.455	85.44
448.675	82.44
448.896	70.44
449.117	77.44
449.338	77.44
449.559	90.44
449.779	70.44
450	70.44
450.221	73.44
450.442	90.44
450.662	82.44
450.883	88.44
451.104	87.44
451.324	84.44
451.545	88.44
451.766	92.44
451.986	93.44
452.207	83.44
452.428	91.44
452.648	90.44
452.869	67.44
453.089	66.44
453.31	88.44
453.53	96.44
453.751	71.44
453.971	75.44
454.192	87.44
454.412	69.44
454.633	68.44
454.853	91.44
455.073	93.44
455.294	70.44
455.514	81.44
455.734	73.44
455.955	94.44
456.175	79.44
456.395	87.44
456.616	78.44
456.836	84.44
457.056	84.44
457.276	86.44
457.497	83.44
457.717	84.44
457.937	77.44
458.157	86.44
458.377	74.44
458.598	85.44
458.818	86.44
459.038	82.44
459.258	86.44
459.478	90.44
459.698	73.44
459.918	74.44
460.138	86.44
460.358	79.44
460.578	76.44
460.798	84.44
461.018	82.44
461.238	86.44
461.458	73.44
461.678	102.44
461.898	71.44
462.118	77.44
462.338	78.44
462.558	84.44
462.777	76.44
462.997	79.44
463.217	83.44
463.437	78.44
463.657	75.44
463.876	78.44
464.096	85.44
464.316	79.44
464.536	90.44
464.755	79.44
464.975	79.44
465.195	67.44
465.414	72.44
465.634	86.44
465.854	71.44
466.073	82.44
466.293	84.44
466.512	76.44
466.732	84.44
466.951	71.44
467.171	68.44
467.391	80.44
467.61	83.44
467.829	87.44
468.049	98.44
468.268	79.44
468.488	75.44
468.707	86.44
468.927	91.44
469.146	82.44
469.365	69.44
469.585	77.44
469.804	79.44
470.023	88.44
470.243	86.44
470.462	82.44
470.681	86.44
470.901	78.44
471.12	72.44
471.339	83.44
471.558	70.44
471.777	72.44
471.997	81.44
472.216	88.44
472.435	96.44
472.654	97.44
472.873	86.44
473.092	93.44
473.311	86.44
473.53	70.44
473.749	82.44
473.968	89.44
474.187	91.44
474.406	91.44
474.625	84.44
474.844	69.44
475.063	82.44
475.282	90.44
475.501	81.44
475.72	86.44
475.939	81.44
476.158	95.44
476.377	89.44
476.596	79.44
476.814	81.44
477.033	65.44
477.252	65.44
477.471	77.44
477.69	71.44
477.908	96.44
478.127	91.44
478.346	83.44
478.564	83.44
478.783	77.44
479.002	83.44
479.22	83.44
479.439	86.44
479.658	79.44
479.876	93.44
480.095	86.44
480.313	87.44
480.532	82.44
480.751	61.44
480.969	79.44
481.188	79.44
481.406	75.44
481.624	67.44
481.843	78.44
482.061	89.44
482.28	71.44
482.498	87.44
482.717	78.44
482.935	89.44
483.153	87.44
483.372	87.44
483.59	79.44
483.808	74.44
484.027	70.44
484.245	93.44
484.463	89.44
484.681	94.44
484.9	94.44
485.118	93.44
485.336	68.44
485.554	76.44
485.772	85.44
485.99	71.44
486.209	74.44
486.427	67.44
486.645	78.44
486.863	80.44
487.081	82.44
487.299	76.44
487.517	87.44
487.735	88.44
487.953	85.44
488.171	99.44
488.389	74.44
488.607	64.44
488.825	77.44
489.043	79.44
489.261	73.44
489.479	75.44
489.696	85.44
489.914	98.44
490.132	80.44
490.35	78.44
490.568	81.44
490.786	89.44
491.003	78.44
491.221	88.44
491.439	86.44
491.657	83.44
491.874	93.44
492.092	76.44
492.31	91.44
492.527	76.44
492.745	84.44
492.963	84.44
493.18	94.44
493.398	84.44
493.615	68.44
493.833	78.44
494.05	84.44
494.268	85.44
494.485	82.44
494.703	79.44
494.92	99.44
495.138	101.44
495.355	89.44
495.573	80.44
495.79	77.44
496.008	78.44
496.225	85.44
496.442	91.44
496.66	96.44
496.877	96.44
497.094	97.44
497.312	93.44
497.529	87.44
497.746	81.44
497.963	64.44
498.181	78.44
498.398	83.44
498.615	83.44
498.832	93.44
499.049	91.44
499.267	79.44
499.484	88.44
499.701	78.44
499.918	82.44
500.135	80.44
500.352	87.44
500.569	83.44
500.786	86.44
501.003	86.44
501.22	86.44
501.437	90.44
501.654	80.44
501.871	76.44
502.088	75.44
502.305	82.44
502.522	92.44
502.739	99.44
502.956	68.44
503.172	75.44
503.389	92.44
503.606	84.44
503.823	80.44
504.04	92.44
504.256	90.44
504.473	86.44
504.69	87.44
504.907	106.44
505.123	81.44
505.34	81.44
505.557	80.44
505.773	89.44
505.99	95.44
506.207	92.44
506.423	77.44
506.64	89.44
506.856	84.44
507.073	86.44
507.289	94.44
507.506	75.44
507.722	78.44
507.939	85.44
508.155	83.44
508.372	85.44
508.588	81.44
508.805	91.44
509.021	77.44
509.238	74.44
509.454	95.44
509.67	85.44
509.887	95.44
510.103	78.44
510.319	95.44
510.536	93.44
510.752	80.44
510.968	73.44
511.184	95.44
511.401	80.44
511.617	92.44
511.833	91.44
512.049	87.44
512.265	72.44
512.481	71.44
512.698	75.44
512.914	91.44
513.13	80.44
513.346	79.44
513.562	85.44
513.778	77.44
513.994	69.44
514.21	82.44
514.426	76.44
514.642	76.44
514.858	88.44
515.074	87.44
515.29	80.44
515.506	82.44
515.721	90.44
515.937	75.44
516.153	86.44
516.369	69.44
516.585	74.44
516.801	91.44
517.016	79.44
517.232	75.44
517.448	94.44
517.664	77.44
517.879	98.44
518.095	86.44
518.311	62.44
518.527	95.44
518.742	84.44
518.958	81.44
519.173	94.44
519.389	87.44
519.605	93.44
519.82	78.44
