Data from Mixnoheat4_HRD10591_00004.txt Node
Date: Fri Dec 27 15:04:16 EST 2024
User: Yrep
Spectrometer: HR+D1059
Trigger mode: 1
Integration Time (sec): 1.000000E-1
Scans to average: 1
Electric dark correction enabled: true
Nonlinearity correction enabled: false
Boxcar width: 0
XAxis mode: Wavelengths
Number of Pixels in Spectrum: 2048
>>>>>Begin Spectral Data<<<<<
223.165	-15.81
223.4	-15.81
223.635	-15.81
223.869	-21.81
224.104	-24.81
224.338	4.19
224.573	-19.81
224.808	-11.81
225.042	-11.81
225.277	-0.81
225.511	7.19
225.746	6.19
225.98	-6.81
226.215	7.19
226.449	25.19
226.683	11.19
226.918	14.19
227.152	38.19
227.387	31.19
227.621	37.19
227.856	48.19
228.09	37.19
228.324	46.19
228.559	53.19
228.793	68.19
229.027	75.19
229.262	59.19
229.496	56.19
229.73	52.19
229.964	75.19
230.199	93.19
230.433	88.19
230.667	66.19
230.901	82.19
231.136	74.19
231.37	81.19
231.604	77.19
231.838	76.19
232.072	72.19
232.306	73.19
232.541	76.19
232.775	77.19
233.009	80.19
233.243	92.19
233.477	84.19
233.711	68.19
233.945	86.19
234.179	69.19
234.413	80.19
234.647	72.19
234.881	77.19
235.115	79.19
235.349	81.19
235.583	77.19
235.817	67.19
236.051	69.19
236.285	71.19
236.519	72.19
236.753	84.19
236.987	70.19
237.221	61.19
237.455	63.19
237.689	77.19
237.922	80.19
238.156	89.19
238.39	69.19
238.624	70.19
238.858	82.19
239.091	86.19
239.325	65.19
239.559	64.19
239.793	75.19
240.027	69.19
240.26	77.19
240.494	78.19
240.728	66.19
240.961	84.19
241.195	80.19
241.429	77.19
241.662	78.19
241.896	86.19
242.13	93.19
242.363	80.19
242.597	76.19
242.83	78.19
243.064	82.19
243.298	69.19
243.531	81.19
243.765	73.19
243.998	65.19
244.232	66.19
244.465	63.19
244.699	84.19
244.932	78.19
245.166	73.19
245.399	77.19
245.633	93.19
245.866	73.19
246.099	68.19
246.333	59.19
246.566	87.19
246.8	85.19
247.033	87.19
247.266	70.19
247.5	84.19
247.733	80.19
247.966	70.19
248.2	72.19
248.433	81.19
248.666	76.19
248.899	77.19
249.133	73.19
249.366	78.19
249.599	87.19
249.832	73.19
250.066	70.19
250.299	69.19
250.532	83.19
250.765	69.19
250.998	80.19
251.231	75.19
251.465	81.19
251.698	70.19
251.931	68.19
252.164	80.19
252.397	79.19
252.63	78.19
252.863	83.19
253.096	72.19
253.329	79.19
253.562	74.19
253.795	70.19
254.028	81.19
254.261	98.19
254.494	91.19
254.727	102.19
254.96	78.19
255.193	84.19
255.426	79.19
255.659	77.19
255.892	73.19
256.124	83.19
256.357	76.19
256.59	84.19
256.823	81.19
257.056	79.19
257.289	69.19
257.521	62.19
257.754	71.19
257.987	93.19
258.22	79.19
258.452	85.19
258.685	67.19
258.918	88.19
259.151	70.19
259.383	80.19
259.616	96.19
259.849	73.19
260.081	82.19
260.314	86.19
260.547	68.19
260.779	72.19
261.012	81.19
261.244	71.19
261.477	75.19
261.71	81.19
261.942	80.19
262.175	87.19
262.407	85.19
262.64	85.19
262.872	80.19
263.105	80.19
263.337	96.19
263.57	89.19
263.802	76.19
264.035	87.19
264.267	72.19
264.499	73.19
264.732	85.19
264.964	80.19
265.197	74.19
265.429	81.19
265.661	85.19
265.894	80.19
266.126	85.19
266.358	76.19
266.591	72.19
266.823	70.19
267.055	79.19
267.287	70.19
267.52	89.19
267.752	84.19
267.984	93.19
268.216	75.19
268.448	75.19
268.681	80.19
268.913	89.19
269.145	69.19
269.377	82.19
269.609	85.19
269.841	76.19
270.073	83.19
270.306	78.19
270.538	82.19
270.77	79.19
271.002	71.19
271.234	65.19
271.466	67.19
271.698	87.19
271.93	87.19
272.162	87.19
272.394	85.19
272.626	61.19
272.858	86.19
273.09	71.19
273.322	64.19
273.553	80.19
273.785	72.19
274.017	61.19
274.249	79.19
274.481	72.19
274.713	90.19
274.945	93.19
275.176	82.19
275.408	75.19
275.64	74.19
275.872	74.19
276.104	72.19
276.335	71.19
276.567	81.19
276.799	72.19
277.031	79.19
277.262	74.19
277.494	79.19
277.726	88.19
277.957	74.19
278.189	66.19
278.421	91.19
278.652	91.19
278.884	84.19
279.115	82.19
279.347	96.19
279.579	85.19
279.81	69.19
280.042	91.19
280.273	78.19
280.505	82.19
280.736	90.19
280.968	93.19
281.199	78.19
281.431	89.19
281.662	92.19
281.894	78.19
282.125	74.19
282.356	77.19
282.588	67.19
282.819	75.19
283.051	89.19
283.282	80.19
283.513	86.19
283.745	94.19
283.976	94.19
284.207	76.19
284.439	81.19
284.67	66.19
284.901	86.19
285.132	90.19
285.364	78.19
285.595	91.19
285.826	79.19
286.057	75.19
286.288	71.19
286.52	76.19
286.751	90.19
286.982	82.19
287.213	82.19
287.444	86.19
287.675	86.19
287.906	88.19
288.138	65.19
288.369	96.19
288.6	88.19
288.831	79.19
289.062	101.19
289.293	80.19
289.524	91.19
289.755	89.19
289.986	80.19
290.217	76.19
290.448	71.19
290.679	80.19
290.91	81.19
291.141	80.19
291.371	85.19
291.602	81.19
291.833	87.19
292.064	79.19
292.295	77.19
292.526	82.19
292.757	74.19
292.987	86.19
293.218	82.19
293.449	90.19
293.68	86.19
293.91	84.19
294.141	85.19
294.372	98.19
294.603	84.19
294.833	91.19
295.064	83.19
295.295	74.19
295.525	79.19
295.756	77.19
295.987	96.19
296.217	88.19
296.448	72.19
296.679	82.19
296.909	82.19
297.14	90.19
297.37	83.19
297.601	81.19
297.831	94.19
298.062	90.19
298.292	68.19
298.523	85.19
298.753	81.19
298.984	83.19
299.214	79.19
299.445	80.19
299.675	82.19
299.905	88.19
300.136	73.19
300.366	99.19
300.597	104.19
300.827	76.19
301.057	87.19
301.288	77.19
301.518	92.19
301.748	85.19
301.979	98.19
302.209	57.19
302.439	83.19
302.669	80.19
302.9	88.19
303.13	79.19
303.36	84.19
303.59	80.19
303.82	83.19
304.051	86.19
304.281	84.19
304.511	70.19
304.741	89.19
304.971	70.19
305.201	88.19
305.431	88.19
305.661	82.19
305.891	78.19
306.121	83.19
306.352	78.19
306.582	97.19
306.812	101.19
307.042	100.19
307.272	89.19
307.502	87.19
307.731	82.19
307.961	96.19
308.191	88.19
308.421	87.19
308.651	85.19
308.881	88.19
309.111	79.19
309.341	87.19
309.571	77.19
309.8	74.19
310.03	83.19
310.26	74.19
310.49	68.19
310.72	85.19
310.949	76.19
311.179	83.19
311.409	86.19
311.639	88.19
311.868	79.19
312.098	96.19
312.328	91.19
312.557	66.19
312.787	68.19
313.017	81.19
313.246	87.19
313.476	85.19
313.706	80.19
313.935	89.19
314.165	83.19
314.394	81.19
314.624	80.19
314.853	101.19
315.083	88.19
315.312	80.19
315.542	65.19
315.771	86.19
316.001	95.19
316.23	99.19
316.46	70.19
316.689	81.19
316.919	78.19
317.148	85.19
317.377	71.19
317.607	77.19
317.836	78.19
318.065	78.19
318.295	86.19
318.524	87.19
318.753	88.19
318.983	81.19
319.212	88.19
319.441	84.19
319.67	82.19
319.9	83.19
320.129	74.19
320.358	90.19
320.587	76.19
320.816	85.19
321.046	75.19
321.275	82.19
321.504	80.19
321.733	83.19
321.962	89.19
322.191	86.19
322.42	67.19
322.649	79.19
322.878	88.19
323.108	87.19
323.337	73.19
323.566	77.19
323.795	82.19
324.024	87.19
324.253	93.19
324.482	78.19
324.71	94.19
324.939	81.19
325.168	72.19
325.397	87.19
325.626	75.19
325.855	76.19
326.084	75.19
326.313	96.19
326.542	67.19
326.77	85.19
326.999	90.19
327.228	82.19
327.457	89.19
327.686	71.19
327.914	72.19
328.143	81.19
328.372	82.19
328.6	89.19
328.829	92.19
329.058	89.19
329.287	85.19
329.515	84.19
329.744	95.19
329.972	85.19
330.201	78.19
330.43	73.19
330.658	86.19
330.887	79.19
331.115	91.19
331.344	80.19
331.572	87.19
331.801	81.19
332.03	99.19
332.258	91.19
332.486	83.19
332.715	83.19
332.943	79.19
333.172	75.19
333.4	79.19
333.629	86.19
333.857	83.19
334.085	92.19
334.314	75.19
334.542	81.19
334.771	81.19
334.999	73.19
335.227	82.19
335.455	82.19
335.684	86.19
335.912	84.19
336.14	80.19
336.369	83.19
336.597	81.19
336.825	80.19
337.053	76.19
337.281	95.19
337.51	84.19
337.738	81.19
337.966	73.19
338.194	90.19
338.422	63.19
338.65	73.19
338.878	86.19
339.106	102.19
339.334	89.19
339.562	94.19
339.79	81.19
340.018	99.19
340.246	84.19
340.474	76.19
340.702	83.19
340.93	94.19
341.158	88.19
341.386	78.19
341.614	69.19
341.842	75.19
342.07	86.19
342.298	81.19
342.526	87.19
342.754	77.19
342.981	76.19
343.209	88.19
343.437	98.19
343.665	67.19
343.893	75.19
344.12	98.19
344.348	79.19
344.576	83.19
344.804	84.19
345.031	86.19
345.259	76.19
345.487	82.19
345.714	75.19
345.942	83.19
346.17	88.19
346.397	63.19
346.625	77.19
346.853	91.19
347.08	88.19
347.308	94.19
347.535	77.19
347.763	84.19
347.99	83.19
348.218	94.19
348.445	73.19
348.673	89.19
348.9	84.19
349.128	83.19
349.355	67.19
349.583	88.19
349.81	73.19
350.037	87.19
350.265	77.19
350.492	77.19
350.72	85.19
350.947	89.19
351.174	83.19
351.402	89.19
351.629	79.19
351.856	86.19
352.083	65.19
352.311	76.19
352.538	86.19
352.765	84.19
352.992	96.19
353.22	87.19
353.447	88.19
353.674	77.19
353.901	67.19
354.128	94.19
354.355	63.19
354.583	74.19
354.81	85.19
355.037	92.19
355.264	76.19
355.491	96.19
355.718	82.19
355.945	92.19
356.172	83.19
356.399	83.19
356.626	87.19
356.853	81.19
357.08	80.19
357.307	88.19
357.534	81.19
357.761	72.19
357.988	84.19
358.215	88.19
358.441	72.19
358.668	77.19
358.895	91.19
359.122	75.19
359.349	84.19
359.576	73.19
359.802	70.19
360.029	85.19
360.256	79.19
360.483	84.19
360.709	65.19
360.936	85.19
361.163	90.19
361.39	89.19
361.616	78.19
361.843	83.19
362.07	73.19
362.296	97.19
362.523	93.19
362.749	70.19
362.976	89.19
363.203	94.19
363.429	85.19
363.656	77.19
363.882	84.19
364.109	93.19
364.335	75.19
364.562	91.19
364.788	77.19
365.015	81.19
365.241	84.19
365.468	89.19
365.694	77.19
365.92	93.19
366.147	84.19
366.373	88.19
366.599	80.19
366.826	67.19
367.052	93.19
367.278	94.19
367.505	84.19
367.731	81.19
367.957	78.19
368.184	73.19
368.41	77.19
368.636	75.19
368.862	83.19
369.089	77.19
369.315	85.19
369.541	81.19
369.767	97.19
369.993	82.19
370.219	70.19
370.445	93.19
370.672	93.19
370.898	90.19
371.124	73.19
371.35	86.19
371.576	76.19
371.802	92.19
372.028	83.19
372.254	85.19
372.48	83.19
372.706	82.19
372.932	100.19
373.158	80.19
373.384	84.19
373.61	93.19
373.835	97.19
374.061	88.19
374.287	98.19
374.513	94.19
374.739	92.19
374.965	89.19
375.191	62.19
375.416	84.19
375.642	75.19
375.868	72.19
376.094	84.19
376.319	77.19
376.545	91.19
376.771	89.19
376.997	74.19
377.222	89.19
377.448	82.19
377.674	77.19
377.899	87.19
378.125	91.19
378.35	78.19
378.576	77.19
378.802	82.19
379.027	80.19
379.253	91.19
379.478	77.19
379.704	78.19
379.929	78.19
380.155	77.19
380.38	82.19
380.606	70.19
380.831	79.19
381.057	93.19
381.282	89.19
381.507	84.19
381.733	83.19
381.958	88.19
382.184	85.19
382.409	75.19
382.634	77.19
382.86	76.19
383.085	96.19
383.31	80.19
383.535	94.19
383.761	81.19
383.986	76.19
384.211	75.19
384.436	74.19
384.662	80.19
384.887	75.19
385.112	81.19
385.337	87.19
385.562	76.19
385.787	84.19
386.013	78.19
386.238	80.19
386.463	80.19
386.688	90.19
386.913	76.19
387.138	88.19
387.363	86.19
387.588	91.19
387.813	74.19
388.038	69.19
388.263	82.19
388.488	84.19
388.713	77.19
388.938	81.19
389.163	73.19
389.387	75.19
389.612	83.19
389.837	81.19
390.062	80.19
390.287	76.19
390.512	75.19
390.736	71.19
390.961	73.19
391.186	83.19
391.411	81.19
391.636	82.19
391.86	76.19
392.085	75.19
392.31	91.19
392.534	87.19
392.759	81.19
392.984	88.19
393.208	93.19
393.433	122.19
393.658	94.19
393.882	92.19
394.107	83.19
394.331	74.19
394.556	82.19
394.78	86.19
395.005	81.19
395.229	86.19
395.454	86.19
395.678	87.19
395.903	92.19
396.127	99.19
396.352	82.19
396.576	100.19
396.801	88.19
397.025	101.19
397.249	69.19
397.474	90.19
397.698	95.19
397.922	92.19
398.147	90.19
398.371	94.19
398.595	80.19
398.82	78.19
399.044	70.19
399.268	71.19
399.492	79.19
399.717	92.19
399.941	85.19
400.165	77.19
400.389	88.19
400.613	81.19
400.837	82.19
401.062	83.19
401.286	80.19
401.51	90.19
401.734	76.19
401.958	100.19
402.182	87.19
402.406	76.19
402.63	82.19
402.854	73.19
403.078	65.19
403.302	85.19
403.526	84.19
403.75	74.19
403.974	83.19
404.198	85.19
404.422	106.19
404.645	112.19
404.869	101.19
405.093	92.19
405.317	87.19
405.541	80.19
405.765	71.19
405.988	76.19
406.212	88.19
406.436	90.19
406.66	65.19
406.883	78.19
407.107	80.19
407.331	75.19
407.555	81.19
407.778	79.19
408.002	82.19
408.226	83.19
408.449	89.19
408.673	93.19
408.896	81.19
409.12	93.19
409.344	84.19
409.567	80.19
409.791	84.19
410.014	69.19
410.238	75.19
410.461	100.19
410.685	99.19
410.908	73.19
411.132	86.19
411.355	57.19
411.578	83.19
411.802	72.19
412.025	86.19
412.249	76.19
412.472	81.19
412.695	79.19
412.919	78.19
413.142	83.19
413.365	90.19
413.589	70.19
413.812	71.19
414.035	88.19
414.258	84.19
414.482	67.19
414.705	84.19
414.928	76.19
415.151	88.19
415.374	76.19
415.597	89.19
415.821	75.19
416.044	62.19
416.267	85.19
416.49	78.19
416.713	86.19
416.936	83.19
417.159	79.19
417.382	77.19
417.605	72.19
417.828	81.19
418.051	74.19
418.274	79.19
418.497	68.19
418.72	91.19
418.943	78.19
419.166	91.19
419.389	89.19
419.611	73.19
419.834	61.19
420.057	86.19
420.28	74.19
420.503	80.19
420.726	79.19
420.948	76.19
421.171	91.19
421.394	82.19
421.617	87.19
421.839	75.19
422.062	88.19
422.285	93.19
422.507	125.19
422.73	140.19
422.953	130.19
423.175	116.19
423.398	80.19
423.621	89.19
423.843	81.19
424.066	98.19
424.288	86.19
424.511	69.19
424.733	84.19
424.956	77.19
425.178	81.19
425.401	92.19
425.623	76.19
425.846	77.19
426.068	68.19
426.291	84.19
426.513	69.19
426.735	75.19
426.958	73.19
427.18	84.19
427.402	71.19
427.625	76.19
427.847	78.19
428.069	81.19
428.292	81.19
428.514	93.19
428.736	68.19
428.958	72.19
429.181	92.19
429.403	78.19
429.625	90.19
429.847	104.19
430.069	114.19
430.292	105.19
430.514	104.19
430.736	84.19
430.958	84.19
431.18	70.19
431.402	79.19
431.624	94.19
431.846	94.19
432.068	104.19
432.29	84.19
432.512	89.19
432.734	72.19
432.956	76.19
433.178	75.19
433.4	75.19
433.622	83.19
433.844	72.19
434.066	88.19
434.287	83.19
434.509	89.19
434.731	82.19
434.953	97.19
435.175	72.19
435.397	92.19
435.618	60.19
435.84	85.19
436.062	71.19
436.284	90.19
436.505	74.19
436.727	80.19
436.949	73.19
437.17	69.19
437.392	94.19
437.614	78.19
437.835	72.19
438.057	82.19
438.278	78.19
438.5	89.19
438.721	78.19
438.943	93.19
439.165	80.19
439.386	79.19
439.608	76.19
439.829	81.19
440.05	82.19
440.272	84.19
440.493	74.19
440.715	78.19
440.936	88.19
441.158	84.19
441.379	85.19
441.6	93.19
441.822	102.19
442.043	88.19
442.264	92.19
442.486	94.19
442.707	88.19
442.928	80.19
443.149	99.19
443.371	91.19
443.592	106.19
443.813	103.19
444.034	88.19
444.255	95.19
444.476	90.19
444.698	80.19
444.919	93.19
445.14	139.19
445.361	124.19
445.582	141.19
445.803	106.19
446.024	93.19
446.245	89.19
446.466	83.19
446.687	79.19
446.908	76.19
447.129	82.19
447.35	88.19
447.571	78.19
447.792	83.19
448.013	91.19
448.234	69.19
448.455	75.19
448.675	91.19
448.896	94.19
449.117	61.19
449.338	74.19
449.559	85.19
449.779	84.19
450	66.19
450.221	75.19
450.442	88.19
450.662	80.19
450.883	76.19
451.104	80.19
451.324	78.19
451.545	79.19
451.766	76.19
451.986	72.19
452.207	80.19
452.428	80.19
452.648	83.19
452.869	80.19
453.089	79.19
453.31	85.19
453.53	74.19
453.751	84.19
453.971	69.19
454.192	95.19
454.412	72.19
454.633	73.19
454.853	73.19
455.073	73.19
455.294	86.19
455.514	77.19
455.734	82.19
455.955	85.19
456.175	70.19
456.395	91.19
456.616	83.19
456.836	70.19
457.056	74.19
457.276	73.19
457.497	87.19
457.717	90.19
457.937	78.19
458.157	83.19
458.377	88.19
458.598	79.19
458.818	80.19
459.038	84.19
459.258	78.19
459.478	69.19
459.698	62.19
459.918	79.19
460.138	99.19
460.358	86.19
460.578	76.19
460.798	103.19
461.018	92.19
461.238	90.19
461.458	84.19
461.678	87.19
461.898	70.19
462.118	65.19
462.338	71.19
462.558	80.19
462.777	77.19
462.997	84.19
463.217	85.19
463.437	84.19
463.657	84.19
463.876	81.19
464.096	83.19
464.316	91.19
464.536	91.19
464.755	93.19
464.975	86.19
465.195	86.19
465.414	76.19
465.634	82.19
465.854	79.19
466.073	68.19
466.293	95.19
466.512	76.19
466.732	81.19
466.951	94.19
467.171	81.19
467.391	76.19
467.61	85.19
467.829	72.19
468.049	76.19
468.268	82.19
468.488	84.19
468.707	100.19
468.927	73.19
469.146	66.19
469.365	69.19
469.585	85.19
469.804	81.19
470.023	74.19
470.243	78.19
470.462	82.19
470.681	91.19
470.901	88.19
471.12	92.19
471.339	64.19
471.558	88.19
471.777	83.19
471.997	78.19
472.216	92.19
472.435	68.19
472.654	83.19
472.873	73.19
473.092	76.19
473.311	67.19
473.53	70.19
473.749	93.19
473.968	78.19
474.187	67.19
474.406	94.19
474.625	88.19
474.844	80.19
475.063	98.19
475.282	79.19
475.501	83.19
475.72	83.19
475.939	76.19
476.158	84.19
476.377	77.19
476.596	71.19
476.814	87.19
477.033	77.19
477.252	74.19
477.471	90.19
477.69	77.19
477.908	61.19
478.127	95.19
478.346	88.19
478.564	80.19
478.783	91.19
479.002	98.19
479.22	77.19
479.439	86.19
479.658	85.19
479.876	91.19
480.095	96.19
480.313	82.19
480.532	66.19
480.751	73.19
480.969	74.19
481.188	82.19
481.406	83.19
481.624	78.19
481.843	84.19
482.061	94.19
482.28	81.19
482.498	85.19
482.717	88.19
482.935	88.19
483.153	92.19
483.372	85.19
483.59	72.19
483.808	100.19
484.027	73.19
484.245	78.19
484.463	88.19
484.681	84.19
484.9	88.19
485.118	74.19
485.336	76.19
485.554	84.19
485.772	70.19
485.99	88.19
486.209	87.19
486.427	71.19
486.645	74.19
486.863	82.19
487.081	73.19
487.299	68.19
487.517	84.19
487.735	95.19
487.953	101.19
488.171	92.19
488.389	92.19
488.607	82.19
488.825	72.19
489.043	85.19
489.261	94.19
489.479	92.19
489.696	78.19
489.914	77.19
490.132	73.19
490.35	87.19
490.568	81.19
490.786	84.19
491.003	84.19
491.221	81.19
491.439	89.19
491.657	77.19
491.874	91.19
492.092	71.19
492.31	87.19
492.527	87.19
492.745	86.19
492.963	83.19
493.18	79.19
493.398	82.19
493.615	84.19
493.833	81.19
494.05	82.19
494.268	82.19
494.485	80.19
494.703	88.19
494.92	86.19
495.138	80.19
495.355	80.19
495.573	78.19
495.79	76.19
496.008	101.19
496.225	89.19
496.442	86.19
496.66	95.19
496.877	79.19
497.094	78.19
497.312	80.19
497.529	81.19
497.746	84.19
497.963	84.19
498.181	81.19
498.398	87.19
498.615	78.19
498.832	74.19
499.049	86.19
499.267	81.19
499.484	95.19
499.701	90.19
499.918	101.19
500.135	78.19
500.352	77.19
500.569	78.19
500.786	93.19
501.003	80.19
501.22	89.19
501.437	90.19
501.654	75.19
501.871	72.19
502.088	67.19
502.305	90.19
502.522	83.19
502.739	78.19
502.956	90.19
503.172	86.19
503.389	91.19
503.606	74.19
503.823	94.19
504.04	76.19
504.256	93.19
504.473	88.19
504.69	82.19
504.907	108.19
505.123	92.19
505.34	82.19
505.557	84.19
505.773	89.19
505.99	81.19
506.207	77.19
506.423	74.19
506.64	84.19
506.856	88.19
507.073	85.19
507.289	83.19
507.506	90.19
507.722	87.19
507.939	82.19
508.155	84.19
508.372	79.19
508.588	83.19
508.805	91.19
509.021	78.19
509.238	85.19
509.454	87.19
509.67	82.19
509.887	87.19
510.103	88.19
510.319	92.19
510.536	85.19
510.752	81.19
510.968	82.19
511.184	80.19
511.401	76.19
511.617	73.19
511.833	79.19
512.049	91.19
512.265	88.19
512.481	77.19
512.698	72.19
512.914	83.19
513.13	78.19
513.346	85.19
513.562	68.19
513.778	93.19
513.994	88.19
514.21	90.19
514.426	79.19
514.642	81.19
514.858	79.19
515.074	74.19
515.29	82.19
515.506	90.19
515.721	84.19
515.937	75.19
516.153	85.19
516.369	88.19
516.585	77.19
516.801	94.19
517.016	97.19
517.232	76.19
517.448	86.19
517.664	88.19
517.879	87.19
518.095	89.19
518.311	84.19
518.527	69.19
518.742	82.19
518.958	93.19
519.173	98.19
519.389	75.19
519.605	92.19
519.82	66.19
