Data from Mixnoheat4_HRD10591_00015.txt Node
Date: Fri Dec 27 15:04:27 EST 2024
User: Yrep
Spectrometer: HR+D1059
Trigger mode: 1
Integration Time (sec): 1.000000E-1
Scans to average: 1
Electric dark correction enabled: true
Nonlinearity correction enabled: false
Boxcar width: 0
XAxis mode: Wavelengths
Number of Pixels in Spectrum: 2048
>>>>>Begin Spectral Data<<<<<
223.165	-17.75
223.4	-17.75
223.635	-17.75
223.869	-32.75
224.104	-14.75
224.338	-17.75
224.573	-14.75
224.808	-12.75
225.042	-7.75
225.277	-4.75
225.511	-5.75
225.746	7.25
225.98	10.25
226.215	3.25
226.449	22.25
226.683	34.25
226.918	25.25
227.152	26.25
227.387	30.25
227.621	45.25
227.856	56.25
228.09	40.25
228.324	45.25
228.559	51.25
228.793	62.25
229.027	56.25
229.262	61.25
229.496	63.25
229.73	69.25
229.964	68.25
230.199	64.25
230.433	87.25
230.667	68.25
230.901	77.25
231.136	85.25
231.37	68.25
231.604	78.25
231.838	84.25
232.072	85.25
232.306	72.25
232.541	93.25
232.775	99.25
233.009	86.25
233.243	92.25
233.477	79.25
233.711	90.25
233.945	78.25
234.179	73.25
234.413	79.25
234.647	79.25
234.881	84.25
235.115	66.25
235.349	68.25
235.583	75.25
235.817	87.25
236.051	65.25
236.285	76.25
236.519	76.25
236.753	75.25
236.987	83.25
237.221	70.25
237.455	72.25
237.689	81.25
237.922	74.25
238.156	61.25
238.39	71.25
238.624	75.25
238.858	70.25
239.091	86.25
239.325	72.25
239.559	79.25
239.793	79.25
240.027	91.25
240.26	87.25
240.494	85.25
240.728	75.25
240.961	63.25
241.195	83.25
241.429	75.25
241.662	69.25
241.896	73.25
242.13	78.25
242.363	69.25
242.597	69.25
242.83	67.25
243.064	73.25
243.298	72.25
243.531	68.25
243.765	71.25
243.998	72.25
244.232	89.25
244.465	77.25
244.699	79.25
244.932	75.25
245.166	72.25
245.399	76.25
245.633	78.25
245.866	75.25
246.099	84.25
246.333	84.25
246.566	78.25
246.8	83.25
247.033	81.25
247.266	76.25
247.5	78.25
247.733	85.25
247.966	76.25
248.2	77.25
248.433	77.25
248.666	78.25
248.899	68.25
249.133	86.25
249.366	90.25
249.599	74.25
249.832	88.25
250.066	85.25
250.299	62.25
250.532	77.25
250.765	82.25
250.998	87.25
251.231	81.25
251.465	78.25
251.698	88.25
251.931	92.25
252.164	81.25
252.397	87.25
252.63	83.25
252.863	87.25
253.096	83.25
253.329	80.25
253.562	79.25
253.795	76.25
254.028	80.25
254.261	74.25
254.494	85.25
254.727	95.25
254.96	77.25
255.193	76.25
255.426	82.25
255.659	79.25
255.892	58.25
256.124	70.25
256.357	75.25
256.59	76.25
256.823	83.25
257.056	82.25
257.289	86.25
257.521	84.25
257.754	75.25
257.987	79.25
258.22	91.25
258.452	91.25
258.685	81.25
258.918	79.25
259.151	79.25
259.383	82.25
259.616	81.25
259.849	79.25
260.081	83.25
260.314	81.25
260.547	73.25
260.779	83.25
261.012	63.25
261.244	92.25
261.477	81.25
261.71	77.25
261.942	84.25
262.175	76.25
262.407	80.25
262.64	71.25
262.872	87.25
263.105	85.25
263.337	78.25
263.57	77.25
263.802	79.25
264.035	86.25
264.267	88.25
264.499	89.25
264.732	86.25
264.964	86.25
265.197	71.25
265.429	73.25
265.661	84.25
265.894	87.25
266.126	89.25
266.358	83.25
266.591	88.25
266.823	69.25
267.055	83.25
267.287	85.25
267.52	87.25
267.752	68.25
267.984	70.25
268.216	71.25
268.448	92.25
268.681	86.25
268.913	83.25
269.145	85.25
269.377	72.25
269.609	90.25
269.841	86.25
270.073	83.25
270.306	72.25
270.538	81.25
270.77	93.25
271.002	82.25
271.234	82.25
271.466	76.25
271.698	78.25
271.93	61.25
272.162	80.25
272.394	89.25
272.626	76.25
272.858	76.25
273.09	93.25
273.322	90.25
273.553	89.25
273.785	72.25
274.017	83.25
274.249	72.25
274.481	69.25
274.713	92.25
274.945	79.25
275.176	81.25
275.408	85.25
275.64	85.25
275.872	83.25
276.104	80.25
276.335	81.25
276.567	86.25
276.799	86.25
277.031	84.25
277.262	82.25
277.494	70.25
277.726	84.25
277.957	74.25
278.189	93.25
278.421	87.25
278.652	97.25
278.884	79.25
279.115	81.25
279.347	87.25
279.579	87.25
279.81	71.25
280.042	72.25
280.273	82.25
280.505	111.25
280.736	82.25
280.968	89.25
281.199	79.25
281.431	84.25
281.662	86.25
281.894	97.25
282.125	93.25
282.356	83.25
282.588	97.25
282.819	83.25
283.051	88.25
283.282	67.25
283.513	89.25
283.745	91.25
283.976	84.25
284.207	77.25
284.439	97.25
284.67	97.25
284.901	93.25
285.132	87.25
285.364	77.25
285.595	81.25
285.826	87.25
286.057	93.25
286.288	93.25
286.52	90.25
286.751	66.25
286.982	90.25
287.213	87.25
287.444	94.25
287.675	92.25
287.906	86.25
288.138	81.25
288.369	77.25
288.6	76.25
288.831	71.25
289.062	79.25
289.293	84.25
289.524	87.25
289.755	77.25
289.986	83.25
290.217	81.25
290.448	84.25
290.679	81.25
290.91	89.25
291.141	78.25
291.371	88.25
291.602	75.25
291.833	94.25
292.064	101.25
292.295	89.25
292.526	90.25
292.757	96.25
292.987	77.25
293.218	91.25
293.449	88.25
293.68	105.25
293.91	101.25
294.141	87.25
294.372	91.25
294.603	86.25
294.833	74.25
295.064	100.25
295.295	75.25
295.525	93.25
295.756	79.25
295.987	90.25
296.217	83.25
296.448	88.25
296.679	70.25
296.909	78.25
297.14	91.25
297.37	86.25
297.601	83.25
297.831	87.25
298.062	84.25
298.292	83.25
298.523	90.25
298.753	82.25
298.984	98.25
299.214	98.25
299.445	99.25
299.675	77.25
299.905	88.25
300.136	89.25
300.366	90.25
300.597	90.25
300.827	83.25
301.057	86.25
301.288	88.25
301.518	77.25
301.748	94.25
301.979	102.25
302.209	75.25
302.439	86.25
302.669	84.25
302.9	94.25
303.13	71.25
303.36	99.25
303.59	88.25
303.82	84.25
304.051	90.25
304.281	79.25
304.511	92.25
304.741	68.25
304.971	90.25
305.201	64.25
305.431	82.25
305.661	92.25
305.891	72.25
306.121	73.25
306.352	97.25
306.582	89.25
306.812	84.25
307.042	80.25
307.272	93.25
307.502	92.25
307.731	85.25
307.961	71.25
308.191	90.25
308.421	83.25
308.651	91.25
308.881	89.25
309.111	87.25
309.341	90.25
309.571	83.25
309.8	76.25
310.03	100.25
310.26	87.25
310.49	83.25
310.72	88.25
310.949	77.25
311.179	93.25
311.409	80.25
311.639	77.25
311.868	85.25
312.098	71.25
312.328	85.25
312.557	88.25
312.787	71.25
313.017	77.25
313.246	89.25
313.476	84.25
313.706	99.25
313.935	89.25
314.165	83.25
314.394	81.25
314.624	70.25
314.853	76.25
315.083	82.25
315.312	89.25
315.542	74.25
315.771	86.25
316.001	85.25
316.23	89.25
316.46	70.25
316.689	96.25
316.919	95.25
317.148	85.25
317.377	99.25
317.607	74.25
317.836	89.25
318.065	93.25
318.295	90.25
318.524	79.25
318.753	70.25
318.983	80.25
319.212	81.25
319.441	95.25
319.67	97.25
319.9	93.25
320.129	89.25
320.358	93.25
320.587	89.25
320.816	83.25
321.046	97.25
321.275	76.25
321.504	86.25
321.733	83.25
321.962	97.25
322.191	103.25
322.42	92.25
322.649	78.25
322.878	77.25
323.108	93.25
323.337	94.25
323.566	92.25
323.795	91.25
324.024	74.25
324.253	103.25
324.482	86.25
324.71	91.25
324.939	91.25
325.168	90.25
325.397	94.25
325.626	72.25
325.855	88.25
326.084	80.25
326.313	77.25
326.542	77.25
326.77	87.25
326.999	101.25
327.228	91.25
327.457	94.25
327.686	94.25
327.914	84.25
328.143	97.25
328.372	85.25
328.6	81.25
328.829	86.25
329.058	76.25
329.287	79.25
329.515	75.25
329.744	74.25
329.972	70.25
330.201	90.25
330.43	85.25
330.658	87.25
330.887	87.25
331.115	71.25
331.344	88.25
331.572	82.25
331.801	89.25
332.03	73.25
332.258	78.25
332.486	73.25
332.715	83.25
332.943	90.25
333.172	83.25
333.4	78.25
333.629	94.25
333.857	90.25
334.085	79.25
334.314	87.25
334.542	74.25
334.771	99.25
334.999	85.25
335.227	75.25
335.455	87.25
335.684	90.25
335.912	89.25
336.14	81.25
336.369	86.25
336.597	85.25
336.825	83.25
337.053	85.25
337.281	92.25
337.51	81.25
337.738	82.25
337.966	99.25
338.194	91.25
338.422	90.25
338.65	82.25
338.878	75.25
339.106	87.25
339.334	97.25
339.562	82.25
339.79	95.25
340.018	95.25
340.246	78.25
340.474	95.25
340.702	94.25
340.93	90.25
341.158	81.25
341.386	83.25
341.614	86.25
341.842	80.25
342.07	85.25
342.298	82.25
342.526	88.25
342.754	78.25
342.981	79.25
343.209	92.25
343.437	102.25
343.665	85.25
343.893	92.25
344.12	83.25
344.348	99.25
344.576	110.25
344.804	80.25
345.031	95.25
345.259	84.25
345.487	86.25
345.714	86.25
345.942	91.25
346.17	87.25
346.397	81.25
346.625	81.25
346.853	81.25
347.08	88.25
347.308	83.25
347.535	88.25
347.763	78.25
347.99	67.25
348.218	84.25
348.445	94.25
348.673	89.25
348.9	78.25
349.128	70.25
349.355	73.25
349.583	81.25
349.81	98.25
350.037	97.25
350.265	87.25
350.492	88.25
350.72	66.25
350.947	89.25
351.174	79.25
351.402	88.25
351.629	87.25
351.856	80.25
352.083	91.25
352.311	90.25
352.538	88.25
352.765	73.25
352.992	81.25
353.22	88.25
353.447	93.25
353.674	83.25
353.901	89.25
354.128	75.25
354.355	65.25
354.583	84.25
354.81	97.25
355.037	86.25
355.264	90.25
355.491	92.25
355.718	60.25
355.945	98.25
356.172	85.25
356.399	83.25
356.626	77.25
356.853	84.25
357.08	90.25
357.307	82.25
357.534	84.25
357.761	87.25
357.988	98.25
358.215	87.25
358.441	83.25
358.668	90.25
358.895	76.25
359.122	81.25
359.349	91.25
359.576	89.25
359.802	77.25
360.029	77.25
360.256	89.25
360.483	88.25
360.709	95.25
360.936	93.25
361.163	74.25
361.39	84.25
361.616	78.25
361.843	76.25
362.07	82.25
362.296	89.25
362.523	92.25
362.749	85.25
362.976	78.25
363.203	81.25
363.429	92.25
363.656	95.25
363.882	95.25
364.109	93.25
364.335	91.25
364.562	84.25
364.788	81.25
365.015	79.25
365.241	86.25
365.468	87.25
365.694	91.25
365.92	81.25
366.147	83.25
366.373	88.25
366.599	97.25
366.826	83.25
367.052	82.25
367.278	94.25
367.505	90.25
367.731	95.25
367.957	91.25
368.184	83.25
368.41	89.25
368.636	97.25
368.862	97.25
369.089	93.25
369.315	77.25
369.541	85.25
369.767	93.25
369.993	75.25
370.219	90.25
370.445	85.25
370.672	84.25
370.898	88.25
371.124	77.25
371.35	93.25
371.576	85.25
371.802	82.25
372.028	66.25
372.254	90.25
372.48	77.25
372.706	88.25
372.932	78.25
373.158	85.25
373.384	81.25
373.61	95.25
373.835	89.25
374.061	72.25
374.287	69.25
374.513	77.25
374.739	84.25
374.965	89.25
375.191	87.25
375.416	76.25
375.642	81.25
375.868	94.25
376.094	83.25
376.319	81.25
376.545	94.25
376.771	88.25
376.997	91.25
377.222	90.25
377.448	83.25
377.674	95.25
377.899	89.25
378.125	81.25
378.35	87.25
378.576	74.25
378.802	79.25
379.027	79.25
379.253	97.25
379.478	87.25
379.704	73.25
379.929	77.25
380.155	77.25
380.38	79.25
380.606	76.25
380.831	75.25
381.057	89.25
381.282	70.25
381.507	85.25
381.733	83.25
381.958	76.25
382.184	65.25
382.409	87.25
382.634	91.25
382.86	79.25
383.085	79.25
383.31	87.25
383.535	90.25
383.761	82.25
383.986	92.25
384.211	76.25
384.436	97.25
384.662	76.25
384.887	97.25
385.112	77.25
385.337	94.25
385.562	95.25
385.787	87.25
386.013	71.25
386.238	82.25
386.463	82.25
386.688	93.25
386.913	82.25
387.138	79.25
387.363	71.25
387.588	84.25
387.813	77.25
388.038	84.25
388.263	85.25
388.488	76.25
388.713	82.25
388.938	90.25
389.163	88.25
389.387	100.25
389.612	83.25
389.837	80.25
390.062	90.25
390.287	69.25
390.512	73.25
390.736	84.25
390.961	86.25
391.186	74.25
391.411	93.25
391.636	85.25
391.86	94.25
392.085	75.25
392.31	86.25
392.534	86.25
392.759	94.25
392.984	107.25
393.208	111.25
393.433	112.25
393.658	105.25
393.882	93.25
394.107	80.25
394.331	97.25
394.556	98.25
394.78	88.25
395.005	97.25
395.229	88.25
395.454	89.25
395.678	86.25
395.903	88.25
396.127	108.25
396.352	91.25
396.576	93.25
396.801	99.25
397.025	90.25
397.249	89.25
397.474	101.25
397.698	73.25
397.922	75.25
398.147	104.25
398.371	86.25
398.595	89.25
398.82	75.25
399.044	74.25
399.268	66.25
399.492	85.25
399.717	92.25
399.941	76.25
400.165	89.25
400.389	90.25
400.613	76.25
400.837	85.25
401.062	83.25
401.286	85.25
401.51	82.25
401.734	82.25
401.958	87.25
402.182	101.25
402.406	92.25
402.63	95.25
402.854	92.25
403.078	85.25
403.302	77.25
403.526	92.25
403.75	78.25
403.974	86.25
404.198	106.25
404.422	123.25
404.645	114.25
404.869	110.25
405.093	81.25
405.317	73.25
405.541	87.25
405.765	87.25
405.988	89.25
406.212	73.25
406.436	82.25
406.66	81.25
406.883	82.25
407.107	85.25
407.331	71.25
407.555	75.25
407.778	77.25
408.002	86.25
408.226	95.25
408.449	82.25
408.673	81.25
408.896	73.25
409.12	75.25
409.344	89.25
409.567	94.25
409.791	86.25
410.014	86.25
410.238	90.25
410.461	73.25
410.685	74.25
410.908	83.25
411.132	89.25
411.355	82.25
411.578	82.25
411.802	85.25
412.025	84.25
412.249	97.25
412.472	69.25
412.695	82.25
412.919	77.25
413.142	87.25
413.365	82.25
413.589	80.25
413.812	75.25
414.035	85.25
414.258	86.25
414.482	78.25
414.705	75.25
414.928	82.25
415.151	78.25
415.374	81.25
415.597	81.25
415.821	78.25
416.044	78.25
416.267	92.25
416.49	81.25
416.713	83.25
416.936	71.25
417.159	71.25
417.382	87.25
417.605	73.25
417.828	77.25
418.051	90.25
418.274	77.25
418.497	82.25
418.72	75.25
418.943	91.25
419.166	65.25
419.389	86.25
419.611	72.25
419.834	79.25
420.057	78.25
420.28	88.25
420.503	83.25
420.726	85.25
420.948	77.25
421.171	85.25
421.394	85.25
421.617	93.25
421.839	81.25
422.062	98.25
422.285	87.25
422.507	140.25
422.73	150.25
422.953	125.25
423.175	109.25
423.398	85.25
423.621	89.25
423.843	84.25
424.066	76.25
424.288	78.25
424.511	76.25
424.733	82.25
424.956	95.25
425.178	87.25
425.401	79.25
425.623	85.25
425.846	74.25
426.068	79.25
426.291	76.25
426.513	89.25
426.735	80.25
426.958	76.25
427.18	87.25
427.402	84.25
427.625	93.25
427.847	82.25
428.069	73.25
428.292	105.25
428.514	78.25
428.736	96.25
428.958	104.25
429.181	109.25
429.403	85.25
429.625	94.25
429.847	89.25
430.069	100.25
430.292	109.25
430.514	92.25
430.736	102.25
430.958	90.25
431.18	105.25
431.402	89.25
431.624	89.25
431.846	79.25
432.068	87.25
432.29	87.25
432.512	97.25
432.734	78.25
432.956	80.25
433.178	69.25
433.4	85.25
433.622	76.25
433.844	77.25
434.066	78.25
434.287	78.25
434.509	83.25
434.731	86.25
434.953	80.25
435.175	90.25
435.397	87.25
435.618	79.25
435.84	76.25
436.062	90.25
436.284	76.25
436.505	82.25
436.727	82.25
436.949	86.25
437.17	88.25
437.392	77.25
437.614	81.25
437.835	88.25
438.057	68.25
438.278	72.25
438.5	82.25
438.721	78.25
438.943	86.25
439.165	62.25
439.386	80.25
439.608	75.25
439.829	83.25
440.05	90.25
440.272	78.25
440.493	75.25
440.715	64.25
440.936	93.25
441.158	81.25
441.379	70.25
441.6	81.25
441.822	77.25
442.043	77.25
442.264	85.25
442.486	89.25
442.707	108.25
442.928	97.25
443.149	78.25
443.371	99.25
443.592	105.25
443.813	113.25
444.034	95.25
444.255	76.25
444.476	81.25
444.698	77.25
444.919	81.25
445.14	119.25
445.361	120.25
445.582	150.25
445.803	109.25
446.024	94.25
446.245	90.25
446.466	67.25
446.687	88.25
446.908	83.25
447.129	87.25
447.35	70.25
447.571	65.25
447.792	87.25
448.013	99.25
448.234	73.25
448.455	77.25
448.675	85.25
448.896	83.25
449.117	89.25
449.338	76.25
449.559	83.25
449.779	78.25
450	68.25
450.221	73.25
450.442	82.25
450.662	77.25
450.883	79.25
451.104	87.25
451.324	78.25
451.545	77.25
451.766	81.25
451.986	75.25
452.207	87.25
452.428	86.25
452.648	85.25
452.869	90.25
453.089	93.25
453.31	75.25
453.53	86.25
453.751	71.25
453.971	99.25
454.192	86.25
454.412	77.25
454.633	85.25
454.853	86.25
455.073	73.25
455.294	90.25
455.514	98.25
455.734	76.25
455.955	82.25
456.175	92.25
456.395	82.25
456.616	81.25
456.836	81.25
457.056	84.25
457.276	89.25
457.497	74.25
457.717	83.25
457.937	88.25
458.157	82.25
458.377	75.25
458.598	91.25
458.818	82.25
459.038	77.25
459.258	86.25
459.478	86.25
459.698	76.25
459.918	72.25
460.138	82.25
460.358	83.25
460.578	78.25
460.798	102.25
461.018	83.25
461.238	99.25
461.458	76.25
461.678	89.25
461.898	89.25
462.118	76.25
462.338	87.25
462.558	86.25
462.777	75.25
462.997	87.25
463.217	81.25
463.437	82.25
463.657	88.25
463.876	81.25
464.096	78.25
464.316	86.25
464.536	85.25
464.755	89.25
464.975	89.25
465.195	87.25
465.414	67.25
465.634	76.25
465.854	84.25
466.073	102.25
466.293	95.25
466.512	82.25
466.732	76.25
466.951	78.25
467.171	69.25
467.391	81.25
467.61	66.25
467.829	73.25
468.049	89.25
468.268	83.25
468.488	87.25
468.707	79.25
468.927	90.25
469.146	76.25
469.365	85.25
469.585	93.25
469.804	88.25
470.023	73.25
470.243	82.25
470.462	78.25
470.681	83.25
470.901	70.25
471.12	71.25
471.339	79.25
471.558	82.25
471.777	82.25
471.997	85.25
472.216	82.25
472.435	78.25
472.654	88.25
472.873	84.25
473.092	76.25
473.311	74.25
473.53	97.25
473.749	85.25
473.968	83.25
474.187	101.25
474.406	88.25
474.625	71.25
474.844	67.25
475.063	71.25
475.282	82.25
475.501	73.25
475.72	70.25
475.939	97.25
476.158	76.25
476.377	86.25
476.596	83.25
476.814	94.25
477.033	86.25
477.252	85.25
477.471	81.25
477.69	86.25
477.908	93.25
478.127	92.25
478.346	92.25
478.564	71.25
478.783	80.25
479.002	81.25
479.22	93.25
479.439	89.25
479.658	82.25
479.876	94.25
480.095	76.25
480.313	85.25
480.532	94.25
480.751	80.25
480.969	77.25
481.188	70.25
481.406	85.25
481.624	83.25
481.843	88.25
482.061	78.25
482.28	88.25
482.498	88.25
482.717	77.25
482.935	105.25
483.153	89.25
483.372	77.25
483.59	84.25
483.808	98.25
484.027	81.25
484.245	77.25
484.463	80.25
484.681	103.25
484.9	89.25
485.118	82.25
485.336	77.25
485.554	77.25
485.772	75.25
485.99	78.25
486.209	91.25
486.427	83.25
486.645	104.25
486.863	83.25
487.081	83.25
487.299	98.25
487.517	87.25
487.735	82.25
487.953	101.25
488.171	94.25
488.389	63.25
488.607	91.25
488.825	80.25
489.043	73.25
489.261	79.25
489.479	100.25
489.696	57.25
489.914	91.25
490.132	93.25
490.35	87.25
490.568	85.25
490.786	78.25
491.003	87.25
491.221	68.25
491.439	95.25
491.657	79.25
491.874	84.25
492.092	76.25
492.31	84.25
492.527	75.25
492.745	85.25
492.963	84.25
493.18	89.25
493.398	81.25
493.615	79.25
493.833	75.25
494.05	94.25
494.268	85.25
494.485	91.25
494.703	81.25
494.92	90.25
495.138	80.25
495.355	76.25
495.573	87.25
495.79	71.25
496.008	89.25
496.225	88.25
496.442	79.25
496.66	82.25
496.877	89.25
497.094	101.25
497.312	94.25
497.529	90.25
497.746	79.25
497.963	88.25
498.181	65.25
498.398	79.25
498.615	92.25
498.832	94.25
499.049	86.25
499.267	89.25
499.484	87.25
499.701	79.25
499.918	90.25
500.135	90.25
500.352	81.25
500.569	91.25
500.786	80.25
501.003	72.25
501.22	69.25
501.437	74.25
501.654	80.25
501.871	84.25
502.088	87.25
502.305	80.25
502.522	80.25
502.739	78.25
502.956	81.25
503.172	84.25
503.389	85.25
503.606	85.25
503.823	92.25
504.04	90.25
504.256	97.25
504.473	99.25
504.69	84.25
504.907	101.25
505.123	73.25
505.34	83.25
505.557	87.25
505.773	91.25
505.99	86.25
506.207	76.25
506.423	90.25
506.64	78.25
506.856	82.25
507.073	86.25
507.289	79.25
507.506	78.25
507.722	80.25
507.939	87.25
508.155	79.25
508.372	82.25
508.588	86.25
508.805	83.25
509.021	66.25
509.238	94.25
509.454	89.25
509.67	81.25
509.887	80.25
510.103	87.25
510.319	91.25
510.536	82.25
510.752	78.25
510.968	88.25
511.184	78.25
511.401	82.25
511.617	77.25
511.833	99.25
512.049	88.25
512.265	86.25
512.481	69.25
512.698	86.25
512.914	85.25
513.13	94.25
513.346	78.25
513.562	80.25
513.778	81.25
513.994	82.25
514.21	78.25
514.426	94.25
514.642	85.25
514.858	97.25
515.074	91.25
515.29	86.25
515.506	87.25
515.721	97.25
515.937	93.25
516.153	81.25
516.369	81.25
516.585	88.25
516.801	94.25
517.016	103.25
517.232	94.25
517.448	88.25
517.664	79.25
517.879	87.25
518.095	87.25
518.311	82.25
518.527	100.25
518.742	77.25
518.958	87.25
519.173	91.25
519.389	82.25
