Data from Mixnoheat4_HRD10591_00014.txt Node
Date: Fri Dec 27 15:04:26 EST 2024
User: Yrep
Spectrometer: HR+D1059
Trigger mode: 1
Integration Time (sec): 1.000000E-1
Scans to average: 1
Electric dark correction enabled: true
Nonlinearity correction enabled: false
Boxcar width: 0
XAxis mode: Wavelengths
Number of Pixels in Spectrum: 2048
>>>>>Begin Spectral Data<<<<<
223.165	-20.06
223.4	-20.06
223.635	-20.06
223.869	-9.06
224.104	-9.06
224.338	-18.06
224.573	-11.06
224.808	-27.06
225.042	-26.06
225.277	8.94
225.511	3.94
225.746	2.94
225.98	6.94
226.215	13.94
226.449	12.94
226.683	26.94
226.918	26.94
227.152	16.94
227.387	24.94
227.621	23.94
227.856	46.94
228.09	38.94
228.324	33.94
228.559	65.94
228.793	60.94
229.027	76.94
229.262	59.94
229.496	55.94
229.73	67.94
229.964	67.94
230.199	85.94
230.433	69.94
230.667	76.94
230.901	78.94
231.136	85.94
231.37	74.94
231.604	91.94
231.838	83.94
232.072	85.94
232.306	79.94
232.541	84.94
232.775	78.94
233.009	74.94
233.243	77.94
233.477	88.94
233.711	98.94
233.945	85.94
234.179	82.94
234.413	90.94
234.647	83.94
234.881	80.94
235.115	81.94
235.349	80.94
235.583	84.94
235.817	76.94
236.051	75.94
236.285	66.94
236.519	76.94
236.753	83.94
236.987	72.94
237.221	57.94
237.455	68.94
237.689	87.94
237.922	80.94
238.156	72.94
238.39	75.94
238.624	86.94
238.858	87.94
239.091	83.94
239.325	84.94
239.559	77.94
239.793	76.94
240.027	70.94
240.26	63.94
240.494	75.94
240.728	84.94
240.961	62.94
241.195	67.94
241.429	77.94
241.662	71.94
241.896	70.94
242.13	69.94
242.363	75.94
242.597	68.94
242.83	77.94
243.064	67.94
243.298	70.94
243.531	64.94
243.765	84.94
243.998	91.94
244.232	67.94
244.465	79.94
244.699	89.94
244.932	80.94
245.166	82.94
245.399	77.94
245.633	80.94
245.866	80.94
246.099	80.94
246.333	68.94
246.566	75.94
246.8	81.94
247.033	67.94
247.266	79.94
247.5	84.94
247.733	81.94
247.966	85.94
248.2	70.94
248.433	86.94
248.666	86.94
248.899	72.94
249.133	90.94
249.366	96.94
249.599	92.94
249.832	74.94
250.066	79.94
250.299	76.94
250.532	81.94
250.765	86.94
250.998	78.94
251.231	75.94
251.465	84.94
251.698	83.94
251.931	81.94
252.164	61.94
252.397	63.94
252.63	76.94
252.863	94.94
253.096	67.94
253.329	86.94
253.562	87.94
253.795	69.94
254.028	77.94
254.261	77.94
254.494	75.94
254.727	66.94
254.96	74.94
255.193	84.94
255.426	91.94
255.659	81.94
255.892	77.94
256.124	72.94
256.357	85.94
256.59	67.94
256.823	79.94
257.056	85.94
257.289	91.94
257.521	77.94
257.754	80.94
257.987	60.94
258.22	90.94
258.452	78.94
258.685	70.94
258.918	72.94
259.151	86.94
259.383	82.94
259.616	81.94
259.849	84.94
260.081	70.94
260.314	76.94
260.547	78.94
260.779	80.94
261.012	77.94
261.244	86.94
261.477	83.94
261.71	77.94
261.942	64.94
262.175	76.94
262.407	82.94
262.64	75.94
262.872	76.94
263.105	77.94
263.337	79.94
263.57	87.94
263.802	86.94
264.035	71.94
264.267	73.94
264.499	66.94
264.732	76.94
264.964	72.94
265.197	83.94
265.429	75.94
265.661	77.94
265.894	85.94
266.126	82.94
266.358	84.94
266.591	85.94
266.823	93.94
267.055	83.94
267.287	77.94
267.52	89.94
267.752	81.94
267.984	79.94
268.216	83.94
268.448	88.94
268.681	77.94
268.913	87.94
269.145	93.94
269.377	76.94
269.609	87.94
269.841	90.94
270.073	87.94
270.306	84.94
270.538	89.94
270.77	78.94
271.002	87.94
271.234	79.94
271.466	75.94
271.698	73.94
271.93	79.94
272.162	81.94
272.394	70.94
272.626	84.94
272.858	75.94
273.09	74.94
273.322	101.94
273.553	82.94
273.785	80.94
274.017	67.94
274.249	83.94
274.481	85.94
274.713	89.94
274.945	65.94
275.176	73.94
275.408	80.94
275.64	74.94
275.872	83.94
276.104	91.94
276.335	72.94
276.567	77.94
276.799	75.94
277.031	79.94
277.262	78.94
277.494	88.94
277.726	77.94
277.957	83.94
278.189	86.94
278.421	90.94
278.652	83.94
278.884	77.94
279.115	85.94
279.347	83.94
279.579	68.94
279.81	86.94
280.042	89.94
280.273	88.94
280.505	73.94
280.736	77.94
280.968	81.94
281.199	93.94
281.431	82.94
281.662	75.94
281.894	88.94
282.125	78.94
282.356	73.94
282.588	83.94
282.819	80.94
283.051	73.94
283.282	73.94
283.513	97.94
283.745	79.94
283.976	84.94
284.207	77.94
284.439	85.94
284.67	82.94
284.901	84.94
285.132	94.94
285.364	76.94
285.595	88.94
285.826	105.94
286.057	83.94
286.288	78.94
286.52	78.94
286.751	96.94
286.982	88.94
287.213	87.94
287.444	104.94
287.675	75.94
287.906	91.94
288.138	72.94
288.369	96.94
288.6	74.94
288.831	83.94
289.062	88.94
289.293	80.94
289.524	79.94
289.755	85.94
289.986	82.94
290.217	81.94
290.448	88.94
290.679	81.94
290.91	90.94
291.141	71.94
291.371	78.94
291.602	74.94
291.833	73.94
292.064	80.94
292.295	81.94
292.526	78.94
292.757	73.94
292.987	77.94
293.218	93.94
293.449	84.94
293.68	90.94
293.91	76.94
294.141	67.94
294.372	74.94
294.603	82.94
294.833	89.94
295.064	85.94
295.295	79.94
295.525	77.94
295.756	78.94
295.987	88.94
296.217	69.94
296.448	76.94
296.679	90.94
296.909	81.94
297.14	87.94
297.37	75.94
297.601	84.94
297.831	87.94
298.062	88.94
298.292	93.94
298.523	76.94
298.753	71.94
298.984	87.94
299.214	79.94
299.445	68.94
299.675	83.94
299.905	96.94
300.136	90.94
300.366	85.94
300.597	99.94
300.827	78.94
301.057	90.94
301.288	67.94
301.518	92.94
301.748	85.94
301.979	93.94
302.209	84.94
302.439	84.94
302.669	75.94
302.9	82.94
303.13	82.94
303.36	98.94
303.59	75.94
303.82	91.94
304.051	80.94
304.281	77.94
304.511	84.94
304.741	84.94
304.971	82.94
305.201	88.94
305.431	73.94
305.661	93.94
305.891	89.94
306.121	87.94
306.352	73.94
306.582	83.94
306.812	84.94
307.042	88.94
307.272	89.94
307.502	83.94
307.731	93.94
307.961	79.94
308.191	84.94
308.421	80.94
308.651	93.94
308.881	92.94
309.111	91.94
309.341	78.94
309.571	82.94
309.8	84.94
310.03	86.94
310.26	87.94
310.49	76.94
310.72	88.94
310.949	96.94
311.179	92.94
311.409	93.94
311.639	87.94
311.868	85.94
312.098	90.94
312.328	86.94
312.557	99.94
312.787	80.94
313.017	94.94
313.246	85.94
313.476	81.94
313.706	87.94
313.935	78.94
314.165	91.94
314.394	78.94
314.624	78.94
314.853	84.94
315.083	83.94
315.312	78.94
315.542	98.94
315.771	80.94
316.001	70.94
316.23	88.94
316.46	85.94
316.689	76.94
316.919	91.94
317.148	78.94
317.377	71.94
317.607	81.94
317.836	84.94
318.065	70.94
318.295	85.94
318.524	85.94
318.753	96.94
318.983	79.94
319.212	98.94
319.441	83.94
319.67	89.94
319.9	88.94
320.129	75.94
320.358	92.94
320.587	89.94
320.816	87.94
321.046	88.94
321.275	112.94
321.504	85.94
321.733	82.94
321.962	88.94
322.191	84.94
322.42	67.94
322.649	86.94
322.878	81.94
323.108	85.94
323.337	87.94
323.566	74.94
323.795	89.94
324.024	83.94
324.253	90.94
324.482	87.94
324.71	85.94
324.939	82.94
325.168	77.94
325.397	82.94
325.626	100.94
325.855	80.94
326.084	84.94
326.313	96.94
326.542	84.94
326.77	77.94
326.999	80.94
327.228	84.94
327.457	93.94
327.686	82.94
327.914	87.94
328.143	83.94
328.372	81.94
328.6	86.94
328.829	97.94
329.058	86.94
329.287	67.94
329.515	77.94
329.744	86.94
329.972	83.94
330.201	87.94
330.43	79.94
330.658	101.94
330.887	85.94
331.115	85.94
331.344	97.94
331.572	96.94
331.801	77.94
332.03	92.94
332.258	88.94
332.486	91.94
332.715	81.94
332.943	80.94
333.172	93.94
333.4	79.94
333.629	85.94
333.857	70.94
334.085	82.94
334.314	91.94
334.542	74.94
334.771	80.94
334.999	91.94
335.227	83.94
335.455	69.94
335.684	89.94
335.912	77.94
336.14	79.94
336.369	78.94
336.597	80.94
336.825	89.94
337.053	86.94
337.281	88.94
337.51	73.94
337.738	81.94
337.966	89.94
338.194	84.94
338.422	89.94
338.65	76.94
338.878	83.94
339.106	100.94
339.334	92.94
339.562	92.94
339.79	84.94
340.018	77.94
340.246	81.94
340.474	84.94
340.702	72.94
340.93	72.94
341.158	84.94
341.386	82.94
341.614	93.94
341.842	96.94
342.07	70.94
342.298	93.94
342.526	72.94
342.754	84.94
342.981	83.94
343.209	88.94
343.437	93.94
343.665	90.94
343.893	99.94
344.12	90.94
344.348	82.94
344.576	73.94
344.804	91.94
345.031	90.94
345.259	88.94
345.487	90.94
345.714	89.94
345.942	84.94
346.17	88.94
346.397	75.94
346.625	72.94
346.853	73.94
347.08	89.94
347.308	92.94
347.535	87.94
347.763	98.94
347.99	87.94
348.218	82.94
348.445	76.94
348.673	72.94
348.9	91.94
349.128	85.94
349.355	83.94
349.583	83.94
349.81	78.94
350.037	73.94
350.265	86.94
350.492	96.94
350.72	76.94
350.947	89.94
351.174	92.94
351.402	100.94
351.629	76.94
351.856	96.94
352.083	87.94
352.311	77.94
352.538	71.94
352.765	78.94
352.992	90.94
353.22	85.94
353.447	76.94
353.674	91.94
353.901	90.94
354.128	79.94
354.355	67.94
354.583	88.94
354.81	78.94
355.037	85.94
355.264	83.94
355.491	82.94
355.718	79.94
355.945	84.94
356.172	85.94
356.399	72.94
356.626	73.94
356.853	86.94
357.08	86.94
357.307	79.94
357.534	90.94
357.761	80.94
357.988	84.94
358.215	91.94
358.441	93.94
358.668	70.94
358.895	73.94
359.122	86.94
359.349	70.94
359.576	84.94
359.802	82.94
360.029	97.94
360.256	86.94
360.483	83.94
360.709	79.94
360.936	74.94
361.163	76.94
361.39	77.94
361.616	84.94
361.843	89.94
362.07	82.94
362.296	80.94
362.523	86.94
362.749	93.94
362.976	87.94
363.203	97.94
363.429	104.94
363.656	89.94
363.882	84.94
364.109	89.94
364.335	99.94
364.562	90.94
364.788	82.94
365.015	84.94
365.241	102.94
365.468	85.94
365.694	81.94
365.92	86.94
366.147	72.94
366.373	64.94
366.599	76.94
366.826	89.94
367.052	82.94
367.278	78.94
367.505	84.94
367.731	100.94
367.957	73.94
368.184	82.94
368.41	86.94
368.636	79.94
368.862	93.94
369.089	78.94
369.315	81.94
369.541	80.94
369.767	85.94
369.993	85.94
370.219	75.94
370.445	99.94
370.672	74.94
370.898	76.94
371.124	85.94
371.35	61.94
371.576	89.94
371.802	78.94
372.028	89.94
372.254	77.94
372.48	66.94
372.706	77.94
372.932	74.94
373.158	89.94
373.384	94.94
373.61	84.94
373.835	91.94
374.061	79.94
374.287	85.94
374.513	88.94
374.739	92.94
374.965	84.94
375.191	92.94
375.416	91.94
375.642	86.94
375.868	91.94
376.094	90.94
376.319	76.94
376.545	83.94
376.771	75.94
376.997	87.94
377.222	88.94
377.448	81.94
377.674	91.94
377.899	83.94
378.125	62.94
378.35	79.94
378.576	80.94
378.802	90.94
379.027	85.94
379.253	89.94
379.478	92.94
379.704	72.94
379.929	93.94
380.155	86.94
380.38	85.94
380.606	81.94
380.831	86.94
381.057	88.94
381.282	76.94
381.507	88.94
381.733	89.94
381.958	89.94
382.184	75.94
382.409	82.94
382.634	96.94
382.86	72.94
383.085	84.94
383.31	79.94
383.535	88.94
383.761	80.94
383.986	86.94
384.211	81.94
384.436	65.94
384.662	73.94
384.887	77.94
385.112	65.94
385.337	76.94
385.562	74.94
385.787	82.94
386.013	71.94
386.238	68.94
386.463	81.94
386.688	89.94
386.913	73.94
387.138	77.94
387.363	78.94
387.588	80.94
387.813	80.94
388.038	78.94
388.263	78.94
388.488	83.94
388.713	82.94
388.938	87.94
389.163	72.94
389.387	88.94
389.612	77.94
389.837	97.94
390.062	78.94
390.287	80.94
390.512	73.94
390.736	92.94
390.961	85.94
391.186	90.94
391.411	88.94
391.636	80.94
391.86	68.94
392.085	82.94
392.31	84.94
392.534	89.94
392.759	79.94
392.984	91.94
393.208	99.94
393.433	110.94
393.658	92.94
393.882	80.94
394.107	80.94
394.331	88.94
394.556	84.94
394.78	94.94
395.005	78.94
395.229	82.94
395.454	86.94
395.678	65.94
395.903	78.94
396.127	75.94
396.352	100.94
396.576	89.94
396.801	112.94
397.025	96.94
397.249	87.94
397.474	76.94
397.698	90.94
397.922	83.94
398.147	88.94
398.371	84.94
398.595	77.94
398.82	85.94
399.044	84.94
399.268	78.94
399.492	72.94
399.717	81.94
399.941	87.94
400.165	80.94
400.389	82.94
400.613	89.94
400.837	88.94
401.062	89.94
401.286	90.94
401.51	93.94
401.734	83.94
401.958	72.94
402.182	71.94
402.406	68.94
402.63	76.94
402.854	89.94
403.078	81.94
403.302	74.94
403.526	82.94
403.75	90.94
403.974	81.94
404.198	89.94
404.422	109.94
404.645	106.94
404.869	105.94
405.093	103.94
405.317	66.94
405.541	83.94
405.765	73.94
405.988	73.94
406.212	88.94
406.436	108.94
406.66	76.94
406.883	76.94
407.107	77.94
407.331	77.94
407.555	69.94
407.778	81.94
408.002	92.94
408.226	107.94
408.449	82.94
408.673	94.94
408.896	75.94
409.12	76.94
409.344	73.94
409.567	72.94
409.791	78.94
410.014	93.94
410.238	98.94
410.461	82.94
410.685	88.94
410.908	89.94
411.132	94.94
411.355	86.94
411.578	84.94
411.802	90.94
412.025	76.94
412.249	84.94
412.472	66.94
412.695	82.94
412.919	85.94
413.142	65.94
413.365	78.94
413.589	75.94
413.812	87.94
414.035	91.94
414.258	80.94
414.482	80.94
414.705	98.94
414.928	100.94
415.151	80.94
415.374	81.94
415.597	84.94
415.821	89.94
416.044	66.94
416.267	80.94
416.49	88.94
416.713	77.94
416.936	88.94
417.159	72.94
417.382	71.94
417.605	87.94
417.828	89.94
418.051	81.94
418.274	84.94
418.497	83.94
418.72	84.94
418.943	85.94
419.166	72.94
419.389	73.94
419.611	68.94
419.834	77.94
420.057	74.94
420.28	75.94
420.503	86.94
420.726	81.94
420.948	77.94
421.171	75.94
421.394	74.94
421.617	95.94
421.839	80.94
422.062	95.94
422.285	106.94
422.507	121.94
422.73	151.94
422.953	136.94
423.175	104.94
423.398	98.94
423.621	81.94
423.843	75.94
424.066	86.94
424.288	67.94
424.511	83.94
424.733	77.94
424.956	82.94
425.178	72.94
425.401	76.94
425.623	84.94
425.846	88.94
426.068	85.94
426.291	89.94
426.513	92.94
426.735	62.94
426.958	86.94
427.18	73.94
427.402	80.94
427.625	82.94
427.847	83.94
428.069	99.94
428.292	109.94
428.514	90.94
428.736	82.94
428.958	92.94
429.181	97.94
429.403	87.94
429.625	85.94
429.847	93.94
430.069	103.94
430.292	106.94
430.514	85.94
430.736	77.94
430.958	96.94
431.18	78.94
431.402	74.94
431.624	93.94
431.846	67.94
432.068	103.94
432.29	72.94
432.512	82.94
432.734	89.94
432.956	86.94
433.178	89.94
433.4	81.94
433.622	77.94
433.844	80.94
434.066	97.94
434.287	86.94
434.509	78.94
434.731	92.94
434.953	74.94
435.175	66.94
435.397	75.94
435.618	80.94
435.84	75.94
436.062	81.94
436.284	66.94
436.505	86.94
436.727	77.94
436.949	81.94
437.17	78.94
437.392	71.94
437.614	84.94
437.835	69.94
438.057	81.94
438.278	85.94
438.5	78.94
438.721	75.94
438.943	66.94
439.165	74.94
439.386	90.94
439.608	77.94
439.829	76.94
440.05	87.94
440.272	81.94
440.493	81.94
440.715	68.94
440.936	86.94
441.158	77.94
441.379	76.94
441.6	81.94
441.822	80.94
442.043	87.94
442.264	88.94
442.486	81.94
442.707	97.94
442.928	72.94
443.149	85.94
443.371	97.94
443.592	138.94
443.813	93.94
444.034	71.94
444.255	92.94
444.476	85.94
444.698	84.94
444.919	76.94
445.14	123.94
445.361	132.94
445.582	102.94
445.803	120.94
446.024	98.94
446.245	78.94
446.466	82.94
446.687	77.94
446.908	69.94
447.129	70.94
447.35	78.94
447.571	87.94
447.792	88.94
448.013	91.94
448.234	77.94
448.455	92.94
448.675	76.94
448.896	73.94
449.117	90.94
449.338	65.94
449.559	71.94
449.779	87.94
450	82.94
450.221	92.94
450.442	72.94
450.662	86.94
450.883	74.94
451.104	77.94
451.324	77.94
451.545	97.94
451.766	78.94
451.986	72.94
452.207	81.94
452.428	81.94
452.648	86.94
452.869	81.94
453.089	76.94
453.31	77.94
453.53	91.94
453.751	82.94
453.971	75.94
454.192	88.94
454.412	89.94
454.633	84.94
454.853	96.94
455.073	89.94
455.294	76.94
455.514	83.94
455.734	66.94
455.955	99.94
456.175	76.94
456.395	96.94
456.616	80.94
456.836	85.94
457.056	77.94
457.276	88.94
457.497	100.94
457.717	72.94
457.937	77.94
458.157	89.94
458.377	86.94
458.598	77.94
458.818	108.94
459.038	91.94
459.258	75.94
459.478	77.94
459.698	72.94
459.918	78.94
460.138	83.94
460.358	78.94
460.578	91.94
460.798	88.94
461.018	99.94
461.238	98.94
461.458	87.94
461.678	82.94
461.898	78.94
462.118	91.94
462.338	79.94
462.558	96.94
462.777	80.94
462.997	91.94
463.217	80.94
463.437	78.94
463.657	85.94
463.876	85.94
464.096	70.94
464.316	83.94
464.536	82.94
464.755	91.94
464.975	79.94
465.195	87.94
465.414	91.94
465.634	89.94
465.854	69.94
466.073	76.94
466.293	95.94
466.512	88.94
466.732	88.94
466.951	103.94
467.171	80.94
467.391	81.94
467.61	94.94
467.829	80.94
468.049	82.94
468.268	91.94
468.488	78.94
468.707	73.94
468.927	90.94
469.146	86.94
469.365	76.94
469.585	83.94
469.804	89.94
470.023	75.94
470.243	93.94
470.462	76.94
470.681	86.94
470.901	74.94
471.12	84.94
471.339	93.94
471.558	73.94
471.777	84.94
471.997	72.94
472.216	89.94
472.435	80.94
472.654	76.94
472.873	77.94
473.092	77.94
473.311	73.94
473.53	92.94
473.749	68.94
473.968	78.94
474.187	70.94
474.406	83.94
474.625	87.94
474.844	85.94
475.063	89.94
475.282	98.94
475.501	80.94
475.72	91.94
475.939	80.94
476.158	86.94
476.377	86.94
476.596	84.94
476.814	70.94
477.033	82.94
477.252	92.94
477.471	80.94
477.69	80.94
477.908	82.94
478.127	95.94
478.346	78.94
478.564	64.94
478.783	83.94
479.002	79.94
479.22	80.94
479.439	89.94
479.658	85.94
479.876	89.94
480.095	89.94
480.313	98.94
480.532	87.94
480.751	90.94
480.969	75.94
481.188	91.94
481.406	86.94
481.624	81.94
481.843	65.94
482.061	74.94
482.28	87.94
482.498	91.94
482.717	61.94
482.935	90.94
483.153	64.94
483.372	90.94
483.59	99.94
483.808	68.94
484.027	93.94
484.245	90.94
484.463	72.94
484.681	86.94
484.9	93.94
485.118	76.94
485.336	77.94
485.554	85.94
485.772	104.94
485.99	88.94
486.209	78.94
486.427	70.94
486.645	85.94
486.863	78.94
487.081	84.94
487.299	85.94
487.517	79.94
487.735	80.94
487.953	84.94
488.171	85.94
488.389	88.94
488.607	82.94
488.825	75.94
489.043	85.94
489.261	84.94
489.479	89.94
489.696	94.94
489.914	94.94
490.132	97.94
490.35	97.94
490.568	84.94
490.786	84.94
491.003	75.94
491.221	85.94
491.439	80.94
491.657	88.94
491.874	84.94
492.092	69.94
492.31	90.94
492.527	77.94
492.745	77.94
492.963	83.94
493.18	87.94
493.398	93.94
493.615	73.94
493.833	104.94
494.05	87.94
494.268	90.94
494.485	85.94
494.703	88.94
494.92	83.94
495.138	87.94
495.355	76.94
495.573	78.94
495.79	89.94
496.008	75.94
496.225	98.94
496.442	82.94
496.66	84.94
496.877	78.94
497.094	84.94
497.312	77.94
497.529	90.94
497.746	89.94
497.963	81.94
498.181	78.94
498.398	100.94
498.615	88.94
498.832	83.94
499.049	88.94
499.267	98.94
499.484	80.94
499.701	81.94
499.918	78.94
500.135	70.94
500.352	103.94
500.569	85.94
500.786	86.94
501.003	78.94
501.22	74.94
501.437	77.94
501.654	76.94
501.871	72.94
502.088	71.94
502.305	94.94
502.522	100.94
502.739	86.94
502.956	82.94
503.172	85.94
503.389	71.94
503.606	79.94
503.823	76.94
504.04	92.94
504.256	77.94
504.473	79.94
504.69	107.94
504.907	90.94
505.123	86.94
505.34	82.94
505.557	82.94
505.773	96.94
505.99	86.94
506.207	84.94
506.423	94.94
506.64	97.94
506.856	75.94
507.073	76.94
507.289	92.94
507.506	84.94
507.722	93.94
507.939	84.94
508.155	80.94
508.372	73.94
508.588	87.94
508.805	80.94
509.021	81.94
509.238	77.94
509.454	78.94
509.67	88.94
509.887	84.94
510.103	91.94
510.319	70.94
510.536	81.94
510.752	67.94
510.968	83.94
511.184	98.94
511.401	76.94
511.617	76.94
511.833	86.94
512.049	92.94
512.265	86.94
512.481	74.94
512.698	87.94
512.914	83.94
513.13	84.94
513.346	83.94
513.562	78.94
513.778	77.94
513.994	78.94
514.21	85.94
514.426	92.94
514.642	90.94
514.858	81.94
515.074	81.94
515.29	80.94
515.506	70.94
515.721	74.94
515.937	98.94
516.153	81.94
516.369	89.94
516.585	70.94
516.801	80.94
517.016	85.94
517.232	90.94
517.448	87.94
517.664	93.94
517.879	97.94
518.095	97.94
518.311	91.94
518.527	82.94
518.742	80.94
518.958	69.94
519.173	96.94
519.389	81.94
519.605	85.94
