Data from Uncirc_2002_H10_HRD10591_00060.txt Node
Date: Wed Jan 03 10:39:53 EST 2024
User: Yrep
Spectrometer: HR+D1059
Trigger mode: 1
Integration Time (sec): 1.000000E-1
Scans to average: 1
Electric dark correction enabled: true
Nonlinearity correction enabled: false
Boxcar width: 0
XAxis mode: Wavelengths
Number of Pixels in Spectrum: 2048
>>>>>Begin Spectral Data<<<<<
223.165	-18.31
223.4	-18.31
223.635	-18.31
223.869	-16.31
224.104	-8.31
224.338	-16.31
224.573	-15.31
224.808	-13.31
225.042	-7.31
225.277	-11.31
225.511	-14.31
225.746	-5.31
225.98	3.69
226.215	13.69
226.449	18.69
226.683	24.69
226.918	33.69
227.152	31.69
227.387	34.69
227.621	35.69
227.856	36.69
228.09	49.69
228.324	44.69
228.559	61.69
228.793	59.69
229.027	70.69
229.262	65.69
229.496	64.69
229.73	65.69
229.964	86.69
230.199	80.69
230.433	76.69
230.667	62.69
230.901	72.69
231.136	72.69
231.37	85.69
231.604	66.69
231.838	85.69
232.072	68.69
232.306	76.69
232.541	74.69
232.775	67.69
233.009	86.69
233.243	78.69
233.477	77.69
233.711	84.69
233.945	70.69
234.179	78.69
234.413	60.69
234.647	77.69
234.881	77.69
235.115	87.69
235.349	64.69
235.583	67.69
235.817	81.69
236.051	66.69
236.285	79.69
236.519	75.69
236.753	60.69
236.987	72.69
237.221	86.69
237.455	80.69
237.689	75.69
237.922	77.69
238.156	63.69
238.39	66.69
238.624	73.69
238.858	89.69
239.091	74.69
239.325	64.69
239.559	73.69
239.793	67.69
240.027	79.69
240.26	73.69
240.494	68.69
240.728	80.69
240.961	84.69
241.195	59.69
241.429	52.69
241.662	65.69
241.896	75.69
242.13	77.69
242.363	77.69
242.597	61.69
242.83	77.69
243.064	77.69
243.298	70.69
243.531	89.69
243.765	73.69
243.998	80.69
244.232	74.69
244.465	71.69
244.699	76.69
244.932	76.69
245.166	84.69
245.399	72.69
245.633	82.69
245.866	77.69
246.099	81.69
246.333	77.69
246.566	61.69
246.8	74.69
247.033	67.69
247.266	80.69
247.5	60.69
247.733	68.69
247.966	78.69
248.2	71.69
248.433	77.69
248.666	70.69
248.899	67.69
249.133	75.69
249.366	69.69
249.599	85.69
249.832	76.69
250.066	76.69
250.299	76.69
250.532	83.69
250.765	85.69
250.998	77.69
251.231	62.69
251.465	77.69
251.698	73.69
251.931	82.69
252.164	75.69
252.397	78.69
252.63	69.69
252.863	69.69
253.096	79.69
253.329	77.69
253.562	80.69
253.795	79.69
254.028	79.69
254.261	71.69
254.494	90.69
254.727	87.69
254.96	69.69
255.193	63.69
255.426	71.69
255.659	72.69
255.892	92.69
256.124	63.69
256.357	86.69
256.59	78.69
256.823	97.69
257.056	86.69
257.289	87.69
257.521	73.69
257.754	72.69
257.987	74.69
258.22	80.69
258.452	68.69
258.685	87.69
258.918	85.69
259.151	83.69
259.383	92.69
259.616	69.69
259.849	73.69
260.081	83.69
260.314	70.69
260.547	70.69
260.779	87.69
261.012	92.69
261.244	69.69
261.477	70.69
261.71	90.69
261.942	108.69
262.175	99.69
262.407	92.69
262.64	61.69
262.872	92.69
263.105	73.69
263.337	91.69
263.57	66.69
263.802	84.69
264.035	71.69
264.267	72.69
264.499	77.69
264.732	69.69
264.964	77.69
265.197	96.69
265.429	84.69
265.661	86.69
265.894	70.69
266.126	83.69
266.358	81.69
266.591	80.69
266.823	80.69
267.055	79.69
267.287	92.69
267.52	70.69
267.752	71.69
267.984	85.69
268.216	70.69
268.448	82.69
268.681	69.69
268.913	75.69
269.145	71.69
269.377	78.69
269.609	77.69
269.841	79.69
270.073	96.69
270.306	85.69
270.538	91.69
270.77	75.69
271.002	81.69
271.234	89.69
271.466	79.69
271.698	74.69
271.93	87.69
272.162	76.69
272.394	76.69
272.626	73.69
272.858	89.69
273.09	85.69
273.322	73.69
273.553	83.69
273.785	73.69
274.017	77.69
274.249	71.69
274.481	66.69
274.713	82.69
274.945	80.69
275.176	70.69
275.408	72.69
275.64	79.69
275.872	97.69
276.104	81.69
276.335	85.69
276.567	92.69
276.799	110.69
277.031	105.69
277.262	86.69
277.494	86.69
277.726	83.69
277.957	93.69
278.189	74.69
278.421	75.69
278.652	95.69
278.884	99.69
279.115	85.69
279.347	62.69
279.579	66.69
279.81	85.69
280.042	87.69
280.273	81.69
280.505	75.69
280.736	84.69
280.968	75.69
281.199	85.69
281.431	87.69
281.662	79.69
281.894	79.69
282.125	90.69
282.356	105.69
282.588	118.69
282.819	107.69
283.051	86.69
283.282	79.69
283.513	82.69
283.745	84.69
283.976	87.69
284.207	93.69
284.439	80.69
284.67	93.69
284.901	91.69
285.132	86.69
285.364	75.69
285.595	92.69
285.826	73.69
286.057	81.69
286.288	82.69
286.52	95.69
286.751	95.69
286.982	79.69
287.213	88.69
287.444	82.69
287.675	92.69
287.906	83.69
288.138	75.69
288.369	79.69
288.6	82.69
288.831	80.69
289.062	81.69
289.293	57.69
289.524	74.69
289.755	85.69
289.986	87.69
290.217	66.69
290.448	73.69
290.679	67.69
290.91	84.69
291.141	79.69
291.371	85.69
291.602	79.69
291.833	80.69
292.064	81.69
292.295	90.69
292.526	70.69
292.757	93.69
292.987	68.69
293.218	73.69
293.449	87.69
293.68	83.69
293.91	78.69
294.141	82.69
294.372	85.69
294.603	74.69
294.833	87.69
295.064	81.69
295.295	63.69
295.525	79.69
295.756	91.69
295.987	95.69
296.217	125.69
296.448	106.69
296.679	79.69
296.909	89.69
297.14	91.69
297.37	83.69
297.601	86.69
297.831	65.69
298.062	90.69
298.292	96.69
298.523	82.69
298.753	79.69
298.984	85.69
299.214	88.69
299.445	81.69
299.675	82.69
299.905	83.69
300.136	74.69
300.366	81.69
300.597	96.69
300.827	79.69
301.057	83.69
301.288	85.69
301.518	82.69
301.748	85.69
301.979	87.69
302.209	82.69
302.439	90.69
302.669	89.69
302.9	78.69
303.13	98.69
303.36	94.69
303.59	92.69
303.82	94.69
304.051	99.69
304.281	86.69
304.511	77.69
304.741	74.69
304.971	94.69
305.201	90.69
305.431	80.69
305.661	90.69
305.891	89.69
306.121	84.69
306.352	96.69
306.582	91.69
306.812	81.69
307.042	89.69
307.272	94.69
307.502	87.69
307.731	78.69
307.961	70.69
308.191	81.69
308.421	91.69
308.651	79.69
308.881	93.69
309.111	84.69
309.341	86.69
309.571	71.69
309.8	67.69
310.03	69.69
310.26	90.69
310.49	94.69
310.72	91.69
310.949	107.69
311.179	97.69
311.409	90.69
311.639	91.69
311.868	82.69
312.098	83.69
312.328	91.69
312.557	97.69
312.787	90.69
313.017	84.69
313.246	99.69
313.476	92.69
313.706	88.69
313.935	87.69
314.165	83.69
314.394	109.69
314.624	103.69
314.853	95.69
315.083	103.69
315.312	98.69
315.542	76.69
315.771	85.69
316.001	70.69
316.23	90.69
316.46	83.69
316.689	82.69
316.919	74.69
317.148	92.69
317.377	91.69
317.607	69.69
317.836	88.69
318.065	92.69
318.295	78.69
318.524	93.69
318.753	106.69
318.983	84.69
319.212	87.69
319.441	92.69
319.67	103.69
319.9	97.69
320.129	99.69
320.358	102.69
320.587	78.69
320.816	91.69
321.046	87.69
321.275	92.69
321.504	103.69
321.733	99.69
321.962	87.69
322.191	95.69
322.42	102.69
322.649	96.69
322.878	93.69
323.108	96.69
323.337	101.69
323.566	128.69
323.795	127.69
324.024	195.69
324.253	332.69
324.482	694.69
324.71	1476.69
324.939	1883.69
325.168	693.69
325.397	221.69
325.626	139.69
325.855	115.69
326.084	111.69
326.313	130.69
326.542	133.69
326.77	218.69
326.999	421.69
327.228	817.69
327.457	1438.69
327.686	1188.69
327.914	309.69
328.143	143.69
328.372	149.69
328.6	108.69
328.829	107.69
329.058	105.69
329.287	101.69
329.515	102.69
329.744	90.69
329.972	87.69
330.201	89.69
330.43	97.69
330.658	117.69
330.887	126.69
331.115	104.69
331.344	92.69
331.572	94.69
331.801	97.69
332.03	90.69
332.258	95.69
332.486	85.69
332.715	96.69
332.943	99.69
333.172	78.69
333.4	89.69
333.629	96.69
333.857	98.69
334.085	105.69
334.314	104.69
334.542	90.69
334.771	97.69
334.999	101.69
335.227	83.69
335.455	93.69
335.684	84.69
335.912	96.69
336.14	94.69
336.369	91.69
336.597	85.69
336.825	87.69
337.053	106.69
337.281	74.69
337.51	81.69
337.738	86.69
337.966	101.69
338.194	85.69
338.422	90.69
338.65	97.69
338.878	91.69
339.106	85.69
339.334	92.69
339.562	70.69
339.79	82.69
340.018	84.69
340.246	104.69
340.474	79.69
340.702	90.69
340.93	78.69
341.158	83.69
341.386	78.69
341.614	90.69
341.842	82.69
342.07	108.69
342.298	93.69
342.526	95.69
342.754	92.69
342.981	83.69
343.209	83.69
343.437	94.69
343.665	82.69
343.893	89.69
344.12	93.69
344.348	75.69
344.576	84.69
344.804	77.69
345.031	91.69
345.259	105.69
345.487	90.69
345.714	77.69
345.942	90.69
346.17	97.69
346.397	93.69
346.625	82.69
346.853	90.69
347.08	93.69
347.308	85.69
347.535	86.69
347.763	89.69
347.99	98.69
348.218	90.69
348.445	87.69
348.673	105.69
348.9	91.69
349.128	90.69
349.355	86.69
349.583	100.69
349.81	85.69
350.037	90.69
350.265	82.69
350.492	92.69
350.72	85.69
350.947	87.69
351.174	111.69
351.402	101.69
351.629	99.69
351.856	100.69
352.083	93.69
352.311	104.69
352.538	109.69
352.765	93.69
352.992	115.69
353.22	105.69
353.447	99.69
353.674	88.69
353.901	91.69
354.128	85.69
354.355	94.69
354.583	99.69
354.81	96.69
355.037	98.69
355.264	86.69
355.491	91.69
355.718	87.69
355.945	90.69
356.172	81.69
356.399	91.69
356.626	101.69
356.853	78.69
357.08	94.69
357.307	90.69
357.534	83.69
357.761	85.69
357.988	86.69
358.215	87.69
358.441	91.69
358.668	86.69
358.895	94.69
359.122	90.69
359.349	85.69
359.576	83.69
359.802	107.69
360.029	102.69
360.256	101.69
360.483	106.69
360.709	84.69
360.936	83.69
361.163	87.69
361.39	75.69
361.616	72.69
361.843	93.69
362.07	85.69
362.296	105.69
362.523	93.69
362.749	74.69
362.976	71.69
363.203	99.69
363.429	85.69
363.656	75.69
363.882	80.69
364.109	101.69
364.335	95.69
364.562	86.69
364.788	102.69
365.015	93.69
365.241	92.69
365.468	103.69
365.694	106.69
365.92	85.69
366.147	90.69
366.373	74.69
366.599	66.69
366.826	94.69
367.052	90.69
367.278	73.69
367.505	92.69
367.731	100.69
367.957	73.69
368.184	88.69
368.41	100.69
368.636	111.69
368.862	103.69
369.089	89.69
369.315	77.69
369.541	69.69
369.767	91.69
369.993	75.69
370.219	86.69
370.445	95.69
370.672	78.69
370.898	83.69
371.124	93.69
371.35	73.69
371.576	74.69
371.802	80.69
372.028	80.69
372.254	89.69
372.48	79.69
372.706	78.69
372.932	87.69
373.158	96.69
373.384	84.69
373.61	66.69
373.835	75.69
374.061	78.69
374.287	83.69
374.513	77.69
374.739	88.69
374.965	84.69
375.191	81.69
375.416	75.69
375.642	85.69
375.868	84.69
376.094	84.69
376.319	83.69
376.545	73.69
376.771	94.69
376.997	83.69
377.222	97.69
377.448	84.69
377.674	85.69
377.899	82.69
378.125	83.69
378.35	80.69
378.576	90.69
378.802	71.69
379.027	80.69
379.253	84.69
379.478	89.69
379.704	90.69
379.929	94.69
380.155	95.69
380.38	85.69
380.606	101.69
380.831	99.69
381.057	92.69
381.282	93.69
381.507	97.69
381.733	81.69
381.958	87.69
382.184	98.69
382.409	105.69
382.634	91.69
382.86	92.69
383.085	94.69
383.31	110.69
383.535	86.69
383.761	88.69
383.986	97.69
384.211	91.69
384.436	84.69
384.662	97.69
384.887	75.69
385.112	89.69
385.337	84.69
385.562	83.69
385.787	77.69
386.013	98.69
386.238	101.69
386.463	88.69
386.688	103.69
386.913	96.69
387.138	81.69
387.363	98.69
387.588	86.69
387.813	93.69
388.038	98.69
388.263	94.69
388.488	91.69
388.713	84.69
388.938	96.69
389.163	87.69
389.387	80.69
389.612	78.69
389.837	70.69
390.062	87.69
390.287	109.69
390.512	74.69
390.736	92.69
390.961	89.69
391.186	100.69
391.411	78.69
391.636	98.69
391.86	90.69
392.085	73.69
392.31	81.69
392.534	85.69
392.759	84.69
392.984	77.69
393.208	95.69
393.433	92.69
393.658	98.69
393.882	68.69
394.107	74.69
394.331	79.69
394.556	72.69
394.78	85.69
395.005	83.69
395.229	81.69
395.454	72.69
395.678	85.69
395.903	101.69
396.127	96.69
396.352	93.69
396.576	73.69
396.801	80.69
397.025	90.69
397.249	74.69
397.474	92.69
397.698	75.69
397.922	85.69
398.147	85.69
398.371	74.69
398.595	79.69
398.82	91.69
399.044	82.69
399.268	88.69
399.492	73.69
399.717	77.69
399.941	90.69
400.165	96.69
400.389	87.69
400.613	80.69
400.837	66.69
401.062	94.69
401.286	74.69
401.51	82.69
401.734	79.69
401.958	91.69
402.182	118.69
402.406	126.69
402.63	106.69
402.854	86.69
403.078	103.69
403.302	80.69
403.526	79.69
403.75	88.69
403.974	87.69
404.198	85.69
404.422	75.69
404.645	82.69
404.869	87.69
405.093	92.69
405.317	84.69
405.541	86.69
405.765	106.69
405.988	111.69
406.212	146.69
406.436	196.69
406.66	115.69
406.883	84.69
407.107	84.69
407.331	91.69
407.555	100.69
407.778	83.69
408.002	84.69
408.226	73.69
408.449	84.69
408.673	83.69
408.896	76.69
409.12	77.69
409.344	76.69
409.567	77.69
409.791	91.69
410.014	89.69
410.238	89.69
410.461	92.69
410.685	94.69
410.908	90.69
411.132	109.69
411.355	87.69
411.578	94.69
411.802	83.69
412.025	89.69
412.249	92.69
412.472	73.69
412.695	75.69
412.919	85.69
413.142	78.69
413.365	82.69
413.589	95.69
413.812	81.69
414.035	87.69
414.258	85.69
414.482	75.69
414.705	73.69
414.928	94.69
415.151	93.69
415.374	75.69
415.597	94.69
415.821	67.69
416.044	95.69
416.267	88.69
416.49	95.69
416.713	79.69
416.936	82.69
417.159	81.69
417.382	75.69
417.605	85.69
417.828	94.69
418.051	86.69
418.274	82.69
418.497	68.69
418.72	74.69
418.943	84.69
419.166	87.69
419.389	82.69
419.611	76.69
419.834	76.69
420.057	69.69
420.28	89.69
420.503	85.69
420.726	92.69
420.948	91.69
421.171	79.69
421.394	76.69
421.617	81.69
421.839	72.69
422.062	88.69
422.285	95.69
422.507	107.69
422.73	112.69
422.953	84.69
423.175	80.69
423.398	87.69
423.621	89.69
423.843	81.69
424.066	80.69
424.288	79.69
424.511	70.69
424.733	91.69
424.956	102.69
425.178	103.69
425.401	85.69
425.623	108.69
425.846	95.69
426.068	99.69
426.291	95.69
426.513	78.69
426.735	88.69
426.958	94.69
427.18	95.69
427.402	127.69
427.625	148.69
427.847	113.69
428.069	91.69
428.292	92.69
428.514	86.69
428.736	79.69
428.958	74.69
429.181	78.69
429.403	83.69
429.625	82.69
429.847	82.69
430.069	85.69
430.292	85.69
430.514	90.69
430.736	84.69
430.958	89.69
431.18	88.69
431.402	80.69
431.624	75.69
431.846	86.69
432.068	70.69
432.29	79.69
432.512	80.69
432.734	87.69
432.956	93.69
433.178	88.69
433.4	75.69
433.622	77.69
433.844	78.69
434.066	97.69
434.287	88.69
434.509	82.69
434.731	97.69
434.953	87.69
435.175	79.69
435.397	74.69
435.618	89.69
435.84	112.69
436.062	96.69
436.284	119.69
436.505	107.69
436.727	86.69
436.949	82.69
437.17	87.69
437.392	79.69
437.614	86.69
437.835	96.69
438.057	118.69
438.278	101.69
438.5	98.69
438.721	108.69
438.943	85.69
439.165	86.69
439.386	84.69
439.608	78.69
439.829	82.69
440.05	108.69
440.272	111.69
440.493	87.69
440.715	83.69
440.936	67.69
441.158	104.69
441.379	82.69
441.6	89.69
441.822	87.69
442.043	94.69
442.264	94.69
442.486	86.69
442.707	77.69
442.928	86.69
443.149	121.69
443.371	111.69
443.592	100.69
443.813	84.69
444.034	90.69
444.255	101.69
444.476	81.69
444.698	88.69
444.919	97.69
445.14	127.69
445.361	110.69
445.582	98.69
445.803	123.69
446.024	109.69
446.245	120.69
446.466	88.69
446.687	87.69
446.908	80.69
447.129	81.69
447.35	82.69
447.571	79.69
447.792	83.69
448.013	77.69
448.234	109.69
448.455	97.69
448.675	99.69
448.896	101.69
449.117	84.69
449.338	93.69
449.559	109.69
449.779	104.69
450	97.69
450.221	73.69
450.442	83.69
450.662	84.69
450.883	82.69
451.104	94.69
451.324	77.69
451.545	79.69
451.766	77.69
451.986	89.69
452.207	85.69
452.428	84.69
452.648	95.69
452.869	100.69
453.089	105.69
453.31	111.69
453.53	80.69
453.751	83.69
453.971	83.69
454.192	102.69
454.412	84.69
454.633	77.69
454.853	91.69
455.073	86.69
455.294	75.69
455.514	83.69
455.734	94.69
455.955	82.69
456.175	71.69
456.395	83.69
456.616	70.69
456.836	86.69
457.056	78.69
457.276	86.69
457.497	82.69
457.717	71.69
457.937	81.69
458.157	89.69
458.377	94.69
458.598	89.69
458.818	131.69
459.038	131.69
459.258	111.69
459.478	76.69
459.698	84.69
459.918	97.69
460.138	80.69
460.358	82.69
460.578	80.69
460.798	78.69
461.018	76.69
461.238	88.69
461.458	67.69
461.678	83.69
461.898	76.69
462.118	83.69
462.338	76.69
462.558	91.69
462.777	67.69
462.997	81.69
463.217	73.69
463.437	70.69
463.657	83.69
463.876	88.69
464.096	82.69
464.316	99.69
464.536	94.69
464.755	87.69
464.975	104.69
465.195	143.69
465.414	153.69
465.634	86.69
465.854	78.69
466.073	87.69
466.293	80.69
466.512	69.69
466.732	82.69
466.951	101.69
467.171	82.69
467.391	95.69
467.61	98.69
467.829	91.69
468.049	70.69
468.268	81.69
468.488	76.69
468.707	83.69
468.927	97.69
469.146	86.69
469.365	70.69
469.585	86.69
469.804	80.69
470.023	73.69
470.243	78.69
470.462	91.69
470.681	93.69
470.901	94.69
471.12	85.69
471.339	85.69
471.558	73.69
471.777	83.69
471.997	76.69
472.216	82.69
472.435	91.69
472.654	81.69
472.873	77.69
473.092	81.69
473.311	70.69
473.53	87.69
473.749	77.69
473.968	83.69
474.187	96.69
474.406	82.69
474.625	80.69
474.844	67.69
475.063	89.69
475.282	78.69
475.501	78.69
475.72	82.69
475.939	87.69
476.158	80.69
476.377	81.69
476.596	80.69
476.814	80.69
477.033	92.69
477.252	91.69
477.471	78.69
477.69	90.69
477.908	82.69
478.127	71.69
478.346	79.69
478.564	80.69
478.783	84.69
479.002	87.69
479.22	84.69
479.439	107.69
479.658	86.69
479.876	75.69
480.095	96.69
480.313	81.69
480.532	84.69
480.751	84.69
480.969	101.69
481.188	95.69
481.406	92.69
481.624	74.69
481.843	93.69
482.061	79.69
482.28	83.69
482.498	82.69
482.717	80.69
482.935	94.69
483.153	69.69
483.372	75.69
483.59	86.69
483.808	92.69
484.027	86.69
484.245	84.69
484.463	90.69
484.681	81.69
484.9	83.69
485.118	89.69
485.336	107.69
485.554	87.69
485.772	97.69
485.99	95.69
486.209	93.69
486.427	85.69
486.645	104.69
486.863	99.69
487.081	113.69
487.299	90.69
487.517	89.69
487.735	87.69
487.953	85.69
488.171	77.69
488.389	90.69
488.607	82.69
488.825	85.69
489.043	79.69
489.261	83.69
489.479	95.69
489.696	73.69
489.914	95.69
490.132	84.69
490.35	86.69
490.568	100.69
490.786	78.69
491.003	81.69
491.221	81.69
491.439	75.69
491.657	92.69
491.874	82.69
492.092	93.69
492.31	83.69
492.527	81.69
492.745	90.69
492.963	77.69
493.18	80.69
493.398	86.69
493.615	100.69
493.833	79.69
494.05	78.69
494.268	88.69
494.485	86.69
494.703	67.69
494.92	93.69
495.138	82.69
495.355	91.69
495.573	90.69
495.79	75.69
496.008	94.69
496.225	83.69
496.442	105.69
496.66	78.69
496.877	89.69
497.094	83.69
497.312	87.69
497.529	94.69
497.746	87.69
497.963	98.69
498.181	83.69
498.398	77.69
498.615	101.69
498.832	91.69
499.049	80.69
499.267	86.69
499.484	84.69
499.701	85.69
499.918	72.69
500.135	75.69
500.352	78.69
500.569	90.69
500.786	93.69
501.003	93.69
501.22	93.69
501.437	85.69
501.654	80.69
501.871	101.69
502.088	96.69
502.305	77.69
502.522	84.69
502.739	88.69
502.956	99.69
503.172	76.69
503.389	90.69
503.606	85.69
503.823	92.69
504.04	88.69
504.256	90.69
504.473	94.69
504.69	80.69
504.907	87.69
505.123	81.69
505.34	85.69
505.557	76.69
505.773	90.69
505.99	67.69
506.207	78.69
506.423	87.69
506.64	87.69
506.856	87.69
507.073	86.69
507.289	82.69
507.506	84.69
507.722	85.69
507.939	94.69
508.155	85.69
508.372	93.69
508.588	93.69
508.805	91.69
509.021	90.69
509.238	93.69
509.454	94.69
509.67	103.69
509.887	117.69
510.103	110.69
510.319	181.69
510.536	663.69
510.752	2113.69
510.968	589.69
511.184	147.69
511.401	104.69
511.617	97.69
511.833	80.69
512.049	89.69
512.265	92.69
512.481	77.69
512.698	101.69
512.914	79.69
513.13	77.69
513.346	96.69
513.562	84.69
513.778	86.69
513.994	101.69
514.21	95.69
514.426	103.69
514.642	125.69
514.858	117.69
515.074	151.69
515.29	383.69
515.506	1238.69
515.721	451.69
515.937	129.69
516.153	89.69
516.369	92.69
516.585	89.69
516.801	71.69
517.016	95.69
517.232	93.69
517.448	86.69
517.664	76.69
