Data from Uncirc_2002_H10_HRD10591_00021.txt Node
Date: Wed Jan 03 10:39:45 EST 2024
User: Yrep
Spectrometer: HR+D1059
Trigger mode: 1
Integration Time (sec): 1.000000E-1
Scans to average: 1
Electric dark correction enabled: true
Nonlinearity correction enabled: false
Boxcar width: 0
XAxis mode: Wavelengths
Number of Pixels in Spectrum: 2048
>>>>>Begin Spectral Data<<<<<
223.165	-27.12
223.4	-27.12
223.635	-27.12
223.869	-28.12
224.104	-11.12
224.338	-8.12
224.573	-28.12
224.808	-8.12
225.042	-9.12
225.277	-9.12
225.511	6.88
225.746	10.88
225.98	7.88
226.215	6.88
226.449	17.88
226.683	27.88
226.918	18.88
227.152	31.88
227.387	36.88
227.621	45.88
227.856	51.88
228.09	35.88
228.324	60.88
228.559	36.88
228.793	50.88
229.027	60.88
229.262	55.88
229.496	62.88
229.73	84.88
229.964	66.88
230.199	77.88
230.433	77.88
230.667	77.88
230.901	70.88
231.136	72.88
231.37	72.88
231.604	79.88
231.838	100.88
232.072	80.88
232.306	81.88
232.541	93.88
232.775	77.88
233.009	80.88
233.243	84.88
233.477	72.88
233.711	86.88
233.945	75.88
234.179	64.88
234.413	83.88
234.647	65.88
234.881	68.88
235.115	77.88
235.349	80.88
235.583	65.88
235.817	83.88
236.051	70.88
236.285	88.88
236.519	80.88
236.753	74.88
236.987	88.88
237.221	97.88
237.455	85.88
237.689	70.88
237.922	70.88
238.156	75.88
238.39	76.88
238.624	65.88
238.858	82.88
239.091	81.88
239.325	84.88
239.559	88.88
239.793	78.88
240.027	74.88
240.26	63.88
240.494	84.88
240.728	72.88
240.961	87.88
241.195	88.88
241.429	94.88
241.662	67.88
241.896	75.88
242.13	68.88
242.363	71.88
242.597	78.88
242.83	78.88
243.064	77.88
243.298	86.88
243.531	82.88
243.765	83.88
243.998	77.88
244.232	87.88
244.465	74.88
244.699	78.88
244.932	58.88
245.166	93.88
245.399	89.88
245.633	74.88
245.866	66.88
246.099	78.88
246.333	78.88
246.566	71.88
246.8	84.88
247.033	80.88
247.266	70.88
247.5	68.88
247.733	88.88
247.966	78.88
248.2	76.88
248.433	81.88
248.666	77.88
248.899	75.88
249.133	87.88
249.366	93.88
249.599	88.88
249.832	83.88
250.066	79.88
250.299	79.88
250.532	73.88
250.765	90.88
250.998	64.88
251.231	72.88
251.465	78.88
251.698	82.88
251.931	79.88
252.164	80.88
252.397	85.88
252.63	84.88
252.863	78.88
253.096	81.88
253.329	76.88
253.562	66.88
253.795	88.88
254.028	82.88
254.261	97.88
254.494	86.88
254.727	79.88
254.96	68.88
255.193	83.88
255.426	87.88
255.659	76.88
255.892	90.88
256.124	84.88
256.357	76.88
256.59	72.88
256.823	77.88
257.056	93.88
257.289	76.88
257.521	83.88
257.754	86.88
257.987	85.88
258.22	94.88
258.452	74.88
258.685	69.88
258.918	94.88
259.151	84.88
259.383	92.88
259.616	85.88
259.849	84.88
260.081	76.88
260.314	90.88
260.547	86.88
260.779	89.88
261.012	78.88
261.244	71.88
261.477	82.88
261.71	89.88
261.942	98.88
262.175	116.88
262.407	85.88
262.64	73.88
262.872	77.88
263.105	80.88
263.337	77.88
263.57	69.88
263.802	87.88
264.035	88.88
264.267	77.88
264.499	84.88
264.732	96.88
264.964	82.88
265.197	85.88
265.429	93.88
265.661	85.88
265.894	77.88
266.126	93.88
266.358	79.88
266.591	93.88
266.823	81.88
267.055	84.88
267.287	69.88
267.52	87.88
267.752	85.88
267.984	86.88
268.216	71.88
268.448	85.88
268.681	91.88
268.913	90.88
269.145	74.88
269.377	74.88
269.609	81.88
269.841	79.88
270.073	90.88
270.306	92.88
270.538	91.88
270.77	71.88
271.002	86.88
271.234	96.88
271.466	84.88
271.698	87.88
271.93	86.88
272.162	89.88
272.394	82.88
272.626	81.88
272.858	93.88
273.09	83.88
273.322	78.88
273.553	83.88
273.785	89.88
274.017	77.88
274.249	72.88
274.481	90.88
274.713	83.88
274.945	90.88
275.176	73.88
275.408	80.88
275.64	77.88
275.872	88.88
276.104	88.88
276.335	80.88
276.567	85.88
276.799	96.88
277.031	85.88
277.262	87.88
277.494	81.88
277.726	90.88
277.957	74.88
278.189	90.88
278.421	79.88
278.652	68.88
278.884	85.88
279.115	76.88
279.347	77.88
279.579	86.88
279.81	82.88
280.042	87.88
280.273	92.88
280.505	94.88
280.736	78.88
280.968	86.88
281.199	88.88
281.431	89.88
281.662	90.88
281.894	82.88
282.125	104.88
282.356	99.88
282.588	129.88
282.819	113.88
283.051	94.88
283.282	75.88
283.513	88.88
283.745	89.88
283.976	95.88
284.207	87.88
284.439	80.88
284.67	91.88
284.901	90.88
285.132	78.88
285.364	96.88
285.595	77.88
285.826	78.88
286.057	90.88
286.288	87.88
286.52	83.88
286.751	78.88
286.982	92.88
287.213	78.88
287.444	83.88
287.675	77.88
287.906	88.88
288.138	92.88
288.369	77.88
288.6	91.88
288.831	83.88
289.062	84.88
289.293	81.88
289.524	73.88
289.755	89.88
289.986	99.88
290.217	76.88
290.448	89.88
290.679	91.88
290.91	98.88
291.141	76.88
291.371	81.88
291.602	82.88
291.833	87.88
292.064	77.88
292.295	81.88
292.526	89.88
292.757	83.88
292.987	80.88
293.218	85.88
293.449	78.88
293.68	86.88
293.91	81.88
294.141	64.88
294.372	84.88
294.603	80.88
294.833	85.88
295.064	76.88
295.295	79.88
295.525	90.88
295.756	107.88
295.987	113.88
296.217	116.88
296.448	119.88
296.679	99.88
296.909	83.88
297.14	96.88
297.37	70.88
297.601	85.88
297.831	105.88
298.062	90.88
298.292	78.88
298.523	81.88
298.753	93.88
298.984	84.88
299.214	74.88
299.445	87.88
299.675	96.88
299.905	104.88
300.136	87.88
300.366	84.88
300.597	88.88
300.827	95.88
301.057	89.88
301.288	98.88
301.518	85.88
301.748	89.88
301.979	97.88
302.209	84.88
302.439	86.88
302.669	78.88
302.9	93.88
303.13	79.88
303.36	82.88
303.59	89.88
303.82	97.88
304.051	89.88
304.281	99.88
304.511	81.88
304.741	90.88
304.971	79.88
305.201	84.88
305.431	93.88
305.661	86.88
305.891	82.88
306.121	107.88
306.352	98.88
306.582	103.88
306.812	80.88
307.042	83.88
307.272	84.88
307.502	88.88
307.731	72.88
307.961	90.88
308.191	80.88
308.421	72.88
308.651	95.88
308.881	92.88
309.111	85.88
309.341	86.88
309.571	90.88
309.8	88.88
310.03	85.88
310.26	92.88
310.49	95.88
310.72	85.88
310.949	108.88
311.179	90.88
311.409	82.88
311.639	107.88
311.868	91.88
312.098	88.88
312.328	94.88
312.557	102.88
312.787	101.88
313.017	91.88
313.246	93.88
313.476	84.88
313.706	93.88
313.935	90.88
314.165	90.88
314.394	92.88
314.624	82.88
314.853	84.88
315.083	85.88
315.312	92.88
315.542	90.88
315.771	99.88
316.001	96.88
316.23	83.88
316.46	89.88
316.689	94.88
316.919	78.88
317.148	90.88
317.377	90.88
317.607	97.88
317.836	96.88
318.065	83.88
318.295	86.88
318.524	88.88
318.753	81.88
318.983	95.88
319.212	97.88
319.441	103.88
319.67	102.88
319.9	89.88
320.129	82.88
320.358	101.88
320.587	105.88
320.816	86.88
321.046	84.88
321.275	96.88
321.504	88.88
321.733	93.88
321.962	84.88
322.191	103.88
322.42	115.88
322.649	112.88
322.878	109.88
323.108	100.88
323.337	109.88
323.566	114.88
323.795	115.88
324.024	192.88
324.253	318.88
324.482	637.88
324.71	1311.88
324.939	1704.88
325.168	653.88
325.397	213.88
325.626	138.88
325.855	112.88
326.084	111.88
326.313	112.88
326.542	140.88
326.77	200.88
326.999	402.88
327.228	757.88
327.457	1364.88
327.686	1068.88
327.914	297.88
328.143	165.88
328.372	136.88
328.6	121.88
328.829	107.88
329.058	101.88
329.287	105.88
329.515	95.88
329.744	80.88
329.972	96.88
330.201	114.88
330.43	101.88
330.658	97.88
330.887	108.88
331.115	109.88
331.344	100.88
331.572	93.88
331.801	93.88
332.03	87.88
332.258	91.88
332.486	106.88
332.715	93.88
332.943	94.88
333.172	79.88
333.4	96.88
333.629	105.88
333.857	109.88
334.085	94.88
334.314	92.88
334.542	85.88
334.771	76.88
334.999	97.88
335.227	78.88
335.455	72.88
335.684	91.88
335.912	97.88
336.14	99.88
336.369	87.88
336.597	105.88
336.825	104.88
337.053	84.88
337.281	98.88
337.51	89.88
337.738	93.88
337.966	95.88
338.194	105.88
338.422	96.88
338.65	99.88
338.878	90.88
339.106	93.88
339.334	93.88
339.562	89.88
339.79	101.88
340.018	101.88
340.246	83.88
340.474	91.88
340.702	92.88
340.93	75.88
341.158	109.88
341.386	98.88
341.614	93.88
341.842	90.88
342.07	93.88
342.298	100.88
342.526	72.88
342.754	75.88
342.981	73.88
343.209	89.88
343.437	89.88
343.665	84.88
343.893	98.88
344.12	101.88
344.348	93.88
344.576	90.88
344.804	84.88
345.031	76.88
345.259	67.88
345.487	90.88
345.714	80.88
345.942	97.88
346.17	72.88
346.397	91.88
346.625	106.88
346.853	72.88
347.08	77.88
347.308	76.88
347.535	82.88
347.763	95.88
347.99	103.88
348.218	105.88
348.445	113.88
348.673	96.88
348.9	83.88
349.128	85.88
349.355	84.88
349.583	95.88
349.81	94.88
350.037	83.88
350.265	88.88
350.492	85.88
350.72	75.88
350.947	97.88
351.174	106.88
351.402	100.88
351.629	93.88
351.856	105.88
352.083	100.88
352.311	104.88
352.538	90.88
352.765	99.88
352.992	79.88
353.22	90.88
353.447	104.88
353.674	94.88
353.901	100.88
354.128	81.88
354.355	84.88
354.583	95.88
354.81	95.88
355.037	104.88
355.264	107.88
355.491	92.88
355.718	94.88
355.945	85.88
356.172	94.88
356.399	108.88
356.626	86.88
356.853	84.88
357.08	90.88
357.307	85.88
357.534	89.88
357.761	93.88
357.988	100.88
358.215	96.88
358.441	78.88
358.668	90.88
358.895	102.88
359.122	81.88
359.349	82.88
359.576	87.88
359.802	83.88
360.029	89.88
360.256	109.88
360.483	94.88
360.709	90.88
360.936	98.88
361.163	88.88
361.39	82.88
361.616	97.88
361.843	89.88
362.07	89.88
362.296	76.88
362.523	94.88
362.749	85.88
362.976	90.88
363.203	82.88
363.429	76.88
363.656	89.88
363.882	83.88
364.109	90.88
364.335	77.88
364.562	80.88
364.788	86.88
365.015	84.88
365.241	82.88
365.468	86.88
365.694	93.88
365.92	84.88
366.147	86.88
366.373	91.88
366.599	71.88
366.826	89.88
367.052	93.88
367.278	89.88
367.505	73.88
367.731	87.88
367.957	85.88
368.184	88.88
368.41	97.88
368.636	97.88
368.862	102.88
369.089	96.88
369.315	82.88
369.541	90.88
369.767	89.88
369.993	83.88
370.219	84.88
370.445	95.88
370.672	95.88
370.898	78.88
371.124	70.88
371.35	81.88
371.576	87.88
371.802	90.88
372.028	90.88
372.254	81.88
372.48	92.88
372.706	89.88
372.932	77.88
373.158	94.88
373.384	97.88
373.61	82.88
373.835	89.88
374.061	85.88
374.287	100.88
374.513	100.88
374.739	100.88
374.965	83.88
375.191	86.88
375.416	87.88
375.642	105.88
375.868	84.88
376.094	101.88
376.319	91.88
376.545	78.88
376.771	100.88
376.997	99.88
377.222	84.88
377.448	92.88
377.674	89.88
377.899	94.88
378.125	94.88
378.35	82.88
378.576	94.88
378.802	95.88
379.027	86.88
379.253	85.88
379.478	95.88
379.704	89.88
379.929	101.88
380.155	87.88
380.38	93.88
380.606	100.88
380.831	88.88
381.057	90.88
381.282	103.88
381.507	91.88
381.733	108.88
381.958	108.88
382.184	88.88
382.409	97.88
382.634	101.88
382.86	94.88
383.085	109.88
383.31	97.88
383.535	100.88
383.761	83.88
383.986	96.88
384.211	100.88
384.436	85.88
384.662	101.88
384.887	106.88
385.112	99.88
385.337	97.88
385.562	112.88
385.787	90.88
386.013	87.88
386.238	88.88
386.463	97.88
386.688	118.88
386.913	108.88
387.138	99.88
387.363	110.88
387.588	94.88
387.813	95.88
388.038	97.88
388.263	110.88
388.488	108.88
388.713	101.88
388.938	89.88
389.163	117.88
389.387	106.88
389.612	89.88
389.837	98.88
390.062	88.88
390.287	90.88
390.512	97.88
390.736	97.88
390.961	94.88
391.186	89.88
391.411	84.88
391.636	84.88
391.86	85.88
392.085	93.88
392.31	83.88
392.534	89.88
392.759	81.88
392.984	87.88
393.208	97.88
393.433	118.88
393.658	108.88
393.882	80.88
394.107	82.88
394.331	96.88
394.556	95.88
394.78	85.88
395.005	86.88
395.229	77.88
395.454	88.88
395.678	83.88
395.903	91.88
396.127	72.88
396.352	89.88
396.576	92.88
396.801	94.88
397.025	92.88
397.249	92.88
397.474	83.88
397.698	84.88
397.922	93.88
398.147	90.88
398.371	80.88
398.595	94.88
398.82	84.88
399.044	77.88
399.268	78.88
399.492	87.88
399.717	91.88
399.941	81.88
400.165	81.88
400.389	83.88
400.613	83.88
400.837	85.88
401.062	79.88
401.286	84.88
401.51	80.88
401.734	83.88
401.958	94.88
402.182	97.88
402.406	134.88
402.63	107.88
402.854	83.88
403.078	79.88
403.302	77.88
403.526	90.88
403.75	93.88
403.974	89.88
404.198	78.88
404.422	95.88
404.645	97.88
404.869	85.88
405.093	87.88
405.317	75.88
405.541	94.88
405.765	113.88
405.988	113.88
406.212	145.88
406.436	177.88
406.66	140.88
406.883	81.88
407.107	87.88
407.331	92.88
407.555	110.88
407.778	86.88
408.002	86.88
408.226	87.88
408.449	101.88
408.673	80.88
408.896	94.88
409.12	90.88
409.344	84.88
409.567	88.88
409.791	87.88
410.014	89.88
410.238	86.88
410.461	88.88
410.685	91.88
410.908	105.88
411.132	90.88
411.355	85.88
411.578	100.88
411.802	89.88
412.025	90.88
412.249	92.88
412.472	78.88
412.695	87.88
412.919	95.88
413.142	81.88
413.365	85.88
413.589	79.88
413.812	82.88
414.035	89.88
414.258	99.88
414.482	97.88
414.705	76.88
414.928	90.88
415.151	90.88
415.374	99.88
415.597	92.88
415.821	78.88
416.044	86.88
416.267	80.88
416.49	90.88
416.713	73.88
416.936	90.88
417.159	89.88
417.382	79.88
417.605	82.88
417.828	93.88
418.051	88.88
418.274	92.88
418.497	87.88
418.72	80.88
418.943	81.88
419.166	71.88
419.389	88.88
419.611	74.88
419.834	80.88
420.057	86.88
420.28	76.88
420.503	89.88
420.726	86.88
420.948	79.88
421.171	97.88
421.394	75.88
421.617	89.88
421.839	88.88
422.062	86.88
422.285	93.88
422.507	92.88
422.73	98.88
422.953	90.88
423.175	86.88
423.398	73.88
423.621	81.88
423.843	84.88
424.066	85.88
424.288	83.88
424.511	83.88
424.733	82.88
424.956	101.88
425.178	90.88
425.401	98.88
425.623	93.88
425.846	85.88
426.068	93.88
426.291	96.88
426.513	96.88
426.735	78.88
426.958	82.88
427.18	93.88
427.402	121.88
427.625	132.88
427.847	110.88
428.069	98.88
428.292	72.88
428.514	83.88
428.736	83.88
428.958	86.88
429.181	85.88
429.403	87.88
429.625	98.88
429.847	96.88
430.069	102.88
430.292	82.88
430.514	81.88
430.736	73.88
430.958	75.88
431.18	83.88
431.402	74.88
431.624	72.88
431.846	86.88
432.068	86.88
432.29	72.88
432.512	89.88
432.734	78.88
432.956	90.88
433.178	90.88
433.4	99.88
433.622	78.88
433.844	76.88
434.066	89.88
434.287	91.88
434.509	83.88
434.731	79.88
434.953	93.88
435.175	88.88
435.397	88.88
435.618	102.88
435.84	93.88
436.062	100.88
436.284	109.88
436.505	99.88
436.727	103.88
436.949	87.88
437.17	89.88
437.392	85.88
437.614	81.88
437.835	108.88
438.057	104.88
438.278	90.88
438.5	94.88
438.721	120.88
438.943	112.88
439.165	76.88
439.386	97.88
439.608	94.88
439.829	93.88
440.05	106.88
440.272	111.88
440.493	77.88
440.715	74.88
440.936	105.88
441.158	98.88
441.379	84.88
441.6	96.88
441.822	98.88
442.043	81.88
442.264	88.88
442.486	85.88
442.707	100.88
442.928	101.88
443.149	104.88
443.371	116.88
443.592	101.88
443.813	89.88
444.034	108.88
444.255	80.88
444.476	97.88
444.698	86.88
444.919	82.88
445.14	122.88
445.361	118.88
445.582	108.88
445.803	115.88
446.024	111.88
446.245	110.88
446.466	101.88
446.687	87.88
446.908	83.88
447.129	92.88
447.35	78.88
447.571	97.88
447.792	94.88
448.013	95.88
448.234	103.88
448.455	114.88
448.675	95.88
448.896	113.88
449.117	106.88
449.338	97.88
449.559	116.88
449.779	110.88
450	86.88
450.221	76.88
450.442	84.88
450.662	87.88
450.883	93.88
451.104	87.88
451.324	90.88
451.545	84.88
451.766	67.88
451.986	81.88
452.207	77.88
452.428	91.88
452.648	85.88
452.869	110.88
453.089	97.88
453.31	106.88
453.53	84.88
453.751	85.88
453.971	89.88
454.192	103.88
454.412	88.88
454.633	98.88
454.853	75.88
455.073	81.88
455.294	86.88
455.514	88.88
455.734	78.88
455.955	77.88
456.175	84.88
456.395	83.88
456.616	94.88
456.836	97.88
457.056	86.88
457.276	84.88
457.497	93.88
457.717	87.88
457.937	94.88
458.157	95.88
458.377	92.88
458.598	105.88
458.818	120.88
459.038	129.88
459.258	96.88
459.478	90.88
459.698	82.88
459.918	98.88
460.138	79.88
460.358	84.88
460.578	93.88
460.798	83.88
461.018	90.88
461.238	93.88
461.458	82.88
461.678	94.88
461.898	84.88
462.118	92.88
462.338	94.88
462.558	75.88
462.777	78.88
462.997	86.88
463.217	77.88
463.437	77.88
463.657	78.88
463.876	99.88
464.096	90.88
464.316	88.88
464.536	89.88
464.755	93.88
464.975	80.88
465.195	153.88
465.414	129.88
465.634	77.88
465.854	89.88
466.073	86.88
466.293	86.88
466.512	75.88
466.732	97.88
466.951	88.88
467.171	90.88
467.391	91.88
467.61	85.88
467.829	83.88
468.049	87.88
468.268	86.88
468.488	93.88
468.707	84.88
468.927	81.88
469.146	86.88
469.365	64.88
469.585	75.88
469.804	87.88
470.023	87.88
470.243	86.88
470.462	97.88
470.681	103.88
470.901	73.88
471.12	76.88
471.339	81.88
471.558	79.88
471.777	83.88
471.997	91.88
472.216	92.88
472.435	89.88
472.654	64.88
472.873	80.88
473.092	87.88
473.311	81.88
473.53	90.88
473.749	80.88
473.968	93.88
474.187	87.88
474.406	96.88
474.625	83.88
474.844	89.88
475.063	69.88
475.282	91.88
475.501	82.88
475.72	80.88
475.939	89.88
476.158	86.88
476.377	95.88
476.596	104.88
476.814	94.88
477.033	89.88
477.252	90.88
477.471	79.88
477.69	70.88
477.908	97.88
478.127	77.88
478.346	90.88
478.564	80.88
478.783	85.88
479.002	96.88
479.22	87.88
479.439	104.88
479.658	79.88
479.876	100.88
480.095	87.88
480.313	86.88
480.532	99.88
480.751	90.88
480.969	80.88
481.188	94.88
481.406	98.88
481.624	85.88
481.843	94.88
482.061	92.88
482.28	95.88
482.498	80.88
482.717	85.88
482.935	75.88
483.153	87.88
483.372	90.88
483.59	87.88
483.808	90.88
484.027	88.88
484.245	97.88
484.463	90.88
484.681	100.88
484.9	88.88
485.118	98.88
485.336	115.88
485.554	102.88
485.772	96.88
485.99	88.88
486.209	93.88
486.427	107.88
486.645	92.88
486.863	93.88
487.081	107.88
487.299	102.88
487.517	84.88
487.735	87.88
487.953	89.88
488.171	90.88
488.389	87.88
488.607	88.88
488.825	91.88
489.043	99.88
489.261	91.88
489.479	80.88
489.696	99.88
489.914	79.88
490.132	80.88
490.35	108.88
490.568	84.88
490.786	82.88
491.003	93.88
491.221	90.88
491.439	90.88
491.657	81.88
491.874	89.88
492.092	82.88
492.31	91.88
492.527	90.88
492.745	103.88
492.963	95.88
493.18	85.88
493.398	88.88
493.615	100.88
493.833	102.88
494.05	84.88
494.268	87.88
494.485	99.88
494.703	89.88
494.92	93.88
495.138	89.88
495.355	83.88
495.573	87.88
495.79	70.88
496.008	88.88
496.225	87.88
496.442	82.88
496.66	86.88
496.877	101.88
497.094	94.88
497.312	97.88
497.529	84.88
497.746	86.88
497.963	93.88
498.181	91.88
498.398	95.88
498.615	101.88
498.832	97.88
499.049	86.88
499.267	84.88
499.484	77.88
499.701	79.88
499.918	85.88
500.135	80.88
500.352	99.88
500.569	86.88
500.786	79.88
501.003	93.88
501.22	91.88
501.437	90.88
501.654	84.88
501.871	94.88
502.088	84.88
502.305	80.88
502.522	92.88
502.739	98.88
502.956	84.88
503.172	93.88
503.389	85.88
503.606	76.88
503.823	89.88
504.04	81.88
504.256	82.88
504.473	95.88
504.69	80.88
504.907	72.88
505.123	80.88
505.34	63.88
505.557	98.88
505.773	93.88
505.99	86.88
506.207	79.88
506.423	90.88
506.64	92.88
506.856	77.88
507.073	83.88
507.289	86.88
507.506	86.88
507.722	102.88
507.939	109.88
508.155	102.88
508.372	98.88
508.588	93.88
508.805	100.88
509.021	93.88
509.238	86.88
509.454	86.88
509.67	103.88
509.887	111.88
510.103	118.88
510.319	190.88
510.536	596.88
510.752	1831.88
510.968	533.88
511.184	129.88
511.401	116.88
511.617	106.88
511.833	88.88
512.049	81.88
512.265	79.88
512.481	81.88
512.698	95.88
512.914	96.88
513.13	93.88
513.346	84.88
513.562	89.88
513.778	108.88
513.994	84.88
514.21	95.88
514.426	95.88
514.642	112.88
514.858	97.88
515.074	142.88
515.29	331.88
515.506	1116.88
515.721	426.88
515.937	116.88
516.153	95.88
516.369	102.88
516.585	88.88
516.801	99.88
517.016	89.88
517.232	108.88
