Data from Uncirc_2002_H10_HRD10591_00056.txt Node
Date: Wed Jan 03 10:39:52 EST 2024
User: Yrep
Spectrometer: HR+D1059
Trigger mode: 1
Integration Time (sec): 1.000000E-1
Scans to average: 1
Electric dark correction enabled: true
Nonlinearity correction enabled: false
Boxcar width: 0
XAxis mode: Wavelengths
Number of Pixels in Spectrum: 2048
>>>>>Begin Spectral Data<<<<<
223.165	-12.19
223.4	-12.19
223.635	-12.19
223.869	-5.19
224.104	-18.19
224.338	-9.19
224.573	-17.19
224.808	-27.19
225.042	-4.19
225.277	-6.19
225.511	-6.19
225.746	10.81
225.98	14.81
226.215	15.81
226.449	6.81
226.683	21.81
226.918	14.81
227.152	20.81
227.387	30.81
227.621	40.81
227.856	32.81
228.09	39.81
228.324	57.81
228.559	68.81
228.793	68.81
229.027	71.81
229.262	68.81
229.496	73.81
229.73	59.81
229.964	80.81
230.199	81.81
230.433	73.81
230.667	85.81
230.901	73.81
231.136	70.81
231.37	59.81
231.604	77.81
231.838	83.81
232.072	74.81
232.306	83.81
232.541	74.81
232.775	68.81
233.009	75.81
233.243	78.81
233.477	88.81
233.711	83.81
233.945	76.81
234.179	84.81
234.413	83.81
234.647	83.81
234.881	84.81
235.115	83.81
235.349	74.81
235.583	67.81
235.817	91.81
236.051	76.81
236.285	59.81
236.519	88.81
236.753	75.81
236.987	91.81
237.221	89.81
237.455	92.81
237.689	71.81
237.922	73.81
238.156	82.81
238.39	78.81
238.624	80.81
238.858	81.81
239.091	86.81
239.325	62.81
239.559	83.81
239.793	72.81
240.027	72.81
240.26	70.81
240.494	87.81
240.728	82.81
240.961	83.81
241.195	82.81
241.429	73.81
241.662	87.81
241.896	60.81
242.13	79.81
242.363	80.81
242.597	74.81
242.83	74.81
243.064	86.81
243.298	74.81
243.531	68.81
243.765	71.81
243.998	77.81
244.232	86.81
244.465	76.81
244.699	79.81
244.932	77.81
245.166	79.81
245.399	82.81
245.633	80.81
245.866	86.81
246.099	88.81
246.333	75.81
246.566	83.81
246.8	90.81
247.033	83.81
247.266	88.81
247.5	87.81
247.733	75.81
247.966	60.81
248.2	80.81
248.433	95.81
248.666	87.81
248.899	84.81
249.133	91.81
249.366	91.81
249.599	91.81
249.832	87.81
250.066	78.81
250.299	85.81
250.532	80.81
250.765	78.81
250.998	92.81
251.231	84.81
251.465	89.81
251.698	74.81
251.931	75.81
252.164	84.81
252.397	77.81
252.63	78.81
252.863	90.81
253.096	89.81
253.329	81.81
253.562	86.81
253.795	83.81
254.028	87.81
254.261	82.81
254.494	90.81
254.727	85.81
254.96	90.81
255.193	78.81
255.426	77.81
255.659	84.81
255.892	89.81
256.124	69.81
256.357	89.81
256.59	83.81
256.823	70.81
257.056	71.81
257.289	90.81
257.521	88.81
257.754	77.81
257.987	74.81
258.22	77.81
258.452	75.81
258.685	84.81
258.918	91.81
259.151	75.81
259.383	72.81
259.616	71.81
259.849	74.81
260.081	73.81
260.314	75.81
260.547	84.81
260.779	87.81
261.012	85.81
261.244	78.81
261.477	93.81
261.71	90.81
261.942	73.81
262.175	114.81
262.407	88.81
262.64	85.81
262.872	84.81
263.105	86.81
263.337	88.81
263.57	75.81
263.802	72.81
264.035	72.81
264.267	80.81
264.499	95.81
264.732	91.81
264.964	74.81
265.197	86.81
265.429	82.81
265.661	92.81
265.894	82.81
266.126	83.81
266.358	72.81
266.591	87.81
266.823	92.81
267.055	85.81
267.287	79.81
267.52	73.81
267.752	87.81
267.984	75.81
268.216	91.81
268.448	90.81
268.681	86.81
268.913	82.81
269.145	81.81
269.377	80.81
269.609	87.81
269.841	83.81
270.073	73.81
270.306	88.81
270.538	94.81
270.77	91.81
271.002	73.81
271.234	91.81
271.466	95.81
271.698	73.81
271.93	81.81
272.162	73.81
272.394	89.81
272.626	96.81
272.858	79.81
273.09	80.81
273.322	89.81
273.553	83.81
273.785	93.81
274.017	76.81
274.249	90.81
274.481	91.81
274.713	82.81
274.945	84.81
275.176	99.81
275.408	78.81
275.64	81.81
275.872	82.81
276.104	81.81
276.335	88.81
276.567	112.81
276.799	115.81
277.031	89.81
277.262	106.81
277.494	74.81
277.726	95.81
277.957	94.81
278.189	95.81
278.421	95.81
278.652	75.81
278.884	82.81
279.115	100.81
279.347	72.81
279.579	91.81
279.81	85.81
280.042	94.81
280.273	104.81
280.505	87.81
280.736	94.81
280.968	82.81
281.199	90.81
281.431	96.81
281.662	88.81
281.894	93.81
282.125	105.81
282.356	102.81
282.588	117.81
282.819	117.81
283.051	84.81
283.282	82.81
283.513	87.81
283.745	87.81
283.976	79.81
284.207	87.81
284.439	90.81
284.67	78.81
284.901	98.81
285.132	89.81
285.364	80.81
285.595	88.81
285.826	75.81
286.057	72.81
286.288	82.81
286.52	68.81
286.751	85.81
286.982	79.81
287.213	87.81
287.444	83.81
287.675	82.81
287.906	83.81
288.138	81.81
288.369	101.81
288.6	99.81
288.831	104.81
289.062	97.81
289.293	95.81
289.524	101.81
289.755	108.81
289.986	91.81
290.217	89.81
290.448	88.81
290.679	85.81
290.91	80.81
291.141	86.81
291.371	98.81
291.602	86.81
291.833	79.81
292.064	97.81
292.295	95.81
292.526	90.81
292.757	100.81
292.987	89.81
293.218	75.81
293.449	92.81
293.68	94.81
293.91	96.81
294.141	92.81
294.372	91.81
294.603	86.81
294.833	105.81
295.064	88.81
295.295	84.81
295.525	96.81
295.756	92.81
295.987	105.81
296.217	137.81
296.448	115.81
296.679	90.81
296.909	107.81
297.14	92.81
297.37	91.81
297.601	99.81
297.831	79.81
298.062	85.81
298.292	90.81
298.523	84.81
298.753	110.81
298.984	85.81
299.214	97.81
299.445	83.81
299.675	80.81
299.905	91.81
300.136	83.81
300.366	77.81
300.597	88.81
300.827	80.81
301.057	88.81
301.288	106.81
301.518	78.81
301.748	81.81
301.979	100.81
302.209	97.81
302.439	92.81
302.669	94.81
302.9	88.81
303.13	76.81
303.36	90.81
303.59	103.81
303.82	104.81
304.051	92.81
304.281	89.81
304.511	92.81
304.741	89.81
304.971	84.81
305.201	89.81
305.431	85.81
305.661	88.81
305.891	100.81
306.121	90.81
306.352	99.81
306.582	99.81
306.812	90.81
307.042	87.81
307.272	81.81
307.502	87.81
307.731	87.81
307.961	92.81
308.191	76.81
308.421	93.81
308.651	84.81
308.881	85.81
309.111	86.81
309.341	97.81
309.571	91.81
309.8	88.81
310.03	87.81
310.26	86.81
310.49	92.81
310.72	89.81
310.949	99.81
311.179	105.81
311.409	96.81
311.639	102.81
311.868	91.81
312.098	79.81
312.328	86.81
312.557	90.81
312.787	109.81
313.017	90.81
313.246	87.81
313.476	91.81
313.706	88.81
313.935	82.81
314.165	100.81
314.394	104.81
314.624	102.81
314.853	112.81
315.083	94.81
315.312	82.81
315.542	81.81
315.771	101.81
316.001	93.81
316.23	97.81
316.46	88.81
316.689	97.81
316.919	109.81
317.148	91.81
317.377	94.81
317.607	76.81
317.836	87.81
318.065	98.81
318.295	91.81
318.524	92.81
318.753	101.81
318.983	85.81
319.212	91.81
319.441	113.81
319.67	99.81
319.9	89.81
320.129	83.81
320.358	94.81
320.587	107.81
320.816	100.81
321.046	95.81
321.275	89.81
321.504	97.81
321.733	103.81
321.962	94.81
322.191	94.81
322.42	112.81
322.649	104.81
322.878	102.81
323.108	115.81
323.337	127.81
323.566	126.81
323.795	147.81
324.024	170.81
324.253	334.81
324.482	691.81
324.71	1401.81
324.939	1875.81
325.168	691.81
325.397	217.81
325.626	142.81
325.855	131.81
326.084	106.81
326.313	132.81
326.542	149.81
326.77	204.81
326.999	413.81
327.228	804.81
327.457	1432.81
327.686	1168.81
327.914	325.81
328.143	168.81
328.372	129.81
328.6	126.81
328.829	115.81
329.058	130.81
329.287	130.81
329.515	113.81
329.744	99.81
329.972	96.81
330.201	100.81
330.43	107.81
330.658	121.81
330.887	129.81
331.115	110.81
331.344	98.81
331.572	104.81
331.801	97.81
332.03	101.81
332.258	102.81
332.486	82.81
332.715	96.81
332.943	100.81
333.172	105.81
333.4	108.81
333.629	102.81
333.857	92.81
334.085	100.81
334.314	99.81
334.542	99.81
334.771	100.81
334.999	97.81
335.227	104.81
335.455	96.81
335.684	86.81
335.912	97.81
336.14	91.81
336.369	98.81
336.597	107.81
336.825	100.81
337.053	93.81
337.281	96.81
337.51	92.81
337.738	99.81
337.966	101.81
338.194	85.81
338.422	83.81
338.65	96.81
338.878	102.81
339.106	84.81
339.334	94.81
339.562	101.81
339.79	88.81
340.018	85.81
340.246	82.81
340.474	92.81
340.702	91.81
340.93	89.81
341.158	93.81
341.386	96.81
341.614	78.81
341.842	89.81
342.07	87.81
342.298	103.81
342.526	87.81
342.754	71.81
342.981	105.81
343.209	72.81
343.437	95.81
343.665	85.81
343.893	89.81
344.12	96.81
344.348	88.81
344.576	95.81
344.804	92.81
345.031	78.81
345.259	96.81
345.487	88.81
345.714	84.81
345.942	84.81
346.17	106.81
346.397	102.81
346.625	105.81
346.853	92.81
347.08	96.81
347.308	88.81
347.535	92.81
347.763	90.81
347.99	99.81
348.218	101.81
348.445	102.81
348.673	96.81
348.9	103.81
349.128	93.81
349.355	82.81
349.583	83.81
349.81	83.81
350.037	105.81
350.265	98.81
350.492	105.81
350.72	94.81
350.947	112.81
351.174	97.81
351.402	102.81
351.629	93.81
351.856	103.81
352.083	99.81
352.311	108.81
352.538	106.81
352.765	111.81
352.992	105.81
353.22	115.81
353.447	92.81
353.674	92.81
353.901	86.81
354.128	92.81
354.355	90.81
354.583	87.81
354.81	104.81
355.037	96.81
355.264	99.81
355.491	81.81
355.718	84.81
355.945	84.81
356.172	85.81
356.399	111.81
356.626	112.81
356.853	88.81
357.08	94.81
357.307	99.81
357.534	85.81
357.761	102.81
357.988	93.81
358.215	110.81
358.441	97.81
358.668	91.81
358.895	84.81
359.122	96.81
359.349	74.81
359.576	104.81
359.802	96.81
360.029	100.81
360.256	98.81
360.483	91.81
360.709	89.81
360.936	104.81
361.163	83.81
361.39	100.81
361.616	83.81
361.843	90.81
362.07	87.81
362.296	90.81
362.523	103.81
362.749	98.81
362.976	92.81
363.203	84.81
363.429	97.81
363.656	84.81
363.882	75.81
364.109	78.81
364.335	102.81
364.562	90.81
364.788	91.81
365.015	92.81
365.241	113.81
365.468	105.81
365.694	103.81
365.92	106.81
366.147	93.81
366.373	86.81
366.599	102.81
366.826	94.81
367.052	84.81
367.278	83.81
367.505	95.81
367.731	79.81
367.957	92.81
368.184	83.81
368.41	95.81
368.636	106.81
368.862	119.81
369.089	98.81
369.315	112.81
369.541	94.81
369.767	92.81
369.993	100.81
370.219	87.81
370.445	90.81
370.672	87.81
370.898	96.81
371.124	85.81
371.35	74.81
371.576	85.81
371.802	93.81
372.028	91.81
372.254	101.81
372.48	100.81
372.706	85.81
372.932	79.81
373.158	91.81
373.384	92.81
373.61	104.81
373.835	110.81
374.061	93.81
374.287	70.81
374.513	94.81
374.739	85.81
374.965	90.81
375.191	88.81
375.416	95.81
375.642	78.81
375.868	85.81
376.094	86.81
376.319	92.81
376.545	86.81
376.771	82.81
376.997	87.81
377.222	91.81
377.448	88.81
377.674	82.81
377.899	88.81
378.125	80.81
378.35	82.81
378.576	81.81
378.802	86.81
379.027	97.81
379.253	87.81
379.478	106.81
379.704	92.81
379.929	92.81
380.155	89.81
380.38	107.81
380.606	95.81
380.831	106.81
381.057	91.81
381.282	83.81
381.507	108.81
381.733	94.81
381.958	93.81
382.184	108.81
382.409	102.81
382.634	88.81
382.86	84.81
383.085	94.81
383.31	90.81
383.535	113.81
383.761	101.81
383.986	98.81
384.211	97.81
384.436	101.81
384.662	112.81
384.887	110.81
385.112	99.81
385.337	97.81
385.562	101.81
385.787	106.81
386.013	100.81
386.238	107.81
386.463	98.81
386.688	102.81
386.913	92.81
387.138	96.81
387.363	99.81
387.588	108.81
387.813	97.81
388.038	117.81
388.263	92.81
388.488	115.81
388.713	96.81
388.938	102.81
389.163	99.81
389.387	86.81
389.612	102.81
389.837	94.81
390.062	93.81
390.287	87.81
390.512	85.81
390.736	97.81
390.961	81.81
391.186	89.81
391.411	85.81
391.636	86.81
391.86	83.81
392.085	90.81
392.31	97.81
392.534	100.81
392.759	78.81
392.984	91.81
393.208	92.81
393.433	85.81
393.658	78.81
393.882	79.81
394.107	97.81
394.331	98.81
394.556	84.81
394.78	88.81
395.005	79.81
395.229	82.81
395.454	86.81
395.678	103.81
395.903	100.81
396.127	91.81
396.352	96.81
396.576	97.81
396.801	88.81
397.025	102.81
397.249	92.81
397.474	87.81
397.698	79.81
397.922	70.81
398.147	89.81
398.371	80.81
398.595	84.81
398.82	75.81
399.044	77.81
399.268	84.81
399.492	83.81
399.717	83.81
399.941	92.81
400.165	91.81
400.389	81.81
400.613	74.81
400.837	95.81
401.062	97.81
401.286	93.81
401.51	102.81
401.734	91.81
401.958	98.81
402.182	103.81
402.406	130.81
402.63	110.81
402.854	84.81
403.078	90.81
403.302	92.81
403.526	101.81
403.75	88.81
403.974	85.81
404.198	89.81
404.422	91.81
404.645	88.81
404.869	78.81
405.093	106.81
405.317	78.81
405.541	107.81
405.765	102.81
405.988	103.81
406.212	162.81
406.436	203.81
406.66	142.81
406.883	106.81
407.107	92.81
407.331	99.81
407.555	112.81
407.778	94.81
408.002	85.81
408.226	93.81
408.449	71.81
408.673	92.81
408.896	88.81
409.12	97.81
409.344	93.81
409.567	86.81
409.791	84.81
410.014	99.81
410.238	97.81
410.461	100.81
410.685	97.81
410.908	98.81
411.132	100.81
411.355	100.81
411.578	100.81
411.802	94.81
412.025	86.81
412.249	98.81
412.472	89.81
412.695	105.81
412.919	88.81
413.142	70.81
413.365	90.81
413.589	80.81
413.812	88.81
414.035	87.81
414.258	87.81
414.482	72.81
414.705	88.81
414.928	93.81
415.151	100.81
415.374	92.81
415.597	83.81
415.821	92.81
416.044	86.81
416.267	93.81
416.49	89.81
416.713	96.81
416.936	87.81
417.159	92.81
417.382	96.81
417.605	90.81
417.828	80.81
418.051	102.81
418.274	83.81
418.497	87.81
418.72	93.81
418.943	89.81
419.166	94.81
419.389	88.81
419.611	88.81
419.834	92.81
420.057	93.81
420.28	98.81
420.503	86.81
420.726	85.81
420.948	94.81
421.171	87.81
421.394	81.81
421.617	92.81
421.839	86.81
422.062	74.81
422.285	88.81
422.507	81.81
422.73	103.81
422.953	98.81
423.175	81.81
423.398	101.81
423.621	90.81
423.843	72.81
424.066	69.81
424.288	91.81
424.511	91.81
424.733	93.81
424.956	94.81
425.178	85.81
425.401	91.81
425.623	97.81
425.846	102.81
426.068	87.81
426.291	103.81
426.513	105.81
426.735	98.81
426.958	99.81
427.18	104.81
427.402	138.81
427.625	155.81
427.847	123.81
428.069	90.81
428.292	102.81
428.514	103.81
428.736	92.81
428.958	78.81
429.181	90.81
429.403	91.81
429.625	69.81
429.847	89.81
430.069	106.81
430.292	92.81
430.514	92.81
430.736	78.81
430.958	85.81
431.18	97.81
431.402	103.81
431.624	81.81
431.846	87.81
432.068	82.81
432.29	95.81
432.512	83.81
432.734	84.81
432.956	88.81
433.178	81.81
433.4	114.81
433.622	87.81
433.844	81.81
434.066	97.81
434.287	83.81
434.509	92.81
434.731	97.81
434.953	107.81
435.175	91.81
435.397	100.81
435.618	89.81
435.84	95.81
436.062	104.81
436.284	105.81
436.505	114.81
436.727	107.81
436.949	89.81
437.17	74.81
437.392	86.81
437.614	108.81
437.835	107.81
438.057	114.81
438.278	111.81
438.5	100.81
438.721	116.81
438.943	85.81
439.165	94.81
439.386	72.81
439.608	105.81
439.829	95.81
440.05	119.81
440.272	140.81
440.493	84.81
440.715	107.81
440.936	81.81
441.158	80.81
441.379	79.81
441.6	95.81
441.822	112.81
442.043	83.81
442.264	102.81
442.486	97.81
442.707	80.81
442.928	106.81
443.149	115.81
443.371	116.81
443.592	83.81
443.813	101.81
444.034	98.81
444.255	107.81
444.476	93.81
444.698	89.81
444.919	97.81
445.14	123.81
445.361	113.81
445.582	98.81
445.803	117.81
446.024	132.81
446.245	128.81
446.466	117.81
446.687	100.81
446.908	89.81
447.129	81.81
447.35	82.81
447.571	76.81
447.792	97.81
448.013	108.81
448.234	97.81
448.455	98.81
448.675	106.81
448.896	102.81
449.117	104.81
449.338	103.81
449.559	128.81
449.779	112.81
450	93.81
450.221	100.81
450.442	83.81
450.662	87.81
450.883	88.81
451.104	92.81
451.324	87.81
451.545	98.81
451.766	96.81
451.986	77.81
452.207	81.81
452.428	89.81
452.648	86.81
452.869	99.81
453.089	121.81
453.31	114.81
453.53	87.81
453.751	82.81
453.971	86.81
454.192	105.81
454.412	89.81
454.633	77.81
454.853	86.81
455.073	73.81
455.294	96.81
455.514	99.81
455.734	90.81
455.955	83.81
456.175	82.81
456.395	93.81
456.616	78.81
456.836	64.81
457.056	94.81
457.276	82.81
457.497	101.81
457.717	73.81
457.937	73.81
458.157	84.81
458.377	98.81
458.598	100.81
458.818	130.81
459.038	130.81
459.258	103.81
459.478	94.81
459.698	90.81
459.918	80.81
460.138	86.81
460.358	96.81
460.578	88.81
460.798	92.81
461.018	93.81
461.238	87.81
461.458	80.81
461.678	90.81
461.898	74.81
462.118	88.81
462.338	82.81
462.558	92.81
462.777	85.81
462.997	95.81
463.217	72.81
463.437	78.81
463.657	88.81
463.876	79.81
464.096	79.81
464.316	80.81
464.536	87.81
464.755	97.81
464.975	96.81
465.195	147.81
465.414	142.81
465.634	88.81
465.854	89.81
466.073	92.81
466.293	87.81
466.512	97.81
466.732	78.81
466.951	89.81
467.171	94.81
467.391	87.81
467.61	111.81
467.829	95.81
468.049	87.81
468.268	84.81
468.488	86.81
468.707	99.81
468.927	91.81
469.146	86.81
469.365	85.81
469.585	92.81
469.804	91.81
470.023	102.81
470.243	73.81
470.462	85.81
470.681	107.81
470.901	86.81
471.12	94.81
471.339	82.81
471.558	87.81
471.777	81.81
471.997	65.81
472.216	80.81
472.435	90.81
472.654	76.81
472.873	88.81
473.092	97.81
473.311	84.81
473.53	93.81
473.749	87.81
473.968	99.81
474.187	109.81
474.406	95.81
474.625	91.81
474.844	79.81
475.063	86.81
475.282	86.81
475.501	83.81
475.72	88.81
475.939	85.81
476.158	91.81
476.377	82.81
476.596	88.81
476.814	93.81
477.033	90.81
477.252	88.81
477.471	91.81
477.69	89.81
477.908	86.81
478.127	75.81
478.346	88.81
478.564	96.81
478.783	92.81
479.002	95.81
479.22	89.81
479.439	107.81
479.658	96.81
479.876	95.81
480.095	91.81
480.313	82.81
480.532	96.81
480.751	87.81
480.969	99.81
481.188	109.81
481.406	107.81
481.624	94.81
481.843	84.81
482.061	74.81
482.28	85.81
482.498	96.81
482.717	96.81
482.935	83.81
483.153	91.81
483.372	81.81
483.59	82.81
483.808	86.81
484.027	86.81
484.245	95.81
484.463	80.81
484.681	90.81
484.9	88.81
485.118	95.81
485.336	96.81
485.554	95.81
485.772	101.81
485.99	88.81
486.209	98.81
486.427	91.81
486.645	118.81
486.863	110.81
487.081	99.81
487.299	100.81
487.517	96.81
487.735	96.81
487.953	97.81
488.171	88.81
488.389	94.81
488.607	88.81
488.825	104.81
489.043	93.81
489.261	99.81
489.479	92.81
489.696	99.81
489.914	91.81
490.132	89.81
490.35	99.81
490.568	83.81
490.786	67.81
491.003	86.81
491.221	89.81
491.439	80.81
491.657	102.81
491.874	86.81
492.092	85.81
492.31	100.81
492.527	93.81
492.745	114.81
492.963	100.81
493.18	87.81
493.398	111.81
493.615	96.81
493.833	87.81
494.05	107.81
494.268	80.81
494.485	92.81
494.703	95.81
494.92	89.81
495.138	91.81
495.355	97.81
495.573	94.81
495.79	91.81
496.008	84.81
496.225	80.81
496.442	91.81
496.66	86.81
496.877	78.81
497.094	96.81
497.312	96.81
497.529	82.81
497.746	90.81
497.963	92.81
498.181	92.81
498.398	97.81
498.615	111.81
498.832	92.81
499.049	86.81
499.267	81.81
499.484	89.81
499.701	88.81
499.918	98.81
500.135	77.81
500.352	82.81
500.569	101.81
500.786	106.81
501.003	91.81
501.22	78.81
501.437	86.81
501.654	100.81
501.871	98.81
502.088	90.81
502.305	105.81
502.522	91.81
502.739	95.81
502.956	73.81
503.172	82.81
503.389	92.81
503.606	103.81
503.823	94.81
504.04	88.81
504.256	99.81
504.473	78.81
504.69	84.81
504.907	86.81
505.123	95.81
505.34	90.81
505.557	78.81
505.773	87.81
505.99	89.81
506.207	97.81
506.423	88.81
506.64	99.81
506.856	96.81
507.073	89.81
507.289	101.81
507.506	100.81
507.722	102.81
507.939	95.81
508.155	87.81
508.372	101.81
508.588	98.81
508.805	95.81
509.021	91.81
509.238	98.81
509.454	101.81
509.67	95.81
509.887	102.81
510.103	142.81
510.319	199.81
510.536	643.81
510.752	2118.81
510.968	606.81
511.184	151.81
511.401	85.81
511.617	90.81
511.833	98.81
512.049	82.81
512.265	113.81
512.481	94.81
512.698	95.81
512.914	96.81
513.13	93.81
513.346	78.81
513.562	94.81
513.778	76.81
513.994	110.81
514.21	108.81
514.426	110.81
514.642	137.81
514.858	118.81
515.074	146.81
515.29	390.81
515.506	1267.81
515.721	477.81
515.937	139.81
