Data from Uncirc_2002_H10_HRD10591_00014.txt Node
Date: Wed Jan 03 10:39:44 EST 2024
User: Yrep
Spectrometer: HR+D1059
Trigger mode: 1
Integration Time (sec): 1.000000E-1
Scans to average: 1
Electric dark correction enabled: true
Nonlinearity correction enabled: false
Boxcar width: 0
XAxis mode: Wavelengths
Number of Pixels in Spectrum: 2048
>>>>>Begin Spectral Data<<<<<
223.165	-26.5
223.4	-26.5
223.635	-26.5
223.869	-13.5
224.104	-17.5
224.338	1.5
224.573	-13.5
224.808	-8.5
225.042	-15.5
225.277	-1.5
225.511	6.5
225.746	-9.5
225.98	-1.5
226.215	8.5
226.449	8.5
226.683	21.5
226.918	27.5
227.152	33.5
227.387	37.5
227.621	50.5
227.856	44.5
228.09	36.5
228.324	41.5
228.559	47.5
228.793	159.5
229.027	414.5
229.262	501.5
229.496	590.5
229.73	758.5
229.964	772.5
230.199	533.5
230.433	455.5
230.667	444.5
230.901	435.5
231.136	423.5
231.37	428.5
231.604	429.5
231.838	440.5
232.072	441.5
232.306	459.5
232.541	452.5
232.775	437.5
233.009	460.5
233.243	454.5
233.477	461.5
233.711	456.5
233.945	483.5
234.179	500.5
234.413	498.5
234.647	473.5
234.881	493.5
235.115	515.5
235.349	538.5
235.583	513.5
235.817	560.5
236.051	588.5
236.285	564.5
236.519	592.5
236.753	674.5
236.987	824.5
237.221	1305.5
237.455	1445.5
237.689	836.5
237.922	712.5
238.156	673.5
238.39	616.5
238.624	623.5
238.858	608.5
239.091	615.5
239.325	624.5
239.559	660.5
239.793	679.5
240.027	738.5
240.26	894.5
240.494	879.5
240.728	881.5
240.961	845.5
241.195	758.5
241.429	773.5
241.662	754.5
241.896	705.5
242.13	766.5
242.363	744.5
242.597	743.5
242.83	795.5
243.064	796.5
243.298	769.5
243.531	778.5
243.765	789.5
243.998	834.5
244.232	831.5
244.465	840.5
244.699	867.5
244.932	835.5
245.166	880.5
245.399	873.5
245.633	844.5
245.866	856.5
246.099	882.5
246.333	903.5
246.566	910.5
246.8	931.5
247.033	954.5
247.266	1020.5
247.5	1032.5
247.733	1102.5
247.966	1113.5
248.2	1097.5
248.433	1097.5
248.666	1158.5
248.899	1242.5
249.133	1383.5
249.366	1364.5
249.599	1212.5
249.832	1172.5
250.066	1159.5
250.299	1179.5
250.532	1247.5
250.765	1433.5
250.998	1625.5
251.231	1540.5
251.465	1393.5
251.698	1354.5
251.931	1286.5
252.164	1338.5
252.397	1391.5
252.63	1394.5
252.863	1478.5
253.096	1593.5
253.329	1631.5
253.562	1580.5
253.795	1512.5
254.028	1498.5
254.261	1534.5
254.494	1723.5
254.727	2006.5
254.96	2080.5
255.193	1853.5
255.426	1648.5
255.659	1532.5
255.892	1468.5
256.124	1495.5
256.357	1488.5
256.59	1443.5
256.823	1412.5
257.056	1418.5
257.289	1473.5
257.521	1494.5
257.754	1492.5
257.987	1437.5
258.22	1430.5
258.452	1464.5
258.685	1516.5
258.918	1512.5
259.151	1556.5
259.383	1639.5
259.616	1635.5
259.849	1673.5
260.081	1878.5
260.314	2039.5
260.547	1918.5
260.779	1763.5
261.012	1706.5
261.244	1645.5
261.477	1607.5
261.71	1590.5
261.942	1684.5
262.175	1699.5
262.407	1638.5
262.64	1555.5
262.872	1602.5
263.105	1572.5
263.337	1580.5
263.57	1579.5
263.802	1628.5
264.035	1600.5
264.267	1604.5
264.499	1608.5
264.732	1645.5
264.964	1655.5
265.197	1631.5
265.429	1669.5
265.661	1648.5
265.894	1647.5
266.126	1655.5
266.358	1708.5
266.591	1708.5
266.823	1816.5
267.055	1791.5
267.287	1779.5
267.52	1797.5
267.752	1799.5
267.984	1764.5
268.216	1822.5
268.448	1843.5
268.681	1916.5
268.913	2017.5
269.145	2271.5
269.377	2304.5
269.609	2205.5
269.841	2170.5
270.073	2296.5
270.306	2528.5
270.538	2704.5
270.77	2577.5
271.002	2383.5
271.234	2364.5
271.466	2492.5
271.698	2609.5
271.93	2648.5
272.162	2657.5
272.394	2536.5
272.626	2417.5
272.858	2238.5
273.09	2202.5
273.322	2218.5
273.553	2159.5
273.785	2155.5
274.017	2151.5
274.249	2177.5
274.481	2164.5
274.713	2169.5
274.945	2200.5
275.176	2181.5
275.408	2211.5
275.64	2167.5
275.872	2111.5
276.104	2165.5
276.335	2227.5
276.567	2288.5
276.799	2435.5
277.031	2700.5
277.262	2809.5
277.494	2606.5
277.726	2505.5
277.957	2424.5
278.189	2345.5
278.421	2316.5
278.652	2277.5
278.884	2326.5
279.115	2263.5
279.347	2314.5
279.579	2303.5
279.81	2296.5
280.042	2292.5
280.273	2310.5
280.505	2297.5
280.736	2310.5
280.968	2358.5
281.199	2328.5
281.431	2364.5
281.662	2359.5
281.894	2374.5
282.125	2421.5
282.356	2592.5
282.588	2702.5
282.819	2605.5
283.051	2469.5
283.282	2460.5
283.513	2501.5
283.745	2519.5
283.976	2572.5
284.207	2601.5
284.439	2557.5
284.67	2521.5
284.901	2547.5
285.132	2533.5
285.364	2561.5
285.595	2590.5
285.826	2565.5
286.057	2610.5
286.288	2613.5
286.52	2608.5
286.751	2576.5
286.982	2600.5
287.213	2634.5
287.444	2697.5
287.675	2713.5
287.906	2781.5
288.138	2856.5
288.369	2794.5
288.6	2807.5
288.831	2825.5
289.062	2732.5
289.293	2727.5
289.524	2689.5
289.755	2732.5
289.986	2757.5
290.217	2752.5
290.448	2704.5
290.679	2684.5
290.91	2688.5
291.141	2701.5
291.371	2708.5
291.602	2735.5
291.833	2718.5
292.064	2740.5
292.295	2756.5
292.526	2773.5
292.757	2776.5
292.987	2726.5
293.218	2719.5
293.449	2814.5
293.68	2776.5
293.91	2759.5
294.141	2736.5
294.372	2728.5
294.603	2753.5
294.833	2813.5
295.064	2800.5
295.295	2798.5
295.525	2818.5
295.756	2850.5
295.987	2904.5
296.217	3070.5
296.448	3004.5
296.679	2852.5
296.909	2905.5
297.14	2920.5
297.37	2919.5
297.601	2935.5
297.831	2963.5
298.062	2946.5
298.292	3017.5
298.523	3065.5
298.753	3020.5
298.984	3050.5
299.214	2993.5
299.445	3003.5
299.675	2992.5
299.905	3099.5
300.136	3036.5
300.366	3073.5
300.597	3065.5
300.827	3199.5
301.057	3201.5
301.288	3294.5
301.518	3170.5
301.748	3283.5
301.979	3323.5
302.209	3280.5
302.439	3240.5
302.669	3269.5
302.9	3275.5
303.13	3183.5
303.36	3255.5
303.59	3262.5
303.82	3253.5
304.051	3265.5
304.281	3248.5
304.511	3222.5
304.741	3204.5
304.971	3236.5
305.201	3231.5
305.431	3175.5
305.661	3231.5
305.891	3167.5
306.121	3213.5
306.352	3209.5
306.582	3229.5
306.812	3175.5
307.042	3217.5
307.272	3195.5
307.502	3198.5
307.731	3243.5
307.961	3181.5
308.191	3188.5
308.421	3231.5
308.651	3260.5
308.881	3164.5
309.111	3224.5
309.341	3290.5
309.571	3342.5
309.8	3375.5
310.03	3471.5
310.26	3468.5
310.49	3469.5
310.72	3569.5
310.949	3693.5
311.179	3615.5
311.409	3508.5
311.639	3541.5
311.868	3562.5
312.098	3623.5
312.328	3663.5
312.557	3793.5
312.787	3851.5
313.017	3799.5
313.246	3694.5
313.476	3676.5
313.706	3689.5
313.935	3775.5
314.165	3813.5
314.394	3851.5
314.624	3843.5
314.853	3637.5
315.083	3658.5
315.312	3618.5
315.542	3610.5
315.771	3607.5
316.001	3590.5
316.23	3564.5
316.46	3601.5
316.689	3606.5
316.919	3605.5
317.148	3717.5
317.377	3683.5
317.607	3625.5
317.836	3653.5
318.065	3588.5
318.295	3621.5
318.524	3588.5
318.753	3528.5
318.983	3583.5
319.212	3568.5
319.441	3610.5
319.67	3655.5
319.9	3530.5
320.129	3628.5
320.358	3652.5
320.587	3599.5
320.816	3653.5
321.046	3738.5
321.275	3711.5
321.504	3705.5
321.733	3757.5
321.962	3808.5
322.191	3857.5
322.42	3905.5
322.649	4053.5
322.878	4081.5
323.108	4175.5
323.337	4354.5
323.566	4565.5
323.795	4815.5
324.024	5344.5
324.253	6948.5
324.482	10280.5
324.71	14773.5
324.939	15610.5
325.168	12109.5
325.397	6190.5
325.626	4990.5
325.855	4670.5
326.084	4579.5
326.313	4639.5
326.542	4766.5
326.77	5292.5
326.999	6669.5
327.228	9653.5
327.457	13858.5
327.686	13194.5
327.914	7006.5
328.143	5510.5
328.372	5187.5
328.6	5038.5
328.829	4982.5
329.058	5137.5
329.287	5158.5
329.515	4736.5
329.744	4611.5
329.972	4638.5
330.201	4690.5
330.43	4922.5
330.658	5215.5
330.887	5545.5
331.115	5171.5
331.344	4805.5
331.572	4765.5
331.801	4829.5
332.03	4894.5
332.258	4798.5
332.486	4877.5
332.715	4954.5
332.943	5069.5
333.172	5198.5
333.4	5339.5
333.629	5422.5
333.857	5474.5
334.085	5338.5
334.314	5324.5
334.542	5277.5
334.771	5261.5
334.999	5132.5
335.227	5109.5
335.455	5026.5
335.684	4956.5
335.912	4905.5
336.14	4776.5
336.369	4825.5
336.597	4917.5
336.825	4889.5
337.053	4808.5
337.281	4657.5
337.51	4590.5
337.738	4650.5
337.966	4624.5
338.194	4624.5
338.422	4515.5
338.65	4414.5
338.878	4490.5
339.106	4466.5
339.334	4473.5
339.562	4382.5
339.79	4262.5
340.018	4317.5
340.246	4321.5
340.474	4371.5
340.702	4304.5
340.93	4306.5
341.158	4350.5
341.386	4320.5
341.614	4322.5
341.842	4277.5
342.07	4209.5
342.298	4179.5
342.526	4234.5
342.754	4212.5
342.981	4215.5
343.209	4318.5
343.437	4620.5
343.665	4897.5
343.893	5104.5
344.12	5156.5
344.348	4898.5
344.576	4691.5
344.804	4598.5
345.031	4512.5
345.259	4485.5
345.487	4391.5
345.714	4296.5
345.942	4151.5
346.17	4196.5
346.397	4153.5
346.625	4120.5
346.853	4137.5
347.08	4080.5
347.308	4162.5
347.535	4160.5
347.763	4195.5
347.99	4168.5
348.218	4229.5
348.445	4252.5
348.673	4178.5
348.9	4128.5
349.128	4000.5
349.355	4006.5
349.583	3972.5
349.81	3978.5
350.037	3958.5
350.265	3925.5
350.492	3936.5
350.72	4011.5
350.947	4017.5
351.174	4030.5
351.402	4069.5
351.629	4049.5
351.856	4130.5
352.083	4116.5
352.311	4162.5
352.538	4184.5
352.765	4102.5
352.992	4011.5
353.22	4057.5
353.447	4023.5
353.674	3926.5
353.901	3832.5
354.128	3866.5
354.355	3875.5
354.583	3848.5
354.81	3913.5
355.037	3818.5
355.264	3794.5
355.491	3872.5
355.718	3884.5
355.945	3875.5
356.172	3890.5
356.399	3902.5
356.626	3863.5
356.853	3938.5
357.08	3850.5
357.307	3859.5
357.534	3873.5
357.761	3878.5
357.988	3869.5
358.215	3907.5
358.441	3918.5
358.668	3926.5
358.895	3964.5
359.122	3999.5
359.349	4045.5
359.576	4156.5
359.802	4409.5
360.029	4429.5
360.256	4461.5
360.483	4239.5
360.709	4077.5
360.936	4133.5
361.163	4075.5
361.39	4153.5
361.616	4110.5
361.843	4058.5
362.07	4146.5
362.296	4142.5
362.523	4055.5
362.749	4061.5
362.976	4021.5
363.203	3946.5
363.429	3906.5
363.656	3993.5
363.882	3997.5
364.109	3971.5
364.335	3927.5
364.562	4005.5
364.788	3972.5
365.015	3970.5
365.241	4015.5
365.468	3982.5
365.694	4020.5
365.92	4040.5
366.147	3949.5
366.373	3997.5
366.599	3930.5
366.826	3894.5
367.052	3941.5
367.278	4004.5
367.505	4050.5
367.731	4023.5
367.957	3989.5
368.184	4065.5
368.41	4093.5
368.636	4122.5
368.862	4174.5
369.089	4069.5
369.315	4072.5
369.541	4066.5
369.767	4114.5
369.993	4079.5
370.219	4048.5
370.445	4125.5
370.672	4115.5
370.898	4143.5
371.124	4182.5
371.35	4218.5
371.576	4225.5
371.802	4245.5
372.028	4186.5
372.254	4261.5
372.48	4266.5
372.706	4326.5
372.932	4369.5
373.158	4372.5
373.384	4306.5
373.61	4232.5
373.835	4320.5
374.061	4320.5
374.287	4386.5
374.513	4416.5
374.739	4583.5
374.965	4709.5
375.191	4669.5
375.416	4576.5
375.642	4466.5
375.868	4407.5
376.094	4338.5
376.319	4328.5
376.545	4287.5
376.771	4289.5
376.997	4257.5
377.222	4295.5
377.448	4285.5
377.674	4178.5
377.899	4208.5
378.125	4228.5
378.35	4178.5
378.576	4198.5
378.802	4169.5
379.027	4201.5
379.253	4209.5
379.478	4180.5
379.704	4240.5
379.929	4176.5
380.155	4256.5
380.38	4251.5
380.606	4250.5
380.831	4248.5
381.057	4327.5
381.282	4319.5
381.507	4305.5
381.733	4344.5
381.958	4388.5
382.184	4472.5
382.409	4472.5
382.634	4497.5
382.86	4497.5
383.085	4554.5
383.31	4633.5
383.535	4647.5
383.761	4682.5
383.986	4803.5
384.211	4828.5
384.436	4954.5
384.662	5023.5
384.887	5145.5
385.112	5072.5
385.337	5143.5
385.562	5165.5
385.787	5160.5
386.013	5210.5
386.238	5221.5
386.463	5180.5
386.688	5217.5
386.913	5138.5
387.138	5097.5
387.363	5109.5
387.588	5037.5
387.813	5066.5
388.038	5028.5
388.263	5046.5
388.488	5062.5
388.713	5056.5
388.938	5059.5
389.163	4976.5
389.387	5049.5
389.612	4960.5
389.837	5004.5
390.062	5015.5
390.287	5004.5
390.512	4975.5
390.736	5113.5
390.961	5129.5
391.186	5271.5
391.411	5423.5
391.636	5542.5
391.86	5651.5
392.085	5730.5
392.31	5644.5
392.534	5494.5
392.759	5357.5
392.984	5348.5
393.208	5369.5
393.433	5378.5
393.658	5343.5
393.882	5335.5
394.107	5345.5
394.331	5390.5
394.556	5319.5
394.78	5423.5
395.005	5394.5
395.229	5512.5
395.454	5697.5
395.678	5740.5
395.903	5709.5
396.127	5783.5
396.352	5571.5
396.576	5412.5
396.801	5415.5
397.025	5585.5
397.249	5664.5
397.474	5752.5
397.698	5767.5
397.922	5910.5
398.147	5958.5
398.371	6089.5
398.595	6260.5
398.82	6507.5
399.044	7067.5
399.268	7774.5
399.492	8898.5
399.717	9551.5
399.941	9203.5
400.165	8684.5
400.389	7936.5
400.613	7100.5
400.837	6732.5
401.062	6617.5
401.286	6507.5
401.51	6352.5
401.734	6369.5
401.958	6557.5
402.182	6608.5
402.406	6718.5
402.63	6821.5
402.854	6881.5
403.078	6997.5
403.302	7199.5
403.526	7270.5
403.75	7239.5
403.974	7431.5
404.198	7365.5
404.422	7439.5
404.645	7340.5
404.869	7168.5
405.093	7358.5
405.317	7389.5
405.541	7536.5
405.765	7159.5
405.988	7118.5
406.212	7288.5
406.436	7404.5
406.66	7575.5
406.883	7568.5
407.107	8212.5
407.331	8736.5
407.555	9176.5
407.778	8958.5
408.002	8201.5
408.226	7813.5
408.449	7616.5
408.673	7564.5
408.896	7756.5
409.12	7817.5
409.344	7491.5
409.567	7123.5
409.791	7025.5
410.014	7001.5
410.238	6839.5
410.461	6946.5
410.685	6925.5
410.908	7031.5
411.132	7264.5
411.355	7226.5
411.578	6909.5
411.802	6653.5
412.025	6624.5
412.249	6733.5
412.472	6756.5
412.695	6702.5
412.919	6386.5
413.142	6388.5
413.365	6283.5
413.589	6328.5
413.812	6269.5
414.035	6210.5
414.258	6224.5
414.482	6336.5
414.705	6312.5
414.928	6320.5
415.151	6335.5
415.374	6338.5
415.597	6236.5
415.821	6148.5
416.044	6224.5
416.267	6184.5
416.49	6101.5
416.713	6121.5
416.936	6248.5
417.159	6235.5
417.382	6280.5
417.605	6248.5
417.828	6380.5
418.051	6565.5
418.274	6438.5
418.497	6315.5
418.72	6405.5
418.943	6405.5
419.166	6724.5
419.389	7151.5
419.611	7030.5
419.834	6788.5
420.057	6612.5
420.28	6451.5
420.503	6354.5
420.726	6383.5
420.948	6537.5
421.171	6941.5
421.394	6902.5
421.617	6438.5
421.839	6400.5
422.062	6484.5
422.285	6748.5
422.507	7323.5
422.73	7848.5
422.953	7177.5
423.175	6895.5
423.398	6923.5
423.621	6912.5
423.843	7180.5
424.066	7038.5
424.288	6972.5
424.511	7269.5
424.733	7690.5
424.956	8012.5
425.178	7578.5
425.401	7795.5
425.623	7590.5
425.846	6645.5
426.068	6513.5
426.291	6384.5
426.513	6436.5
426.735	6505.5
426.958	7001.5
427.18	7712.5
427.402	8792.5
427.625	8844.5
427.847	7458.5
428.069	6584.5
428.292	6329.5
428.514	6040.5
428.736	5871.5
428.958	5964.5
429.181	5696.5
429.403	5648.5
429.625	5857.5
429.847	6202.5
430.069	6695.5
430.292	6252.5
430.514	5678.5
430.736	5785.5
430.958	5627.5
431.18	5619.5
431.402	5566.5
431.624	5550.5
431.846	5647.5
432.068	5661.5
432.29	5794.5
432.512	5638.5
432.734	5765.5
432.956	5664.5
433.178	5746.5
433.4	5756.5
433.622	5620.5
433.844	5648.5
434.066	5695.5
434.287	5774.5
434.509	6081.5
434.731	6238.5
434.953	6453.5
435.175	6501.5
435.397	6569.5
435.618	6472.5
435.84	6813.5
436.062	7681.5
436.284	7604.5
436.505	6386.5
436.727	6100.5
436.949	5953.5
437.17	5764.5
437.392	5709.5
437.614	5883.5
437.835	6214.5
438.057	7188.5
438.278	7759.5
438.5	7724.5
438.721	8477.5
438.943	7414.5
439.165	6278.5
439.386	6174.5
439.608	6145.5
439.829	6340.5
440.05	6677.5
440.272	6927.5
440.493	6389.5
440.715	6134.5
440.936	6015.5
441.158	6023.5
441.379	6197.5
441.6	6532.5
441.822	6695.5
442.043	7165.5
442.264	7892.5
442.486	7527.5
442.707	6744.5
442.928	6670.5
443.149	6873.5
443.371	6921.5
443.592	7588.5
443.813	8470.5
444.034	8512.5
444.255	7412.5
444.476	7217.5
444.698	7413.5
444.919	7520.5
445.14	7287.5
445.361	7107.5
445.582	7282.5
445.803	7854.5
446.024	8458.5
446.245	8171.5
446.466	7374.5
446.687	6369.5
446.908	6062.5
447.129	5767.5
447.35	5586.5
447.571	5578.5
447.792	5477.5
448.013	5484.5
448.234	5831.5
448.455	6494.5
448.675	7582.5
448.896	8058.5
449.117	6560.5
449.338	6775.5
449.559	7970.5
449.779	8177.5
450	6377.5
450.221	5709.5
450.442	5403.5
450.662	5384.5
450.883	5400.5
451.104	5484.5
451.324	5330.5
451.545	5210.5
451.766	5135.5
451.986	5028.5
452.207	5003.5
452.428	4968.5
452.648	5068.5
452.869	4988.5
453.089	5049.5
453.31	5199.5
453.53	5031.5
453.751	4936.5
453.971	4983.5
454.192	5114.5
454.412	4870.5
454.633	4855.5
454.853	4849.5
455.073	4887.5
455.294	5250.5
455.514	5762.5
455.734	5294.5
455.955	4710.5
456.175	4630.5
456.395	4572.5
456.616	4592.5
456.836	4584.5
457.056	4571.5
457.276	4499.5
457.497	4687.5
457.717	4660.5
457.937	4725.5
458.157	4800.5
458.377	4894.5
458.598	5275.5
458.818	5858.5
459.038	6657.5
459.258	6577.5
459.478	5800.5
459.698	5718.5
459.918	5834.5
460.138	5983.5
460.358	6193.5
460.578	6311.5
460.798	6262.5
461.018	6326.5
461.238	6174.5
461.458	6208.5
461.678	6159.5
461.898	6275.5
462.118	6332.5
462.338	6655.5
462.558	6797.5
462.777	7092.5
462.997	7680.5
463.217	8132.5
463.437	7895.5
463.657	7312.5
463.876	7106.5
464.096	7082.5
464.316	7113.5
464.536	7170.5
464.755	6915.5
464.975	6869.5
465.195	6940.5
465.414	6887.5
465.634	6172.5
465.854	5790.5
466.073	5615.5
466.293	5469.5
466.512	5273.5
466.732	5172.5
466.951	5211.5
467.171	5216.5
467.391	5237.5
467.61	5315.5
467.829	5288.5
468.049	5143.5
468.268	4988.5
468.488	4874.5
468.707	4913.5
468.927	4960.5
469.146	5009.5
469.365	5010.5
469.585	4969.5
469.804	5216.5
470.023	5421.5
470.243	5349.5
470.462	5454.5
470.681	5540.5
470.901	5408.5
471.12	5359.5
471.339	5280.5
471.558	5215.5
471.777	5122.5
471.997	5023.5
472.216	5013.5
472.435	4982.5
472.654	4887.5
472.873	4910.5
473.092	4872.5
473.311	4887.5
473.53	4924.5
473.749	5049.5
473.968	5533.5
474.187	6506.5
474.406	6150.5
474.625	5250.5
474.844	4951.5
475.063	4958.5
475.282	5005.5
475.501	5024.5
475.72	4981.5
475.939	5076.5
476.158	5106.5
476.377	5164.5
476.596	5093.5
476.814	5265.5
477.033	5393.5
477.252	5429.5
477.471	5458.5
477.69	5572.5
477.908	5735.5
478.127	5791.5
478.346	5895.5
478.564	5961.5
478.783	6147.5
479.002	6119.5
479.22	6224.5
479.439	6336.5
479.658	6367.5
479.876	6501.5
480.095	6754.5
480.313	7144.5
480.532	6925.5
480.751	6802.5
480.969	6687.5
481.188	6583.5
481.406	6361.5
481.624	6145.5
481.843	5962.5
482.061	5938.5
482.28	5964.5
482.498	5748.5
482.717	5868.5
482.935	5785.5
483.153	5790.5
483.372	5816.5
483.59	5750.5
483.808	5799.5
484.027	5784.5
484.245	5850.5
484.463	5891.5
484.681	5960.5
484.9	5939.5
485.118	6044.5
485.336	6054.5
485.554	6114.5
485.772	6164.5
485.99	6201.5
486.209	6184.5
486.427	6200.5
486.645	6244.5
486.863	6355.5
487.081	6307.5
487.299	6257.5
487.517	6224.5
487.735	6193.5
487.953	6192.5
488.171	6223.5
488.389	6164.5
488.607	6161.5
488.825	6182.5
489.043	6260.5
489.261	6280.5
489.479	6296.5
489.696	6325.5
489.914	6351.5
490.132	6403.5
490.35	6482.5
490.568	6493.5
490.786	6655.5
491.003	6697.5
491.221	6862.5
491.439	6904.5
491.657	6959.5
491.874	7078.5
492.092	6976.5
492.31	7006.5
492.527	7040.5
492.745	7060.5
492.963	7143.5
493.18	7142.5
493.398	7260.5
493.615	7383.5
493.833	7388.5
494.05	7353.5
494.268	7391.5
494.485	7395.5
494.703	7346.5
494.92	7367.5
495.138	7318.5
495.355	7311.5
495.573	7373.5
495.79	7374.5
496.008	7404.5
496.225	7348.5
496.442	7493.5
496.66	7484.5
496.877	7456.5
497.094	7577.5
497.312	7803.5
497.529	7972.5
497.746	8193.5
497.963	8436.5
498.181	8784.5
498.398	9046.5
498.615	9433.5
498.832	9889.5
499.049	10336.5
499.267	11095.5
499.484	11800.5
499.701	12645.5
499.918	13407.5
500.135	14222.5
500.352	14841.5
500.569	14950.5
500.786	14740.5
501.003	14298.5
501.22	13705.5
501.437	12902.5
501.654	12052.5
501.871	11426.5
502.088	10738.5
502.305	10015.5
502.522	9632.5
502.739	9283.5
502.956	8751.5
503.172	8545.5
503.389	8316.5
503.606	8089.5
