Data from Uncirc_2002_H10_HRD10591_00100.txt Node
Date: Wed Jan 03 10:40:01 EST 2024
User: Yrep
Spectrometer: HR+D1059
Trigger mode: 1
Integration Time (sec): 1.000000E-1
Scans to average: 1
Electric dark correction enabled: true
Nonlinearity correction enabled: false
Boxcar width: 0
XAxis mode: Wavelengths
Number of Pixels in Spectrum: 2048
>>>>>Begin Spectral Data<<<<<
223.165	-26.31
223.4	-26.31
223.635	-26.31
223.869	-17.31
224.104	-13.31
224.338	-20.31
224.573	-10.31
224.808	-4.31
225.042	-12.31
225.277	-4.31
225.511	-7.31
225.746	5.69
225.98	14.69
226.215	14.69
226.449	4.69
226.683	22.69
226.918	19.69
227.152	33.69
227.387	36.69
227.621	33.69
227.856	53.69
228.09	44.69
228.324	57.69
228.559	59.69
228.793	51.69
229.027	54.69
229.262	62.69
229.496	68.69
229.73	85.69
229.964	70.69
230.199	74.69
230.433	65.69
230.667	59.69
230.901	78.69
231.136	78.69
231.37	78.69
231.604	74.69
231.838	88.69
232.072	79.69
232.306	75.69
232.541	84.69
232.775	85.69
233.009	87.69
233.243	89.69
233.477	71.69
233.711	84.69
233.945	84.69
234.179	77.69
234.413	78.69
234.647	66.69
234.881	88.69
235.115	69.69
235.349	51.69
235.583	79.69
235.817	75.69
236.051	71.69
236.285	82.69
236.519	88.69
236.753	91.69
236.987	71.69
237.221	66.69
237.455	80.69
237.689	75.69
237.922	73.69
238.156	88.69
238.39	77.69
238.624	79.69
238.858	84.69
239.091	86.69
239.325	70.69
239.559	82.69
239.793	89.69
240.027	63.69
240.26	86.69
240.494	74.69
240.728	81.69
240.961	75.69
241.195	79.69
241.429	77.69
241.662	78.69
241.896	85.69
242.13	78.69
242.363	71.69
242.597	88.69
242.83	79.69
243.064	74.69
243.298	74.69
243.531	61.69
243.765	87.69
243.998	74.69
244.232	87.69
244.465	71.69
244.699	75.69
244.932	63.69
245.166	68.69
245.399	81.69
245.633	76.69
245.866	75.69
246.099	64.69
246.333	71.69
246.566	80.69
246.8	79.69
247.033	91.69
247.266	85.69
247.5	83.69
247.733	73.69
247.966	83.69
248.2	92.69
248.433	81.69
248.666	80.69
248.899	87.69
249.133	81.69
249.366	92.69
249.599	98.69
249.832	99.69
250.066	87.69
250.299	90.69
250.532	74.69
250.765	77.69
250.998	83.69
251.231	70.69
251.465	70.69
251.698	91.69
251.931	74.69
252.164	78.69
252.397	80.69
252.63	88.69
252.863	69.69
253.096	101.69
253.329	75.69
253.562	91.69
253.795	74.69
254.028	80.69
254.261	81.69
254.494	74.69
254.727	86.69
254.96	87.69
255.193	87.69
255.426	86.69
255.659	75.69
255.892	81.69
256.124	86.69
256.357	96.69
256.59	92.69
256.823	82.69
257.056	78.69
257.289	85.69
257.521	84.69
257.754	78.69
257.987	89.69
258.22	75.69
258.452	76.69
258.685	80.69
258.918	80.69
259.151	83.69
259.383	78.69
259.616	88.69
259.849	80.69
260.081	81.69
260.314	74.69
260.547	76.69
260.779	68.69
261.012	84.69
261.244	82.69
261.477	85.69
261.71	94.69
261.942	116.69
262.175	99.69
262.407	94.69
262.64	80.69
262.872	75.69
263.105	84.69
263.337	81.69
263.57	89.69
263.802	85.69
264.035	78.69
264.267	81.69
264.499	74.69
264.732	87.69
264.964	75.69
265.197	90.69
265.429	76.69
265.661	76.69
265.894	83.69
266.126	84.69
266.358	89.69
266.591	97.69
266.823	84.69
267.055	72.69
267.287	98.69
267.52	84.69
267.752	71.69
267.984	88.69
268.216	87.69
268.448	68.69
268.681	105.69
268.913	74.69
269.145	85.69
269.377	99.69
269.609	83.69
269.841	70.69
270.073	77.69
270.306	83.69
270.538	88.69
270.77	87.69
271.002	95.69
271.234	91.69
271.466	91.69
271.698	102.69
271.93	71.69
272.162	84.69
272.394	59.69
272.626	89.69
272.858	89.69
273.09	80.69
273.322	96.69
273.553	92.69
273.785	97.69
274.017	91.69
274.249	97.69
274.481	78.69
274.713	91.69
274.945	73.69
275.176	88.69
275.408	91.69
275.64	82.69
275.872	79.69
276.104	85.69
276.335	83.69
276.567	99.69
276.799	101.69
277.031	97.69
277.262	98.69
277.494	80.69
277.726	87.69
277.957	88.69
278.189	81.69
278.421	90.69
278.652	83.69
278.884	85.69
279.115	82.69
279.347	81.69
279.579	100.69
279.81	80.69
280.042	72.69
280.273	94.69
280.505	81.69
280.736	86.69
280.968	96.69
281.199	79.69
281.431	81.69
281.662	90.69
281.894	96.69
282.125	90.69
282.356	109.69
282.588	141.69
282.819	97.69
283.051	83.69
283.282	86.69
283.513	91.69
283.745	87.69
283.976	71.69
284.207	81.69
284.439	80.69
284.67	89.69
284.901	91.69
285.132	91.69
285.364	93.69
285.595	86.69
285.826	95.69
286.057	89.69
286.288	102.69
286.52	80.69
286.751	96.69
286.982	87.69
287.213	84.69
287.444	92.69
287.675	97.69
287.906	74.69
288.138	78.69
288.369	87.69
288.6	90.69
288.831	91.69
289.062	71.69
289.293	88.69
289.524	87.69
289.755	93.69
289.986	80.69
290.217	82.69
290.448	81.69
290.679	91.69
290.91	94.69
291.141	76.69
291.371	86.69
291.602	81.69
291.833	79.69
292.064	84.69
292.295	88.69
292.526	86.69
292.757	85.69
292.987	81.69
293.218	94.69
293.449	98.69
293.68	98.69
293.91	63.69
294.141	100.69
294.372	80.69
294.603	82.69
294.833	94.69
295.064	94.69
295.295	83.69
295.525	81.69
295.756	97.69
295.987	104.69
296.217	136.69
296.448	121.69
296.679	84.69
296.909	89.69
297.14	92.69
297.37	95.69
297.601	88.69
297.831	89.69
298.062	93.69
298.292	89.69
298.523	90.69
298.753	95.69
298.984	90.69
299.214	80.69
299.445	85.69
299.675	86.69
299.905	69.69
300.136	92.69
300.366	83.69
300.597	92.69
300.827	81.69
301.057	100.69
301.288	102.69
301.518	86.69
301.748	68.69
301.979	102.69
302.209	86.69
302.439	70.69
302.669	91.69
302.9	89.69
303.13	76.69
303.36	101.69
303.59	93.69
303.82	111.69
304.051	95.69
304.281	104.69
304.511	95.69
304.741	88.69
304.971	76.69
305.201	82.69
305.431	96.69
305.661	81.69
305.891	102.69
306.121	91.69
306.352	96.69
306.582	101.69
306.812	80.69
307.042	89.69
307.272	82.69
307.502	90.69
307.731	87.69
307.961	86.69
308.191	104.69
308.421	90.69
308.651	80.69
308.881	103.69
309.111	91.69
309.341	85.69
309.571	103.69
309.8	80.69
310.03	96.69
310.26	106.69
310.49	88.69
310.72	94.69
310.949	95.69
311.179	102.69
311.409	100.69
311.639	101.69
311.868	88.69
312.098	82.69
312.328	94.69
312.557	98.69
312.787	107.69
313.017	94.69
313.246	99.69
313.476	100.69
313.706	90.69
313.935	96.69
314.165	96.69
314.394	102.69
314.624	99.69
314.853	92.69
315.083	87.69
315.312	85.69
315.542	92.69
315.771	82.69
316.001	94.69
316.23	87.69
316.46	91.69
316.689	84.69
316.919	100.69
317.148	95.69
317.377	97.69
317.607	107.69
317.836	97.69
318.065	101.69
318.295	91.69
318.524	83.69
318.753	80.69
318.983	93.69
319.212	106.69
319.441	114.69
319.67	123.69
319.9	99.69
320.129	92.69
320.358	82.69
320.587	103.69
320.816	102.69
321.046	101.69
321.275	95.69
321.504	91.69
321.733	96.69
321.962	94.69
322.191	92.69
322.42	103.69
322.649	95.69
322.878	86.69
323.108	113.69
323.337	103.69
323.566	116.69
323.795	137.69
324.024	183.69
324.253	370.69
324.482	780.69
324.71	1524.69
324.939	1990.69
325.168	747.69
325.397	242.69
325.626	150.69
325.855	130.69
326.084	114.69
326.313	128.69
326.542	156.69
326.77	219.69
326.999	435.69
327.228	869.69
327.457	1548.69
327.686	1217.69
327.914	336.69
328.143	174.69
328.372	146.69
328.6	126.69
328.829	116.69
329.058	114.69
329.287	129.69
329.515	102.69
329.744	92.69
329.972	91.69
330.201	96.69
330.43	107.69
330.658	125.69
330.887	121.69
331.115	112.69
331.344	107.69
331.572	97.69
331.801	100.69
332.03	91.69
332.258	80.69
332.486	105.69
332.715	104.69
332.943	94.69
333.172	93.69
333.4	100.69
333.629	82.69
333.857	107.69
334.085	110.69
334.314	90.69
334.542	91.69
334.771	111.69
334.999	96.69
335.227	92.69
335.455	95.69
335.684	85.69
335.912	97.69
336.14	102.69
336.369	98.69
336.597	99.69
336.825	87.69
337.053	85.69
337.281	90.69
337.51	99.69
337.738	104.69
337.966	84.69
338.194	100.69
338.422	102.69
338.65	92.69
338.878	84.69
339.106	91.69
339.334	98.69
339.562	86.69
339.79	103.69
340.018	74.69
340.246	87.69
340.474	91.69
340.702	102.69
340.93	79.69
341.158	98.69
341.386	87.69
341.614	95.69
341.842	104.69
342.07	90.69
342.298	92.69
342.526	93.69
342.754	85.69
342.981	91.69
343.209	91.69
343.437	91.69
343.665	83.69
343.893	83.69
344.12	99.69
344.348	86.69
344.576	102.69
344.804	90.69
345.031	93.69
345.259	100.69
345.487	86.69
345.714	96.69
345.942	95.69
346.17	91.69
346.397	87.69
346.625	101.69
346.853	87.69
347.08	79.69
347.308	100.69
347.535	86.69
347.763	81.69
347.99	98.69
348.218	100.69
348.445	102.69
348.673	104.69
348.9	103.69
349.128	89.69
349.355	84.69
349.583	90.69
349.81	87.69
350.037	101.69
350.265	87.69
350.492	106.69
350.72	94.69
350.947	103.69
351.174	99.69
351.402	111.69
351.629	90.69
351.856	85.69
352.083	89.69
352.311	105.69
352.538	114.69
352.765	97.69
352.992	124.69
353.22	101.69
353.447	105.69
353.674	106.69
353.901	101.69
354.128	99.69
354.355	96.69
354.583	89.69
354.81	99.69
355.037	100.69
355.264	98.69
355.491	103.69
355.718	76.69
355.945	88.69
356.172	94.69
356.399	83.69
356.626	87.69
356.853	78.69
357.08	90.69
357.307	90.69
357.534	91.69
357.761	89.69
357.988	102.69
358.215	87.69
358.441	89.69
358.668	92.69
358.895	74.69
359.122	86.69
359.349	89.69
359.576	106.69
359.802	97.69
360.029	114.69
360.256	111.69
360.483	103.69
360.709	95.69
360.936	89.69
361.163	93.69
361.39	96.69
361.616	90.69
361.843	103.69
362.07	94.69
362.296	90.69
362.523	90.69
362.749	78.69
362.976	82.69
363.203	87.69
363.429	93.69
363.656	100.69
363.882	88.69
364.109	86.69
364.335	98.69
364.562	92.69
364.788	88.69
365.015	89.69
365.241	81.69
365.468	94.69
365.694	90.69
365.92	102.69
366.147	85.69
366.373	95.69
366.599	92.69
366.826	100.69
367.052	94.69
367.278	71.69
367.505	98.69
367.731	106.69
367.957	99.69
368.184	86.69
368.41	96.69
368.636	112.69
368.862	121.69
369.089	91.69
369.315	84.69
369.541	90.69
369.767	87.69
369.993	90.69
370.219	86.69
370.445	111.69
370.672	95.69
370.898	89.69
371.124	87.69
371.35	74.69
371.576	83.69
371.802	94.69
372.028	86.69
372.254	88.69
372.48	82.69
372.706	89.69
372.932	86.69
373.158	90.69
373.384	88.69
373.61	84.69
373.835	82.69
374.061	78.69
374.287	86.69
374.513	95.69
374.739	87.69
374.965	89.69
375.191	91.69
375.416	99.69
375.642	90.69
375.868	104.69
376.094	71.69
376.319	89.69
376.545	94.69
376.771	89.69
376.997	79.69
377.222	90.69
377.448	102.69
377.674	92.69
377.899	102.69
378.125	85.69
378.35	103.69
378.576	91.69
378.802	88.69
379.027	90.69
379.253	83.69
379.478	79.69
379.704	99.69
379.929	99.69
380.155	79.69
380.38	91.69
380.606	91.69
380.831	82.69
381.057	98.69
381.282	92.69
381.507	94.69
381.733	83.69
381.958	90.69
382.184	101.69
382.409	103.69
382.634	87.69
382.86	97.69
383.085	87.69
383.31	92.69
383.535	104.69
383.761	115.69
383.986	107.69
384.211	107.69
384.436	110.69
384.662	91.69
384.887	83.69
385.112	86.69
385.337	84.69
385.562	90.69
385.787	89.69
386.013	104.69
386.238	117.69
386.463	98.69
386.688	102.69
386.913	108.69
387.138	100.69
387.363	96.69
387.588	89.69
387.813	99.69
388.038	104.69
388.263	100.69
388.488	87.69
388.713	96.69
388.938	96.69
389.163	83.69
389.387	89.69
389.612	90.69
389.837	103.69
390.062	92.69
390.287	85.69
390.512	90.69
390.736	91.69
390.961	91.69
391.186	97.69
391.411	85.69
391.636	102.69
391.86	80.69
392.085	88.69
392.31	102.69
392.534	86.69
392.759	97.69
392.984	91.69
393.208	87.69
393.433	89.69
393.658	76.69
393.882	96.69
394.107	84.69
394.331	97.69
394.556	92.69
394.78	89.69
395.005	88.69
395.229	81.69
395.454	77.69
395.678	88.69
395.903	87.69
396.127	95.69
396.352	90.69
396.576	80.69
396.801	89.69
397.025	93.69
397.249	93.69
397.474	89.69
397.698	92.69
397.922	83.69
398.147	89.69
398.371	91.69
398.595	96.69
398.82	82.69
399.044	96.69
399.268	80.69
399.492	100.69
399.717	94.69
399.941	80.69
400.165	94.69
400.389	89.69
400.613	93.69
400.837	83.69
401.062	80.69
401.286	96.69
401.51	96.69
401.734	86.69
401.958	95.69
402.182	123.69
402.406	145.69
402.63	121.69
402.854	96.69
403.078	87.69
403.302	101.69
403.526	100.69
403.75	95.69
403.974	90.69
404.198	83.69
404.422	96.69
404.645	90.69
404.869	72.69
405.093	92.69
405.317	88.69
405.541	90.69
405.765	103.69
405.988	113.69
406.212	154.69
406.436	203.69
406.66	137.69
406.883	105.69
407.107	85.69
407.331	98.69
407.555	104.69
407.778	96.69
408.002	83.69
408.226	96.69
408.449	82.69
408.673	90.69
408.896	94.69
409.12	89.69
409.344	92.69
409.567	89.69
409.791	82.69
410.014	78.69
410.238	86.69
410.461	100.69
410.685	81.69
410.908	96.69
411.132	111.69
411.355	90.69
411.578	108.69
411.802	90.69
412.025	88.69
412.249	87.69
412.472	97.69
412.695	77.69
412.919	94.69
413.142	91.69
413.365	94.69
413.589	90.69
413.812	92.69
414.035	91.69
414.258	101.69
414.482	91.69
414.705	85.69
414.928	100.69
415.151	89.69
415.374	96.69
415.597	93.69
415.821	80.69
416.044	86.69
416.267	91.69
416.49	94.69
416.713	78.69
416.936	82.69
417.159	82.69
417.382	87.69
417.605	102.69
417.828	100.69
418.051	89.69
418.274	82.69
418.497	82.69
418.72	96.69
418.943	94.69
419.166	79.69
419.389	97.69
419.611	94.69
419.834	97.69
420.057	88.69
420.28	87.69
420.503	89.69
420.726	71.69
420.948	91.69
421.171	98.69
421.394	87.69
421.617	85.69
421.839	108.69
422.062	91.69
422.285	88.69
422.507	98.69
422.73	108.69
422.953	84.69
423.175	101.69
423.398	103.69
423.621	87.69
423.843	86.69
424.066	82.69
424.288	87.69
424.511	73.69
424.733	92.69
424.956	102.69
425.178	91.69
425.401	89.69
425.623	110.69
425.846	99.69
426.068	98.69
426.291	82.69
426.513	91.69
426.735	100.69
426.958	90.69
427.18	97.69
427.402	147.69
427.625	161.69
427.847	123.69
428.069	104.69
428.292	85.69
428.514	90.69
428.736	84.69
428.958	86.69
429.181	95.69
429.403	91.69
429.625	93.69
429.847	84.69
430.069	88.69
430.292	83.69
430.514	89.69
430.736	111.69
430.958	86.69
431.18	87.69
431.402	92.69
431.624	92.69
431.846	90.69
432.068	83.69
432.29	85.69
432.512	88.69
432.734	84.69
432.956	101.69
433.178	112.69
433.4	83.69
433.622	84.69
433.844	74.69
434.066	93.69
434.287	98.69
434.509	73.69
434.731	92.69
434.953	92.69
435.175	98.69
435.397	88.69
435.618	90.69
435.84	107.69
436.062	109.69
436.284	97.69
436.505	104.69
436.727	112.69
436.949	90.69
437.17	105.69
437.392	95.69
437.614	91.69
437.835	102.69
438.057	121.69
438.278	117.69
438.5	106.69
438.721	113.69
438.943	110.69
439.165	84.69
439.386	94.69
439.608	95.69
439.829	104.69
440.05	115.69
440.272	129.69
440.493	104.69
440.715	94.69
440.936	92.69
441.158	91.69
441.379	99.69
441.6	97.69
441.822	88.69
442.043	85.69
442.264	92.69
442.486	111.69
442.707	90.69
442.928	98.69
443.149	95.69
443.371	109.69
443.592	102.69
443.813	125.69
444.034	99.69
444.255	85.69
444.476	89.69
444.698	92.69
444.919	90.69
445.14	121.69
445.361	127.69
445.582	123.69
445.803	136.69
446.024	144.69
446.245	135.69
446.466	116.69
446.687	98.69
446.908	90.69
447.129	93.69
447.35	100.69
447.571	92.69
447.792	86.69
448.013	103.69
448.234	110.69
448.455	96.69
448.675	105.69
448.896	110.69
449.117	110.69
449.338	103.69
449.559	125.69
449.779	118.69
450	88.69
450.221	97.69
450.442	89.69
450.662	103.69
450.883	105.69
451.104	106.69
451.324	103.69
451.545	73.69
451.766	89.69
451.986	107.69
452.207	96.69
452.428	91.69
452.648	94.69
452.869	118.69
453.089	115.69
453.31	97.69
453.53	95.69
453.751	101.69
453.971	106.69
454.192	101.69
454.412	102.69
454.633	91.69
454.853	84.69
455.073	72.69
455.294	93.69
455.514	103.69
455.734	91.69
455.955	86.69
456.175	97.69
456.395	90.69
456.616	84.69
456.836	97.69
457.056	98.69
457.276	83.69
457.497	90.69
457.717	79.69
457.937	98.69
458.157	89.69
458.377	102.69
458.598	103.69
458.818	142.69
459.038	154.69
459.258	105.69
459.478	90.69
459.698	96.69
459.918	105.69
460.138	82.69
460.358	87.69
460.578	86.69
460.798	94.69
461.018	90.69
461.238	80.69
461.458	81.69
461.678	89.69
461.898	86.69
462.118	99.69
462.338	67.69
462.558	90.69
462.777	84.69
462.997	90.69
463.217	87.69
463.437	73.69
463.657	91.69
463.876	90.69
464.096	76.69
464.316	94.69
464.536	104.69
464.755	86.69
464.975	101.69
465.195	156.69
465.414	142.69
465.634	87.69
465.854	91.69
466.073	71.69
466.293	92.69
466.512	78.69
466.732	76.69
466.951	96.69
467.171	105.69
467.391	88.69
467.61	104.69
467.829	90.69
468.049	100.69
468.268	80.69
468.488	80.69
468.707	94.69
468.927	75.69
469.146	104.69
469.365	83.69
469.585	92.69
469.804	101.69
470.023	98.69
470.243	82.69
470.462	88.69
470.681	112.69
470.901	102.69
471.12	86.69
471.339	98.69
471.558	74.69
471.777	90.69
471.997	88.69
472.216	107.69
472.435	105.69
472.654	98.69
472.873	81.69
473.092	100.69
473.311	85.69
473.53	81.69
473.749	100.69
473.968	95.69
474.187	98.69
474.406	109.69
474.625	97.69
474.844	78.69
475.063	73.69
475.282	81.69
475.501	93.69
475.72	92.69
475.939	96.69
476.158	80.69
476.377	85.69
476.596	97.69
476.814	106.69
477.033	96.69
477.252	91.69
477.471	91.69
477.69	92.69
477.908	80.69
478.127	81.69
478.346	85.69
478.564	97.69
478.783	89.69
479.002	84.69
479.22	96.69
479.439	96.69
479.658	97.69
479.876	95.69
480.095	91.69
480.313	87.69
480.532	90.69
480.751	89.69
480.969	96.69
481.188	96.69
481.406	98.69
481.624	87.69
481.843	78.69
482.061	82.69
482.28	79.69
482.498	84.69
482.717	81.69
482.935	98.69
483.153	80.69
483.372	94.69
483.59	80.69
483.808	89.69
484.027	78.69
484.245	93.69
484.463	90.69
484.681	76.69
484.9	77.69
485.118	82.69
485.336	100.69
485.554	88.69
485.772	108.69
485.99	113.69
486.209	90.69
486.427	98.69
486.645	108.69
486.863	110.69
487.081	107.69
487.299	101.69
487.517	105.69
487.735	118.69
487.953	98.69
488.171	103.69
488.389	89.69
488.607	80.69
488.825	81.69
489.043	83.69
489.261	87.69
489.479	80.69
489.696	98.69
489.914	93.69
490.132	84.69
490.35	95.69
490.568	101.69
490.786	100.69
491.003	94.69
491.221	92.69
491.439	90.69
491.657	97.69
491.874	107.69
492.092	99.69
492.31	96.69
492.527	82.69
492.745	92.69
492.963	99.69
493.18	80.69
493.398	83.69
493.615	95.69
493.833	109.69
494.05	98.69
494.268	93.69
494.485	79.69
494.703	80.69
494.92	91.69
495.138	101.69
495.355	99.69
495.573	99.69
495.79	97.69
496.008	90.69
496.225	99.69
496.442	94.69
496.66	90.69
496.877	99.69
497.094	88.69
497.312	109.69
497.529	82.69
497.746	93.69
497.963	78.69
498.181	74.69
498.398	84.69
498.615	113.69
498.832	107.69
499.049	108.69
499.267	99.69
499.484	92.69
499.701	98.69
499.918	94.69
500.135	88.69
500.352	96.69
500.569	95.69
500.786	81.69
501.003	87.69
501.22	85.69
501.437	86.69
501.654	89.69
501.871	100.69
502.088	74.69
502.305	84.69
502.522	102.69
502.739	86.69
502.956	84.69
503.172	73.69
503.389	94.69
503.606	121.69
503.823	82.69
504.04	88.69
504.256	92.69
504.473	96.69
504.69	100.69
504.907	101.69
505.123	90.69
505.34	95.69
505.557	93.69
505.773	101.69
505.99	89.69
506.207	94.69
506.423	88.69
506.64	95.69
506.856	112.69
507.073	81.69
507.289	87.69
507.506	88.69
507.722	122.69
507.939	118.69
508.155	93.69
508.372	100.69
508.588	91.69
508.805	80.69
509.021	86.69
509.238	84.69
509.454	113.69
509.67	101.69
509.887	103.69
510.103	132.69
510.319	211.69
510.536	730.69
510.752	2298.69
510.968	639.69
511.184	146.69
511.401	102.69
511.617	100.69
511.833	80.69
512.049	95.69
512.265	101.69
512.481	97.69
512.698	87.69
512.914	104.69
513.13	91.69
513.346	91.69
513.562	96.69
513.778	106.69
513.994	94.69
514.21	95.69
514.426	114.69
514.642	131.69
514.858	117.69
515.074	163.69
515.29	437.69
515.506	1370.69
515.721	513.69
