Data from Uncirc_2002_H10_HRD10591_00034.txt Node
Date: Wed Jan 03 10:39:48 EST 2024
User: Yrep
Spectrometer: HR+D1059
Trigger mode: 1
Integration Time (sec): 1.000000E-1
Scans to average: 1
Electric dark correction enabled: true
Nonlinearity correction enabled: false
Boxcar width: 0
XAxis mode: Wavelengths
Number of Pixels in Spectrum: 2048
>>>>>Begin Spectral Data<<<<<
223.165	-26.25
223.4	-26.25
223.635	-26.25
223.869	-25.25
224.104	-20.25
224.338	-16.25
224.573	-26.25
224.808	-12.25
225.042	3.75
225.277	6.75
225.511	-4.25
225.746	11.75
225.98	10.75
226.215	17.75
226.449	5.75
226.683	28.75
226.918	21.75
227.152	23.75
227.387	42.75
227.621	30.75
227.856	44.75
228.09	42.75
228.324	69.75
228.559	53.75
228.793	48.75
229.027	51.75
229.262	75.75
229.496	69.75
229.73	88.75
229.964	83.75
230.199	61.75
230.433	73.75
230.667	86.75
230.901	84.75
231.136	83.75
231.37	95.75
231.604	85.75
231.838	72.75
232.072	78.75
232.306	72.75
232.541	84.75
232.775	80.75
233.009	59.75
233.243	73.75
233.477	81.75
233.711	70.75
233.945	82.75
234.179	76.75
234.413	93.75
234.647	78.75
234.881	90.75
235.115	98.75
235.349	97.75
235.583	95.75
235.817	86.75
236.051	91.75
236.285	84.75
236.519	89.75
236.753	83.75
236.987	74.75
237.221	79.75
237.455	84.75
237.689	72.75
237.922	79.75
238.156	88.75
238.39	83.75
238.624	71.75
238.858	78.75
239.091	87.75
239.325	90.75
239.559	90.75
239.793	92.75
240.027	81.75
240.26	77.75
240.494	88.75
240.728	81.75
240.961	80.75
241.195	83.75
241.429	77.75
241.662	73.75
241.896	58.75
242.13	82.75
242.363	85.75
242.597	82.75
242.83	76.75
243.064	74.75
243.298	64.75
243.531	86.75
243.765	82.75
243.998	80.75
244.232	80.75
244.465	80.75
244.699	90.75
244.932	74.75
245.166	75.75
245.399	91.75
245.633	87.75
245.866	95.75
246.099	80.75
246.333	84.75
246.566	73.75
246.8	70.75
247.033	70.75
247.266	79.75
247.5	87.75
247.733	76.75
247.966	61.75
248.2	78.75
248.433	86.75
248.666	73.75
248.899	71.75
249.133	87.75
249.366	97.75
249.599	94.75
249.832	81.75
250.066	80.75
250.299	86.75
250.532	74.75
250.765	90.75
250.998	93.75
251.231	78.75
251.465	90.75
251.698	84.75
251.931	84.75
252.164	78.75
252.397	76.75
252.63	88.75
252.863	73.75
253.096	73.75
253.329	81.75
253.562	73.75
253.795	80.75
254.028	81.75
254.261	91.75
254.494	88.75
254.727	92.75
254.96	86.75
255.193	73.75
255.426	93.75
255.659	100.75
255.892	82.75
256.124	84.75
256.357	73.75
256.59	92.75
256.823	74.75
257.056	76.75
257.289	105.75
257.521	94.75
257.754	80.75
257.987	91.75
258.22	73.75
258.452	85.75
258.685	80.75
258.918	89.75
259.151	92.75
259.383	83.75
259.616	80.75
259.849	80.75
260.081	88.75
260.314	88.75
260.547	73.75
260.779	74.75
261.012	84.75
261.244	86.75
261.477	97.75
261.71	97.75
261.942	94.75
262.175	107.75
262.407	87.75
262.64	84.75
262.872	91.75
263.105	85.75
263.337	81.75
263.57	85.75
263.802	98.75
264.035	82.75
264.267	82.75
264.499	86.75
264.732	76.75
264.964	86.75
265.197	80.75
265.429	84.75
265.661	77.75
265.894	77.75
266.126	82.75
266.358	68.75
266.591	82.75
266.823	93.75
267.055	85.75
267.287	84.75
267.52	74.75
267.752	85.75
267.984	90.75
268.216	84.75
268.448	86.75
268.681	97.75
268.913	99.75
269.145	88.75
269.377	76.75
269.609	90.75
269.841	83.75
270.073	105.75
270.306	82.75
270.538	81.75
270.77	81.75
271.002	84.75
271.234	93.75
271.466	77.75
271.698	102.75
271.93	77.75
272.162	94.75
272.394	86.75
272.626	81.75
272.858	74.75
273.09	83.75
273.322	85.75
273.553	108.75
273.785	93.75
274.017	89.75
274.249	86.75
274.481	105.75
274.713	89.75
274.945	86.75
275.176	86.75
275.408	93.75
275.64	81.75
275.872	95.75
276.104	86.75
276.335	90.75
276.567	90.75
276.799	96.75
277.031	99.75
277.262	100.75
277.494	85.75
277.726	91.75
277.957	86.75
278.189	85.75
278.421	74.75
278.652	72.75
278.884	75.75
279.115	88.75
279.347	85.75
279.579	83.75
279.81	76.75
280.042	89.75
280.273	91.75
280.505	101.75
280.736	93.75
280.968	80.75
281.199	82.75
281.431	97.75
281.662	91.75
281.894	88.75
282.125	101.75
282.356	97.75
282.588	119.75
282.819	119.75
283.051	90.75
283.282	94.75
283.513	86.75
283.745	75.75
283.976	79.75
284.207	75.75
284.439	107.75
284.67	98.75
284.901	98.75
285.132	85.75
285.364	86.75
285.595	89.75
285.826	77.75
286.057	96.75
286.288	100.75
286.52	95.75
286.751	84.75
286.982	89.75
287.213	91.75
287.444	92.75
287.675	90.75
287.906	82.75
288.138	88.75
288.369	93.75
288.6	96.75
288.831	100.75
289.062	93.75
289.293	83.75
289.524	99.75
289.755	88.75
289.986	81.75
290.217	85.75
290.448	76.75
290.679	93.75
290.91	85.75
291.141	78.75
291.371	98.75
291.602	90.75
291.833	77.75
292.064	76.75
292.295	94.75
292.526	87.75
292.757	93.75
292.987	90.75
293.218	96.75
293.449	80.75
293.68	94.75
293.91	94.75
294.141	89.75
294.372	102.75
294.603	87.75
294.833	87.75
295.064	103.75
295.295	96.75
295.525	94.75
295.756	110.75
295.987	117.75
296.217	112.75
296.448	129.75
296.679	102.75
296.909	89.75
297.14	103.75
297.37	90.75
297.601	93.75
297.831	103.75
298.062	94.75
298.292	99.75
298.523	96.75
298.753	97.75
298.984	92.75
299.214	84.75
299.445	96.75
299.675	99.75
299.905	93.75
300.136	100.75
300.366	85.75
300.597	90.75
300.827	78.75
301.057	92.75
301.288	102.75
301.518	112.75
301.748	90.75
301.979	101.75
302.209	77.75
302.439	99.75
302.669	80.75
302.9	93.75
303.13	93.75
303.36	100.75
303.59	91.75
303.82	88.75
304.051	96.75
304.281	104.75
304.511	100.75
304.741	92.75
304.971	92.75
305.201	95.75
305.431	84.75
305.661	98.75
305.891	98.75
306.121	94.75
306.352	105.75
306.582	110.75
306.812	101.75
307.042	111.75
307.272	85.75
307.502	90.75
307.731	92.75
307.961	107.75
308.191	97.75
308.421	83.75
308.651	101.75
308.881	98.75
309.111	92.75
309.341	96.75
309.571	88.75
309.8	98.75
310.03	97.75
310.26	85.75
310.49	80.75
310.72	104.75
310.949	120.75
311.179	95.75
311.409	93.75
311.639	103.75
311.868	97.75
312.098	96.75
312.328	107.75
312.557	107.75
312.787	107.75
313.017	94.75
313.246	92.75
313.476	82.75
313.706	93.75
313.935	92.75
314.165	80.75
314.394	96.75
314.624	102.75
314.853	93.75
315.083	96.75
315.312	92.75
315.542	76.75
315.771	88.75
316.001	92.75
316.23	103.75
316.46	93.75
316.689	98.75
316.919	85.75
317.148	91.75
317.377	85.75
317.607	95.75
317.836	94.75
318.065	98.75
318.295	89.75
318.524	114.75
318.753	90.75
318.983	102.75
319.212	98.75
319.441	101.75
319.67	98.75
319.9	91.75
320.129	92.75
320.358	100.75
320.587	98.75
320.816	101.75
321.046	91.75
321.275	97.75
321.504	90.75
321.733	115.75
321.962	98.75
322.191	107.75
322.42	96.75
322.649	111.75
322.878	97.75
323.108	111.75
323.337	111.75
323.566	130.75
323.795	135.75
324.024	193.75
324.253	337.75
324.482	694.75
324.71	1391.75
324.939	1823.75
325.168	687.75
325.397	205.75
325.626	136.75
325.855	128.75
326.084	106.75
326.313	121.75
326.542	143.75
326.77	216.75
326.999	400.75
327.228	776.75
327.457	1467.75
327.686	1088.75
327.914	312.75
328.143	175.75
328.372	129.75
328.6	118.75
328.829	108.75
329.058	132.75
329.287	128.75
329.515	92.75
329.744	123.75
329.972	92.75
330.201	107.75
330.43	102.75
330.658	104.75
330.887	129.75
331.115	115.75
331.344	92.75
331.572	108.75
331.801	102.75
332.03	105.75
332.258	88.75
332.486	88.75
332.715	83.75
332.943	100.75
333.172	103.75
333.4	93.75
333.629	102.75
333.857	109.75
334.085	111.75
334.314	105.75
334.542	96.75
334.771	104.75
334.999	98.75
335.227	102.75
335.455	108.75
335.684	95.75
335.912	100.75
336.14	109.75
336.369	121.75
336.597	103.75
336.825	97.75
337.053	93.75
337.281	103.75
337.51	93.75
337.738	88.75
337.966	96.75
338.194	98.75
338.422	103.75
338.65	83.75
338.878	74.75
339.106	102.75
339.334	92.75
339.562	101.75
339.79	97.75
340.018	90.75
340.246	77.75
340.474	89.75
340.702	92.75
340.93	92.75
341.158	97.75
341.386	84.75
341.614	83.75
341.842	95.75
342.07	83.75
342.298	91.75
342.526	92.75
342.754	76.75
342.981	97.75
343.209	82.75
343.437	99.75
343.665	80.75
343.893	91.75
344.12	86.75
344.348	88.75
344.576	98.75
344.804	82.75
345.031	93.75
345.259	109.75
345.487	105.75
345.714	87.75
345.942	76.75
346.17	91.75
346.397	83.75
346.625	82.75
346.853	96.75
347.08	92.75
347.308	92.75
347.535	93.75
347.763	89.75
347.99	108.75
348.218	103.75
348.445	105.75
348.673	95.75
348.9	102.75
349.128	94.75
349.355	98.75
349.583	94.75
349.81	82.75
350.037	110.75
350.265	106.75
350.492	120.75
350.72	104.75
350.947	96.75
351.174	104.75
351.402	93.75
351.629	93.75
351.856	95.75
352.083	99.75
352.311	111.75
352.538	103.75
352.765	84.75
352.992	101.75
353.22	110.75
353.447	101.75
353.674	104.75
353.901	100.75
354.128	97.75
354.355	93.75
354.583	97.75
354.81	103.75
355.037	90.75
355.264	96.75
355.491	100.75
355.718	91.75
355.945	92.75
356.172	86.75
356.399	100.75
356.626	93.75
356.853	102.75
357.08	89.75
357.307	93.75
357.534	88.75
357.761	98.75
357.988	101.75
358.215	86.75
358.441	81.75
358.668	90.75
358.895	92.75
359.122	83.75
359.349	98.75
359.576	84.75
359.802	92.75
360.029	124.75
360.256	94.75
360.483	95.75
360.709	98.75
360.936	92.75
361.163	100.75
361.39	87.75
361.616	86.75
361.843	98.75
362.07	92.75
362.296	90.75
362.523	89.75
362.749	87.75
362.976	88.75
363.203	85.75
363.429	97.75
363.656	99.75
363.882	91.75
364.109	92.75
364.335	90.75
364.562	97.75
364.788	90.75
365.015	83.75
365.241	100.75
365.468	96.75
365.694	107.75
365.92	90.75
366.147	89.75
366.373	89.75
366.599	83.75
366.826	94.75
367.052	100.75
367.278	78.75
367.505	85.75
367.731	81.75
367.957	76.75
368.184	92.75
368.41	99.75
368.636	95.75
368.862	114.75
369.089	110.75
369.315	97.75
369.541	87.75
369.767	101.75
369.993	71.75
370.219	94.75
370.445	95.75
370.672	76.75
370.898	75.75
371.124	96.75
371.35	100.75
371.576	84.75
371.802	85.75
372.028	95.75
372.254	87.75
372.48	86.75
372.706	98.75
372.932	80.75
373.158	97.75
373.384	99.75
373.61	94.75
373.835	100.75
374.061	81.75
374.287	108.75
374.513	98.75
374.739	96.75
374.965	88.75
375.191	97.75
375.416	91.75
375.642	91.75
375.868	88.75
376.094	87.75
376.319	84.75
376.545	101.75
376.771	90.75
376.997	99.75
377.222	86.75
377.448	102.75
377.674	87.75
377.899	91.75
378.125	89.75
378.35	96.75
378.576	85.75
378.802	90.75
379.027	83.75
379.253	97.75
379.478	81.75
379.704	90.75
379.929	94.75
380.155	86.75
380.38	84.75
380.606	77.75
380.831	100.75
381.057	94.75
381.282	93.75
381.507	101.75
381.733	98.75
381.958	113.75
382.184	107.75
382.409	92.75
382.634	101.75
382.86	93.75
383.085	88.75
383.31	101.75
383.535	100.75
383.761	86.75
383.986	94.75
384.211	84.75
384.436	98.75
384.662	108.75
384.887	101.75
385.112	92.75
385.337	97.75
385.562	112.75
385.787	118.75
386.013	96.75
386.238	104.75
386.463	116.75
386.688	113.75
386.913	97.75
387.138	117.75
387.363	104.75
387.588	102.75
387.813	103.75
388.038	112.75
388.263	110.75
388.488	105.75
388.713	81.75
388.938	85.75
389.163	96.75
389.387	92.75
389.612	104.75
389.837	104.75
390.062	100.75
390.287	89.75
390.512	95.75
390.736	86.75
390.961	113.75
391.186	98.75
391.411	93.75
391.636	93.75
391.86	92.75
392.085	94.75
392.31	97.75
392.534	83.75
392.759	93.75
392.984	103.75
393.208	92.75
393.433	102.75
393.658	105.75
393.882	71.75
394.107	81.75
394.331	94.75
394.556	73.75
394.78	94.75
395.005	83.75
395.229	92.75
395.454	74.75
395.678	81.75
395.903	100.75
396.127	82.75
396.352	99.75
396.576	101.75
396.801	99.75
397.025	102.75
397.249	98.75
397.474	84.75
397.698	91.75
397.922	73.75
398.147	86.75
398.371	79.75
398.595	96.75
398.82	84.75
399.044	82.75
399.268	83.75
399.492	80.75
399.717	105.75
399.941	101.75
400.165	88.75
400.389	92.75
400.613	92.75
400.837	85.75
401.062	91.75
401.286	97.75
401.51	94.75
401.734	93.75
401.958	93.75
402.182	106.75
402.406	139.75
402.63	111.75
402.854	93.75
403.078	92.75
403.302	91.75
403.526	90.75
403.75	84.75
403.974	106.75
404.198	96.75
404.422	92.75
404.645	84.75
404.869	85.75
405.093	85.75
405.317	105.75
405.541	98.75
405.765	102.75
405.988	116.75
406.212	156.75
406.436	187.75
406.66	129.75
406.883	94.75
407.107	99.75
407.331	94.75
407.555	109.75
407.778	86.75
408.002	89.75
408.226	88.75
408.449	89.75
408.673	91.75
408.896	87.75
409.12	102.75
409.344	99.75
409.567	100.75
409.791	91.75
410.014	93.75
410.238	96.75
410.461	84.75
410.685	92.75
410.908	104.75
411.132	122.75
411.355	93.75
411.578	109.75
411.802	90.75
412.025	91.75
412.249	99.75
412.472	91.75
412.695	91.75
412.919	87.75
413.142	88.75
413.365	89.75
413.589	95.75
413.812	88.75
414.035	92.75
414.258	102.75
414.482	105.75
414.705	83.75
414.928	97.75
415.151	88.75
415.374	81.75
415.597	78.75
415.821	85.75
416.044	78.75
416.267	101.75
416.49	97.75
416.713	102.75
416.936	93.75
417.159	95.75
417.382	83.75
417.605	101.75
417.828	82.75
418.051	96.75
418.274	94.75
418.497	82.75
418.72	85.75
418.943	84.75
419.166	75.75
419.389	91.75
419.611	83.75
419.834	98.75
420.057	99.75
420.28	84.75
420.503	92.75
420.726	99.75
420.948	85.75
421.171	93.75
421.394	94.75
421.617	100.75
421.839	101.75
422.062	83.75
422.285	89.75
422.507	80.75
422.73	102.75
422.953	94.75
423.175	97.75
423.398	89.75
423.621	92.75
423.843	83.75
424.066	80.75
424.288	73.75
424.511	92.75
424.733	90.75
424.956	90.75
425.178	112.75
425.401	91.75
425.623	93.75
425.846	87.75
426.068	92.75
426.291	86.75
426.513	85.75
426.735	90.75
426.958	100.75
427.18	104.75
427.402	119.75
427.625	173.75
427.847	119.75
428.069	94.75
428.292	85.75
428.514	88.75
428.736	93.75
428.958	79.75
429.181	100.75
429.403	84.75
429.625	84.75
429.847	85.75
430.069	109.75
430.292	92.75
430.514	95.75
430.736	99.75
430.958	76.75
431.18	79.75
431.402	85.75
431.624	81.75
431.846	94.75
432.068	92.75
432.29	93.75
432.512	85.75
432.734	87.75
432.956	92.75
433.178	93.75
433.4	86.75
433.622	90.75
433.844	93.75
434.066	93.75
434.287	94.75
434.509	110.75
434.731	77.75
434.953	85.75
435.175	76.75
435.397	100.75
435.618	81.75
435.84	112.75
436.062	121.75
436.284	99.75
436.505	99.75
436.727	100.75
436.949	85.75
437.17	77.75
437.392	89.75
437.614	84.75
437.835	89.75
438.057	105.75
438.278	119.75
438.5	115.75
438.721	112.75
438.943	89.75
439.165	81.75
439.386	98.75
439.608	94.75
439.829	96.75
440.05	113.75
440.272	119.75
440.493	95.75
440.715	82.75
440.936	83.75
441.158	91.75
441.379	95.75
441.6	94.75
441.822	105.75
442.043	102.75
442.264	93.75
442.486	93.75
442.707	100.75
442.928	104.75
443.149	128.75
443.371	112.75
443.592	94.75
443.813	119.75
444.034	110.75
444.255	93.75
444.476	93.75
444.698	102.75
444.919	93.75
445.14	130.75
445.361	135.75
445.582	118.75
445.803	118.75
446.024	133.75
446.245	122.75
446.466	94.75
446.687	105.75
446.908	93.75
447.129	89.75
447.35	88.75
447.571	103.75
447.792	87.75
448.013	108.75
448.234	102.75
448.455	110.75
448.675	97.75
448.896	113.75
449.117	102.75
449.338	109.75
449.559	141.75
449.779	133.75
450	101.75
450.221	91.75
450.442	94.75
450.662	101.75
450.883	96.75
451.104	103.75
451.324	102.75
451.545	92.75
451.766	91.75
451.986	82.75
452.207	99.75
452.428	77.75
452.648	97.75
452.869	114.75
453.089	107.75
453.31	124.75
453.53	92.75
453.751	101.75
453.971	93.75
454.192	99.75
454.412	93.75
454.633	90.75
454.853	81.75
455.073	84.75
455.294	93.75
455.514	94.75
455.734	87.75
455.955	78.75
456.175	72.75
456.395	80.75
456.616	87.75
456.836	82.75
457.056	77.75
457.276	85.75
457.497	94.75
457.717	99.75
457.937	93.75
458.157	90.75
458.377	84.75
458.598	105.75
458.818	121.75
459.038	165.75
459.258	116.75
459.478	104.75
459.698	88.75
459.918	89.75
460.138	81.75
460.358	92.75
460.578	89.75
460.798	94.75
461.018	94.75
461.238	77.75
461.458	74.75
461.678	81.75
461.898	79.75
462.118	85.75
462.338	88.75
462.558	97.75
462.777	97.75
462.997	100.75
463.217	97.75
463.437	85.75
463.657	92.75
463.876	89.75
464.096	98.75
464.316	87.75
464.536	86.75
464.755	93.75
464.975	116.75
465.195	148.75
465.414	153.75
465.634	113.75
465.854	93.75
466.073	74.75
466.293	95.75
466.512	88.75
466.732	90.75
466.951	86.75
467.171	92.75
467.391	93.75
467.61	95.75
467.829	88.75
468.049	96.75
468.268	96.75
468.488	95.75
468.707	82.75
468.927	89.75
469.146	82.75
469.365	93.75
469.585	94.75
469.804	100.75
470.023	105.75
470.243	87.75
470.462	105.75
470.681	114.75
470.901	99.75
471.12	85.75
471.339	88.75
471.558	76.75
471.777	83.75
471.997	88.75
472.216	103.75
472.435	92.75
472.654	96.75
472.873	87.75
473.092	92.75
473.311	104.75
473.53	82.75
473.749	88.75
473.968	105.75
474.187	113.75
474.406	97.75
474.625	92.75
474.844	94.75
475.063	90.75
475.282	92.75
475.501	85.75
475.72	94.75
475.939	93.75
476.158	92.75
476.377	93.75
476.596	81.75
476.814	89.75
477.033	82.75
477.252	84.75
477.471	90.75
477.69	93.75
477.908	109.75
478.127	102.75
478.346	88.75
478.564	111.75
478.783	94.75
479.002	98.75
479.22	88.75
479.439	106.75
479.658	101.75
479.876	86.75
480.095	97.75
480.313	97.75
480.532	91.75
480.751	94.75
480.969	83.75
481.188	106.75
481.406	104.75
481.624	103.75
481.843	89.75
482.061	87.75
482.28	80.75
482.498	99.75
482.717	89.75
482.935	83.75
483.153	97.75
483.372	90.75
483.59	88.75
483.808	91.75
484.027	98.75
484.245	91.75
484.463	88.75
484.681	92.75
484.9	87.75
485.118	106.75
485.336	89.75
485.554	100.75
485.772	102.75
485.99	101.75
486.209	102.75
486.427	98.75
486.645	93.75
486.863	118.75
487.081	102.75
487.299	111.75
487.517	96.75
487.735	82.75
487.953	102.75
488.171	91.75
488.389	80.75
488.607	102.75
488.825	104.75
489.043	92.75
489.261	91.75
489.479	66.75
489.696	89.75
489.914	99.75
490.132	76.75
490.35	83.75
490.568	93.75
490.786	100.75
491.003	81.75
491.221	93.75
491.439	93.75
491.657	75.75
491.874	103.75
492.092	96.75
492.31	92.75
492.527	92.75
492.745	97.75
492.963	89.75
493.18	90.75
493.398	96.75
493.615	99.75
493.833	101.75
494.05	88.75
494.268	99.75
494.485	80.75
494.703	82.75
494.92	100.75
495.138	88.75
495.355	82.75
495.573	99.75
495.79	102.75
496.008	94.75
496.225	90.75
496.442	83.75
496.66	93.75
496.877	73.75
497.094	102.75
497.312	97.75
497.529	90.75
497.746	94.75
497.963	94.75
498.181	86.75
498.398	86.75
498.615	112.75
498.832	104.75
499.049	99.75
499.267	89.75
499.484	85.75
499.701	99.75
499.918	91.75
500.135	99.75
500.352	89.75
500.569	93.75
500.786	84.75
501.003	78.75
501.22	91.75
501.437	101.75
501.654	83.75
501.871	109.75
502.088	92.75
502.305	96.75
502.522	102.75
502.739	100.75
502.956	94.75
503.172	79.75
503.389	95.75
503.606	106.75
503.823	96.75
504.04	93.75
504.256	85.75
504.473	94.75
504.69	81.75
504.907	89.75
505.123	107.75
505.34	92.75
505.557	95.75
505.773	104.75
505.99	97.75
506.207	78.75
506.423	102.75
506.64	94.75
506.856	90.75
507.073	101.75
507.289	95.75
507.506	96.75
507.722	103.75
507.939	99.75
508.155	75.75
508.372	90.75
508.588	94.75
508.805	123.75
509.021	90.75
509.238	89.75
509.454	78.75
509.67	94.75
509.887	105.75
510.103	125.75
510.319	189.75
510.536	638.75
510.752	1928.75
510.968	562.75
511.184	138.75
511.401	107.75
511.617	96.75
511.833	95.75
512.049	96.75
512.265	86.75
512.481	103.75
512.698	90.75
512.914	72.75
513.13	100.75
513.346	84.75
513.562	93.75
513.778	101.75
513.994	97.75
514.21	109.75
514.426	123.75
514.642	146.75
514.858	128.75
515.074	150.75
515.29	367.75
515.506	1146.75
