Data from Uncirc_2002_H10_HRD10591_00025.txt Node
Date: Wed Jan 03 10:39:46 EST 2024
User: Yrep
Spectrometer: HR+D1059
Trigger mode: 1
Integration Time (sec): 1.000000E-1
Scans to average: 1
Electric dark correction enabled: true
Nonlinearity correction enabled: false
Boxcar width: 0
XAxis mode: Wavelengths
Number of Pixels in Spectrum: 2048
>>>>>Begin Spectral Data<<<<<
223.165	-25
223.4	-25
223.635	-25
223.869	-7
224.104	-10
224.338	-20
224.573	-28
224.808	-10
225.042	-1
225.277	-6
225.511	-12
225.746	2
225.98	14
226.215	19
226.449	9
226.683	16
226.918	25
227.152	34
227.387	49
227.621	40
227.856	47
228.09	52
228.324	39
228.559	50
228.793	61
229.027	45
229.262	56
229.496	73
229.73	69
229.964	65
230.199	61
230.433	93
230.667	94
230.901	80
231.136	92
231.37	78
231.604	87
231.838	83
232.072	80
232.306	69
232.541	95
232.775	70
233.009	73
233.243	82
233.477	77
233.711	78
233.945	64
234.179	84
234.413	77
234.647	78
234.881	90
235.115	85
235.349	77
235.583	82
235.817	66
236.051	83
236.285	89
236.519	62
236.753	84
236.987	57
237.221	72
237.455	89
237.689	69
237.922	77
238.156	62
238.39	72
238.624	89
238.858	72
239.091	73
239.325	77
239.559	80
239.793	73
240.027	72
240.26	76
240.494	83
240.728	81
240.961	73
241.195	55
241.429	90
241.662	81
241.896	76
242.13	82
242.363	79
242.597	77
242.83	80
243.064	77
243.298	76
243.531	68
243.765	82
243.998	72
244.232	61
244.465	84
244.699	87
244.932	71
245.166	69
245.399	82
245.633	77
245.866	81
246.099	70
246.333	62
246.566	87
246.8	75
247.033	94
247.266	73
247.5	70
247.733	78
247.966	91
248.2	59
248.433	65
248.666	80
248.899	82
249.133	88
249.366	94
249.599	85
249.832	78
250.066	84
250.299	83
250.532	77
250.765	76
250.998	98
251.231	72
251.465	72
251.698	82
251.931	74
252.164	74
252.397	81
252.63	76
252.863	77
253.096	77
253.329	74
253.562	81
253.795	79
254.028	83
254.261	86
254.494	91
254.727	93
254.96	85
255.193	85
255.426	83
255.659	83
255.892	74
256.124	62
256.357	88
256.59	92
256.823	64
257.056	84
257.289	97
257.521	90
257.754	70
257.987	70
258.22	82
258.452	84
258.685	76
258.918	77
259.151	68
259.383	84
259.616	68
259.849	80
260.081	74
260.314	85
260.547	87
260.779	77
261.012	84
261.244	79
261.477	83
261.71	99
261.942	107
262.175	110
262.407	101
262.64	85
262.872	77
263.105	76
263.337	74
263.57	74
263.802	85
264.035	84
264.267	80
264.499	83
264.732	83
264.964	71
265.197	75
265.429	79
265.661	88
265.894	91
266.126	86
266.358	78
266.591	98
266.823	80
267.055	80
267.287	84
267.52	70
267.752	86
267.984	86
268.216	84
268.448	86
268.681	85
268.913	90
269.145	88
269.377	82
269.609	85
269.841	81
270.073	84
270.306	79
270.538	87
270.77	93
271.002	95
271.234	73
271.466	70
271.698	94
271.93	87
272.162	95
272.394	86
272.626	75
272.858	87
273.09	89
273.322	72
273.553	76
273.785	85
274.017	87
274.249	91
274.481	87
274.713	75
274.945	98
275.176	93
275.408	98
275.64	84
275.872	80
276.104	86
276.335	90
276.567	109
276.799	90
277.031	95
277.262	87
277.494	85
277.726	88
277.957	87
278.189	67
278.421	78
278.652	88
278.884	77
279.115	88
279.347	89
279.579	79
279.81	81
280.042	90
280.273	95
280.505	75
280.736	84
280.968	78
281.199	87
281.431	90
281.662	84
281.894	88
282.125	87
282.356	102
282.588	118
282.819	101
283.051	99
283.282	78
283.513	83
283.745	90
283.976	93
284.207	89
284.439	91
284.67	95
284.901	89
285.132	77
285.364	78
285.595	87
285.826	86
286.057	90
286.288	87
286.52	90
286.751	83
286.982	88
287.213	86
287.444	75
287.675	80
287.906	99
288.138	80
288.369	82
288.6	104
288.831	70
289.062	92
289.293	84
289.524	78
289.755	88
289.986	81
290.217	82
290.448	79
290.679	96
290.91	88
291.141	89
291.371	76
291.602	85
291.833	78
292.064	93
292.295	88
292.526	87
292.757	86
292.987	103
293.218	89
293.449	81
293.68	77
293.91	76
294.141	86
294.372	70
294.603	85
294.833	103
295.064	81
295.295	90
295.525	98
295.756	88
295.987	103
296.217	107
296.448	114
296.679	86
296.909	85
297.14	90
297.37	83
297.601	90
297.831	88
298.062	73
298.292	85
298.523	86
298.753	79
298.984	79
299.214	82
299.445	79
299.675	85
299.905	80
300.136	86
300.366	86
300.597	76
300.827	89
301.057	96
301.288	92
301.518	89
301.748	84
301.979	89
302.209	86
302.439	91
302.669	90
302.9	94
303.13	84
303.36	79
303.59	94
303.82	97
304.051	89
304.281	92
304.511	101
304.741	101
304.971	75
305.201	83
305.431	88
305.661	96
305.891	78
306.121	89
306.352	100
306.582	97
306.812	106
307.042	86
307.272	92
307.502	83
307.731	81
307.961	102
308.191	96
308.421	73
308.651	93
308.881	91
309.111	95
309.341	104
309.571	101
309.8	82
310.03	104
310.26	85
310.49	90
310.72	90
310.949	99
311.179	105
311.409	86
311.639	96
311.868	79
312.098	97
312.328	100
312.557	97
312.787	97
313.017	97
313.246	95
313.476	84
313.706	88
313.935	79
314.165	87
314.394	97
314.624	95
314.853	100
315.083	76
315.312	72
315.542	92
315.771	88
316.001	91
316.23	85
316.46	94
316.689	93
316.919	92
317.148	79
317.377	82
317.607	88
317.836	93
318.065	88
318.295	93
318.524	85
318.753	100
318.983	89
319.212	83
319.441	109
319.67	105
319.9	101
320.129	84
320.358	99
320.587	100
320.816	100
321.046	98
321.275	107
321.504	89
321.733	86
321.962	101
322.191	89
322.42	99
322.649	106
322.878	96
323.108	103
323.337	100
323.566	120
323.795	135
324.024	174
324.253	336
324.482	685
324.71	1427
324.939	1868
325.168	695
325.397	215
325.626	133
325.855	107
326.084	119
326.313	121
326.542	148
326.77	212
326.999	388
327.228	798
327.457	1469
327.686	1136
327.914	324
328.143	169
328.372	131
328.6	112
328.829	105
329.058	111
329.287	110
329.515	100
329.744	103
329.972	82
330.201	92
330.43	113
330.658	104
330.887	113
331.115	108
331.344	91
331.572	85
331.801	85
332.03	94
332.258	79
332.486	93
332.715	99
332.943	84
333.172	93
333.4	90
333.629	96
333.857	102
334.085	97
334.314	93
334.542	82
334.771	86
334.999	89
335.227	94
335.455	105
335.684	93
335.912	93
336.14	108
336.369	99
336.597	91
336.825	95
337.053	108
337.281	90
337.51	92
337.738	89
337.966	90
338.194	92
338.422	84
338.65	83
338.878	88
339.106	90
339.334	89
339.562	85
339.79	93
340.018	95
340.246	77
340.474	90
340.702	99
340.93	90
341.158	85
341.386	87
341.614	93
341.842	93
342.07	86
342.298	89
342.526	92
342.754	89
342.981	76
343.209	84
343.437	97
343.665	90
343.893	65
344.12	88
344.348	88
344.576	84
344.804	96
345.031	95
345.259	95
345.487	82
345.714	80
345.942	101
346.17	85
346.397	98
346.625	87
346.853	94
347.08	87
347.308	101
347.535	83
347.763	87
347.99	98
348.218	98
348.445	93
348.673	90
348.9	97
349.128	74
349.355	95
349.583	94
349.81	97
350.037	90
350.265	79
350.492	83
350.72	98
350.947	93
351.174	94
351.402	108
351.629	101
351.856	95
352.083	103
352.311	107
352.538	103
352.765	103
352.992	105
353.22	100
353.447	103
353.674	97
353.901	98
354.128	105
354.355	89
354.583	95
354.81	97
355.037	101
355.264	96
355.491	96
355.718	90
355.945	94
356.172	99
356.399	94
356.626	86
356.853	87
357.08	85
357.307	87
357.534	83
357.761	97
357.988	94
358.215	88
358.441	100
358.668	94
358.895	85
359.122	96
359.349	88
359.576	105
359.802	100
360.029	94
360.256	115
360.483	100
360.709	99
360.936	87
361.163	96
361.39	115
361.616	85
361.843	89
362.07	87
362.296	87
362.523	90
362.749	90
362.976	82
363.203	93
363.429	99
363.656	90
363.882	92
364.109	85
364.335	85
364.562	82
364.788	84
365.015	80
365.241	107
365.468	86
365.694	103
365.92	97
366.147	81
366.373	74
366.599	87
366.826	96
367.052	68
367.278	72
367.505	79
367.731	90
367.957	80
368.184	90
368.41	94
368.636	103
368.862	110
369.089	95
369.315	94
369.541	76
369.767	87
369.993	87
370.219	94
370.445	87
370.672	99
370.898	82
371.124	88
371.35	91
371.576	95
371.802	88
372.028	89
372.254	97
372.48	90
372.706	78
372.932	101
373.158	90
373.384	97
373.61	94
373.835	89
374.061	98
374.287	96
374.513	84
374.739	84
374.965	91
375.191	82
375.416	93
375.642	93
375.868	97
376.094	88
376.319	79
376.545	82
376.771	84
376.997	92
377.222	87
377.448	105
377.674	77
377.899	94
378.125	90
378.35	88
378.576	82
378.802	96
379.027	88
379.253	82
379.478	96
379.704	93
379.929	93
380.155	76
380.38	87
380.606	94
380.831	91
381.057	96
381.282	91
381.507	96
381.733	96
381.958	97
382.184	98
382.409	93
382.634	94
382.86	122
383.085	101
383.31	98
383.535	99
383.761	91
383.986	100
384.211	120
384.436	99
384.662	88
384.887	88
385.112	100
385.337	97
385.562	100
385.787	90
386.013	106
386.238	97
386.463	98
386.688	88
386.913	100
387.138	106
387.363	103
387.588	105
387.813	100
388.038	94
388.263	102
388.488	84
388.713	108
388.938	85
389.163	87
389.387	96
389.612	82
389.837	83
390.062	81
390.287	98
390.512	99
390.736	104
390.961	95
391.186	93
391.411	81
391.636	82
391.86	78
392.085	85
392.31	87
392.534	79
392.759	75
392.984	79
393.208	96
393.433	87
393.658	95
393.882	68
394.107	76
394.331	82
394.556	86
394.78	85
395.005	85
395.229	77
395.454	87
395.678	90
395.903	80
396.127	83
396.352	82
396.576	93
396.801	84
397.025	111
397.249	78
397.474	99
397.698	81
397.922	88
398.147	86
398.371	79
398.595	84
398.82	94
399.044	82
399.268	84
399.492	86
399.717	99
399.941	78
400.165	82
400.389	95
400.613	80
400.837	90
401.062	74
401.286	87
401.51	88
401.734	93
401.958	93
402.182	110
402.406	142
402.63	110
402.854	94
403.078	72
403.302	85
403.526	98
403.75	87
403.974	99
404.198	82
404.422	76
404.645	82
404.869	80
405.093	77
405.317	90
405.541	92
405.765	105
405.988	102
406.212	124
406.436	200
406.66	126
406.883	91
407.107	87
407.331	90
407.555	86
407.778	85
408.002	92
408.226	88
408.449	80
408.673	76
408.896	97
409.12	89
409.344	84
409.567	92
409.791	90
410.014	88
410.238	87
410.461	83
410.685	95
410.908	107
411.132	103
411.355	96
411.578	92
411.802	75
412.025	85
412.249	80
412.472	78
412.695	86
412.919	79
413.142	65
413.365	88
413.589	85
413.812	84
414.035	87
414.258	74
414.482	98
414.705	78
414.928	94
415.151	85
415.374	102
415.597	84
415.821	93
416.044	86
416.267	95
416.49	94
416.713	89
416.936	97
417.159	90
417.382	87
417.605	81
417.828	85
418.051	97
418.274	100
418.497	74
418.72	81
418.943	89
419.166	89
419.389	96
419.611	92
419.834	90
420.057	87
420.28	88
420.503	74
420.726	74
420.948	89
421.171	94
421.394	93
421.617	86
421.839	75
422.062	83
422.285	93
422.507	92
422.73	97
422.953	90
423.175	96
423.398	86
423.621	76
423.843	74
424.066	85
424.288	84
424.511	105
424.733	86
424.956	87
425.178	81
425.401	94
425.623	82
425.846	89
426.068	99
426.291	90
426.513	89
426.735	83
426.958	93
427.18	95
427.402	118
427.625	134
427.847	117
428.069	100
428.292	102
428.514	81
428.736	83
428.958	88
429.181	83
429.403	60
429.625	80
429.847	77
430.069	93
430.292	94
430.514	86
430.736	82
430.958	78
431.18	72
431.402	71
431.624	88
431.846	82
432.068	81
432.29	96
432.512	89
432.734	93
432.956	80
433.178	97
433.4	101
433.622	98
433.844	104
434.066	89
434.287	99
434.509	98
434.731	80
434.953	69
435.175	81
435.397	88
435.618	99
435.84	95
436.062	111
436.284	97
436.505	104
436.727	100
436.949	91
437.17	86
437.392	101
437.614	97
437.835	93
438.057	104
438.278	101
438.5	102
438.721	100
438.943	112
439.165	85
439.386	71
439.608	85
439.829	98
440.05	92
440.272	122
440.493	100
440.715	83
440.936	88
441.158	85
441.379	90
441.6	90
441.822	85
442.043	88
442.264	89
442.486	100
442.707	96
442.928	92
443.149	106
443.371	129
443.592	87
443.813	92
444.034	113
444.255	89
444.476	85
444.698	81
444.919	96
445.14	128
445.361	133
445.582	109
445.803	130
446.024	112
446.245	140
446.466	113
446.687	96
446.908	85
447.129	92
447.35	96
447.571	88
447.792	93
448.013	90
448.234	103
448.455	81
448.675	97
448.896	115
449.117	95
449.338	97
449.559	114
449.779	129
450	96
450.221	90
450.442	81
450.662	88
450.883	98
451.104	96
451.324	87
451.545	88
451.766	80
451.986	81
452.207	87
452.428	87
452.648	102
452.869	112
453.089	104
453.31	113
453.53	94
453.751	81
453.971	104
454.192	99
454.412	83
454.633	108
454.853	83
455.073	80
455.294	80
455.514	85
455.734	94
455.955	85
456.175	94
456.395	67
456.616	92
456.836	96
457.056	81
457.276	83
457.497	83
457.717	90
457.937	76
458.157	87
458.377	87
458.598	108
458.818	144
459.038	139
459.258	88
459.478	69
459.698	86
459.918	88
460.138	88
460.358	94
460.578	85
460.798	88
461.018	98
461.238	90
461.458	69
461.678	89
461.898	80
462.118	69
462.338	89
462.558	71
462.777	95
462.997	81
463.217	89
463.437	86
463.657	91
463.876	74
464.096	87
464.316	82
464.536	86
464.755	84
464.975	92
465.195	149
465.414	128
465.634	101
465.854	80
466.073	82
466.293	81
466.512	80
466.732	97
466.951	87
467.171	83
467.391	83
467.61	89
467.829	87
468.049	86
468.268	96
468.488	90
468.707	80
468.927	97
469.146	79
469.365	75
469.585	92
469.804	80
470.023	73
470.243	98
470.462	108
470.681	96
470.901	96
471.12	87
471.339	76
471.558	84
471.777	74
471.997	86
472.216	79
472.435	84
472.654	78
472.873	83
473.092	66
473.311	71
473.53	89
473.749	92
473.968	86
474.187	97
474.406	102
474.625	86
474.844	74
475.063	74
475.282	84
475.501	81
475.72	95
475.939	79
476.158	69
476.377	84
476.596	89
476.814	85
477.033	82
477.252	93
477.471	88
477.69	84
477.908	89
478.127	85
478.346	82
478.564	87
478.783	76
479.002	77
479.22	77
479.439	93
479.658	101
479.876	103
480.095	87
480.313	97
480.532	74
480.751	77
480.969	97
481.188	95
481.406	93
481.624	108
481.843	91
482.061	89
482.28	109
482.498	92
482.717	92
482.935	89
483.153	88
483.372	82
483.59	84
483.808	83
484.027	97
484.245	89
484.463	100
484.681	82
484.9	96
485.118	92
485.336	88
485.554	100
485.772	100
485.99	90
486.209	96
486.427	112
486.645	104
486.863	117
487.081	109
487.299	91
487.517	95
487.735	102
487.953	108
488.171	91
488.389	101
488.607	103
488.825	89
489.043	96
489.261	91
489.479	92
489.696	93
489.914	97
490.132	90
490.35	82
490.568	94
490.786	89
491.003	82
491.221	64
491.439	93
491.657	92
491.874	81
492.092	88
492.31	96
492.527	99
492.745	95
492.963	95
493.18	85
493.398	91
493.615	93
493.833	96
494.05	89
494.268	90
494.485	87
494.703	85
494.92	92
495.138	86
495.355	97
495.573	91
495.79	87
496.008	94
496.225	80
496.442	89
496.66	94
496.877	89
497.094	91
497.312	86
497.529	103
497.746	73
497.963	97
498.181	98
498.398	94
498.615	100
498.832	111
499.049	104
499.267	97
499.484	89
499.701	97
499.918	89
500.135	88
500.352	88
500.569	71
500.786	95
501.003	88
501.22	84
501.437	82
501.654	88
501.871	108
502.088	88
502.305	85
502.522	82
502.739	88
502.956	95
503.172	94
503.389	91
503.606	90
503.823	86
504.04	91
504.256	82
504.473	69
504.69	86
504.907	94
505.123	80
505.34	86
505.557	91
505.773	96
505.99	77
506.207	90
506.423	84
506.64	101
506.856	92
507.073	95
507.289	80
507.506	84
507.722	108
507.939	104
508.155	86
508.372	95
508.588	73
508.805	86
509.021	87
509.238	86
509.454	79
509.67	94
509.887	100
510.103	118
510.319	188
510.536	632
510.752	2023
510.968	568
511.184	148
511.401	105
511.617	96
511.833	80
512.049	82
512.265	87
512.481	83
512.698	81
512.914	89
513.13	100
513.346	86
513.562	84
513.778	90
513.994	103
514.21	92
514.426	115
514.642	111
514.858	119
515.074	148
515.29	372
515.506	1212
515.721	434
515.937	134
516.153	114
516.369	96
516.585	85
516.801	88
517.016	100
517.232	102
517.448	89
517.664	85
517.879	100
518.095	87
518.311	81
518.527	89
518.742	85
518.958	91
519.173	84
519.389	85
519.605	94
519.82	103
520.036	98
520.251	105
520.467	104
520.682	99
520.898	91
521.113	104
521.329	127
521.544	175
521.76	449
521.975	1954
522.19	1216
522.406	263
522.621	126
522.836	113
523.052	104
523.267	94
523.482	100
523.698	93
523.913	103
524.128	100
524.343	88
524.559	91
524.774	88
524.989	108
525.204	88
525.419	90
525.634	90
525.849	91
526.064	94
526.28	77
526.495	82
526.71	79
526.925	80
527.14	95
527.355	85
527.57	89
527.785	85
527.999	92
528.214	97
528.429	89
528.644	97
528.859	98
529.074	90
529.289	105
529.503	159
529.718	89
529.933	80
530.148	79
530.363	86
530.577	98
530.792	108
531.007	97
531.221	89
531.436	89
531.651	77
531.865	99
532.08	92
532.295	89
532.509	88
532.724	87
532.938	89
533.153	95
533.367	103
533.582	87
533.796	91
534.011	84
534.225	98
534.44	90
534.654	100
534.868	94
535.083	96
535.297	94
535.511	101
535.726	101
535.94	92
536.154	85
536.369	80
536.583	71
536.797	101
537.011	88
537.225	73
537.44	88
537.654	101
537.868	101
538.082	85
538.296	89
538.51	84
538.724	85
538.938	102
539.153	88
539.367	106
539.581	86
539.795	84
540.009	89
540.222	78
540.436	86
540.65	79
540.864	72
541.078	89
541.292	92
541.506	96
541.72	98
541.934	86
542.147	81
542.361	104
542.575	88
542.789	79
543.002	86
543.216	82
543.43	88
543.644	83
543.857	77
544.071	82
544.285	88
544.498	89
544.712	97
544.925	85
545.139	96
545.352	79
545.566	82
545.779	76
545.993	69
546.206	83
546.42	84
546.633	80
546.847	93
547.06	82
547.274	80
547.487	89
547.7	85
547.914	82
548.127	86
548.34	89
548.554	81
548.767	82
548.98	78
549.193	85
549.407	89
549.62	85
549.833	85
550.046	74
550.259	93
550.473	98
550.686	102
550.899	92
551.112	92
551.325	87
551.538	80
551.751	77
551.964	90
552.177	90
552.39	79
552.603	82
552.816	87
553.029	84
553.242	93
553.455	102
553.667	102
553.88	81
554.093	93
554.306	108
554.519	93
554.732	85
554.944	91
555.157	94
555.37	101
555.583	91
555.795	98
556.008	89
556.221	88
556.433	81
556.646	90
556.859	89
557.071	92
557.284	96
557.496	85
557.709	82
557.921	96
558.134	90
558.346	90
558.559	77
558.771	81
558.984	96
559.196	80
559.409	79
559.621	87
559.833	96
560.046	88
560.258	100
560.47	94
560.683	84
560.895	72
561.107	73
561.32	95
561.532	91
561.744	90
561.956	95
562.168	83
562.381	79
562.593	99
562.805	88
563.017	90
563.229	96
563.441	74
563.653	97
563.865	96
564.077	85
564.289	96
564.501	76
564.713	105
564.925	81
565.137	100
565.349	94
565.561	85
565.773	92
565.985	81
566.197	85
566.408	99
566.62	79
566.832	70
567.044	81
567.255	101
567.467	73
567.679	96
567.891	80
568.102	90
568.314	85
568.526	83
568.737	83
568.949	96
569.161	86
569.372	96
569.584	74
569.795	82
570.007	101
570.218	196
570.43	118
570.641	87
570.853	92
571.064	86
571.276	90
571.487	92
571.698	81
571.91	86
572.121	88
572.333	89
572.544	90
572.755	88
572.966	88
573.178	98
573.389	85
573.6	94
573.811	82
574.023	81
574.234	102
574.445	77
574.656	98
574.867	102
575.078	86
575.289	91
575.501	100
575.712	84
575.923	79
576.134	78
576.345	105
576.556	96
576.767	94
576.978	84
577.188	83
577.399	105
577.61	97
577.821	86
578.032	112
578.243	250
578.454	672
578.665	207
578.875	97
579.086	89
579.297	80
579.508	88
579.718	83
579.929	85
580.14	82
580.35	91
580.561	90
580.772	92
580.982	83
581.193	82
581.403	89
581.614	97
581.825	92
582.035	81
582.246	78
582.456	98
582.667	84
582.877	81
583.087	86
583.298	81
583.508	90
583.719	78
583.929	80
584.139	97
584.35	86
584.56	84
584.77	89
584.981	83
585.191	88
585.401	78
585.611	84
585.821	94
586.032	93
