Data from Uncirc_2002_H10_HRD10591_00001.txt Node
Date: Wed Jan 03 10:39:41 EST 2024
User: Yrep
Spectrometer: HR+D1059
Trigger mode: 1
Integration Time (sec): 1.000000E-1
Scans to average: 1
Electric dark correction enabled: true
Nonlinearity correction enabled: false
Boxcar width: 0
XAxis mode: Wavelengths
Number of Pixels in Spectrum: 2048
>>>>>Begin Spectral Data<<<<<
223.165	-8.06
223.4	-8.06
223.635	-8.06
223.869	-3.06
224.104	-12.06
224.338	-27.06
224.573	-22.06
224.808	-26.06
225.042	-16.06
225.277	-4.06
225.511	-0.06
225.746	14.94
225.98	7.94
226.215	10.94
226.449	17.94
226.683	15.94
226.918	25.94
227.152	24.94
227.387	29.94
227.621	34.94
227.856	52.94
228.09	59.94
228.324	57.94
228.559	48.94
228.793	45.94
229.027	52.94
229.262	55.94
229.496	71.94
229.73	85.94
229.964	73.94
230.199	69.94
230.433	76.94
230.667	80.94
230.901	69.94
231.136	68.94
231.37	72.94
231.604	79.94
231.838	69.94
232.072	72.94
232.306	75.94
232.541	79.94
232.775	84.94
233.009	57.94
233.243	70.94
233.477	69.94
233.711	87.94
233.945	75.94
234.179	77.94
234.413	69.94
234.647	75.94
234.881	72.94
235.115	65.94
235.349	84.94
235.583	89.94
235.817	75.94
236.051	54.94
236.285	73.94
236.519	68.94
236.753	59.94
236.987	78.94
237.221	79.94
237.455	80.94
237.689	76.94
237.922	76.94
238.156	73.94
238.39	71.94
238.624	62.94
238.858	68.94
239.091	79.94
239.325	71.94
239.559	70.94
239.793	73.94
240.027	68.94
240.26	83.94
240.494	72.94
240.728	84.94
240.961	72.94
241.195	73.94
241.429	74.94
241.662	72.94
241.896	85.94
242.13	71.94
242.363	83.94
242.597	68.94
242.83	71.94
243.064	85.94
243.298	76.94
243.531	77.94
243.765	82.94
243.998	85.94
244.232	70.94
244.465	70.94
244.699	84.94
244.932	72.94
245.166	72.94
245.399	83.94
245.633	84.94
245.866	77.94
246.099	68.94
246.333	84.94
246.566	65.94
246.8	78.94
247.033	72.94
247.266	78.94
247.5	67.94
247.733	80.94
247.966	69.94
248.2	75.94
248.433	91.94
248.666	73.94
248.899	83.94
249.133	68.94
249.366	89.94
249.599	98.94
249.832	75.94
250.066	81.94
250.299	61.94
250.532	76.94
250.765	55.94
250.998	79.94
251.231	76.94
251.465	81.94
251.698	86.94
251.931	79.94
252.164	79.94
252.397	80.94
252.63	79.94
252.863	83.94
253.096	90.94
253.329	92.94
253.562	79.94
253.795	83.94
254.028	85.94
254.261	83.94
254.494	86.94
254.727	88.94
254.96	62.94
255.193	87.94
255.426	71.94
255.659	71.94
255.892	86.94
256.124	74.94
256.357	84.94
256.59	80.94
256.823	79.94
257.056	81.94
257.289	67.94
257.521	81.94
257.754	90.94
257.987	73.94
258.22	88.94
258.452	83.94
258.685	67.94
258.918	70.94
259.151	71.94
259.383	75.94
259.616	81.94
259.849	70.94
260.081	92.94
260.314	89.94
260.547	84.94
260.779	76.94
261.012	79.94
261.244	76.94
261.477	81.94
261.71	81.94
261.942	89.94
262.175	101.94
262.407	88.94
262.64	96.94
262.872	88.94
263.105	77.94
263.337	92.94
263.57	85.94
263.802	85.94
264.035	86.94
264.267	68.94
264.499	85.94
264.732	92.94
264.964	67.94
265.197	79.94
265.429	83.94
265.661	74.94
265.894	68.94
266.126	85.94
266.358	84.94
266.591	90.94
266.823	84.94
267.055	86.94
267.287	62.94
267.52	79.94
267.752	87.94
267.984	73.94
268.216	87.94
268.448	100.94
268.681	84.94
268.913	92.94
269.145	71.94
269.377	83.94
269.609	88.94
269.841	80.94
270.073	77.94
270.306	88.94
270.538	83.94
270.77	77.94
271.002	77.94
271.234	88.94
271.466	72.94
271.698	83.94
271.93	79.94
272.162	91.94
272.394	90.94
272.626	66.94
272.858	87.94
273.09	82.94
273.322	86.94
273.553	77.94
273.785	89.94
274.017	79.94
274.249	69.94
274.481	82.94
274.713	86.94
274.945	78.94
275.176	81.94
275.408	82.94
275.64	75.94
275.872	82.94
276.104	91.94
276.335	85.94
276.567	88.94
276.799	85.94
277.031	90.94
277.262	71.94
277.494	65.94
277.726	77.94
277.957	85.94
278.189	82.94
278.421	77.94
278.652	88.94
278.884	75.94
279.115	80.94
279.347	73.94
279.579	91.94
279.81	79.94
280.042	77.94
280.273	83.94
280.505	92.94
280.736	88.94
280.968	80.94
281.199	82.94
281.431	72.94
281.662	88.94
281.894	83.94
282.125	105.94
282.356	103.94
282.588	129.94
282.819	111.94
283.051	91.94
283.282	88.94
283.513	85.94
283.745	80.94
283.976	83.94
284.207	88.94
284.439	87.94
284.67	84.94
284.901	89.94
285.132	70.94
285.364	82.94
285.595	89.94
285.826	84.94
286.057	83.94
286.288	87.94
286.52	78.94
286.751	91.94
286.982	78.94
287.213	81.94
287.444	82.94
287.675	76.94
287.906	89.94
288.138	81.94
288.369	86.94
288.6	88.94
288.831	87.94
289.062	73.94
289.293	77.94
289.524	67.94
289.755	65.94
289.986	88.94
290.217	75.94
290.448	88.94
290.679	94.94
290.91	94.94
291.141	86.94
291.371	76.94
291.602	84.94
291.833	84.94
292.064	100.94
292.295	78.94
292.526	82.94
292.757	68.94
292.987	72.94
293.218	76.94
293.449	90.94
293.68	91.94
293.91	88.94
294.141	80.94
294.372	86.94
294.603	77.94
294.833	78.94
295.064	102.94
295.295	83.94
295.525	80.94
295.756	101.94
295.987	101.94
296.217	115.94
296.448	112.94
296.679	83.94
296.909	81.94
297.14	82.94
297.37	94.94
297.601	97.94
297.831	86.94
298.062	82.94
298.292	83.94
298.523	86.94
298.753	72.94
298.984	82.94
299.214	67.94
299.445	79.94
299.675	84.94
299.905	88.94
300.136	88.94
300.366	82.94
300.597	87.94
300.827	91.94
301.057	96.94
301.288	87.94
301.518	88.94
301.748	90.94
301.979	111.94
302.209	68.94
302.439	75.94
302.669	84.94
302.9	74.94
303.13	97.94
303.36	99.94
303.59	102.94
303.82	89.94
304.051	92.94
304.281	94.94
304.511	90.94
304.741	97.94
304.971	96.94
305.201	72.94
305.431	83.94
305.661	90.94
305.891	86.94
306.121	86.94
306.352	84.94
306.582	97.94
306.812	85.94
307.042	94.94
307.272	86.94
307.502	74.94
307.731	91.94
307.961	104.94
308.191	91.94
308.421	87.94
308.651	119.94
308.881	81.94
309.111	99.94
309.341	97.94
309.571	83.94
309.8	83.94
310.03	86.94
310.26	83.94
310.49	88.94
310.72	107.94
310.949	98.94
311.179	94.94
311.409	95.94
311.639	88.94
311.868	82.94
312.098	93.94
312.328	88.94
312.557	101.94
312.787	97.94
313.017	102.94
313.246	92.94
313.476	87.94
313.706	95.94
313.935	103.94
314.165	91.94
314.394	96.94
314.624	92.94
314.853	78.94
315.083	79.94
315.312	80.94
315.542	80.94
315.771	79.94
316.001	85.94
316.23	79.94
316.46	89.94
316.689	86.94
316.919	89.94
317.148	92.94
317.377	84.94
317.607	87.94
317.836	96.94
318.065	88.94
318.295	97.94
318.524	85.94
318.753	85.94
318.983	88.94
319.212	83.94
319.441	75.94
319.67	101.94
319.9	97.94
320.129	90.94
320.358	86.94
320.587	102.94
320.816	86.94
321.046	79.94
321.275	106.94
321.504	78.94
321.733	100.94
321.962	91.94
322.191	91.94
322.42	89.94
322.649	95.94
322.878	101.94
323.108	109.94
323.337	116.94
323.566	136.94
323.795	136.94
324.024	187.94
324.253	326.94
324.482	665.94
324.71	1374.94
324.939	1772.94
325.168	638.94
325.397	211.94
325.626	125.94
325.855	103.94
326.084	113.94
326.313	132.94
326.542	145.94
326.77	201.94
326.999	385.94
327.228	822.94
327.457	1419.94
327.686	1128.94
327.914	302.94
328.143	165.94
328.372	139.94
328.6	124.94
328.829	108.94
329.058	108.94
329.287	110.94
329.515	112.94
329.744	95.94
329.972	94.94
330.201	102.94
330.43	110.94
330.658	101.94
330.887	129.94
331.115	110.94
331.344	97.94
331.572	88.94
331.801	99.94
332.03	100.94
332.258	101.94
332.486	86.94
332.715	94.94
332.943	93.94
333.172	101.94
333.4	82.94
333.629	99.94
333.857	103.94
334.085	111.94
334.314	100.94
334.542	88.94
334.771	94.94
334.999	96.94
335.227	107.94
335.455	88.94
335.684	83.94
335.912	99.94
336.14	107.94
336.369	87.94
336.597	83.94
336.825	92.94
337.053	78.94
337.281	91.94
337.51	99.94
337.738	89.94
337.966	87.94
338.194	79.94
338.422	81.94
338.65	95.94
338.878	79.94
339.106	82.94
339.334	89.94
339.562	87.94
339.79	88.94
340.018	77.94
340.246	83.94
340.474	83.94
340.702	88.94
340.93	85.94
341.158	85.94
341.386	94.94
341.614	95.94
341.842	85.94
342.07	101.94
342.298	83.94
342.526	102.94
342.754	89.94
342.981	77.94
343.209	83.94
343.437	91.94
343.665	84.94
343.893	91.94
344.12	88.94
344.348	79.94
344.576	80.94
344.804	96.94
345.031	102.94
345.259	73.94
345.487	82.94
345.714	89.94
345.942	88.94
346.17	89.94
346.397	105.94
346.625	101.94
346.853	99.94
347.08	87.94
347.308	78.94
347.535	86.94
347.763	89.94
347.99	97.94
348.218	96.94
348.445	86.94
348.673	92.94
348.9	86.94
349.128	89.94
349.355	91.94
349.583	103.94
349.81	91.94
350.037	81.94
350.265	100.94
350.492	87.94
350.72	102.94
350.947	91.94
351.174	102.94
351.402	94.94
351.629	87.94
351.856	81.94
352.083	98.94
352.311	105.94
352.538	95.94
352.765	89.94
352.992	84.94
353.22	92.94
353.447	85.94
353.674	110.94
353.901	105.94
354.128	86.94
354.355	97.94
354.583	91.94
354.81	94.94
355.037	87.94
355.264	88.94
355.491	88.94
355.718	76.94
355.945	83.94
356.172	91.94
356.399	99.94
356.626	89.94
356.853	86.94
357.08	81.94
357.307	103.94
357.534	104.94
357.761	100.94
357.988	94.94
358.215	89.94
358.441	83.94
358.668	96.94
358.895	102.94
359.122	101.94
359.349	101.94
359.576	83.94
359.802	91.94
360.029	88.94
360.256	102.94
360.483	88.94
360.709	81.94
360.936	80.94
361.163	79.94
361.39	92.94
361.616	90.94
361.843	75.94
362.07	84.94
362.296	92.94
362.523	89.94
362.749	73.94
362.976	92.94
363.203	93.94
363.429	89.94
363.656	95.94
363.882	77.94
364.109	81.94
364.335	81.94
364.562	90.94
364.788	88.94
365.015	99.94
365.241	94.94
365.468	108.94
365.694	98.94
365.92	96.94
366.147	92.94
366.373	88.94
366.599	75.94
366.826	74.94
367.052	92.94
367.278	93.94
367.505	84.94
367.731	73.94
367.957	89.94
368.184	101.94
368.41	104.94
368.636	100.94
368.862	97.94
369.089	107.94
369.315	92.94
369.541	86.94
369.767	90.94
369.993	78.94
370.219	87.94
370.445	79.94
370.672	94.94
370.898	86.94
371.124	87.94
371.35	76.94
371.576	86.94
371.802	87.94
372.028	86.94
372.254	84.94
372.48	73.94
372.706	86.94
372.932	91.94
373.158	95.94
373.384	90.94
373.61	85.94
373.835	79.94
374.061	108.94
374.287	87.94
374.513	85.94
374.739	96.94
374.965	81.94
375.191	95.94
375.416	88.94
375.642	95.94
375.868	89.94
376.094	102.94
376.319	83.94
376.545	92.94
376.771	85.94
376.997	89.94
377.222	90.94
377.448	96.94
377.674	89.94
377.899	85.94
378.125	82.94
378.35	93.94
378.576	89.94
378.802	76.94
379.027	96.94
379.253	81.94
379.478	97.94
379.704	105.94
379.929	88.94
380.155	96.94
380.38	93.94
380.606	81.94
380.831	99.94
381.057	98.94
381.282	77.94
381.507	89.94
381.733	80.94
381.958	88.94
382.184	93.94
382.409	102.94
382.634	102.94
382.86	92.94
383.085	100.94
383.31	104.94
383.535	108.94
383.761	109.94
383.986	97.94
384.211	94.94
384.436	102.94
384.662	102.94
384.887	96.94
385.112	116.94
385.337	107.94
385.562	103.94
385.787	103.94
386.013	112.94
386.238	104.94
386.463	97.94
386.688	101.94
386.913	116.94
387.138	112.94
387.363	83.94
387.588	102.94
387.813	106.94
388.038	104.94
388.263	131.94
388.488	137.94
388.713	92.94
388.938	90.94
389.163	92.94
389.387	83.94
389.612	83.94
389.837	91.94
390.062	104.94
390.287	90.94
390.512	82.94
390.736	87.94
390.961	86.94
391.186	94.94
391.411	103.94
391.636	89.94
391.86	89.94
392.085	82.94
392.31	83.94
392.534	79.94
392.759	83.94
392.984	89.94
393.208	111.94
393.433	147.94
393.658	124.94
393.882	98.94
394.107	85.94
394.331	82.94
394.556	85.94
394.78	81.94
395.005	84.94
395.229	82.94
395.454	73.94
395.678	84.94
395.903	87.94
396.127	90.94
396.352	87.94
396.576	77.94
396.801	119.94
397.025	108.94
397.249	91.94
397.474	81.94
397.698	80.94
397.922	76.94
398.147	86.94
398.371	77.94
398.595	83.94
398.82	84.94
399.044	89.94
399.268	82.94
399.492	84.94
399.717	75.94
399.941	86.94
400.165	87.94
400.389	84.94
400.613	85.94
400.837	84.94
401.062	99.94
401.286	90.94
401.51	112.94
401.734	88.94
401.958	108.94
402.182	124.94
402.406	127.94
402.63	104.94
402.854	106.94
403.078	96.94
403.302	84.94
403.526	76.94
403.75	91.94
403.974	72.94
404.198	83.94
404.422	89.94
404.645	77.94
404.869	74.94
405.093	100.94
405.317	88.94
405.541	87.94
405.765	98.94
405.988	100.94
406.212	147.94
406.436	166.94
406.66	118.94
406.883	104.94
407.107	101.94
407.331	98.94
407.555	88.94
407.778	97.94
408.002	70.94
408.226	85.94
408.449	88.94
408.673	82.94
408.896	89.94
409.12	99.94
409.344	96.94
409.567	81.94
409.791	92.94
410.014	96.94
410.238	87.94
410.461	86.94
410.685	96.94
410.908	86.94
411.132	104.94
411.355	86.94
411.578	87.94
411.802	83.94
412.025	90.94
412.249	97.94
412.472	89.94
412.695	88.94
412.919	93.94
413.142	83.94
413.365	88.94
413.589	69.94
413.812	66.94
414.035	88.94
414.258	89.94
414.482	78.94
414.705	77.94
414.928	87.94
415.151	80.94
415.374	90.94
415.597	83.94
415.821	84.94
416.044	98.94
416.267	77.94
416.49	89.94
416.713	83.94
416.936	85.94
417.159	88.94
417.382	91.94
417.605	97.94
417.828	88.94
418.051	78.94
418.274	91.94
418.497	80.94
418.72	100.94
418.943	84.94
419.166	83.94
419.389	84.94
419.611	75.94
419.834	93.94
420.057	79.94
420.28	88.94
420.503	91.94
420.726	78.94
420.948	81.94
421.171	84.94
421.394	90.94
421.617	86.94
421.839	85.94
422.062	82.94
422.285	96.94
422.507	88.94
422.73	114.94
422.953	86.94
423.175	89.94
423.398	92.94
423.621	83.94
423.843	88.94
424.066	85.94
424.288	82.94
424.511	95.94
424.733	82.94
424.956	88.94
425.178	91.94
425.401	115.94
425.623	78.94
425.846	76.94
426.068	95.94
426.291	80.94
426.513	76.94
426.735	84.94
426.958	90.94
427.18	92.94
427.402	127.94
427.625	142.94
427.847	116.94
428.069	108.94
428.292	92.94
428.514	77.94
428.736	81.94
428.958	89.94
429.181	78.94
429.403	93.94
429.625	97.94
429.847	84.94
430.069	104.94
430.292	92.94
430.514	109.94
430.736	76.94
430.958	105.94
431.18	84.94
431.402	72.94
431.624	97.94
431.846	84.94
432.068	82.94
432.29	89.94
432.512	82.94
432.734	97.94
432.956	71.94
433.178	83.94
433.4	94.94
433.622	80.94
433.844	89.94
434.066	86.94
434.287	94.94
434.509	99.94
434.731	89.94
434.953	80.94
435.175	74.94
435.397	95.94
435.618	81.94
435.84	95.94
436.062	113.94
436.284	112.94
436.505	94.94
436.727	95.94
436.949	79.94
437.17	85.94
437.392	90.94
437.614	85.94
437.835	98.94
438.057	124.94
438.278	108.94
438.5	105.94
438.721	113.94
438.943	102.94
439.165	93.94
439.386	84.94
439.608	103.94
439.829	94.94
440.05	112.94
440.272	138.94
440.493	85.94
440.715	79.94
440.936	88.94
441.158	83.94
441.379	82.94
441.6	86.94
441.822	91.94
442.043	92.94
442.264	84.94
442.486	89.94
442.707	103.94
442.928	100.94
443.149	138.94
443.371	128.94
443.592	100.94
443.813	102.94
444.034	98.94
444.255	105.94
444.476	89.94
444.698	86.94
444.919	83.94
445.14	137.94
445.361	116.94
445.582	111.94
445.803	121.94
446.024	122.94
446.245	124.94
446.466	107.94
446.687	86.94
446.908	89.94
447.129	90.94
447.35	89.94
447.571	87.94
447.792	96.94
448.013	95.94
448.234	89.94
448.455	96.94
448.675	100.94
448.896	98.94
449.117	91.94
449.338	103.94
449.559	123.94
449.779	124.94
450	83.94
450.221	81.94
450.442	75.94
450.662	104.94
450.883	99.94
451.104	96.94
451.324	103.94
451.545	84.94
451.766	94.94
451.986	77.94
452.207	89.94
452.428	92.94
452.648	87.94
452.869	93.94
453.089	107.94
453.31	118.94
453.53	77.94
453.751	77.94
453.971	89.94
454.192	89.94
454.412	92.94
454.633	81.94
454.853	83.94
455.073	88.94
455.294	70.94
455.514	99.94
455.734	90.94
455.955	79.94
456.175	87.94
456.395	80.94
456.616	80.94
456.836	80.94
457.056	78.94
457.276	86.94
457.497	75.94
457.717	74.94
457.937	96.94
458.157	88.94
458.377	86.94
458.598	92.94
458.818	134.94
459.038	129.94
459.258	97.94
459.478	99.94
459.698	82.94
459.918	82.94
460.138	84.94
460.358	75.94
460.578	96.94
460.798	85.94
461.018	91.94
461.238	85.94
461.458	91.94
461.678	71.94
461.898	88.94
462.118	80.94
462.338	93.94
462.558	87.94
462.777	77.94
462.997	82.94
463.217	87.94
463.437	82.94
463.657	75.94
463.876	75.94
464.096	85.94
464.316	92.94
464.536	97.94
464.755	93.94
464.975	97.94
465.195	127.94
465.414	151.94
465.634	89.94
465.854	88.94
466.073	92.94
466.293	85.94
466.512	83.94
466.732	96.94
466.951	84.94
467.171	97.94
467.391	100.94
467.61	91.94
467.829	87.94
468.049	84.94
468.268	88.94
468.488	87.94
468.707	84.94
468.927	80.94
469.146	85.94
469.365	81.94
469.585	75.94
469.804	86.94
470.023	86.94
470.243	96.94
470.462	95.94
470.681	96.94
470.901	95.94
471.12	94.94
471.339	93.94
471.558	73.94
471.777	86.94
471.997	90.94
472.216	97.94
472.435	83.94
472.654	81.94
472.873	78.94
473.092	85.94
473.311	87.94
473.53	80.94
473.749	81.94
473.968	79.94
474.187	89.94
474.406	74.94
474.625	88.94
474.844	82.94
475.063	87.94
475.282	84.94
475.501	82.94
475.72	107.94
475.939	73.94
476.158	93.94
476.377	79.94
476.596	84.94
476.814	98.94
477.033	82.94
477.252	82.94
477.471	84.94
477.69	81.94
477.908	92.94
478.127	105.94
478.346	90.94
478.564	80.94
478.783	80.94
479.002	81.94
479.22	94.94
479.439	90.94
479.658	81.94
479.876	86.94
480.095	103.94
480.313	89.94
480.532	76.94
480.751	77.94
480.969	93.94
481.188	103.94
481.406	100.94
481.624	83.94
481.843	81.94
482.061	77.94
482.28	85.94
482.498	86.94
482.717	81.94
482.935	80.94
483.153	78.94
483.372	85.94
483.59	79.94
483.808	70.94
484.027	80.94
484.245	77.94
484.463	78.94
484.681	98.94
484.9	79.94
485.118	85.94
485.336	91.94
485.554	87.94
485.772	105.94
485.99	88.94
486.209	95.94
486.427	95.94
486.645	107.94
486.863	84.94
487.081	89.94
487.299	115.94
487.517	86.94
487.735	101.94
487.953	92.94
488.171	81.94
488.389	97.94
488.607	105.94
488.825	100.94
489.043	96.94
489.261	83.94
489.479	86.94
489.696	98.94
489.914	81.94
490.132	86.94
490.35	75.94
490.568	85.94
490.786	85.94
491.003	86.94
491.221	83.94
491.439	79.94
491.657	94.94
491.874	85.94
492.092	78.94
492.31	69.94
492.527	89.94
492.745	106.94
492.963	81.94
493.18	87.94
493.398	88.94
493.615	97.94
493.833	93.94
494.05	97.94
494.268	82.94
494.485	87.94
494.703	96.94
494.92	91.94
495.138	88.94
495.355	87.94
495.573	90.94
495.79	88.94
496.008	84.94
496.225	96.94
496.442	76.94
496.66	81.94
496.877	99.94
497.094	85.94
497.312	93.94
497.529	82.94
497.746	87.94
497.963	86.94
498.181	112.94
498.398	100.94
498.615	109.94
498.832	95.94
499.049	81.94
499.267	87.94
499.484	95.94
499.701	76.94
499.918	89.94
500.135	87.94
500.352	80.94
500.569	90.94
500.786	87.94
501.003	94.94
501.22	87.94
501.437	91.94
501.654	81.94
501.871	111.94
502.088	89.94
502.305	82.94
502.522	78.94
502.739	84.94
502.956	72.94
503.172	95.94
503.389	94.94
503.606	91.94
503.823	89.94
504.04	91.94
504.256	82.94
504.473	84.94
504.69	107.94
504.907	94.94
505.123	79.94
505.34	95.94
505.557	81.94
505.773	85.94
505.99	79.94
506.207	88.94
506.423	91.94
506.64	74.94
506.856	79.94
507.073	89.94
507.289	79.94
507.506	89.94
507.722	101.94
507.939	95.94
508.155	96.94
508.372	92.94
508.588	91.94
508.805	86.94
509.021	73.94
509.238	83.94
509.454	91.94
509.67	97.94
509.887	133.94
510.103	111.94
510.319	189.94
510.536	603.94
510.752	1832.94
510.968	531.94
511.184	137.94
511.401	105.94
511.617	98.94
511.833	80.94
512.049	92.94
512.265	100.94
512.481	97.94
512.698	100.94
512.914	76.94
513.13	85.94
513.346	87.94
513.562	103.94
513.778	89.94
513.994	90.94
514.21	100.94
514.426	95.94
514.642	121.94
514.858	110.94
515.074	133.94
515.29	364.94
515.506	1126.94
515.721	408.94
515.937	140.94
516.153	118.94
516.369	93.94
516.585	103.94
516.801	88.94
517.016	86.94
