Data from Uncirc_2002_H10_HRD10591_00036.txt Node
Date: Wed Jan 03 10:39:48 EST 2024
User: Yrep
Spectrometer: HR+D1059
Trigger mode: 1
Integration Time (sec): 1.000000E-1
Scans to average: 1
Electric dark correction enabled: true
Nonlinearity correction enabled: false
Boxcar width: 0
XAxis mode: Wavelengths
Number of Pixels in Spectrum: 2048
>>>>>Begin Spectral Data<<<<<
223.165	-18.88
223.4	-18.88
223.635	-18.88
223.869	-13.88
224.104	-21.88
224.338	-7.88
224.573	-12.88
224.808	-15.88
225.042	1.12
225.277	-11.88
225.511	-4.88
225.746	9.12
225.98	11.12
226.215	9.12
226.449	15.12
226.683	13.12
226.918	30.12
227.152	19.12
227.387	24.12
227.621	29.12
227.856	41.12
228.09	41.12
228.324	45.12
228.559	64.12
228.793	52.12
229.027	67.12
229.262	65.12
229.496	64.12
229.73	80.12
229.964	74.12
230.199	69.12
230.433	77.12
230.667	82.12
230.901	86.12
231.136	81.12
231.37	73.12
231.604	70.12
231.838	71.12
232.072	86.12
232.306	74.12
232.541	71.12
232.775	82.12
233.009	86.12
233.243	72.12
233.477	71.12
233.711	85.12
233.945	83.12
234.179	85.12
234.413	85.12
234.647	90.12
234.881	85.12
235.115	77.12
235.349	81.12
235.583	90.12
235.817	79.12
236.051	84.12
236.285	66.12
236.519	77.12
236.753	85.12
236.987	73.12
237.221	83.12
237.455	81.12
237.689	72.12
237.922	66.12
238.156	73.12
238.39	59.12
238.624	78.12
238.858	80.12
239.091	83.12
239.325	67.12
239.559	84.12
239.793	67.12
240.027	78.12
240.26	74.12
240.494	92.12
240.728	74.12
240.961	85.12
241.195	78.12
241.429	75.12
241.662	65.12
241.896	81.12
242.13	77.12
242.363	62.12
242.597	81.12
242.83	67.12
243.064	89.12
243.298	62.12
243.531	81.12
243.765	77.12
243.998	76.12
244.232	69.12
244.465	82.12
244.699	85.12
244.932	88.12
245.166	87.12
245.399	81.12
245.633	70.12
245.866	63.12
246.099	89.12
246.333	77.12
246.566	77.12
246.8	76.12
247.033	79.12
247.266	78.12
247.5	78.12
247.733	101.12
247.966	91.12
248.2	77.12
248.433	76.12
248.666	76.12
248.899	85.12
249.133	72.12
249.366	94.12
249.599	92.12
249.832	71.12
250.066	78.12
250.299	85.12
250.532	89.12
250.765	76.12
250.998	103.12
251.231	72.12
251.465	80.12
251.698	64.12
251.931	73.12
252.164	74.12
252.397	85.12
252.63	76.12
252.863	92.12
253.096	85.12
253.329	94.12
253.562	74.12
253.795	71.12
254.028	83.12
254.261	88.12
254.494	75.12
254.727	83.12
254.96	88.12
255.193	89.12
255.426	80.12
255.659	67.12
255.892	88.12
256.124	73.12
256.357	78.12
256.59	78.12
256.823	73.12
257.056	86.12
257.289	101.12
257.521	65.12
257.754	73.12
257.987	70.12
258.22	88.12
258.452	72.12
258.685	89.12
258.918	84.12
259.151	84.12
259.383	100.12
259.616	71.12
259.849	67.12
260.081	82.12
260.314	85.12
260.547	77.12
260.779	80.12
261.012	82.12
261.244	86.12
261.477	107.12
261.71	105.12
261.942	110.12
262.175	115.12
262.407	72.12
262.64	80.12
262.872	106.12
263.105	91.12
263.337	89.12
263.57	88.12
263.802	87.12
264.035	83.12
264.267	72.12
264.499	73.12
264.732	79.12
264.964	82.12
265.197	90.12
265.429	79.12
265.661	92.12
265.894	77.12
266.126	77.12
266.358	87.12
266.591	83.12
266.823	76.12
267.055	77.12
267.287	88.12
267.52	86.12
267.752	80.12
267.984	82.12
268.216	77.12
268.448	72.12
268.681	91.12
268.913	85.12
269.145	85.12
269.377	94.12
269.609	93.12
269.841	87.12
270.073	83.12
270.306	72.12
270.538	81.12
270.77	102.12
271.002	87.12
271.234	74.12
271.466	63.12
271.698	78.12
271.93	69.12
272.162	95.12
272.394	101.12
272.626	82.12
272.858	91.12
273.09	93.12
273.322	94.12
273.553	78.12
273.785	90.12
274.017	75.12
274.249	93.12
274.481	89.12
274.713	99.12
274.945	82.12
275.176	82.12
275.408	80.12
275.64	89.12
275.872	85.12
276.104	73.12
276.335	85.12
276.567	94.12
276.799	95.12
277.031	83.12
277.262	89.12
277.494	80.12
277.726	93.12
277.957	83.12
278.189	84.12
278.421	82.12
278.652	79.12
278.884	95.12
279.115	85.12
279.347	81.12
279.579	88.12
279.81	70.12
280.042	81.12
280.273	91.12
280.505	78.12
280.736	97.12
280.968	83.12
281.199	101.12
281.431	80.12
281.662	74.12
281.894	88.12
282.125	90.12
282.356	106.12
282.588	128.12
282.819	117.12
283.051	101.12
283.282	90.12
283.513	89.12
283.745	98.12
283.976	72.12
284.207	77.12
284.439	80.12
284.67	88.12
284.901	90.12
285.132	89.12
285.364	82.12
285.595	79.12
285.826	86.12
286.057	70.12
286.288	83.12
286.52	88.12
286.751	83.12
286.982	97.12
287.213	92.12
287.444	91.12
287.675	78.12
287.906	89.12
288.138	80.12
288.369	87.12
288.6	93.12
288.831	78.12
289.062	92.12
289.293	93.12
289.524	90.12
289.755	85.12
289.986	68.12
290.217	85.12
290.448	94.12
290.679	82.12
290.91	69.12
291.141	75.12
291.371	93.12
291.602	88.12
291.833	82.12
292.064	86.12
292.295	70.12
292.526	98.12
292.757	100.12
292.987	78.12
293.218	90.12
293.449	81.12
293.68	65.12
293.91	85.12
294.141	91.12
294.372	81.12
294.603	98.12
294.833	81.12
295.064	88.12
295.295	81.12
295.525	92.12
295.756	96.12
295.987	110.12
296.217	120.12
296.448	103.12
296.679	104.12
296.909	108.12
297.14	83.12
297.37	88.12
297.601	104.12
297.831	90.12
298.062	80.12
298.292	89.12
298.523	80.12
298.753	115.12
298.984	82.12
299.214	84.12
299.445	82.12
299.675	102.12
299.905	90.12
300.136	109.12
300.366	83.12
300.597	96.12
300.827	82.12
301.057	96.12
301.288	97.12
301.518	103.12
301.748	71.12
301.979	107.12
302.209	98.12
302.439	81.12
302.669	78.12
302.9	96.12
303.13	81.12
303.36	84.12
303.59	98.12
303.82	91.12
304.051	97.12
304.281	80.12
304.511	85.12
304.741	94.12
304.971	84.12
305.201	84.12
305.431	84.12
305.661	81.12
305.891	81.12
306.121	86.12
306.352	84.12
306.582	89.12
306.812	87.12
307.042	104.12
307.272	91.12
307.502	84.12
307.731	95.12
307.961	95.12
308.191	82.12
308.421	83.12
308.651	89.12
308.881	98.12
309.111	93.12
309.341	94.12
309.571	97.12
309.8	82.12
310.03	88.12
310.26	99.12
310.49	96.12
310.72	88.12
310.949	109.12
311.179	99.12
311.409	96.12
311.639	86.12
311.868	85.12
312.098	80.12
312.328	92.12
312.557	86.12
312.787	101.12
313.017	96.12
313.246	79.12
313.476	88.12
313.706	91.12
313.935	102.12
314.165	88.12
314.394	93.12
314.624	110.12
314.853	92.12
315.083	97.12
315.312	78.12
315.542	94.12
315.771	103.12
316.001	85.12
316.23	89.12
316.46	94.12
316.689	79.12
316.919	102.12
317.148	102.12
317.377	84.12
317.607	102.12
317.836	79.12
318.065	95.12
318.295	88.12
318.524	91.12
318.753	98.12
318.983	97.12
319.212	90.12
319.441	109.12
319.67	99.12
319.9	99.12
320.129	89.12
320.358	88.12
320.587	92.12
320.816	97.12
321.046	95.12
321.275	91.12
321.504	108.12
321.733	81.12
321.962	106.12
322.191	97.12
322.42	94.12
322.649	119.12
322.878	117.12
323.108	114.12
323.337	114.12
323.566	126.12
323.795	126.12
324.024	184.12
324.253	349.12
324.482	719.12
324.71	1479.12
324.939	1965.12
325.168	717.12
325.397	205.12
325.626	129.12
325.855	125.12
326.084	126.12
326.313	121.12
326.542	141.12
326.77	219.12
326.999	403.12
327.228	810.12
327.457	1465.12
327.686	1186.12
327.914	325.12
328.143	181.12
328.372	133.12
328.6	121.12
328.829	127.12
329.058	109.12
329.287	119.12
329.515	95.12
329.744	102.12
329.972	106.12
330.201	95.12
330.43	101.12
330.658	106.12
330.887	130.12
331.115	114.12
331.344	101.12
331.572	90.12
331.801	106.12
332.03	101.12
332.258	94.12
332.486	85.12
332.715	101.12
332.943	84.12
333.172	103.12
333.4	94.12
333.629	91.12
333.857	97.12
334.085	105.12
334.314	92.12
334.542	86.12
334.771	97.12
334.999	92.12
335.227	95.12
335.455	91.12
335.684	84.12
335.912	87.12
336.14	94.12
336.369	84.12
336.597	87.12
336.825	92.12
337.053	86.12
337.281	89.12
337.51	87.12
337.738	87.12
337.966	86.12
338.194	101.12
338.422	93.12
338.65	79.12
338.878	95.12
339.106	80.12
339.334	95.12
339.562	85.12
339.79	84.12
340.018	89.12
340.246	86.12
340.474	90.12
340.702	87.12
340.93	97.12
341.158	85.12
341.386	84.12
341.614	84.12
341.842	88.12
342.07	80.12
342.298	90.12
342.526	81.12
342.754	90.12
342.981	89.12
343.209	90.12
343.437	97.12
343.665	91.12
343.893	98.12
344.12	98.12
344.348	97.12
344.576	98.12
344.804	95.12
345.031	85.12
345.259	93.12
345.487	93.12
345.714	102.12
345.942	93.12
346.17	93.12
346.397	79.12
346.625	97.12
346.853	90.12
347.08	88.12
347.308	94.12
347.535	102.12
347.763	101.12
347.99	95.12
348.218	82.12
348.445	83.12
348.673	95.12
348.9	99.12
349.128	90.12
349.355	90.12
349.583	87.12
349.81	85.12
350.037	86.12
350.265	95.12
350.492	89.12
350.72	109.12
350.947	107.12
351.174	107.12
351.402	108.12
351.629	105.12
351.856	98.12
352.083	91.12
352.311	97.12
352.538	104.12
352.765	111.12
352.992	109.12
353.22	99.12
353.447	112.12
353.674	91.12
353.901	81.12
354.128	91.12
354.355	90.12
354.583	109.12
354.81	81.12
355.037	89.12
355.264	90.12
355.491	88.12
355.718	77.12
355.945	85.12
356.172	96.12
356.399	82.12
356.626	102.12
356.853	90.12
357.08	75.12
357.307	86.12
357.534	111.12
357.761	88.12
357.988	86.12
358.215	97.12
358.441	100.12
358.668	91.12
358.895	95.12
359.122	88.12
359.349	77.12
359.576	90.12
359.802	91.12
360.029	89.12
360.256	98.12
360.483	97.12
360.709	93.12
360.936	92.12
361.163	91.12
361.39	88.12
361.616	87.12
361.843	82.12
362.07	90.12
362.296	86.12
362.523	89.12
362.749	90.12
362.976	90.12
363.203	97.12
363.429	80.12
363.656	71.12
363.882	72.12
364.109	89.12
364.335	90.12
364.562	89.12
364.788	99.12
365.015	91.12
365.241	93.12
365.468	100.12
365.694	103.12
365.92	92.12
366.147	81.12
366.373	81.12
366.599	79.12
366.826	94.12
367.052	85.12
367.278	94.12
367.505	85.12
367.731	83.12
367.957	93.12
368.184	97.12
368.41	96.12
368.636	113.12
368.862	107.12
369.089	86.12
369.315	73.12
369.541	97.12
369.767	86.12
369.993	90.12
370.219	83.12
370.445	97.12
370.672	80.12
370.898	96.12
371.124	104.12
371.35	87.12
371.576	75.12
371.802	89.12
372.028	92.12
372.254	89.12
372.48	91.12
372.706	88.12
372.932	102.12
373.158	100.12
373.384	88.12
373.61	87.12
373.835	84.12
374.061	89.12
374.287	91.12
374.513	90.12
374.739	100.12
374.965	100.12
375.191	94.12
375.416	87.12
375.642	100.12
375.868	83.12
376.094	96.12
376.319	94.12
376.545	89.12
376.771	84.12
376.997	90.12
377.222	72.12
377.448	75.12
377.674	101.12
377.899	80.12
378.125	99.12
378.35	85.12
378.576	91.12
378.802	85.12
379.027	90.12
379.253	92.12
379.478	95.12
379.704	88.12
379.929	98.12
380.155	87.12
380.38	81.12
380.606	104.12
380.831	96.12
381.057	105.12
381.282	86.12
381.507	88.12
381.733	97.12
381.958	103.12
382.184	105.12
382.409	97.12
382.634	96.12
382.86	89.12
383.085	98.12
383.31	101.12
383.535	115.12
383.761	114.12
383.986	98.12
384.211	96.12
384.436	93.12
384.662	102.12
384.887	100.12
385.112	125.12
385.337	89.12
385.562	98.12
385.787	85.12
386.013	96.12
386.238	120.12
386.463	96.12
386.688	97.12
386.913	97.12
387.138	97.12
387.363	90.12
387.588	103.12
387.813	92.12
388.038	99.12
388.263	97.12
388.488	86.12
388.713	99.12
388.938	106.12
389.163	91.12
389.387	96.12
389.612	93.12
389.837	95.12
390.062	98.12
390.287	97.12
390.512	94.12
390.736	102.12
390.961	85.12
391.186	88.12
391.411	91.12
391.636	82.12
391.86	89.12
392.085	84.12
392.31	93.12
392.534	83.12
392.759	87.12
392.984	93.12
393.208	86.12
393.433	106.12
393.658	94.12
393.882	80.12
394.107	93.12
394.331	93.12
394.556	87.12
394.78	85.12
395.005	85.12
395.229	87.12
395.454	93.12
395.678	87.12
395.903	101.12
396.127	91.12
396.352	90.12
396.576	90.12
396.801	105.12
397.025	104.12
397.249	92.12
397.474	90.12
397.698	94.12
397.922	88.12
398.147	95.12
398.371	97.12
398.595	85.12
398.82	75.12
399.044	91.12
399.268	82.12
399.492	83.12
399.717	94.12
399.941	102.12
400.165	82.12
400.389	91.12
400.613	84.12
400.837	72.12
401.062	90.12
401.286	92.12
401.51	92.12
401.734	84.12
401.958	97.12
402.182	126.12
402.406	150.12
402.63	123.12
402.854	107.12
403.078	91.12
403.302	90.12
403.526	96.12
403.75	89.12
403.974	89.12
404.198	89.12
404.422	70.12
404.645	87.12
404.869	94.12
405.093	88.12
405.317	99.12
405.541	82.12
405.765	96.12
405.988	112.12
406.212	154.12
406.436	215.12
406.66	139.12
406.883	86.12
407.107	94.12
407.331	101.12
407.555	93.12
407.778	94.12
408.002	89.12
408.226	88.12
408.449	94.12
408.673	80.12
408.896	87.12
409.12	88.12
409.344	89.12
409.567	91.12
409.791	105.12
410.014	95.12
410.238	89.12
410.461	85.12
410.685	89.12
410.908	103.12
411.132	102.12
411.355	94.12
411.578	75.12
411.802	83.12
412.025	92.12
412.249	86.12
412.472	82.12
412.695	95.12
412.919	82.12
413.142	69.12
413.365	88.12
413.589	82.12
413.812	106.12
414.035	87.12
414.258	80.12
414.482	83.12
414.705	63.12
414.928	87.12
415.151	93.12
415.374	88.12
415.597	93.12
415.821	98.12
416.044	88.12
416.267	93.12
416.49	81.12
416.713	85.12
416.936	96.12
417.159	84.12
417.382	86.12
417.605	74.12
417.828	90.12
418.051	88.12
418.274	94.12
418.497	82.12
418.72	81.12
418.943	86.12
419.166	89.12
419.389	94.12
419.611	87.12
419.834	77.12
420.057	86.12
420.28	90.12
420.503	86.12
420.726	78.12
420.948	95.12
421.171	102.12
421.394	81.12
421.617	82.12
421.839	79.12
422.062	86.12
422.285	75.12
422.507	90.12
422.73	86.12
422.953	91.12
423.175	95.12
423.398	90.12
423.621	83.12
423.843	85.12
424.066	86.12
424.288	91.12
424.511	85.12
424.733	87.12
424.956	95.12
425.178	98.12
425.401	95.12
425.623	85.12
425.846	79.12
426.068	87.12
426.291	94.12
426.513	98.12
426.735	78.12
426.958	82.12
427.18	103.12
427.402	114.12
427.625	158.12
427.847	106.12
428.069	95.12
428.292	91.12
428.514	81.12
428.736	69.12
428.958	82.12
429.181	78.12
429.403	85.12
429.625	73.12
429.847	87.12
430.069	91.12
430.292	87.12
430.514	89.12
430.736	86.12
430.958	79.12
431.18	81.12
431.402	84.12
431.624	86.12
431.846	105.12
432.068	88.12
432.29	93.12
432.512	77.12
432.734	89.12
432.956	105.12
433.178	89.12
433.4	94.12
433.622	104.12
433.844	84.12
434.066	81.12
434.287	93.12
434.509	88.12
434.731	93.12
434.953	76.12
435.175	88.12
435.397	86.12
435.618	96.12
435.84	103.12
436.062	122.12
436.284	95.12
436.505	99.12
436.727	102.12
436.949	91.12
437.17	94.12
437.392	100.12
437.614	92.12
437.835	102.12
438.057	114.12
438.278	103.12
438.5	87.12
438.721	106.12
438.943	98.12
439.165	96.12
439.386	85.12
439.608	98.12
439.829	103.12
440.05	100.12
440.272	126.12
440.493	92.12
440.715	82.12
440.936	80.12
441.158	86.12
441.379	77.12
441.6	102.12
441.822	94.12
442.043	83.12
442.264	111.12
442.486	94.12
442.707	104.12
442.928	100.12
443.149	127.12
443.371	105.12
443.592	97.12
443.813	117.12
444.034	90.12
444.255	89.12
444.476	80.12
444.698	95.12
444.919	87.12
445.14	125.12
445.361	130.12
445.582	100.12
445.803	124.12
446.024	133.12
446.245	124.12
446.466	101.12
446.687	82.12
446.908	70.12
447.129	91.12
447.35	86.12
447.571	85.12
447.792	97.12
448.013	103.12
448.234	91.12
448.455	85.12
448.675	93.12
448.896	99.12
449.117	83.12
449.338	99.12
449.559	115.12
449.779	123.12
450	91.12
450.221	103.12
450.442	82.12
450.662	90.12
450.883	114.12
451.104	103.12
451.324	85.12
451.545	100.12
451.766	78.12
451.986	84.12
452.207	85.12
452.428	87.12
452.648	97.12
452.869	104.12
453.089	101.12
453.31	113.12
453.53	94.12
453.751	100.12
453.971	103.12
454.192	84.12
454.412	104.12
454.633	72.12
454.853	80.12
455.073	83.12
455.294	85.12
455.514	89.12
455.734	102.12
455.955	87.12
456.175	67.12
456.395	81.12
456.616	69.12
456.836	79.12
457.056	78.12
457.276	83.12
457.497	81.12
457.717	98.12
457.937	97.12
458.157	76.12
458.377	82.12
458.598	108.12
458.818	145.12
459.038	160.12
459.258	109.12
459.478	90.12
459.698	90.12
459.918	66.12
460.138	72.12
460.358	76.12
460.578	80.12
460.798	90.12
461.018	81.12
461.238	86.12
461.458	83.12
461.678	94.12
461.898	78.12
462.118	77.12
462.338	95.12
462.558	90.12
462.777	82.12
462.997	91.12
463.217	73.12
463.437	73.12
463.657	87.12
463.876	97.12
464.096	93.12
464.316	84.12
464.536	88.12
464.755	80.12
464.975	113.12
465.195	141.12
465.414	138.12
465.634	100.12
465.854	85.12
466.073	74.12
466.293	94.12
466.512	102.12
466.732	87.12
466.951	90.12
467.171	91.12
467.391	82.12
467.61	101.12
467.829	90.12
468.049	88.12
468.268	83.12
468.488	79.12
468.707	76.12
468.927	91.12
469.146	93.12
469.365	76.12
469.585	87.12
469.804	92.12
470.023	94.12
470.243	91.12
470.462	90.12
470.681	112.12
470.901	87.12
471.12	97.12
471.339	68.12
471.558	81.12
471.777	110.12
471.997	98.12
472.216	87.12
472.435	85.12
472.654	85.12
472.873	72.12
473.092	87.12
473.311	73.12
473.53	77.12
473.749	94.12
473.968	103.12
474.187	101.12
474.406	83.12
474.625	86.12
474.844	91.12
475.063	93.12
475.282	91.12
475.501	79.12
475.72	83.12
475.939	90.12
476.158	82.12
476.377	84.12
476.596	89.12
476.814	94.12
477.033	91.12
477.252	96.12
477.471	98.12
477.69	83.12
477.908	82.12
478.127	90.12
478.346	96.12
478.564	92.12
478.783	94.12
479.002	96.12
479.22	98.12
479.439	69.12
479.658	106.12
479.876	85.12
480.095	76.12
480.313	83.12
480.532	86.12
480.751	89.12
480.969	91.12
481.188	114.12
481.406	94.12
481.624	99.12
481.843	81.12
482.061	100.12
482.28	87.12
482.498	93.12
482.717	91.12
482.935	92.12
483.153	88.12
483.372	98.12
483.59	97.12
483.808	78.12
484.027	105.12
484.245	111.12
484.463	106.12
484.681	101.12
484.9	83.12
485.118	97.12
485.336	90.12
485.554	95.12
485.772	95.12
485.99	109.12
486.209	102.12
486.427	106.12
486.645	116.12
486.863	99.12
487.081	101.12
487.299	93.12
487.517	89.12
487.735	98.12
487.953	108.12
488.171	98.12
488.389	101.12
488.607	97.12
488.825	94.12
489.043	75.12
489.261	86.12
489.479	91.12
489.696	93.12
489.914	96.12
490.132	89.12
490.35	92.12
490.568	93.12
490.786	90.12
491.003	98.12
491.221	85.12
491.439	83.12
491.657	90.12
491.874	107.12
492.092	93.12
492.31	89.12
492.527	87.12
492.745	105.12
492.963	81.12
493.18	84.12
493.398	87.12
493.615	95.12
493.833	89.12
494.05	76.12
494.268	99.12
494.485	103.12
494.703	101.12
494.92	92.12
495.138	86.12
495.355	93.12
495.573	86.12
495.79	88.12
496.008	93.12
496.225	87.12
496.442	98.12
496.66	95.12
496.877	102.12
497.094	90.12
497.312	93.12
497.529	88.12
497.746	89.12
497.963	83.12
498.181	80.12
498.398	94.12
498.615	110.12
498.832	103.12
499.049	83.12
499.267	90.12
499.484	102.12
499.701	88.12
499.918	86.12
500.135	83.12
500.352	97.12
500.569	79.12
500.786	89.12
501.003	83.12
501.22	94.12
501.437	89.12
501.654	89.12
501.871	95.12
502.088	73.12
502.305	79.12
502.522	81.12
502.739	87.12
502.956	92.12
503.172	95.12
503.389	82.12
503.606	117.12
503.823	111.12
504.04	90.12
504.256	89.12
504.473	90.12
504.69	82.12
504.907	100.12
505.123	101.12
505.34	89.12
505.557	100.12
505.773	88.12
505.99	94.12
506.207	91.12
506.423	77.12
506.64	90.12
506.856	96.12
507.073	93.12
507.289	85.12
507.506	107.12
507.722	118.12
507.939	104.12
508.155	90.12
508.372	86.12
508.588	87.12
508.805	100.12
509.021	102.12
509.238	93.12
509.454	90.12
509.67	93.12
509.887	101.12
510.103	131.12
510.319	201.12
510.536	702.12
510.752	2159.12
510.968	623.12
511.184	144.12
511.401	107.12
511.617	95.12
511.833	97.12
512.049	90.12
512.265	83.12
512.481	83.12
512.698	95.12
512.914	96.12
513.13	108.12
513.346	85.12
513.562	97.12
513.778	108.12
513.994	88.12
514.21	101.12
514.426	119.12
514.642	122.12
514.858	111.12
515.074	170.12
515.29	414.12
515.506	1306.12
515.721	488.12
515.937	151.12
516.153	121.12
516.369	88.12
