Data from Uncirc_2002_H10_HRD10591_00053.txt Node
Date: Wed Jan 03 10:39:51 EST 2024
User: Yrep
Spectrometer: HR+D1059
Trigger mode: 1
Integration Time (sec): 1.000000E-1
Scans to average: 1
Electric dark correction enabled: true
Nonlinearity correction enabled: false
Boxcar width: 0
XAxis mode: Wavelengths
Number of Pixels in Spectrum: 2048
>>>>>Begin Spectral Data<<<<<
223.165	-16.44
223.4	-16.44
223.635	-16.44
223.869	-12.44
224.104	-25.44
224.338	-6.44
224.573	-11.44
224.808	-13.44
225.042	-7.44
225.277	-7.44
225.511	-4.44
225.746	12.56
225.98	0.56
226.215	25.56
226.449	10.56
226.683	12.56
226.918	23.56
227.152	19.56
227.387	36.56
227.621	31.56
227.856	57.56
228.09	59.56
228.324	59.56
228.559	67.56
228.793	40.56
229.027	59.56
229.262	58.56
229.496	66.56
229.73	69.56
229.964	84.56
230.199	65.56
230.433	75.56
230.667	92.56
230.901	88.56
231.136	81.56
231.37	75.56
231.604	80.56
231.838	70.56
232.072	79.56
232.306	81.56
232.541	78.56
232.775	79.56
233.009	80.56
233.243	78.56
233.477	93.56
233.711	70.56
233.945	78.56
234.179	75.56
234.413	86.56
234.647	77.56
234.881	96.56
235.115	90.56
235.349	81.56
235.583	87.56
235.817	76.56
236.051	75.56
236.285	88.56
236.519	89.56
236.753	76.56
236.987	74.56
237.221	90.56
237.455	80.56
237.689	79.56
237.922	83.56
238.156	80.56
238.39	81.56
238.624	79.56
238.858	66.56
239.091	70.56
239.325	73.56
239.559	83.56
239.793	84.56
240.027	82.56
240.26	74.56
240.494	75.56
240.728	86.56
240.961	70.56
241.195	84.56
241.429	83.56
241.662	84.56
241.896	83.56
242.13	86.56
242.363	79.56
242.597	65.56
242.83	82.56
243.064	88.56
243.298	78.56
243.531	78.56
243.765	92.56
243.998	71.56
244.232	84.56
244.465	94.56
244.699	82.56
244.932	65.56
245.166	81.56
245.399	77.56
245.633	83.56
245.866	76.56
246.099	85.56
246.333	82.56
246.566	82.56
246.8	86.56
247.033	74.56
247.266	59.56
247.5	81.56
247.733	85.56
247.966	83.56
248.2	80.56
248.433	71.56
248.666	72.56
248.899	69.56
249.133	87.56
249.366	85.56
249.599	100.56
249.832	72.56
250.066	82.56
250.299	87.56
250.532	84.56
250.765	78.56
250.998	64.56
251.231	68.56
251.465	76.56
251.698	78.56
251.931	81.56
252.164	75.56
252.397	79.56
252.63	92.56
252.863	89.56
253.096	82.56
253.329	83.56
253.562	83.56
253.795	80.56
254.028	85.56
254.261	84.56
254.494	75.56
254.727	88.56
254.96	63.56
255.193	82.56
255.426	84.56
255.659	78.56
255.892	86.56
256.124	88.56
256.357	87.56
256.59	84.56
256.823	83.56
257.056	73.56
257.289	66.56
257.521	81.56
257.754	81.56
257.987	73.56
258.22	93.56
258.452	101.56
258.685	87.56
258.918	82.56
259.151	72.56
259.383	82.56
259.616	78.56
259.849	78.56
260.081	95.56
260.314	97.56
260.547	91.56
260.779	91.56
261.012	89.56
261.244	92.56
261.477	85.56
261.71	90.56
261.942	106.56
262.175	115.56
262.407	87.56
262.64	77.56
262.872	90.56
263.105	77.56
263.337	79.56
263.57	77.56
263.802	84.56
264.035	82.56
264.267	79.56
264.499	79.56
264.732	87.56
264.964	87.56
265.197	89.56
265.429	88.56
265.661	71.56
265.894	87.56
266.126	87.56
266.358	63.56
266.591	94.56
266.823	89.56
267.055	80.56
267.287	87.56
267.52	98.56
267.752	88.56
267.984	85.56
268.216	86.56
268.448	92.56
268.681	83.56
268.913	89.56
269.145	73.56
269.377	79.56
269.609	91.56
269.841	93.56
270.073	85.56
270.306	92.56
270.538	88.56
270.77	95.56
271.002	75.56
271.234	92.56
271.466	84.56
271.698	80.56
271.93	80.56
272.162	88.56
272.394	87.56
272.626	87.56
272.858	85.56
273.09	81.56
273.322	84.56
273.553	75.56
273.785	82.56
274.017	73.56
274.249	82.56
274.481	85.56
274.713	78.56
274.945	87.56
275.176	95.56
275.408	95.56
275.64	77.56
275.872	82.56
276.104	78.56
276.335	87.56
276.567	104.56
276.799	107.56
277.031	90.56
277.262	68.56
277.494	90.56
277.726	97.56
277.957	82.56
278.189	87.56
278.421	78.56
278.652	91.56
278.884	97.56
279.115	82.56
279.347	75.56
279.579	85.56
279.81	106.56
280.042	102.56
280.273	97.56
280.505	85.56
280.736	86.56
280.968	89.56
281.199	84.56
281.431	71.56
281.662	71.56
281.894	91.56
282.125	90.56
282.356	109.56
282.588	122.56
282.819	95.56
283.051	93.56
283.282	83.56
283.513	95.56
283.745	76.56
283.976	88.56
284.207	95.56
284.439	94.56
284.67	87.56
284.901	87.56
285.132	76.56
285.364	73.56
285.595	81.56
285.826	84.56
286.057	90.56
286.288	69.56
286.52	89.56
286.751	85.56
286.982	79.56
287.213	91.56
287.444	86.56
287.675	75.56
287.906	100.56
288.138	80.56
288.369	78.56
288.6	91.56
288.831	87.56
289.062	93.56
289.293	95.56
289.524	98.56
289.755	85.56
289.986	82.56
290.217	94.56
290.448	87.56
290.679	95.56
290.91	87.56
291.141	92.56
291.371	84.56
291.602	79.56
291.833	89.56
292.064	93.56
292.295	90.56
292.526	97.56
292.757	76.56
292.987	88.56
293.218	97.56
293.449	95.56
293.68	82.56
293.91	79.56
294.141	89.56
294.372	94.56
294.603	90.56
294.833	84.56
295.064	84.56
295.295	103.56
295.525	90.56
295.756	113.56
295.987	111.56
296.217	131.56
296.448	108.56
296.679	101.56
296.909	86.56
297.14	86.56
297.37	91.56
297.601	92.56
297.831	90.56
298.062	103.56
298.292	89.56
298.523	96.56
298.753	82.56
298.984	110.56
299.214	87.56
299.445	95.56
299.675	86.56
299.905	98.56
300.136	92.56
300.366	92.56
300.597	105.56
300.827	91.56
301.057	88.56
301.288	97.56
301.518	80.56
301.748	85.56
301.979	104.56
302.209	99.56
302.439	92.56
302.669	86.56
302.9	95.56
303.13	93.56
303.36	91.56
303.59	97.56
303.82	88.56
304.051	90.56
304.281	97.56
304.511	86.56
304.741	89.56
304.971	98.56
305.201	95.56
305.431	85.56
305.661	73.56
305.891	89.56
306.121	93.56
306.352	108.56
306.582	113.56
306.812	85.56
307.042	80.56
307.272	94.56
307.502	84.56
307.731	81.56
307.961	88.56
308.191	95.56
308.421	83.56
308.651	99.56
308.881	99.56
309.111	86.56
309.341	82.56
309.571	92.56
309.8	93.56
310.03	90.56
310.26	101.56
310.49	84.56
310.72	96.56
310.949	97.56
311.179	89.56
311.409	98.56
311.639	92.56
311.868	93.56
312.098	92.56
312.328	87.56
312.557	91.56
312.787	98.56
313.017	98.56
313.246	110.56
313.476	83.56
313.706	90.56
313.935	84.56
314.165	98.56
314.394	95.56
314.624	93.56
314.853	111.56
315.083	75.56
315.312	72.56
315.542	91.56
315.771	87.56
316.001	95.56
316.23	103.56
316.46	92.56
316.689	97.56
316.919	91.56
317.148	101.56
317.377	98.56
317.607	97.56
317.836	101.56
318.065	81.56
318.295	88.56
318.524	96.56
318.753	91.56
318.983	94.56
319.212	121.56
319.441	106.56
319.67	96.56
319.9	92.56
320.129	102.56
320.358	75.56
320.587	99.56
320.816	101.56
321.046	100.56
321.275	92.56
321.504	95.56
321.733	94.56
321.962	90.56
322.191	97.56
322.42	100.56
322.649	109.56
322.878	108.56
323.108	106.56
323.337	109.56
323.566	115.56
323.795	123.56
324.024	187.56
324.253	348.56
324.482	722.56
324.71	1461.56
324.939	1915.56
325.168	719.56
325.397	227.56
325.626	138.56
325.855	128.56
326.084	121.56
326.313	127.56
326.542	142.56
326.77	214.56
326.999	408.56
327.228	833.56
327.457	1477.56
327.686	1179.56
327.914	334.56
328.143	182.56
328.372	134.56
328.6	115.56
328.829	111.56
329.058	123.56
329.287	135.56
329.515	118.56
329.744	97.56
329.972	90.56
330.201	101.56
330.43	110.56
330.658	106.56
330.887	134.56
331.115	117.56
331.344	91.56
331.572	95.56
331.801	87.56
332.03	103.56
332.258	101.56
332.486	86.56
332.715	88.56
332.943	105.56
333.172	99.56
333.4	96.56
333.629	93.56
333.857	105.56
334.085	94.56
334.314	104.56
334.542	111.56
334.771	83.56
334.999	99.56
335.227	102.56
335.455	102.56
335.684	89.56
335.912	84.56
336.14	104.56
336.369	86.56
336.597	105.56
336.825	84.56
337.053	89.56
337.281	98.56
337.51	89.56
337.738	83.56
337.966	100.56
338.194	97.56
338.422	102.56
338.65	93.56
338.878	95.56
339.106	92.56
339.334	95.56
339.562	100.56
339.79	96.56
340.018	107.56
340.246	99.56
340.474	101.56
340.702	89.56
340.93	91.56
341.158	86.56
341.386	103.56
341.614	90.56
341.842	105.56
342.07	93.56
342.298	113.56
342.526	104.56
342.754	107.56
342.981	102.56
343.209	93.56
343.437	105.56
343.665	96.56
343.893	89.56
344.12	87.56
344.348	108.56
344.576	97.56
344.804	92.56
345.031	88.56
345.259	101.56
345.487	94.56
345.714	94.56
345.942	90.56
346.17	91.56
346.397	86.56
346.625	95.56
346.853	95.56
347.08	90.56
347.308	89.56
347.535	99.56
347.763	98.56
347.99	99.56
348.218	100.56
348.445	94.56
348.673	83.56
348.9	91.56
349.128	86.56
349.355	87.56
349.583	96.56
349.81	95.56
350.037	86.56
350.265	99.56
350.492	94.56
350.72	103.56
350.947	99.56
351.174	114.56
351.402	104.56
351.629	93.56
351.856	92.56
352.083	98.56
352.311	107.56
352.538	96.56
352.765	103.56
352.992	109.56
353.22	121.56
353.447	105.56
353.674	99.56
353.901	92.56
354.128	86.56
354.355	95.56
354.583	100.56
354.81	91.56
355.037	94.56
355.264	102.56
355.491	95.56
355.718	99.56
355.945	96.56
356.172	104.56
356.399	99.56
356.626	80.56
356.853	86.56
357.08	87.56
357.307	91.56
357.534	92.56
357.761	91.56
357.988	100.56
358.215	110.56
358.441	85.56
358.668	83.56
358.895	98.56
359.122	79.56
359.349	77.56
359.576	92.56
359.802	91.56
360.029	119.56
360.256	115.56
360.483	97.56
360.709	90.56
360.936	95.56
361.163	84.56
361.39	88.56
361.616	91.56
361.843	91.56
362.07	88.56
362.296	97.56
362.523	84.56
362.749	92.56
362.976	96.56
363.203	95.56
363.429	82.56
363.656	91.56
363.882	95.56
364.109	85.56
364.335	74.56
364.562	98.56
364.788	89.56
365.015	99.56
365.241	88.56
365.468	104.56
365.694	103.56
365.92	97.56
366.147	99.56
366.373	93.56
366.599	84.56
366.826	86.56
367.052	79.56
367.278	95.56
367.505	96.56
367.731	95.56
367.957	91.56
368.184	95.56
368.41	112.56
368.636	105.56
368.862	118.56
369.089	111.56
369.315	89.56
369.541	83.56
369.767	74.56
369.993	96.56
370.219	85.56
370.445	102.56
370.672	76.56
370.898	92.56
371.124	76.56
371.35	86.56
371.576	100.56
371.802	90.56
372.028	92.56
372.254	77.56
372.48	86.56
372.706	71.56
372.932	93.56
373.158	94.56
373.384	107.56
373.61	102.56
373.835	83.56
374.061	91.56
374.287	92.56
374.513	99.56
374.739	87.56
374.965	76.56
375.191	91.56
375.416	96.56
375.642	93.56
375.868	87.56
376.094	91.56
376.319	79.56
376.545	86.56
376.771	95.56
376.997	83.56
377.222	88.56
377.448	101.56
377.674	89.56
377.899	100.56
378.125	101.56
378.35	95.56
378.576	86.56
378.802	99.56
379.027	90.56
379.253	88.56
379.478	78.56
379.704	95.56
379.929	87.56
380.155	90.56
380.38	90.56
380.606	82.56
380.831	92.56
381.057	102.56
381.282	81.56
381.507	94.56
381.733	95.56
381.958	102.56
382.184	93.56
382.409	113.56
382.634	92.56
382.86	91.56
383.085	100.56
383.31	96.56
383.535	91.56
383.761	95.56
383.986	99.56
384.211	108.56
384.436	95.56
384.662	90.56
384.887	98.56
385.112	106.56
385.337	88.56
385.562	111.56
385.787	86.56
386.013	106.56
386.238	101.56
386.463	110.56
386.688	98.56
386.913	93.56
387.138	92.56
387.363	107.56
387.588	93.56
387.813	100.56
388.038	106.56
388.263	113.56
388.488	95.56
388.713	87.56
388.938	87.56
389.163	117.56
389.387	93.56
389.612	104.56
389.837	89.56
390.062	76.56
390.287	91.56
390.512	88.56
390.736	86.56
390.961	83.56
391.186	97.56
391.411	101.56
391.636	88.56
391.86	78.56
392.085	83.56
392.31	84.56
392.534	92.56
392.759	86.56
392.984	99.56
393.208	84.56
393.433	100.56
393.658	88.56
393.882	91.56
394.107	95.56
394.331	90.56
394.556	86.56
394.78	91.56
395.005	82.56
395.229	84.56
395.454	103.56
395.678	88.56
395.903	89.56
396.127	89.56
396.352	97.56
396.576	90.56
396.801	88.56
397.025	82.56
397.249	87.56
397.474	96.56
397.698	83.56
397.922	89.56
398.147	89.56
398.371	95.56
398.595	87.56
398.82	87.56
399.044	80.56
399.268	94.56
399.492	99.56
399.717	84.56
399.941	80.56
400.165	100.56
400.389	90.56
400.613	93.56
400.837	93.56
401.062	105.56
401.286	80.56
401.51	93.56
401.734	81.56
401.958	94.56
402.182	112.56
402.406	157.56
402.63	112.56
402.854	98.56
403.078	92.56
403.302	96.56
403.526	93.56
403.75	92.56
403.974	79.56
404.198	89.56
404.422	90.56
404.645	90.56
404.869	98.56
405.093	102.56
405.317	95.56
405.541	106.56
405.765	113.56
405.988	101.56
406.212	173.56
406.436	215.56
406.66	144.56
406.883	102.56
407.107	99.56
407.331	85.56
407.555	82.56
407.778	90.56
408.002	82.56
408.226	99.56
408.449	82.56
408.673	93.56
408.896	97.56
409.12	88.56
409.344	99.56
409.567	98.56
409.791	81.56
410.014	89.56
410.238	99.56
410.461	92.56
410.685	90.56
410.908	87.56
411.132	102.56
411.355	91.56
411.578	100.56
411.802	91.56
412.025	105.56
412.249	92.56
412.472	89.56
412.695	86.56
412.919	88.56
413.142	95.56
413.365	105.56
413.589	89.56
413.812	86.56
414.035	91.56
414.258	86.56
414.482	83.56
414.705	100.56
414.928	87.56
415.151	83.56
415.374	102.56
415.597	85.56
415.821	86.56
416.044	89.56
416.267	81.56
416.49	81.56
416.713	90.56
416.936	92.56
417.159	86.56
417.382	83.56
417.605	83.56
417.828	88.56
418.051	89.56
418.274	95.56
418.497	83.56
418.72	98.56
418.943	103.56
419.166	79.56
419.389	90.56
419.611	91.56
419.834	85.56
420.057	86.56
420.28	95.56
420.503	75.56
420.726	84.56
420.948	91.56
421.171	96.56
421.394	89.56
421.617	83.56
421.839	88.56
422.062	90.56
422.285	94.56
422.507	90.56
422.73	106.56
422.953	84.56
423.175	79.56
423.398	90.56
423.621	98.56
423.843	88.56
424.066	75.56
424.288	87.56
424.511	79.56
424.733	92.56
424.956	104.56
425.178	95.56
425.401	91.56
425.623	80.56
425.846	91.56
426.068	94.56
426.291	94.56
426.513	82.56
426.735	85.56
426.958	99.56
427.18	94.56
427.402	113.56
427.625	152.56
427.847	114.56
428.069	91.56
428.292	109.56
428.514	82.56
428.736	84.56
428.958	86.56
429.181	90.56
429.403	83.56
429.625	93.56
429.847	83.56
430.069	95.56
430.292	91.56
430.514	88.56
430.736	91.56
430.958	101.56
431.18	85.56
431.402	91.56
431.624	85.56
431.846	89.56
432.068	84.56
432.29	81.56
432.512	83.56
432.734	81.56
432.956	85.56
433.178	99.56
433.4	93.56
433.622	100.56
433.844	85.56
434.066	84.56
434.287	88.56
434.509	82.56
434.731	91.56
434.953	104.56
435.175	86.56
435.397	83.56
435.618	89.56
435.84	115.56
436.062	104.56
436.284	94.56
436.505	105.56
436.727	97.56
436.949	97.56
437.17	77.56
437.392	91.56
437.614	92.56
437.835	120.56
438.057	111.56
438.278	104.56
438.5	95.56
438.721	107.56
438.943	81.56
439.165	90.56
439.386	79.56
439.608	95.56
439.829	91.56
440.05	120.56
440.272	146.56
440.493	98.56
440.715	91.56
440.936	102.56
441.158	87.56
441.379	88.56
441.6	84.56
441.822	99.56
442.043	92.56
442.264	88.56
442.486	91.56
442.707	105.56
442.928	96.56
443.149	127.56
443.371	124.56
443.592	90.56
443.813	104.56
444.034	103.56
444.255	79.56
444.476	79.56
444.698	79.56
444.919	91.56
445.14	132.56
445.361	121.56
445.582	98.56
445.803	122.56
446.024	118.56
446.245	122.56
446.466	100.56
446.687	91.56
446.908	91.56
447.129	78.56
447.35	92.56
447.571	98.56
447.792	97.56
448.013	105.56
448.234	98.56
448.455	100.56
448.675	107.56
448.896	123.56
449.117	101.56
449.338	111.56
449.559	136.56
449.779	112.56
450	83.56
450.221	83.56
450.442	86.56
450.662	96.56
450.883	97.56
451.104	119.56
451.324	103.56
451.545	103.56
451.766	84.56
451.986	92.56
452.207	94.56
452.428	82.56
452.648	90.56
452.869	103.56
453.089	113.56
453.31	118.56
453.53	93.56
453.751	81.56
453.971	98.56
454.192	86.56
454.412	83.56
454.633	90.56
454.853	88.56
455.073	74.56
455.294	94.56
455.514	95.56
455.734	89.56
455.955	86.56
456.175	81.56
456.395	98.56
456.616	90.56
456.836	91.56
457.056	92.56
457.276	82.56
457.497	81.56
457.717	74.56
457.937	88.56
458.157	88.56
458.377	83.56
458.598	101.56
458.818	142.56
459.038	132.56
459.258	114.56
459.478	84.56
459.698	88.56
459.918	90.56
460.138	74.56
460.358	90.56
460.578	84.56
460.798	90.56
461.018	86.56
461.238	88.56
461.458	96.56
461.678	82.56
461.898	91.56
462.118	86.56
462.338	81.56
462.558	92.56
462.777	96.56
462.997	84.56
463.217	81.56
463.437	90.56
463.657	83.56
463.876	84.56
464.096	91.56
464.316	97.56
464.536	97.56
464.755	99.56
464.975	114.56
465.195	152.56
465.414	138.56
465.634	88.56
465.854	84.56
466.073	99.56
466.293	78.56
466.512	82.56
466.732	87.56
466.951	83.56
467.171	101.56
467.391	71.56
467.61	99.56
467.829	98.56
468.049	89.56
468.268	89.56
468.488	86.56
468.707	96.56
468.927	79.56
469.146	66.56
469.365	91.56
469.585	87.56
469.804	92.56
470.023	90.56
470.243	75.56
470.462	91.56
470.681	122.56
470.901	90.56
471.12	84.56
471.339	95.56
471.558	82.56
471.777	90.56
471.997	91.56
472.216	96.56
472.435	105.56
472.654	98.56
472.873	87.56
473.092	79.56
473.311	73.56
473.53	87.56
473.749	88.56
473.968	87.56
474.187	98.56
474.406	74.56
474.625	92.56
474.844	97.56
475.063	80.56
475.282	87.56
475.501	88.56
475.72	90.56
475.939	99.56
476.158	91.56
476.377	96.56
476.596	86.56
476.814	79.56
477.033	72.56
477.252	82.56
477.471	82.56
477.69	94.56
477.908	91.56
478.127	95.56
478.346	88.56
478.564	88.56
478.783	93.56
479.002	82.56
479.22	89.56
479.439	110.56
479.658	99.56
479.876	94.56
480.095	87.56
480.313	87.56
480.532	100.56
480.751	96.56
480.969	97.56
481.188	106.56
481.406	116.56
481.624	95.56
481.843	89.56
482.061	81.56
482.28	85.56
482.498	78.56
482.717	98.56
482.935	87.56
483.153	93.56
483.372	77.56
483.59	85.56
483.808	100.56
484.027	80.56
484.245	101.56
484.463	95.56
484.681	104.56
484.9	97.56
485.118	100.56
485.336	93.56
485.554	86.56
485.772	95.56
485.99	95.56
486.209	92.56
486.427	100.56
486.645	97.56
486.863	104.56
487.081	87.56
487.299	97.56
487.517	96.56
487.735	93.56
487.953	95.56
488.171	94.56
488.389	87.56
488.607	92.56
488.825	98.56
489.043	84.56
489.261	82.56
489.479	94.56
489.696	92.56
489.914	72.56
490.132	81.56
490.35	74.56
490.568	99.56
490.786	88.56
491.003	83.56
491.221	95.56
491.439	97.56
491.657	94.56
491.874	105.56
492.092	98.56
492.31	98.56
492.527	86.56
492.745	95.56
492.963	89.56
493.18	94.56
493.398	99.56
493.615	95.56
493.833	84.56
494.05	97.56
494.268	85.56
494.485	73.56
494.703	86.56
494.92	87.56
495.138	81.56
495.355	95.56
495.573	98.56
495.79	80.56
496.008	95.56
496.225	93.56
496.442	86.56
496.66	92.56
496.877	92.56
497.094	80.56
497.312	94.56
497.529	91.56
497.746	87.56
497.963	87.56
498.181	91.56
498.398	93.56
498.615	118.56
498.832	102.56
499.049	100.56
499.267	101.56
499.484	80.56
499.701	71.56
499.918	91.56
500.135	99.56
500.352	91.56
500.569	103.56
500.786	96.56
501.003	85.56
501.22	91.56
501.437	102.56
501.654	84.56
501.871	105.56
502.088	107.56
502.305	80.56
502.522	78.56
502.739	88.56
502.956	97.56
503.172	86.56
503.389	104.56
503.606	99.56
503.823	88.56
504.04	87.56
504.256	83.56
504.473	87.56
504.69	106.56
504.907	98.56
505.123	78.56
505.34	88.56
505.557	91.56
505.773	91.56
505.99	89.56
506.207	90.56
506.423	76.56
506.64	92.56
506.856	89.56
507.073	77.56
507.289	100.56
507.506	110.56
507.722	107.56
507.939	98.56
508.155	108.56
508.372	101.56
508.588	110.56
508.805	88.56
509.021	100.56
509.238	94.56
509.454	86.56
509.67	99.56
509.887	111.56
510.103	145.56
510.319	202.56
510.536	753.56
510.752	2283.56
510.968	619.56
511.184	170.56
511.401	105.56
511.617	89.56
511.833	91.56
512.049	111.56
512.265	104.56
512.481	102.56
512.698	98.56
512.914	102.56
513.13	102.56
513.346	87.56
513.562	93.56
513.778	103.56
513.994	104.56
514.21	107.56
514.426	113.56
514.642	138.56
514.858	110.56
515.074	159.56
515.29	420.56
515.506	1388.56
515.721	487.56
515.937	155.56
516.153	112.56
