Data from Uncirc_2002_H10_HRD10591_00093.txt Node
Date: Wed Jan 03 10:39:59 EST 2024
User: Yrep
Spectrometer: HR+D1059
Trigger mode: 1
Integration Time (sec): 1.000000E-1
Scans to average: 1
Electric dark correction enabled: true
Nonlinearity correction enabled: false
Boxcar width: 0
XAxis mode: Wavelengths
Number of Pixels in Spectrum: 2048
>>>>>Begin Spectral Data<<<<<
223.165	-23.06
223.4	-23.06
223.635	-23.06
223.869	-20.06
224.104	-27.06
224.338	-19.06
224.573	-15.06
224.808	-15.06
225.042	-10.06
225.277	-13.06
225.511	-0.06
225.746	6.94
225.98	24.94
226.215	18.94
226.449	9.94
226.683	24.94
226.918	25.94
227.152	30.94
227.387	42.94
227.621	36.94
227.856	31.94
228.09	52.94
228.324	45.94
228.559	69.94
228.793	73.94
229.027	53.94
229.262	70.94
229.496	72.94
229.73	84.94
229.964	83.94
230.199	77.94
230.433	75.94
230.667	82.94
230.901	77.94
231.136	67.94
231.37	75.94
231.604	94.94
231.838	88.94
232.072	78.94
232.306	77.94
232.541	79.94
232.775	91.94
233.009	78.94
233.243	71.94
233.477	76.94
233.711	85.94
233.945	81.94
234.179	90.94
234.413	83.94
234.647	79.94
234.881	75.94
235.115	84.94
235.349	77.94
235.583	85.94
235.817	93.94
236.051	80.94
236.285	88.94
236.519	87.94
236.753	80.94
236.987	78.94
237.221	66.94
237.455	80.94
237.689	85.94
237.922	77.94
238.156	65.94
238.39	66.94
238.624	73.94
238.858	70.94
239.091	71.94
239.325	74.94
239.559	82.94
239.793	80.94
240.027	73.94
240.26	75.94
240.494	56.94
240.728	85.94
240.961	63.94
241.195	72.94
241.429	85.94
241.662	68.94
241.896	71.94
242.13	79.94
242.363	76.94
242.597	72.94
242.83	65.94
243.064	77.94
243.298	87.94
243.531	79.94
243.765	69.94
243.998	80.94
244.232	83.94
244.465	91.94
244.699	78.94
244.932	71.94
245.166	73.94
245.399	76.94
245.633	58.94
245.866	72.94
246.099	86.94
246.333	77.94
246.566	82.94
246.8	83.94
247.033	62.94
247.266	74.94
247.5	83.94
247.733	82.94
247.966	69.94
248.2	94.94
248.433	81.94
248.666	74.94
248.899	69.94
249.133	69.94
249.366	86.94
249.599	104.94
249.832	73.94
250.066	87.94
250.299	74.94
250.532	86.94
250.765	78.94
250.998	78.94
251.231	78.94
251.465	86.94
251.698	99.94
251.931	92.94
252.164	82.94
252.397	87.94
252.63	77.94
252.863	74.94
253.096	74.94
253.329	91.94
253.562	73.94
253.795	78.94
254.028	88.94
254.261	86.94
254.494	72.94
254.727	92.94
254.96	85.94
255.193	73.94
255.426	81.94
255.659	79.94
255.892	72.94
256.124	79.94
256.357	87.94
256.59	79.94
256.823	68.94
257.056	96.94
257.289	89.94
257.521	81.94
257.754	80.94
257.987	86.94
258.22	77.94
258.452	74.94
258.685	96.94
258.918	78.94
259.151	86.94
259.383	78.94
259.616	95.94
259.849	80.94
260.081	93.94
260.314	97.94
260.547	91.94
260.779	69.94
261.012	80.94
261.244	70.94
261.477	83.94
261.71	97.94
261.942	90.94
262.175	97.94
262.407	86.94
262.64	77.94
262.872	88.94
263.105	92.94
263.337	93.94
263.57	86.94
263.802	87.94
264.035	72.94
264.267	88.94
264.499	84.94
264.732	85.94
264.964	83.94
265.197	80.94
265.429	71.94
265.661	81.94
265.894	86.94
266.126	92.94
266.358	77.94
266.591	70.94
266.823	85.94
267.055	84.94
267.287	91.94
267.52	78.94
267.752	86.94
267.984	84.94
268.216	78.94
268.448	84.94
268.681	78.94
268.913	88.94
269.145	83.94
269.377	98.94
269.609	90.94
269.841	84.94
270.073	80.94
270.306	82.94
270.538	91.94
270.77	86.94
271.002	90.94
271.234	86.94
271.466	81.94
271.698	67.94
271.93	85.94
272.162	75.94
272.394	82.94
272.626	85.94
272.858	82.94
273.09	81.94
273.322	86.94
273.553	87.94
273.785	85.94
274.017	83.94
274.249	75.94
274.481	80.94
274.713	91.94
274.945	67.94
275.176	85.94
275.408	77.94
275.64	93.94
275.872	77.94
276.104	88.94
276.335	90.94
276.567	105.94
276.799	110.94
277.031	87.94
277.262	85.94
277.494	86.94
277.726	80.94
277.957	88.94
278.189	74.94
278.421	82.94
278.652	94.94
278.884	85.94
279.115	81.94
279.347	79.94
279.579	62.94
279.81	81.94
280.042	82.94
280.273	84.94
280.505	82.94
280.736	90.94
280.968	84.94
281.199	97.94
281.431	92.94
281.662	95.94
281.894	86.94
282.125	97.94
282.356	104.94
282.588	137.94
282.819	108.94
283.051	82.94
283.282	78.94
283.513	72.94
283.745	73.94
283.976	83.94
284.207	79.94
284.439	97.94
284.67	88.94
284.901	100.94
285.132	74.94
285.364	75.94
285.595	88.94
285.826	72.94
286.057	90.94
286.288	86.94
286.52	82.94
286.751	100.94
286.982	91.94
287.213	94.94
287.444	83.94
287.675	90.94
287.906	92.94
288.138	85.94
288.369	90.94
288.6	83.94
288.831	85.94
289.062	90.94
289.293	93.94
289.524	86.94
289.755	77.94
289.986	86.94
290.217	89.94
290.448	87.94
290.679	81.94
290.91	91.94
291.141	77.94
291.371	89.94
291.602	81.94
291.833	76.94
292.064	89.94
292.295	74.94
292.526	85.94
292.757	96.94
292.987	83.94
293.218	78.94
293.449	90.94
293.68	83.94
293.91	79.94
294.141	96.94
294.372	77.94
294.603	88.94
294.833	82.94
295.064	83.94
295.295	85.94
295.525	83.94
295.756	95.94
295.987	100.94
296.217	123.94
296.448	108.94
296.679	90.94
296.909	86.94
297.14	101.94
297.37	95.94
297.601	101.94
297.831	83.94
298.062	86.94
298.292	64.94
298.523	97.94
298.753	85.94
298.984	86.94
299.214	85.94
299.445	79.94
299.675	104.94
299.905	90.94
300.136	80.94
300.366	102.94
300.597	77.94
300.827	86.94
301.057	98.94
301.288	91.94
301.518	103.94
301.748	86.94
301.979	98.94
302.209	98.94
302.439	76.94
302.669	91.94
302.9	87.94
303.13	84.94
303.36	95.94
303.59	89.94
303.82	86.94
304.051	85.94
304.281	89.94
304.511	93.94
304.741	95.94
304.971	88.94
305.201	84.94
305.431	88.94
305.661	81.94
305.891	85.94
306.121	97.94
306.352	98.94
306.582	97.94
306.812	92.94
307.042	102.94
307.272	92.94
307.502	96.94
307.731	94.94
307.961	68.94
308.191	84.94
308.421	103.94
308.651	87.94
308.881	80.94
309.111	93.94
309.341	90.94
309.571	86.94
309.8	88.94
310.03	86.94
310.26	106.94
310.49	89.94
310.72	94.94
310.949	98.94
311.179	102.94
311.409	98.94
311.639	100.94
311.868	86.94
312.098	92.94
312.328	100.94
312.557	101.94
312.787	107.94
313.017	117.94
313.246	97.94
313.476	75.94
313.706	98.94
313.935	91.94
314.165	85.94
314.394	100.94
314.624	80.94
314.853	77.94
315.083	91.94
315.312	89.94
315.542	80.94
315.771	88.94
316.001	85.94
316.23	86.94
316.46	85.94
316.689	87.94
316.919	81.94
317.148	98.94
317.377	92.94
317.607	72.94
317.836	87.94
318.065	87.94
318.295	81.94
318.524	90.94
318.753	93.94
318.983	92.94
319.212	95.94
319.441	102.94
319.67	102.94
319.9	87.94
320.129	94.94
320.358	95.94
320.587	97.94
320.816	103.94
321.046	109.94
321.275	99.94
321.504	91.94
321.733	95.94
321.962	90.94
322.191	96.94
322.42	92.94
322.649	101.94
322.878	114.94
323.108	100.94
323.337	111.94
323.566	122.94
323.795	138.94
324.024	183.94
324.253	344.94
324.482	701.94
324.71	1383.94
324.939	1823.94
325.168	704.94
325.397	213.94
325.626	142.94
325.855	115.94
326.084	113.94
326.313	123.94
326.542	135.94
326.77	192.94
326.999	378.94
327.228	812.94
327.457	1411.94
327.686	1123.94
327.914	329.94
328.143	177.94
328.372	137.94
328.6	115.94
328.829	112.94
329.058	127.94
329.287	120.94
329.515	101.94
329.744	112.94
329.972	101.94
330.201	96.94
330.43	96.94
330.658	119.94
330.887	114.94
331.115	108.94
331.344	93.94
331.572	93.94
331.801	112.94
332.03	93.94
332.258	99.94
332.486	93.94
332.715	117.94
332.943	97.94
333.172	97.94
333.4	97.94
333.629	87.94
333.857	104.94
334.085	108.94
334.314	88.94
334.542	87.94
334.771	93.94
334.999	97.94
335.227	97.94
335.455	83.94
335.684	99.94
335.912	80.94
336.14	96.94
336.369	98.94
336.597	91.94
336.825	91.94
337.053	86.94
337.281	85.94
337.51	93.94
337.738	98.94
337.966	85.94
338.194	90.94
338.422	94.94
338.65	84.94
338.878	92.94
339.106	96.94
339.334	96.94
339.562	96.94
339.79	93.94
340.018	81.94
340.246	86.94
340.474	99.94
340.702	86.94
340.93	103.94
341.158	93.94
341.386	84.94
341.614	94.94
341.842	93.94
342.07	87.94
342.298	88.94
342.526	94.94
342.754	91.94
342.981	95.94
343.209	90.94
343.437	83.94
343.665	71.94
343.893	105.94
344.12	95.94
344.348	102.94
344.576	90.94
344.804	86.94
345.031	97.94
345.259	90.94
345.487	95.94
345.714	85.94
345.942	88.94
346.17	91.94
346.397	86.94
346.625	87.94
346.853	91.94
347.08	84.94
347.308	78.94
347.535	101.94
347.763	92.94
347.99	91.94
348.218	99.94
348.445	90.94
348.673	93.94
348.9	93.94
349.128	97.94
349.355	84.94
349.583	105.94
349.81	90.94
350.037	88.94
350.265	81.94
350.492	90.94
350.72	99.94
350.947	92.94
351.174	119.94
351.402	105.94
351.629	94.94
351.856	93.94
352.083	101.94
352.311	102.94
352.538	116.94
352.765	108.94
352.992	105.94
353.22	107.94
353.447	106.94
353.674	108.94
353.901	95.94
354.128	88.94
354.355	91.94
354.583	93.94
354.81	94.94
355.037	96.94
355.264	85.94
355.491	92.94
355.718	88.94
355.945	105.94
356.172	97.94
356.399	83.94
356.626	96.94
356.853	93.94
357.08	91.94
357.307	101.94
357.534	93.94
357.761	97.94
357.988	83.94
358.215	83.94
358.441	101.94
358.668	87.94
358.895	96.94
359.122	85.94
359.349	94.94
359.576	95.94
359.802	98.94
360.029	107.94
360.256	91.94
360.483	94.94
360.709	78.94
360.936	95.94
361.163	94.94
361.39	78.94
361.616	92.94
361.843	91.94
362.07	103.94
362.296	88.94
362.523	86.94
362.749	90.94
362.976	86.94
363.203	94.94
363.429	89.94
363.656	90.94
363.882	87.94
364.109	89.94
364.335	90.94
364.562	98.94
364.788	80.94
365.015	104.94
365.241	90.94
365.468	117.94
365.694	102.94
365.92	93.94
366.147	106.94
366.373	91.94
366.599	89.94
366.826	96.94
367.052	90.94
367.278	84.94
367.505	99.94
367.731	102.94
367.957	86.94
368.184	98.94
368.41	94.94
368.636	122.94
368.862	109.94
369.089	91.94
369.315	91.94
369.541	101.94
369.767	95.94
369.993	80.94
370.219	93.94
370.445	89.94
370.672	93.94
370.898	80.94
371.124	90.94
371.35	90.94
371.576	85.94
371.802	76.94
372.028	92.94
372.254	91.94
372.48	83.94
372.706	83.94
372.932	79.94
373.158	88.94
373.384	94.94
373.61	106.94
373.835	85.94
374.061	101.94
374.287	82.94
374.513	80.94
374.739	89.94
374.965	110.94
375.191	87.94
375.416	93.94
375.642	97.94
375.868	83.94
376.094	77.94
376.319	93.94
376.545	67.94
376.771	78.94
376.997	85.94
377.222	90.94
377.448	97.94
377.674	83.94
377.899	99.94
378.125	79.94
378.35	87.94
378.576	100.94
378.802	77.94
379.027	91.94
379.253	90.94
379.478	94.94
379.704	88.94
379.929	98.94
380.155	75.94
380.38	99.94
380.606	82.94
380.831	86.94
381.057	85.94
381.282	88.94
381.507	91.94
381.733	86.94
381.958	80.94
382.184	96.94
382.409	113.94
382.634	100.94
382.86	89.94
383.085	94.94
383.31	94.94
383.535	75.94
383.761	98.94
383.986	98.94
384.211	96.94
384.436	83.94
384.662	91.94
384.887	83.94
385.112	95.94
385.337	102.94
385.562	92.94
385.787	98.94
386.013	103.94
386.238	98.94
386.463	99.94
386.688	94.94
386.913	101.94
387.138	95.94
387.363	100.94
387.588	105.94
387.813	93.94
388.038	102.94
388.263	91.94
388.488	93.94
388.713	93.94
388.938	84.94
389.163	101.94
389.387	108.94
389.612	97.94
389.837	88.94
390.062	90.94
390.287	99.94
390.512	82.94
390.736	91.94
390.961	89.94
391.186	84.94
391.411	99.94
391.636	103.94
391.86	89.94
392.085	80.94
392.31	82.94
392.534	73.94
392.759	91.94
392.984	79.94
393.208	77.94
393.433	91.94
393.658	72.94
393.882	74.94
394.107	92.94
394.331	99.94
394.556	82.94
394.78	86.94
395.005	90.94
395.229	87.94
395.454	81.94
395.678	85.94
395.903	90.94
396.127	71.94
396.352	93.94
396.576	82.94
396.801	82.94
397.025	90.94
397.249	93.94
397.474	94.94
397.698	86.94
397.922	94.94
398.147	83.94
398.371	70.94
398.595	74.94
398.82	79.94
399.044	93.94
399.268	92.94
399.492	84.94
399.717	90.94
399.941	90.94
400.165	82.94
400.389	85.94
400.613	88.94
400.837	91.94
401.062	88.94
401.286	102.94
401.51	85.94
401.734	100.94
401.958	103.94
402.182	125.94
402.406	138.94
402.63	100.94
402.854	95.94
403.078	82.94
403.302	93.94
403.526	71.94
403.75	88.94
403.974	86.94
404.198	79.94
404.422	81.94
404.645	91.94
404.869	102.94
405.093	88.94
405.317	85.94
405.541	88.94
405.765	103.94
405.988	96.94
406.212	135.94
406.436	208.94
406.66	120.94
406.883	97.94
407.107	94.94
407.331	95.94
407.555	84.94
407.778	96.94
408.002	75.94
408.226	75.94
408.449	88.94
408.673	97.94
408.896	84.94
409.12	96.94
409.344	77.94
409.567	80.94
409.791	90.94
410.014	99.94
410.238	80.94
410.461	94.94
410.685	96.94
410.908	103.94
411.132	97.94
411.355	103.94
411.578	109.94
411.802	97.94
412.025	90.94
412.249	87.94
412.472	81.94
412.695	75.94
412.919	94.94
413.142	86.94
413.365	94.94
413.589	81.94
413.812	85.94
414.035	89.94
414.258	80.94
414.482	87.94
414.705	97.94
414.928	99.94
415.151	82.94
415.374	95.94
415.597	100.94
415.821	76.94
416.044	89.94
416.267	94.94
416.49	92.94
416.713	98.94
416.936	89.94
417.159	77.94
417.382	97.94
417.605	79.94
417.828	85.94
418.051	89.94
418.274	79.94
418.497	87.94
418.72	79.94
418.943	89.94
419.166	112.94
419.389	85.94
419.611	85.94
419.834	85.94
420.057	97.94
420.28	73.94
420.503	86.94
420.726	88.94
420.948	82.94
421.171	82.94
421.394	81.94
421.617	98.94
421.839	82.94
422.062	101.94
422.285	88.94
422.507	102.94
422.73	98.94
422.953	90.94
423.175	87.94
423.398	105.94
423.621	99.94
423.843	86.94
424.066	90.94
424.288	78.94
424.511	87.94
424.733	96.94
424.956	97.94
425.178	76.94
425.401	81.94
425.623	90.94
425.846	91.94
426.068	89.94
426.291	87.94
426.513	72.94
426.735	103.94
426.958	80.94
427.18	98.94
427.402	109.94
427.625	138.94
427.847	109.94
428.069	102.94
428.292	89.94
428.514	91.94
428.736	93.94
428.958	78.94
429.181	83.94
429.403	71.94
429.625	90.94
429.847	81.94
430.069	82.94
430.292	83.94
430.514	89.94
430.736	86.94
430.958	89.94
431.18	87.94
431.402	89.94
431.624	78.94
431.846	77.94
432.068	80.94
432.29	91.94
432.512	90.94
432.734	95.94
432.956	79.94
433.178	112.94
433.4	85.94
433.622	90.94
433.844	83.94
434.066	94.94
434.287	94.94
434.509	94.94
434.731	90.94
434.953	85.94
435.175	85.94
435.397	80.94
435.618	87.94
435.84	97.94
436.062	109.94
436.284	98.94
436.505	97.94
436.727	101.94
436.949	91.94
437.17	88.94
437.392	81.94
437.614	84.94
437.835	101.94
438.057	107.94
438.278	106.94
438.5	94.94
438.721	103.94
438.943	90.94
439.165	80.94
439.386	88.94
439.608	75.94
439.829	102.94
440.05	106.94
440.272	120.94
440.493	75.94
440.715	72.94
440.936	81.94
441.158	90.94
441.379	94.94
441.6	99.94
441.822	86.94
442.043	89.94
442.264	120.94
442.486	100.94
442.707	100.94
442.928	94.94
443.149	121.94
443.371	119.94
443.592	99.94
443.813	97.94
444.034	107.94
444.255	95.94
444.476	90.94
444.698	96.94
444.919	79.94
445.14	126.94
445.361	116.94
445.582	103.94
445.803	132.94
446.024	137.94
446.245	120.94
446.466	102.94
446.687	94.94
446.908	89.94
447.129	93.94
447.35	90.94
447.571	88.94
447.792	83.94
448.013	99.94
448.234	111.94
448.455	101.94
448.675	123.94
448.896	113.94
449.117	113.94
449.338	111.94
449.559	112.94
449.779	111.94
450	95.94
450.221	87.94
450.442	93.94
450.662	92.94
450.883	89.94
451.104	98.94
451.324	87.94
451.545	93.94
451.766	89.94
451.986	97.94
452.207	90.94
452.428	85.94
452.648	96.94
452.869	103.94
453.089	100.94
453.31	93.94
453.53	91.94
453.751	90.94
453.971	96.94
454.192	101.94
454.412	86.94
454.633	79.94
454.853	82.94
455.073	96.94
455.294	92.94
455.514	93.94
455.734	86.94
455.955	73.94
456.175	93.94
456.395	81.94
456.616	83.94
456.836	79.94
457.056	88.94
457.276	70.94
457.497	82.94
457.717	94.94
457.937	73.94
458.157	83.94
458.377	81.94
458.598	91.94
458.818	121.94
459.038	139.94
459.258	112.94
459.478	88.94
459.698	89.94
459.918	87.94
460.138	82.94
460.358	91.94
460.578	81.94
460.798	91.94
461.018	95.94
461.238	85.94
461.458	81.94
461.678	94.94
461.898	67.94
462.118	85.94
462.338	93.94
462.558	86.94
462.777	87.94
462.997	81.94
463.217	96.94
463.437	88.94
463.657	95.94
463.876	99.94
464.096	89.94
464.316	80.94
464.536	82.94
464.755	93.94
464.975	101.94
465.195	139.94
465.414	143.94
465.634	89.94
465.854	81.94
466.073	98.94
466.293	81.94
466.512	87.94
466.732	84.94
466.951	105.94
467.171	93.94
467.391	85.94
467.61	90.94
467.829	97.94
468.049	84.94
468.268	81.94
468.488	85.94
468.707	79.94
468.927	95.94
469.146	89.94
469.365	99.94
469.585	90.94
469.804	98.94
470.023	83.94
470.243	93.94
470.462	77.94
470.681	95.94
470.901	89.94
471.12	80.94
471.339	103.94
471.558	89.94
471.777	79.94
471.997	91.94
472.216	96.94
472.435	87.94
472.654	79.94
472.873	93.94
473.092	87.94
473.311	88.94
473.53	69.94
473.749	85.94
473.968	84.94
474.187	94.94
474.406	100.94
474.625	79.94
474.844	104.94
475.063	99.94
475.282	81.94
475.501	95.94
475.72	86.94
475.939	77.94
476.158	88.94
476.377	97.94
476.596	85.94
476.814	84.94
477.033	89.94
477.252	85.94
477.471	97.94
477.69	95.94
477.908	85.94
478.127	73.94
478.346	89.94
478.564	95.94
478.783	74.94
479.002	106.94
479.22	79.94
479.439	80.94
479.658	101.94
479.876	102.94
480.095	88.94
480.313	75.94
480.532	89.94
480.751	84.94
480.969	101.94
481.188	104.94
481.406	101.94
481.624	85.94
481.843	73.94
482.061	93.94
482.28	83.94
482.498	91.94
482.717	81.94
482.935	84.94
483.153	85.94
483.372	83.94
483.59	97.94
483.808	97.94
484.027	94.94
484.245	87.94
484.463	83.94
484.681	86.94
484.9	99.94
485.118	87.94
485.336	99.94
485.554	81.94
485.772	105.94
485.99	111.94
486.209	114.94
486.427	113.94
486.645	97.94
486.863	103.94
487.081	93.94
487.299	88.94
487.517	96.94
487.735	87.94
487.953	97.94
488.171	93.94
488.389	95.94
488.607	93.94
488.825	94.94
489.043	82.94
489.261	83.94
489.479	87.94
489.696	97.94
489.914	73.94
490.132	99.94
490.35	95.94
490.568	90.94
490.786	75.94
491.003	91.94
491.221	91.94
491.439	88.94
491.657	102.94
491.874	84.94
492.092	87.94
492.31	99.94
492.527	82.94
492.745	95.94
492.963	98.94
493.18	89.94
493.398	92.94
493.615	93.94
493.833	94.94
494.05	75.94
494.268	84.94
494.485	85.94
494.703	78.94
494.92	93.94
495.138	93.94
495.355	101.94
495.573	109.94
495.79	94.94
496.008	78.94
496.225	101.94
496.442	76.94
496.66	106.94
496.877	92.94
497.094	84.94
497.312	90.94
497.529	78.94
497.746	89.94
497.963	73.94
498.181	90.94
498.398	82.94
498.615	108.94
498.832	89.94
499.049	100.94
499.267	93.94
499.484	84.94
499.701	95.94
499.918	86.94
500.135	94.94
500.352	87.94
500.569	86.94
500.786	91.94
501.003	95.94
501.22	96.94
501.437	99.94
501.654	99.94
501.871	102.94
502.088	85.94
502.305	103.94
502.522	96.94
502.739	78.94
502.956	93.94
503.172	93.94
503.389	85.94
503.606	88.94
503.823	101.94
504.04	85.94
504.256	89.94
504.473	88.94
504.69	76.94
504.907	94.94
505.123	93.94
505.34	79.94
505.557	97.94
505.773	86.94
505.99	94.94
506.207	92.94
506.423	81.94
506.64	103.94
506.856	96.94
507.073	92.94
507.289	88.94
507.506	100.94
507.722	123.94
507.939	105.94
508.155	96.94
508.372	101.94
508.588	96.94
508.805	79.94
509.021	93.94
509.238	86.94
509.454	97.94
509.67	101.94
509.887	107.94
510.103	117.94
510.319	193.94
510.536	660.94
510.752	2032.94
510.968	587.94
511.184	146.94
511.401	97.94
511.617	93.94
511.833	93.94
512.049	114.94
512.265	94.94
512.481	96.94
512.698	80.94
512.914	103.94
513.13	85.94
513.346	64.94
513.562	89.94
513.778	108.94
513.994	95.94
514.21	100.94
514.426	103.94
514.642	116.94
514.858	119.94
515.074	140.94
515.29	378.94
515.506	1185.94
515.721	459.94
515.937	126.94
516.153	111.94
516.369	95.94
516.585	95.94
516.801	92.94
