Data from Uncirc_2002_H10_HRD10591_00085.txt Node
Date: Wed Jan 03 10:39:58 EST 2024
User: Yrep
Spectrometer: HR+D1059
Trigger mode: 1
Integration Time (sec): 1.000000E-1
Scans to average: 1
Electric dark correction enabled: true
Nonlinearity correction enabled: false
Boxcar width: 0
XAxis mode: Wavelengths
Number of Pixels in Spectrum: 2048
>>>>>Begin Spectral Data<<<<<
223.165	-22.38
223.4	-22.38
223.635	-22.38
223.869	-20.38
224.104	-27.38
224.338	-13.38
224.573	-22.38
224.808	-7.38
225.042	12.62
225.277	-2.38
225.511	3.62
225.746	8.62
225.98	3.62
226.215	19.62
226.449	22.62
226.683	15.62
226.918	9.62
227.152	19.62
227.387	29.62
227.621	33.62
227.856	46.62
228.09	46.62
228.324	48.62
228.559	68.62
228.793	48.62
229.027	53.62
229.262	71.62
229.496	79.62
229.73	75.62
229.964	83.62
230.199	76.62
230.433	83.62
230.667	93.62
230.901	85.62
231.136	63.62
231.37	75.62
231.604	64.62
231.838	69.62
232.072	69.62
232.306	88.62
232.541	84.62
232.775	82.62
233.009	75.62
233.243	86.62
233.477	72.62
233.711	77.62
233.945	76.62
234.179	50.62
234.413	81.62
234.647	85.62
234.881	73.62
235.115	73.62
235.349	74.62
235.583	87.62
235.817	87.62
236.051	81.62
236.285	80.62
236.519	71.62
236.753	91.62
236.987	62.62
237.221	83.62
237.455	85.62
237.689	77.62
237.922	86.62
238.156	69.62
238.39	76.62
238.624	71.62
238.858	80.62
239.091	83.62
239.325	84.62
239.559	81.62
239.793	67.62
240.027	61.62
240.26	79.62
240.494	74.62
240.728	84.62
240.961	69.62
241.195	84.62
241.429	84.62
241.662	78.62
241.896	64.62
242.13	78.62
242.363	69.62
242.597	67.62
242.83	68.62
243.064	76.62
243.298	72.62
243.531	75.62
243.765	87.62
243.998	76.62
244.232	89.62
244.465	86.62
244.699	71.62
244.932	67.62
245.166	85.62
245.399	85.62
245.633	77.62
245.866	77.62
246.099	78.62
246.333	79.62
246.566	81.62
246.8	85.62
247.033	82.62
247.266	83.62
247.5	82.62
247.733	72.62
247.966	88.62
248.2	77.62
248.433	73.62
248.666	79.62
248.899	80.62
249.133	89.62
249.366	87.62
249.599	85.62
249.832	70.62
250.066	77.62
250.299	93.62
250.532	87.62
250.765	79.62
250.998	67.62
251.231	67.62
251.465	80.62
251.698	83.62
251.931	79.62
252.164	77.62
252.397	86.62
252.63	79.62
252.863	83.62
253.096	78.62
253.329	89.62
253.562	75.62
253.795	77.62
254.028	88.62
254.261	84.62
254.494	91.62
254.727	89.62
254.96	76.62
255.193	89.62
255.426	78.62
255.659	71.62
255.892	67.62
256.124	81.62
256.357	73.62
256.59	111.62
256.823	88.62
257.056	73.62
257.289	83.62
257.521	89.62
257.754	83.62
257.987	81.62
258.22	96.62
258.452	83.62
258.685	81.62
258.918	82.62
259.151	76.62
259.383	85.62
259.616	83.62
259.849	98.62
260.081	93.62
260.314	88.62
260.547	91.62
260.779	71.62
261.012	93.62
261.244	83.62
261.477	72.62
261.71	92.62
261.942	112.62
262.175	113.62
262.407	85.62
262.64	91.62
262.872	84.62
263.105	87.62
263.337	97.62
263.57	83.62
263.802	82.62
264.035	83.62
264.267	77.62
264.499	88.62
264.732	68.62
264.964	81.62
265.197	88.62
265.429	93.62
265.661	80.62
265.894	92.62
266.126	86.62
266.358	82.62
266.591	93.62
266.823	71.62
267.055	78.62
267.287	84.62
267.52	78.62
267.752	94.62
267.984	91.62
268.216	81.62
268.448	81.62
268.681	91.62
268.913	85.62
269.145	75.62
269.377	74.62
269.609	83.62
269.841	78.62
270.073	77.62
270.306	94.62
270.538	85.62
270.77	91.62
271.002	86.62
271.234	82.62
271.466	83.62
271.698	80.62
271.93	89.62
272.162	82.62
272.394	89.62
272.626	71.62
272.858	84.62
273.09	90.62
273.322	85.62
273.553	83.62
273.785	79.62
274.017	94.62
274.249	83.62
274.481	91.62
274.713	80.62
274.945	95.62
275.176	74.62
275.408	83.62
275.64	92.62
275.872	81.62
276.104	95.62
276.335	79.62
276.567	113.62
276.799	87.62
277.031	95.62
277.262	82.62
277.494	90.62
277.726	91.62
277.957	91.62
278.189	75.62
278.421	81.62
278.652	77.62
278.884	86.62
279.115	93.62
279.347	96.62
279.579	91.62
279.81	96.62
280.042	88.62
280.273	78.62
280.505	86.62
280.736	88.62
280.968	88.62
281.199	95.62
281.431	79.62
281.662	87.62
281.894	88.62
282.125	92.62
282.356	116.62
282.588	125.62
282.819	104.62
283.051	81.62
283.282	93.62
283.513	78.62
283.745	82.62
283.976	82.62
284.207	82.62
284.439	97.62
284.67	87.62
284.901	102.62
285.132	88.62
285.364	102.62
285.595	91.62
285.826	75.62
286.057	95.62
286.288	79.62
286.52	92.62
286.751	83.62
286.982	90.62
287.213	78.62
287.444	83.62
287.675	100.62
287.906	83.62
288.138	88.62
288.369	96.62
288.6	88.62
288.831	87.62
289.062	83.62
289.293	75.62
289.524	74.62
289.755	98.62
289.986	93.62
290.217	101.62
290.448	80.62
290.679	98.62
290.91	96.62
291.141	90.62
291.371	82.62
291.602	81.62
291.833	96.62
292.064	87.62
292.295	85.62
292.526	83.62
292.757	93.62
292.987	102.62
293.218	85.62
293.449	86.62
293.68	82.62
293.91	95.62
294.141	93.62
294.372	86.62
294.603	82.62
294.833	97.62
295.064	87.62
295.295	92.62
295.525	91.62
295.756	107.62
295.987	107.62
296.217	117.62
296.448	105.62
296.679	81.62
296.909	93.62
297.14	96.62
297.37	89.62
297.601	92.62
297.831	98.62
298.062	96.62
298.292	86.62
298.523	96.62
298.753	84.62
298.984	89.62
299.214	82.62
299.445	87.62
299.675	97.62
299.905	95.62
300.136	100.62
300.366	87.62
300.597	89.62
300.827	76.62
301.057	90.62
301.288	103.62
301.518	104.62
301.748	76.62
301.979	97.62
302.209	100.62
302.439	95.62
302.669	85.62
302.9	90.62
303.13	84.62
303.36	89.62
303.59	90.62
303.82	100.62
304.051	89.62
304.281	92.62
304.511	89.62
304.741	100.62
304.971	95.62
305.201	89.62
305.431	98.62
305.661	76.62
305.891	80.62
306.121	94.62
306.352	109.62
306.582	103.62
306.812	84.62
307.042	82.62
307.272	80.62
307.502	75.62
307.731	104.62
307.961	85.62
308.191	73.62
308.421	85.62
308.651	88.62
308.881	107.62
309.111	91.62
309.341	88.62
309.571	108.62
309.8	96.62
310.03	98.62
310.26	96.62
310.49	101.62
310.72	88.62
310.949	112.62
311.179	99.62
311.409	88.62
311.639	110.62
311.868	88.62
312.098	92.62
312.328	93.62
312.557	110.62
312.787	85.62
313.017	95.62
313.246	93.62
313.476	89.62
313.706	89.62
313.935	88.62
314.165	104.62
314.394	98.62
314.624	108.62
314.853	90.62
315.083	87.62
315.312	89.62
315.542	90.62
315.771	100.62
316.001	99.62
316.23	102.62
316.46	93.62
316.689	86.62
316.919	92.62
317.148	87.62
317.377	95.62
317.607	87.62
317.836	93.62
318.065	91.62
318.295	95.62
318.524	95.62
318.753	87.62
318.983	91.62
319.212	92.62
319.441	104.62
319.67	87.62
319.9	85.62
320.129	89.62
320.358	106.62
320.587	79.62
320.816	99.62
321.046	99.62
321.275	86.62
321.504	107.62
321.733	97.62
321.962	92.62
322.191	103.62
322.42	94.62
322.649	106.62
322.878	123.62
323.108	110.62
323.337	121.62
323.566	132.62
323.795	128.62
324.024	191.62
324.253	320.62
324.482	682.62
324.71	1365.62
324.939	1791.62
325.168	648.62
325.397	215.62
325.626	118.62
325.855	117.62
326.084	111.62
326.313	128.62
326.542	127.62
326.77	195.62
326.999	404.62
327.228	770.62
327.457	1369.62
327.686	1123.62
327.914	311.62
328.143	171.62
328.372	134.62
328.6	131.62
328.829	111.62
329.058	130.62
329.287	102.62
329.515	114.62
329.744	97.62
329.972	94.62
330.201	104.62
330.43	104.62
330.658	117.62
330.887	136.62
331.115	110.62
331.344	102.62
331.572	105.62
331.801	108.62
332.03	96.62
332.258	92.62
332.486	93.62
332.715	95.62
332.943	94.62
333.172	86.62
333.4	88.62
333.629	110.62
333.857	115.62
334.085	103.62
334.314	98.62
334.542	93.62
334.771	107.62
334.999	113.62
335.227	101.62
335.455	104.62
335.684	104.62
335.912	95.62
336.14	108.62
336.369	104.62
336.597	111.62
336.825	98.62
337.053	99.62
337.281	66.62
337.51	104.62
337.738	88.62
337.966	87.62
338.194	96.62
338.422	101.62
338.65	103.62
338.878	97.62
339.106	99.62
339.334	90.62
339.562	102.62
339.79	92.62
340.018	76.62
340.246	83.62
340.474	100.62
340.702	103.62
340.93	93.62
341.158	108.62
341.386	93.62
341.614	94.62
341.842	93.62
342.07	80.62
342.298	104.62
342.526	75.62
342.754	79.62
342.981	73.62
343.209	85.62
343.437	87.62
343.665	97.62
343.893	92.62
344.12	104.62
344.348	91.62
344.576	87.62
344.804	83.62
345.031	84.62
345.259	93.62
345.487	94.62
345.714	101.62
345.942	96.62
346.17	97.62
346.397	78.62
346.625	106.62
346.853	78.62
347.08	96.62
347.308	80.62
347.535	104.62
347.763	92.62
347.99	87.62
348.218	100.62
348.445	103.62
348.673	104.62
348.9	86.62
349.128	92.62
349.355	97.62
349.583	94.62
349.81	100.62
350.037	87.62
350.265	94.62
350.492	100.62
350.72	99.62
350.947	94.62
351.174	107.62
351.402	103.62
351.629	106.62
351.856	112.62
352.083	111.62
352.311	104.62
352.538	104.62
352.765	109.62
352.992	111.62
353.22	107.62
353.447	98.62
353.674	106.62
353.901	100.62
354.128	93.62
354.355	95.62
354.583	86.62
354.81	97.62
355.037	106.62
355.264	102.62
355.491	88.62
355.718	97.62
355.945	81.62
356.172	103.62
356.399	110.62
356.626	91.62
356.853	95.62
357.08	95.62
357.307	95.62
357.534	90.62
357.761	93.62
357.988	97.62
358.215	87.62
358.441	100.62
358.668	76.62
358.895	90.62
359.122	77.62
359.349	95.62
359.576	94.62
359.802	93.62
360.029	103.62
360.256	111.62
360.483	92.62
360.709	81.62
360.936	87.62
361.163	104.62
361.39	100.62
361.616	101.62
361.843	77.62
362.07	100.62
362.296	102.62
362.523	85.62
362.749	93.62
362.976	92.62
363.203	89.62
363.429	99.62
363.656	95.62
363.882	86.62
364.109	98.62
364.335	84.62
364.562	97.62
364.788	92.62
365.015	89.62
365.241	93.62
365.468	109.62
365.694	93.62
365.92	101.62
366.147	96.62
366.373	96.62
366.599	96.62
366.826	85.62
367.052	99.62
367.278	93.62
367.505	95.62
367.731	97.62
367.957	96.62
368.184	95.62
368.41	97.62
368.636	105.62
368.862	107.62
369.089	90.62
369.315	86.62
369.541	96.62
369.767	96.62
369.993	108.62
370.219	83.62
370.445	93.62
370.672	94.62
370.898	88.62
371.124	84.62
371.35	94.62
371.576	97.62
371.802	91.62
372.028	81.62
372.254	90.62
372.48	80.62
372.706	89.62
372.932	89.62
373.158	99.62
373.384	93.62
373.61	97.62
373.835	99.62
374.061	93.62
374.287	89.62
374.513	89.62
374.739	80.62
374.965	94.62
375.191	99.62
375.416	99.62
375.642	86.62
375.868	88.62
376.094	74.62
376.319	92.62
376.545	101.62
376.771	81.62
376.997	111.62
377.222	97.62
377.448	99.62
377.674	89.62
377.899	96.62
378.125	96.62
378.35	109.62
378.576	94.62
378.802	75.62
379.027	96.62
379.253	91.62
379.478	101.62
379.704	92.62
379.929	93.62
380.155	75.62
380.38	96.62
380.606	95.62
380.831	100.62
381.057	104.62
381.282	98.62
381.507	92.62
381.733	82.62
381.958	84.62
382.184	97.62
382.409	94.62
382.634	108.62
382.86	104.62
383.085	100.62
383.31	89.62
383.535	100.62
383.761	103.62
383.986	99.62
384.211	113.62
384.436	86.62
384.662	118.62
384.887	94.62
385.112	103.62
385.337	88.62
385.562	108.62
385.787	100.62
386.013	98.62
386.238	97.62
386.463	114.62
386.688	120.62
386.913	108.62
387.138	95.62
387.363	95.62
387.588	96.62
387.813	96.62
388.038	95.62
388.263	106.62
388.488	101.62
388.713	96.62
388.938	97.62
389.163	107.62
389.387	93.62
389.612	97.62
389.837	90.62
390.062	89.62
390.287	73.62
390.512	98.62
390.736	99.62
390.961	117.62
391.186	100.62
391.411	96.62
391.636	102.62
391.86	84.62
392.085	93.62
392.31	83.62
392.534	92.62
392.759	85.62
392.984	83.62
393.208	96.62
393.433	99.62
393.658	89.62
393.882	90.62
394.107	78.62
394.331	93.62
394.556	76.62
394.78	79.62
395.005	89.62
395.229	93.62
395.454	100.62
395.678	83.62
395.903	70.62
396.127	88.62
396.352	95.62
396.576	91.62
396.801	99.62
397.025	99.62
397.249	78.62
397.474	90.62
397.698	76.62
397.922	103.62
398.147	77.62
398.371	87.62
398.595	84.62
398.82	96.62
399.044	89.62
399.268	87.62
399.492	83.62
399.717	80.62
399.941	89.62
400.165	90.62
400.389	93.62
400.613	88.62
400.837	80.62
401.062	84.62
401.286	96.62
401.51	88.62
401.734	96.62
401.958	104.62
402.182	115.62
402.406	132.62
402.63	102.62
402.854	92.62
403.078	91.62
403.302	89.62
403.526	84.62
403.75	87.62
403.974	90.62
404.198	76.62
404.422	90.62
404.645	82.62
404.869	83.62
405.093	86.62
405.317	100.62
405.541	108.62
405.765	94.62
405.988	120.62
406.212	146.62
406.436	193.62
406.66	128.62
406.883	84.62
407.107	92.62
407.331	93.62
407.555	95.62
407.778	90.62
408.002	97.62
408.226	92.62
408.449	89.62
408.673	80.62
408.896	100.62
409.12	84.62
409.344	86.62
409.567	91.62
409.791	92.62
410.014	90.62
410.238	101.62
410.461	93.62
410.685	102.62
410.908	109.62
411.132	102.62
411.355	98.62
411.578	109.62
411.802	105.62
412.025	92.62
412.249	73.62
412.472	81.62
412.695	91.62
412.919	92.62
413.142	85.62
413.365	88.62
413.589	99.62
413.812	77.62
414.035	112.62
414.258	88.62
414.482	107.62
414.705	80.62
414.928	92.62
415.151	97.62
415.374	106.62
415.597	98.62
415.821	97.62
416.044	91.62
416.267	95.62
416.49	81.62
416.713	100.62
416.936	92.62
417.159	91.62
417.382	81.62
417.605	97.62
417.828	85.62
418.051	80.62
418.274	86.62
418.497	98.62
418.72	77.62
418.943	97.62
419.166	105.62
419.389	84.62
419.611	97.62
419.834	92.62
420.057	95.62
420.28	82.62
420.503	93.62
420.726	92.62
420.948	93.62
421.171	95.62
421.394	79.62
421.617	81.62
421.839	102.62
422.062	91.62
422.285	93.62
422.507	97.62
422.73	113.62
422.953	95.62
423.175	95.62
423.398	91.62
423.621	89.62
423.843	91.62
424.066	94.62
424.288	84.62
424.511	91.62
424.733	111.62
424.956	99.62
425.178	88.62
425.401	97.62
425.623	97.62
425.846	88.62
426.068	102.62
426.291	72.62
426.513	75.62
426.735	87.62
426.958	93.62
427.18	85.62
427.402	124.62
427.625	143.62
427.847	120.62
428.069	107.62
428.292	95.62
428.514	97.62
428.736	76.62
428.958	84.62
429.181	77.62
429.403	88.62
429.625	87.62
429.847	94.62
430.069	93.62
430.292	96.62
430.514	102.62
430.736	99.62
430.958	81.62
431.18	80.62
431.402	86.62
431.624	85.62
431.846	97.62
432.068	102.62
432.29	82.62
432.512	88.62
432.734	84.62
432.956	86.62
433.178	95.62
433.4	105.62
433.622	94.62
433.844	99.62
434.066	97.62
434.287	106.62
434.509	99.62
434.731	109.62
434.953	71.62
435.175	80.62
435.397	98.62
435.618	91.62
435.84	98.62
436.062	110.62
436.284	117.62
436.505	109.62
436.727	99.62
436.949	93.62
437.17	89.62
437.392	91.62
437.614	102.62
437.835	105.62
438.057	119.62
438.278	108.62
438.5	114.62
438.721	109.62
438.943	99.62
439.165	89.62
439.386	87.62
439.608	101.62
439.829	102.62
440.05	108.62
440.272	116.62
440.493	87.62
440.715	93.62
440.936	78.62
441.158	89.62
441.379	93.62
441.6	76.62
441.822	93.62
442.043	87.62
442.264	106.62
442.486	104.62
442.707	100.62
442.928	99.62
443.149	131.62
443.371	121.62
443.592	95.62
443.813	106.62
444.034	84.62
444.255	96.62
444.476	78.62
444.698	75.62
444.919	81.62
445.14	150.62
445.361	109.62
445.582	93.62
445.803	131.62
446.024	129.62
446.245	126.62
446.466	118.62
446.687	92.62
446.908	97.62
447.129	87.62
447.35	88.62
447.571	107.62
447.792	102.62
448.013	91.62
448.234	92.62
448.455	87.62
448.675	109.62
448.896	108.62
449.117	97.62
449.338	101.62
449.559	103.62
449.779	114.62
450	103.62
450.221	91.62
450.442	77.62
450.662	92.62
450.883	88.62
451.104	106.62
451.324	89.62
451.545	89.62
451.766	85.62
451.986	80.62
452.207	83.62
452.428	92.62
452.648	108.62
452.869	107.62
453.089	108.62
453.31	97.62
453.53	89.62
453.751	88.62
453.971	100.62
454.192	97.62
454.412	93.62
454.633	91.62
454.853	84.62
455.073	81.62
455.294	97.62
455.514	93.62
455.734	95.62
455.955	93.62
456.175	90.62
456.395	75.62
456.616	85.62
456.836	91.62
457.056	104.62
457.276	83.62
457.497	80.62
457.717	87.62
457.937	76.62
458.157	90.62
458.377	86.62
458.598	94.62
458.818	144.62
459.038	143.62
459.258	108.62
459.478	95.62
459.698	94.62
459.918	88.62
460.138	80.62
460.358	88.62
460.578	94.62
460.798	83.62
461.018	85.62
461.238	85.62
461.458	85.62
461.678	98.62
461.898	87.62
462.118	89.62
462.338	87.62
462.558	95.62
462.777	94.62
462.997	77.62
463.217	96.62
463.437	95.62
463.657	88.62
463.876	91.62
464.096	107.62
464.316	100.62
464.536	96.62
464.755	87.62
464.975	110.62
465.195	147.62
465.414	153.62
465.634	103.62
465.854	89.62
466.073	89.62
466.293	100.62
466.512	84.62
466.732	88.62
466.951	95.62
467.171	94.62
467.391	93.62
467.61	86.62
467.829	99.62
468.049	85.62
468.268	96.62
468.488	98.62
468.707	95.62
468.927	84.62
469.146	97.62
469.365	91.62
469.585	80.62
469.804	110.62
470.023	98.62
470.243	107.62
470.462	96.62
470.681	90.62
470.901	90.62
471.12	78.62
471.339	85.62
471.558	101.62
471.777	93.62
471.997	83.62
472.216	91.62
472.435	101.62
472.654	86.62
472.873	92.62
473.092	90.62
473.311	94.62
473.53	84.62
473.749	86.62
473.968	109.62
474.187	89.62
474.406	94.62
474.625	90.62
474.844	77.62
475.063	82.62
475.282	92.62
475.501	86.62
475.72	92.62
475.939	86.62
476.158	111.62
476.377	87.62
476.596	74.62
476.814	74.62
477.033	89.62
477.252	94.62
477.471	83.62
477.69	90.62
477.908	90.62
478.127	75.62
478.346	83.62
478.564	94.62
478.783	108.62
479.002	100.62
479.22	91.62
479.439	106.62
479.658	91.62
479.876	93.62
480.095	91.62
480.313	102.62
480.532	92.62
480.751	76.62
480.969	86.62
481.188	91.62
481.406	93.62
481.624	92.62
481.843	101.62
482.061	86.62
482.28	97.62
482.498	85.62
482.717	96.62
482.935	88.62
483.153	92.62
483.372	84.62
483.59	94.62
483.808	88.62
484.027	81.62
484.245	80.62
484.463	87.62
484.681	102.62
484.9	90.62
485.118	96.62
485.336	84.62
485.554	105.62
485.772	106.62
485.99	98.62
486.209	93.62
486.427	101.62
486.645	96.62
486.863	107.62
487.081	104.62
487.299	91.62
487.517	73.62
487.735	82.62
487.953	94.62
488.171	92.62
488.389	83.62
488.607	86.62
488.825	99.62
489.043	88.62
489.261	97.62
489.479	92.62
489.696	98.62
489.914	79.62
490.132	86.62
490.35	86.62
490.568	89.62
490.786	97.62
491.003	85.62
491.221	95.62
491.439	77.62
491.657	84.62
491.874	93.62
492.092	93.62
492.31	97.62
492.527	100.62
492.745	84.62
492.963	86.62
493.18	90.62
493.398	100.62
493.615	95.62
493.833	88.62
494.05	84.62
494.268	95.62
494.485	91.62
494.703	85.62
494.92	84.62
495.138	103.62
495.355	107.62
495.573	90.62
495.79	80.62
496.008	81.62
496.225	99.62
496.442	95.62
496.66	99.62
496.877	84.62
497.094	94.62
497.312	93.62
497.529	95.62
497.746	95.62
497.963	92.62
498.181	102.62
498.398	97.62
498.615	103.62
498.832	93.62
499.049	88.62
499.267	86.62
499.484	86.62
499.701	104.62
499.918	87.62
500.135	104.62
500.352	101.62
500.569	94.62
500.786	100.62
501.003	88.62
501.22	77.62
501.437	112.62
501.654	94.62
501.871	109.62
502.088	90.62
502.305	100.62
502.522	93.62
502.739	92.62
502.956	104.62
503.172	85.62
503.389	92.62
503.606	91.62
503.823	97.62
504.04	94.62
504.256	95.62
504.473	99.62
504.69	104.62
504.907	83.62
505.123	88.62
505.34	81.62
505.557	79.62
505.773	84.62
505.99	87.62
506.207	97.62
506.423	87.62
506.64	81.62
506.856	83.62
507.073	103.62
507.289	101.62
507.506	83.62
507.722	107.62
507.939	91.62
508.155	84.62
508.372	105.62
508.588	93.62
508.805	89.62
509.021	85.62
509.238	107.62
509.454	108.62
509.67	104.62
509.887	108.62
510.103	119.62
510.319	184.62
510.536	682.62
510.752	2110.62
510.968	597.62
511.184	143.62
511.401	101.62
511.617	92.62
511.833	95.62
512.049	83.62
512.265	97.62
512.481	97.62
512.698	83.62
512.914	95.62
513.13	103.62
513.346	111.62
513.562	89.62
513.778	102.62
513.994	107.62
514.21	96.62
514.426	110.62
514.642	130.62
514.858	107.62
515.074	153.62
515.29	395.62
515.506	1224.62
515.721	463.62
