Data from Uncirc_2002_H10_HRD10591_00063.txt Node
Date: Wed Jan 03 10:39:53 EST 2024
User: Yrep
Spectrometer: HR+D1059
Trigger mode: 1
Integration Time (sec): 1.000000E-1
Scans to average: 1
Electric dark correction enabled: true
Nonlinearity correction enabled: false
Boxcar width: 0
XAxis mode: Wavelengths
Number of Pixels in Spectrum: 2048
>>>>>Begin Spectral Data<<<<<
223.165	-11.19
223.4	-11.19
223.635	-11.19
223.869	-23.19
224.104	-35.19
224.338	-19.19
224.573	-24.19
224.808	2.81
225.042	-9.19
225.277	-5.19
225.511	1.81
225.746	5.81
225.98	7.81
226.215	9.81
226.449	26.81
226.683	30.81
226.918	10.81
227.152	30.81
227.387	37.81
227.621	34.81
227.856	54.81
228.09	39.81
228.324	43.81
228.559	62.81
228.793	60.81
229.027	60.81
229.262	55.81
229.496	77.81
229.73	75.81
229.964	83.81
230.199	65.81
230.433	75.81
230.667	56.81
230.901	62.81
231.136	76.81
231.37	77.81
231.604	82.81
231.838	76.81
232.072	77.81
232.306	69.81
232.541	62.81
232.775	78.81
233.009	65.81
233.243	78.81
233.477	87.81
233.711	90.81
233.945	68.81
234.179	69.81
234.413	68.81
234.647	71.81
234.881	73.81
235.115	82.81
235.349	71.81
235.583	78.81
235.817	69.81
236.051	72.81
236.285	64.81
236.519	70.81
236.753	77.81
236.987	77.81
237.221	72.81
237.455	96.81
237.689	84.81
237.922	86.81
238.156	70.81
238.39	68.81
238.624	71.81
238.858	71.81
239.091	69.81
239.325	76.81
239.559	74.81
239.793	85.81
240.027	88.81
240.26	80.81
240.494	70.81
240.728	80.81
240.961	81.81
241.195	65.81
241.429	77.81
241.662	72.81
241.896	68.81
242.13	71.81
242.363	76.81
242.597	57.81
242.83	73.81
243.064	86.81
243.298	81.81
243.531	62.81
243.765	87.81
243.998	73.81
244.232	82.81
244.465	77.81
244.699	86.81
244.932	71.81
245.166	83.81
245.399	80.81
245.633	72.81
245.866	82.81
246.099	77.81
246.333	68.81
246.566	71.81
246.8	84.81
247.033	68.81
247.266	78.81
247.5	73.81
247.733	72.81
247.966	71.81
248.2	87.81
248.433	82.81
248.666	77.81
248.899	73.81
249.133	68.81
249.366	88.81
249.599	83.81
249.832	68.81
250.066	68.81
250.299	74.81
250.532	80.81
250.765	73.81
250.998	80.81
251.231	80.81
251.465	79.81
251.698	75.81
251.931	78.81
252.164	71.81
252.397	67.81
252.63	74.81
252.863	68.81
253.096	78.81
253.329	85.81
253.562	85.81
253.795	87.81
254.028	68.81
254.261	81.81
254.494	80.81
254.727	88.81
254.96	89.81
255.193	79.81
255.426	90.81
255.659	74.81
255.892	82.81
256.124	70.81
256.357	86.81
256.59	85.81
256.823	66.81
257.056	83.81
257.289	78.81
257.521	88.81
257.754	81.81
257.987	73.81
258.22	69.81
258.452	64.81
258.685	83.81
258.918	80.81
259.151	85.81
259.383	76.81
259.616	71.81
259.849	79.81
260.081	79.81
260.314	88.81
260.547	90.81
260.779	83.81
261.012	73.81
261.244	78.81
261.477	94.81
261.71	92.81
261.942	109.81
262.175	109.81
262.407	85.81
262.64	77.81
262.872	73.81
263.105	96.81
263.337	87.81
263.57	72.81
263.802	77.81
264.035	85.81
264.267	73.81
264.499	83.81
264.732	88.81
264.964	81.81
265.197	84.81
265.429	88.81
265.661	89.81
265.894	85.81
266.126	106.81
266.358	85.81
266.591	92.81
266.823	79.81
267.055	68.81
267.287	83.81
267.52	84.81
267.752	91.81
267.984	84.81
268.216	77.81
268.448	100.81
268.681	77.81
268.913	85.81
269.145	83.81
269.377	94.81
269.609	69.81
269.841	84.81
270.073	90.81
270.306	72.81
270.538	69.81
270.77	80.81
271.002	77.81
271.234	90.81
271.466	91.81
271.698	83.81
271.93	82.81
272.162	93.81
272.394	93.81
272.626	72.81
272.858	83.81
273.09	91.81
273.322	84.81
273.553	93.81
273.785	87.81
274.017	88.81
274.249	72.81
274.481	88.81
274.713	98.81
274.945	82.81
275.176	73.81
275.408	81.81
275.64	89.81
275.872	88.81
276.104	83.81
276.335	89.81
276.567	89.81
276.799	86.81
277.031	100.81
277.262	90.81
277.494	84.81
277.726	78.81
277.957	89.81
278.189	68.81
278.421	89.81
278.652	87.81
278.884	64.81
279.115	79.81
279.347	80.81
279.579	73.81
279.81	97.81
280.042	75.81
280.273	72.81
280.505	80.81
280.736	84.81
280.968	80.81
281.199	72.81
281.431	86.81
281.662	74.81
281.894	96.81
282.125	99.81
282.356	100.81
282.588	128.81
282.819	113.81
283.051	84.81
283.282	81.81
283.513	85.81
283.745	94.81
283.976	71.81
284.207	78.81
284.439	79.81
284.67	91.81
284.901	94.81
285.132	72.81
285.364	79.81
285.595	88.81
285.826	84.81
286.057	90.81
286.288	85.81
286.52	84.81
286.751	81.81
286.982	94.81
287.213	64.81
287.444	90.81
287.675	86.81
287.906	74.81
288.138	99.81
288.369	87.81
288.6	90.81
288.831	88.81
289.062	86.81
289.293	71.81
289.524	86.81
289.755	90.81
289.986	83.81
290.217	104.81
290.448	81.81
290.679	78.81
290.91	90.81
291.141	93.81
291.371	90.81
291.602	86.81
291.833	86.81
292.064	98.81
292.295	93.81
292.526	87.81
292.757	94.81
292.987	79.81
293.218	93.81
293.449	79.81
293.68	89.81
293.91	78.81
294.141	96.81
294.372	83.81
294.603	73.81
294.833	89.81
295.064	68.81
295.295	96.81
295.525	82.81
295.756	97.81
295.987	104.81
296.217	119.81
296.448	104.81
296.679	98.81
296.909	79.81
297.14	85.81
297.37	90.81
297.601	100.81
297.831	98.81
298.062	75.81
298.292	94.81
298.523	97.81
298.753	86.81
298.984	87.81
299.214	88.81
299.445	88.81
299.675	98.81
299.905	95.81
300.136	85.81
300.366	83.81
300.597	90.81
300.827	87.81
301.057	89.81
301.288	102.81
301.518	95.81
301.748	85.81
301.979	81.81
302.209	76.81
302.439	98.81
302.669	106.81
302.9	82.81
303.13	82.81
303.36	91.81
303.59	92.81
303.82	88.81
304.051	94.81
304.281	106.81
304.511	82.81
304.741	80.81
304.971	68.81
305.201	90.81
305.431	86.81
305.661	79.81
305.891	78.81
306.121	96.81
306.352	93.81
306.582	81.81
306.812	89.81
307.042	79.81
307.272	104.81
307.502	85.81
307.731	74.81
307.961	87.81
308.191	82.81
308.421	80.81
308.651	88.81
308.881	93.81
309.111	87.81
309.341	95.81
309.571	93.81
309.8	103.81
310.03	72.81
310.26	98.81
310.49	89.81
310.72	94.81
310.949	96.81
311.179	100.81
311.409	105.81
311.639	90.81
311.868	82.81
312.098	90.81
312.328	96.81
312.557	94.81
312.787	94.81
313.017	88.81
313.246	79.81
313.476	71.81
313.706	86.81
313.935	93.81
314.165	92.81
314.394	83.81
314.624	88.81
314.853	73.81
315.083	94.81
315.312	92.81
315.542	85.81
315.771	84.81
316.001	94.81
316.23	95.81
316.46	76.81
316.689	94.81
316.919	93.81
317.148	92.81
317.377	99.81
317.607	91.81
317.836	76.81
318.065	78.81
318.295	90.81
318.524	94.81
318.753	118.81
318.983	99.81
319.212	101.81
319.441	105.81
319.67	98.81
319.9	93.81
320.129	88.81
320.358	94.81
320.587	75.81
320.816	86.81
321.046	90.81
321.275	78.81
321.504	104.81
321.733	85.81
321.962	77.81
322.191	75.81
322.42	103.81
322.649	99.81
322.878	105.81
323.108	115.81
323.337	114.81
323.566	109.81
323.795	133.81
324.024	175.81
324.253	343.81
324.482	710.81
324.71	1361.81
324.939	1807.81
325.168	649.81
325.397	213.81
325.626	140.81
325.855	116.81
326.084	113.81
326.313	124.81
326.542	125.81
326.77	195.81
326.999	367.81
327.228	742.81
327.457	1402.81
327.686	1073.81
327.914	324.81
328.143	172.81
328.372	132.81
328.6	104.81
328.829	100.81
329.058	129.81
329.287	103.81
329.515	105.81
329.744	106.81
329.972	84.81
330.201	95.81
330.43	95.81
330.658	119.81
330.887	127.81
331.115	88.81
331.344	91.81
331.572	97.81
331.801	108.81
332.03	96.81
332.258	81.81
332.486	92.81
332.715	86.81
332.943	94.81
333.172	84.81
333.4	97.81
333.629	96.81
333.857	100.81
334.085	94.81
334.314	100.81
334.542	104.81
334.771	107.81
334.999	99.81
335.227	89.81
335.455	89.81
335.684	90.81
335.912	95.81
336.14	93.81
336.369	88.81
336.597	85.81
336.825	90.81
337.053	96.81
337.281	84.81
337.51	109.81
337.738	100.81
337.966	96.81
338.194	94.81
338.422	90.81
338.65	88.81
338.878	89.81
339.106	80.81
339.334	90.81
339.562	91.81
339.79	93.81
340.018	88.81
340.246	87.81
340.474	84.81
340.702	105.81
340.93	101.81
341.158	83.81
341.386	82.81
341.614	81.81
341.842	98.81
342.07	106.81
342.298	101.81
342.526	88.81
342.754	98.81
342.981	87.81
343.209	98.81
343.437	101.81
343.665	83.81
343.893	83.81
344.12	90.81
344.348	92.81
344.576	89.81
344.804	101.81
345.031	89.81
345.259	82.81
345.487	87.81
345.714	96.81
345.942	93.81
346.17	102.81
346.397	94.81
346.625	98.81
346.853	101.81
347.08	95.81
347.308	91.81
347.535	103.81
347.763	100.81
347.99	93.81
348.218	104.81
348.445	111.81
348.673	101.81
348.9	96.81
349.128	81.81
349.355	87.81
349.583	97.81
349.81	108.81
350.037	91.81
350.265	82.81
350.492	81.81
350.72	93.81
350.947	101.81
351.174	97.81
351.402	100.81
351.629	81.81
351.856	106.81
352.083	100.81
352.311	96.81
352.538	101.81
352.765	108.81
352.992	102.81
353.22	102.81
353.447	99.81
353.674	96.81
353.901	102.81
354.128	86.81
354.355	98.81
354.583	99.81
354.81	89.81
355.037	94.81
355.264	78.81
355.491	88.81
355.718	93.81
355.945	98.81
356.172	93.81
356.399	92.81
356.626	94.81
356.853	89.81
357.08	89.81
357.307	77.81
357.534	94.81
357.761	85.81
357.988	82.81
358.215	86.81
358.441	69.81
358.668	76.81
358.895	67.81
359.122	84.81
359.349	82.81
359.576	86.81
359.802	90.81
360.029	87.81
360.256	95.81
360.483	85.81
360.709	97.81
360.936	96.81
361.163	92.81
361.39	96.81
361.616	98.81
361.843	94.81
362.07	89.81
362.296	91.81
362.523	89.81
362.749	89.81
362.976	83.81
363.203	102.81
363.429	90.81
363.656	85.81
363.882	93.81
364.109	85.81
364.335	83.81
364.562	96.81
364.788	100.81
365.015	80.81
365.241	102.81
365.468	94.81
365.694	95.81
365.92	89.81
366.147	83.81
366.373	80.81
366.599	73.81
366.826	98.81
367.052	100.81
367.278	97.81
367.505	83.81
367.731	95.81
367.957	98.81
368.184	82.81
368.41	92.81
368.636	101.81
368.862	97.81
369.089	86.81
369.315	81.81
369.541	77.81
369.767	84.81
369.993	79.81
370.219	82.81
370.445	83.81
370.672	82.81
370.898	80.81
371.124	101.81
371.35	88.81
371.576	85.81
371.802	96.81
372.028	79.81
372.254	100.81
372.48	78.81
372.706	86.81
372.932	89.81
373.158	86.81
373.384	94.81
373.61	93.81
373.835	100.81
374.061	80.81
374.287	88.81
374.513	95.81
374.739	77.81
374.965	91.81
375.191	95.81
375.416	98.81
375.642	82.81
375.868	93.81
376.094	71.81
376.319	94.81
376.545	93.81
376.771	85.81
376.997	89.81
377.222	85.81
377.448	79.81
377.674	79.81
377.899	89.81
378.125	90.81
378.35	89.81
378.576	97.81
378.802	102.81
379.027	80.81
379.253	102.81
379.478	98.81
379.704	97.81
379.929	77.81
380.155	80.81
380.38	88.81
380.606	74.81
380.831	79.81
381.057	85.81
381.282	91.81
381.507	98.81
381.733	96.81
381.958	95.81
382.184	87.81
382.409	92.81
382.634	90.81
382.86	88.81
383.085	100.81
383.31	88.81
383.535	95.81
383.761	93.81
383.986	84.81
384.211	93.81
384.436	90.81
384.662	102.81
384.887	100.81
385.112	93.81
385.337	100.81
385.562	103.81
385.787	78.81
386.013	110.81
386.238	104.81
386.463	101.81
386.688	100.81
386.913	104.81
387.138	98.81
387.363	114.81
387.588	93.81
387.813	100.81
388.038	92.81
388.263	93.81
388.488	99.81
388.713	86.81
388.938	96.81
389.163	97.81
389.387	101.81
389.612	95.81
389.837	94.81
390.062	97.81
390.287	89.81
390.512	102.81
390.736	84.81
390.961	81.81
391.186	89.81
391.411	98.81
391.636	80.81
391.86	74.81
392.085	92.81
392.31	95.81
392.534	85.81
392.759	81.81
392.984	89.81
393.208	92.81
393.433	97.81
393.658	93.81
393.882	76.81
394.107	82.81
394.331	79.81
394.556	81.81
394.78	88.81
395.005	100.81
395.229	87.81
395.454	93.81
395.678	91.81
395.903	86.81
396.127	83.81
396.352	87.81
396.576	82.81
396.801	89.81
397.025	88.81
397.249	85.81
397.474	92.81
397.698	84.81
397.922	102.81
398.147	86.81
398.371	81.81
398.595	76.81
398.82	96.81
399.044	87.81
399.268	96.81
399.492	79.81
399.717	79.81
399.941	75.81
400.165	97.81
400.389	87.81
400.613	96.81
400.837	83.81
401.062	89.81
401.286	88.81
401.51	87.81
401.734	80.81
401.958	71.81
402.182	114.81
402.406	140.81
402.63	121.81
402.854	84.81
403.078	80.81
403.302	102.81
403.526	87.81
403.75	88.81
403.974	82.81
404.198	88.81
404.422	89.81
404.645	102.81
404.869	71.81
405.093	84.81
405.317	92.81
405.541	79.81
405.765	81.81
405.988	107.81
406.212	154.81
406.436	196.81
406.66	115.81
406.883	89.81
407.107	100.81
407.331	86.81
407.555	83.81
407.778	97.81
408.002	94.81
408.226	79.81
408.449	74.81
408.673	92.81
408.896	92.81
409.12	75.81
409.344	80.81
409.567	79.81
409.791	88.81
410.014	81.81
410.238	87.81
410.461	90.81
410.685	101.81
410.908	97.81
411.132	98.81
411.355	112.81
411.578	98.81
411.802	87.81
412.025	88.81
412.249	95.81
412.472	74.81
412.695	88.81
412.919	90.81
413.142	74.81
413.365	73.81
413.589	93.81
413.812	96.81
414.035	89.81
414.258	92.81
414.482	92.81
414.705	106.81
414.928	95.81
415.151	89.81
415.374	91.81
415.597	91.81
415.821	85.81
416.044	81.81
416.267	75.81
416.49	88.81
416.713	80.81
416.936	87.81
417.159	81.81
417.382	92.81
417.605	85.81
417.828	76.81
418.051	80.81
418.274	91.81
418.497	80.81
418.72	73.81
418.943	94.81
419.166	85.81
419.389	85.81
419.611	100.81
419.834	86.81
420.057	70.81
420.28	85.81
420.503	91.81
420.726	76.81
420.948	94.81
421.171	97.81
421.394	85.81
421.617	93.81
421.839	99.81
422.062	83.81
422.285	87.81
422.507	92.81
422.73	82.81
422.953	92.81
423.175	97.81
423.398	81.81
423.621	84.81
423.843	74.81
424.066	85.81
424.288	85.81
424.511	88.81
424.733	103.81
424.956	108.81
425.178	94.81
425.401	99.81
425.623	88.81
425.846	104.81
426.068	93.81
426.291	81.81
426.513	79.81
426.735	85.81
426.958	96.81
427.18	102.81
427.402	113.81
427.625	149.81
427.847	121.81
428.069	113.81
428.292	90.81
428.514	88.81
428.736	93.81
428.958	80.81
429.181	81.81
429.403	83.81
429.625	72.81
429.847	88.81
430.069	83.81
430.292	86.81
430.514	89.81
430.736	78.81
430.958	81.81
431.18	76.81
431.402	87.81
431.624	92.81
431.846	94.81
432.068	72.81
432.29	84.81
432.512	74.81
432.734	93.81
432.956	84.81
433.178	89.81
433.4	96.81
433.622	86.81
433.844	96.81
434.066	93.81
434.287	87.81
434.509	89.81
434.731	70.81
434.953	85.81
435.175	80.81
435.397	89.81
435.618	97.81
435.84	86.81
436.062	113.81
436.284	108.81
436.505	95.81
436.727	93.81
436.949	90.81
437.17	78.81
437.392	76.81
437.614	84.81
437.835	101.81
438.057	94.81
438.278	95.81
438.5	102.81
438.721	101.81
438.943	93.81
439.165	98.81
439.386	82.81
439.608	89.81
439.829	100.81
440.05	106.81
440.272	127.81
440.493	87.81
440.715	90.81
440.936	88.81
441.158	87.81
441.379	84.81
441.6	96.81
441.822	79.81
442.043	89.81
442.264	103.81
442.486	96.81
442.707	87.81
442.928	86.81
443.149	114.81
443.371	104.81
443.592	99.81
443.813	108.81
444.034	111.81
444.255	82.81
444.476	82.81
444.698	83.81
444.919	95.81
445.14	121.81
445.361	122.81
445.582	117.81
445.803	107.81
446.024	120.81
446.245	124.81
446.466	103.81
446.687	80.81
446.908	97.81
447.129	84.81
447.35	85.81
447.571	88.81
447.792	72.81
448.013	109.81
448.234	110.81
448.455	108.81
448.675	106.81
448.896	103.81
449.117	109.81
449.338	108.81
449.559	111.81
449.779	110.81
450	82.81
450.221	86.81
450.442	88.81
450.662	91.81
450.883	81.81
451.104	114.81
451.324	97.81
451.545	84.81
451.766	80.81
451.986	88.81
452.207	103.81
452.428	85.81
452.648	88.81
452.869	100.81
453.089	100.81
453.31	108.81
453.53	91.81
453.751	91.81
453.971	101.81
454.192	103.81
454.412	97.81
454.633	76.81
454.853	88.81
455.073	78.81
455.294	77.81
455.514	85.81
455.734	87.81
455.955	79.81
456.175	89.81
456.395	75.81
456.616	80.81
456.836	83.81
457.056	94.81
457.276	89.81
457.497	83.81
457.717	88.81
457.937	84.81
458.157	85.81
458.377	87.81
458.598	95.81
458.818	124.81
459.038	132.81
459.258	91.81
459.478	88.81
459.698	78.81
459.918	63.81
460.138	74.81
460.358	86.81
460.578	77.81
460.798	82.81
461.018	71.81
461.238	81.81
461.458	85.81
461.678	85.81
461.898	89.81
462.118	75.81
462.338	84.81
462.558	85.81
462.777	83.81
462.997	81.81
463.217	76.81
463.437	81.81
463.657	75.81
463.876	93.81
464.096	88.81
464.316	91.81
464.536	96.81
464.755	95.81
464.975	88.81
465.195	136.81
465.414	131.81
465.634	89.81
465.854	90.81
466.073	83.81
466.293	80.81
466.512	79.81
466.732	88.81
466.951	86.81
467.171	94.81
467.391	79.81
467.61	92.81
467.829	89.81
468.049	86.81
468.268	80.81
468.488	80.81
468.707	78.81
468.927	91.81
469.146	77.81
469.365	68.81
469.585	81.81
469.804	82.81
470.023	91.81
470.243	85.81
470.462	92.81
470.681	86.81
470.901	96.81
471.12	84.81
471.339	84.81
471.558	88.81
471.777	89.81
471.997	86.81
472.216	109.81
472.435	109.81
472.654	79.81
472.873	72.81
473.092	81.81
473.311	79.81
473.53	85.81
473.749	97.81
473.968	86.81
474.187	96.81
474.406	103.81
474.625	74.81
474.844	85.81
475.063	96.81
475.282	95.81
475.501	69.81
475.72	87.81
475.939	98.81
476.158	85.81
476.377	94.81
476.596	90.81
476.814	80.81
477.033	94.81
477.252	86.81
477.471	96.81
477.69	84.81
477.908	79.81
478.127	92.81
478.346	91.81
478.564	81.81
478.783	90.81
479.002	89.81
479.22	88.81
479.439	94.81
479.658	89.81
479.876	98.81
480.095	95.81
480.313	88.81
480.532	97.81
480.751	88.81
480.969	89.81
481.188	98.81
481.406	110.81
481.624	92.81
481.843	73.81
482.061	84.81
482.28	93.81
482.498	85.81
482.717	108.81
482.935	92.81
483.153	90.81
483.372	84.81
483.59	95.81
483.808	85.81
484.027	86.81
484.245	95.81
484.463	103.81
484.681	93.81
484.9	93.81
485.118	78.81
485.336	86.81
485.554	85.81
485.772	94.81
485.99	89.81
486.209	103.81
486.427	111.81
486.645	102.81
486.863	108.81
487.081	90.81
487.299	86.81
487.517	101.81
487.735	101.81
487.953	90.81
488.171	91.81
488.389	85.81
488.607	92.81
488.825	89.81
489.043	98.81
489.261	77.81
489.479	89.81
489.696	84.81
489.914	93.81
490.132	94.81
490.35	86.81
490.568	78.81
490.786	92.81
491.003	91.81
491.221	82.81
491.439	80.81
491.657	94.81
491.874	97.81
492.092	81.81
492.31	83.81
492.527	92.81
492.745	72.81
492.963	90.81
493.18	90.81
493.398	83.81
493.615	98.81
493.833	99.81
494.05	103.81
494.268	97.81
494.485	93.81
494.703	69.81
494.92	76.81
495.138	97.81
495.355	96.81
495.573	77.81
495.79	94.81
496.008	85.81
496.225	98.81
496.442	89.81
496.66	99.81
496.877	108.81
497.094	94.81
497.312	86.81
497.529	90.81
497.746	96.81
497.963	75.81
498.181	83.81
498.398	97.81
498.615	84.81
498.832	101.81
499.049	87.81
499.267	92.81
499.484	84.81
499.701	93.81
499.918	95.81
500.135	93.81
500.352	90.81
500.569	88.81
500.786	97.81
501.003	96.81
501.22	92.81
501.437	102.81
501.654	106.81
501.871	100.81
502.088	84.81
502.305	89.81
502.522	93.81
502.739	92.81
502.956	87.81
503.172	89.81
503.389	94.81
503.606	98.81
503.823	103.81
504.04	93.81
504.256	90.81
504.473	86.81
504.69	98.81
504.907	95.81
505.123	99.81
505.34	82.81
505.557	94.81
505.773	95.81
505.99	93.81
506.207	82.81
506.423	91.81
506.64	92.81
506.856	97.81
507.073	83.81
507.289	98.81
507.506	80.81
507.722	114.81
507.939	96.81
508.155	78.81
508.372	96.81
508.588	88.81
508.805	86.81
509.021	84.81
509.238	89.81
509.454	108.81
509.67	94.81
509.887	111.81
510.103	141.81
510.319	185.81
510.536	660.81
510.752	2070.81
510.968	586.81
511.184	141.81
511.401	113.81
511.617	103.81
511.833	91.81
512.049	97.81
512.265	84.81
512.481	95.81
512.698	80.81
512.914	88.81
513.13	103.81
513.346	96.81
513.562	85.81
513.778	85.81
513.994	88.81
514.21	104.81
514.426	106.81
514.642	120.81
514.858	108.81
515.074	145.81
515.29	362.81
515.506	1186.81
515.721	440.81
515.937	125.81
516.153	108.81
516.369	98.81
516.585	91.81
516.801	99.81
517.016	97.81
