Data from Uncirc_2002_H10_HRD10591_00057.txt Node
Date: Wed Jan 03 10:39:52 EST 2024
User: Yrep
Spectrometer: HR+D1059
Trigger mode: 1
Integration Time (sec): 1.000000E-1
Scans to average: 1
Electric dark correction enabled: true
Nonlinearity correction enabled: false
Boxcar width: 0
XAxis mode: Wavelengths
Number of Pixels in Spectrum: 2048
>>>>>Begin Spectral Data<<<<<
223.165	-9.5
223.4	-9.5
223.635	-9.5
223.869	-20.5
224.104	-27.5
224.338	-18.5
224.573	3.5
224.808	-14.5
225.042	2.5
225.277	-11.5
225.511	-9.5
225.746	12.5
225.98	8.5
226.215	11.5
226.449	10.5
226.683	12.5
226.918	12.5
227.152	37.5
227.387	21.5
227.621	43.5
227.856	45.5
228.09	46.5
228.324	58.5
228.559	48.5
228.793	44.5
229.027	69.5
229.262	63.5
229.496	73.5
229.73	85.5
229.964	89.5
230.199	77.5
230.433	76.5
230.667	82.5
230.901	88.5
231.136	66.5
231.37	83.5
231.604	75.5
231.838	91.5
232.072	96.5
232.306	75.5
232.541	80.5
232.775	70.5
233.009	76.5
233.243	85.5
233.477	92.5
233.711	83.5
233.945	85.5
234.179	100.5
234.413	90.5
234.647	71.5
234.881	72.5
235.115	73.5
235.349	76.5
235.583	87.5
235.817	80.5
236.051	78.5
236.285	87.5
236.519	67.5
236.753	89.5
236.987	82.5
237.221	81.5
237.455	83.5
237.689	75.5
237.922	80.5
238.156	81.5
238.39	85.5
238.624	89.5
238.858	81.5
239.091	69.5
239.325	80.5
239.559	94.5
239.793	73.5
240.027	75.5
240.26	73.5
240.494	72.5
240.728	80.5
240.961	68.5
241.195	66.5
241.429	48.5
241.662	77.5
241.896	78.5
242.13	82.5
242.363	73.5
242.597	65.5
242.83	81.5
243.064	84.5
243.298	90.5
243.531	81.5
243.765	79.5
243.998	68.5
244.232	71.5
244.465	86.5
244.699	81.5
244.932	84.5
245.166	85.5
245.399	78.5
245.633	89.5
245.866	86.5
246.099	88.5
246.333	77.5
246.566	87.5
246.8	78.5
247.033	76.5
247.266	91.5
247.5	83.5
247.733	72.5
247.966	90.5
248.2	83.5
248.433	72.5
248.666	74.5
248.899	84.5
249.133	97.5
249.366	95.5
249.599	82.5
249.832	87.5
250.066	87.5
250.299	82.5
250.532	74.5
250.765	70.5
250.998	74.5
251.231	94.5
251.465	86.5
251.698	76.5
251.931	71.5
252.164	78.5
252.397	79.5
252.63	80.5
252.863	81.5
253.096	85.5
253.329	84.5
253.562	81.5
253.795	89.5
254.028	66.5
254.261	79.5
254.494	90.5
254.727	77.5
254.96	79.5
255.193	76.5
255.426	67.5
255.659	73.5
255.892	75.5
256.124	70.5
256.357	98.5
256.59	73.5
256.823	85.5
257.056	79.5
257.289	88.5
257.521	90.5
257.754	78.5
257.987	79.5
258.22	89.5
258.452	75.5
258.685	95.5
258.918	92.5
259.151	79.5
259.383	89.5
259.616	85.5
259.849	81.5
260.081	88.5
260.314	79.5
260.547	86.5
260.779	79.5
261.012	84.5
261.244	81.5
261.477	88.5
261.71	80.5
261.942	104.5
262.175	102.5
262.407	80.5
262.64	81.5
262.872	80.5
263.105	95.5
263.337	86.5
263.57	70.5
263.802	79.5
264.035	78.5
264.267	74.5
264.499	86.5
264.732	80.5
264.964	76.5
265.197	93.5
265.429	86.5
265.661	78.5
265.894	81.5
266.126	82.5
266.358	81.5
266.591	80.5
266.823	93.5
267.055	82.5
267.287	99.5
267.52	88.5
267.752	92.5
267.984	81.5
268.216	80.5
268.448	90.5
268.681	87.5
268.913	92.5
269.145	87.5
269.377	87.5
269.609	83.5
269.841	98.5
270.073	85.5
270.306	88.5
270.538	79.5
270.77	102.5
271.002	97.5
271.234	81.5
271.466	86.5
271.698	92.5
271.93	86.5
272.162	85.5
272.394	88.5
272.626	78.5
272.858	78.5
273.09	83.5
273.322	96.5
273.553	88.5
273.785	87.5
274.017	82.5
274.249	86.5
274.481	98.5
274.713	93.5
274.945	84.5
275.176	89.5
275.408	82.5
275.64	88.5
275.872	80.5
276.104	76.5
276.335	92.5
276.567	98.5
276.799	109.5
277.031	95.5
277.262	91.5
277.494	85.5
277.726	76.5
277.957	88.5
278.189	89.5
278.421	77.5
278.652	83.5
278.884	88.5
279.115	84.5
279.347	72.5
279.579	78.5
279.81	76.5
280.042	90.5
280.273	88.5
280.505	72.5
280.736	100.5
280.968	87.5
281.199	89.5
281.431	94.5
281.662	85.5
281.894	94.5
282.125	89.5
282.356	89.5
282.588	121.5
282.819	112.5
283.051	81.5
283.282	92.5
283.513	93.5
283.745	92.5
283.976	73.5
284.207	90.5
284.439	85.5
284.67	87.5
284.901	81.5
285.132	75.5
285.364	89.5
285.595	97.5
285.826	97.5
286.057	89.5
286.288	78.5
286.52	84.5
286.751	75.5
286.982	92.5
287.213	89.5
287.444	75.5
287.675	86.5
287.906	85.5
288.138	92.5
288.369	100.5
288.6	102.5
288.831	93.5
289.062	95.5
289.293	93.5
289.524	81.5
289.755	79.5
289.986	101.5
290.217	90.5
290.448	85.5
290.679	93.5
290.91	94.5
291.141	90.5
291.371	102.5
291.602	80.5
291.833	92.5
292.064	89.5
292.295	93.5
292.526	97.5
292.757	94.5
292.987	94.5
293.218	88.5
293.449	83.5
293.68	96.5
293.91	96.5
294.141	82.5
294.372	97.5
294.603	87.5
294.833	97.5
295.064	83.5
295.295	93.5
295.525	96.5
295.756	107.5
295.987	105.5
296.217	124.5
296.448	126.5
296.679	96.5
296.909	100.5
297.14	87.5
297.37	94.5
297.601	91.5
297.831	78.5
298.062	81.5
298.292	91.5
298.523	98.5
298.753	96.5
298.984	92.5
299.214	89.5
299.445	99.5
299.675	79.5
299.905	101.5
300.136	112.5
300.366	95.5
300.597	91.5
300.827	95.5
301.057	87.5
301.288	89.5
301.518	91.5
301.748	80.5
301.979	91.5
302.209	88.5
302.439	79.5
302.669	106.5
302.9	82.5
303.13	87.5
303.36	104.5
303.59	103.5
303.82	100.5
304.051	84.5
304.281	103.5
304.511	100.5
304.741	93.5
304.971	89.5
305.201	88.5
305.431	98.5
305.661	107.5
305.891	91.5
306.121	90.5
306.352	96.5
306.582	105.5
306.812	97.5
307.042	99.5
307.272	101.5
307.502	92.5
307.731	100.5
307.961	102.5
308.191	97.5
308.421	98.5
308.651	87.5
308.881	83.5
309.111	81.5
309.341	90.5
309.571	97.5
309.8	96.5
310.03	97.5
310.26	82.5
310.49	93.5
310.72	75.5
310.949	99.5
311.179	89.5
311.409	88.5
311.639	97.5
311.868	111.5
312.098	90.5
312.328	84.5
312.557	107.5
312.787	99.5
313.017	104.5
313.246	102.5
313.476	83.5
313.706	88.5
313.935	92.5
314.165	108.5
314.394	96.5
314.624	96.5
314.853	100.5
315.083	92.5
315.312	89.5
315.542	83.5
315.771	88.5
316.001	97.5
316.23	87.5
316.46	87.5
316.689	84.5
316.919	94.5
317.148	92.5
317.377	99.5
317.607	95.5
317.836	94.5
318.065	90.5
318.295	86.5
318.524	99.5
318.753	88.5
318.983	88.5
319.212	90.5
319.441	107.5
319.67	102.5
319.9	88.5
320.129	93.5
320.358	95.5
320.587	90.5
320.816	104.5
321.046	98.5
321.275	94.5
321.504	91.5
321.733	112.5
321.962	93.5
322.191	112.5
322.42	107.5
322.649	105.5
322.878	114.5
323.108	116.5
323.337	108.5
323.566	118.5
323.795	155.5
324.024	193.5
324.253	340.5
324.482	689.5
324.71	1354.5
324.939	1794.5
325.168	667.5
325.397	220.5
325.626	140.5
325.855	131.5
326.084	115.5
326.313	120.5
326.542	144.5
326.77	196.5
326.999	379.5
327.228	805.5
327.457	1409.5
327.686	1122.5
327.914	297.5
328.143	161.5
328.372	135.5
328.6	111.5
328.829	108.5
329.058	115.5
329.287	103.5
329.515	108.5
329.744	117.5
329.972	107.5
330.201	104.5
330.43	99.5
330.658	108.5
330.887	131.5
331.115	118.5
331.344	91.5
331.572	94.5
331.801	103.5
332.03	101.5
332.258	100.5
332.486	101.5
332.715	97.5
332.943	91.5
333.172	95.5
333.4	89.5
333.629	106.5
333.857	111.5
334.085	101.5
334.314	96.5
334.542	98.5
334.771	101.5
334.999	95.5
335.227	95.5
335.455	104.5
335.684	95.5
335.912	99.5
336.14	99.5
336.369	99.5
336.597	106.5
336.825	91.5
337.053	89.5
337.281	87.5
337.51	106.5
337.738	89.5
337.966	88.5
338.194	102.5
338.422	102.5
338.65	84.5
338.878	102.5
339.106	88.5
339.334	95.5
339.562	84.5
339.79	98.5
340.018	90.5
340.246	106.5
340.474	74.5
340.702	98.5
340.93	101.5
341.158	92.5
341.386	95.5
341.614	101.5
341.842	92.5
342.07	88.5
342.298	86.5
342.526	95.5
342.754	84.5
342.981	86.5
343.209	85.5
343.437	101.5
343.665	89.5
343.893	95.5
344.12	100.5
344.348	85.5
344.576	84.5
344.804	93.5
345.031	99.5
345.259	85.5
345.487	103.5
345.714	103.5
345.942	93.5
346.17	79.5
346.397	91.5
346.625	92.5
346.853	92.5
347.08	83.5
347.308	90.5
347.535	94.5
347.763	88.5
347.99	102.5
348.218	90.5
348.445	103.5
348.673	99.5
348.9	96.5
349.128	91.5
349.355	98.5
349.583	94.5
349.81	84.5
350.037	103.5
350.265	100.5
350.492	90.5
350.72	104.5
350.947	111.5
351.174	117.5
351.402	102.5
351.629	86.5
351.856	96.5
352.083	97.5
352.311	102.5
352.538	116.5
352.765	105.5
352.992	113.5
353.22	110.5
353.447	108.5
353.674	102.5
353.901	117.5
354.128	108.5
354.355	79.5
354.583	113.5
354.81	82.5
355.037	95.5
355.264	88.5
355.491	98.5
355.718	101.5
355.945	91.5
356.172	92.5
356.399	97.5
356.626	98.5
356.853	88.5
357.08	91.5
357.307	104.5
357.534	95.5
357.761	104.5
357.988	101.5
358.215	96.5
358.441	101.5
358.668	85.5
358.895	95.5
359.122	84.5
359.349	88.5
359.576	86.5
359.802	104.5
360.029	116.5
360.256	99.5
360.483	100.5
360.709	86.5
360.936	89.5
361.163	84.5
361.39	92.5
361.616	83.5
361.843	99.5
362.07	89.5
362.296	106.5
362.523	93.5
362.749	106.5
362.976	81.5
363.203	96.5
363.429	89.5
363.656	93.5
363.882	88.5
364.109	96.5
364.335	98.5
364.562	91.5
364.788	99.5
365.015	97.5
365.241	87.5
365.468	100.5
365.694	102.5
365.92	111.5
366.147	93.5
366.373	80.5
366.599	87.5
366.826	89.5
367.052	88.5
367.278	79.5
367.505	93.5
367.731	87.5
367.957	96.5
368.184	85.5
368.41	106.5
368.636	107.5
368.862	121.5
369.089	103.5
369.315	98.5
369.541	96.5
369.767	101.5
369.993	89.5
370.219	84.5
370.445	96.5
370.672	86.5
370.898	84.5
371.124	91.5
371.35	99.5
371.576	99.5
371.802	97.5
372.028	87.5
372.254	92.5
372.48	87.5
372.706	93.5
372.932	85.5
373.158	90.5
373.384	81.5
373.61	98.5
373.835	95.5
374.061	82.5
374.287	96.5
374.513	92.5
374.739	77.5
374.965	80.5
375.191	93.5
375.416	85.5
375.642	105.5
375.868	85.5
376.094	98.5
376.319	89.5
376.545	90.5
376.771	88.5
376.997	99.5
377.222	96.5
377.448	82.5
377.674	90.5
377.899	83.5
378.125	85.5
378.35	77.5
378.576	89.5
378.802	98.5
379.027	92.5
379.253	92.5
379.478	82.5
379.704	92.5
379.929	107.5
380.155	93.5
380.38	92.5
380.606	74.5
380.831	101.5
381.057	105.5
381.282	97.5
381.507	95.5
381.733	98.5
381.958	101.5
382.184	95.5
382.409	95.5
382.634	105.5
382.86	96.5
383.085	97.5
383.31	108.5
383.535	113.5
383.761	95.5
383.986	97.5
384.211	106.5
384.436	97.5
384.662	91.5
384.887	116.5
385.112	103.5
385.337	99.5
385.562	117.5
385.787	99.5
386.013	116.5
386.238	106.5
386.463	113.5
386.688	106.5
386.913	108.5
387.138	112.5
387.363	100.5
387.588	100.5
387.813	110.5
388.038	100.5
388.263	99.5
388.488	103.5
388.713	106.5
388.938	93.5
389.163	93.5
389.387	99.5
389.612	100.5
389.837	101.5
390.062	98.5
390.287	104.5
390.512	100.5
390.736	104.5
390.961	101.5
391.186	89.5
391.411	98.5
391.636	87.5
391.86	85.5
392.085	80.5
392.31	86.5
392.534	91.5
392.759	90.5
392.984	93.5
393.208	94.5
393.433	97.5
393.658	96.5
393.882	90.5
394.107	82.5
394.331	90.5
394.556	79.5
394.78	79.5
395.005	94.5
395.229	88.5
395.454	91.5
395.678	90.5
395.903	88.5
396.127	85.5
396.352	97.5
396.576	90.5
396.801	105.5
397.025	96.5
397.249	91.5
397.474	98.5
397.698	105.5
397.922	92.5
398.147	93.5
398.371	95.5
398.595	109.5
398.82	98.5
399.044	92.5
399.268	95.5
399.492	96.5
399.717	87.5
399.941	84.5
400.165	79.5
400.389	100.5
400.613	96.5
400.837	94.5
401.062	90.5
401.286	98.5
401.51	92.5
401.734	81.5
401.958	94.5
402.182	100.5
402.406	143.5
402.63	105.5
402.854	105.5
403.078	91.5
403.302	92.5
403.526	93.5
403.75	90.5
403.974	101.5
404.198	85.5
404.422	76.5
404.645	88.5
404.869	97.5
405.093	82.5
405.317	92.5
405.541	97.5
405.765	103.5
405.988	99.5
406.212	145.5
406.436	199.5
406.66	132.5
406.883	90.5
407.107	92.5
407.331	92.5
407.555	83.5
407.778	103.5
408.002	93.5
408.226	91.5
408.449	84.5
408.673	104.5
408.896	87.5
409.12	93.5
409.344	103.5
409.567	99.5
409.791	92.5
410.014	93.5
410.238	92.5
410.461	90.5
410.685	106.5
410.908	95.5
411.132	107.5
411.355	98.5
411.578	84.5
411.802	83.5
412.025	96.5
412.249	91.5
412.472	85.5
412.695	92.5
412.919	92.5
413.142	85.5
413.365	92.5
413.589	97.5
413.812	72.5
414.035	107.5
414.258	91.5
414.482	92.5
414.705	97.5
414.928	101.5
415.151	91.5
415.374	91.5
415.597	83.5
415.821	78.5
416.044	91.5
416.267	87.5
416.49	74.5
416.713	103.5
416.936	92.5
417.159	83.5
417.382	85.5
417.605	105.5
417.828	69.5
418.051	99.5
418.274	82.5
418.497	91.5
418.72	89.5
418.943	94.5
419.166	90.5
419.389	91.5
419.611	76.5
419.834	88.5
420.057	96.5
420.28	82.5
420.503	102.5
420.726	100.5
420.948	90.5
421.171	91.5
421.394	94.5
421.617	89.5
421.839	90.5
422.062	92.5
422.285	91.5
422.507	101.5
422.73	105.5
422.953	79.5
423.175	87.5
423.398	90.5
423.621	90.5
423.843	82.5
424.066	80.5
424.288	93.5
424.511	97.5
424.733	101.5
424.956	99.5
425.178	93.5
425.401	88.5
425.623	108.5
425.846	76.5
426.068	105.5
426.291	86.5
426.513	105.5
426.735	95.5
426.958	91.5
427.18	105.5
427.402	121.5
427.625	145.5
427.847	130.5
428.069	100.5
428.292	91.5
428.514	83.5
428.736	84.5
428.958	80.5
429.181	101.5
429.403	83.5
429.625	97.5
429.847	100.5
430.069	100.5
430.292	94.5
430.514	95.5
430.736	102.5
430.958	86.5
431.18	86.5
431.402	86.5
431.624	86.5
431.846	72.5
432.068	85.5
432.29	83.5
432.512	99.5
432.734	93.5
432.956	90.5
433.178	82.5
433.4	86.5
433.622	100.5
433.844	104.5
434.066	101.5
434.287	99.5
434.509	91.5
434.731	75.5
434.953	80.5
435.175	88.5
435.397	94.5
435.618	95.5
435.84	105.5
436.062	109.5
436.284	112.5
436.505	103.5
436.727	112.5
436.949	92.5
437.17	89.5
437.392	96.5
437.614	85.5
437.835	97.5
438.057	105.5
438.278	119.5
438.5	118.5
438.721	106.5
438.943	88.5
439.165	84.5
439.386	84.5
439.608	91.5
439.829	79.5
440.05	116.5
440.272	113.5
440.493	94.5
440.715	82.5
440.936	90.5
441.158	96.5
441.379	89.5
441.6	87.5
441.822	106.5
442.043	93.5
442.264	103.5
442.486	93.5
442.707	85.5
442.928	98.5
443.149	100.5
443.371	112.5
443.592	113.5
443.813	111.5
444.034	101.5
444.255	105.5
444.476	79.5
444.698	86.5
444.919	97.5
445.14	126.5
445.361	118.5
445.582	113.5
445.803	123.5
446.024	99.5
446.245	114.5
446.466	103.5
446.687	98.5
446.908	103.5
447.129	86.5
447.35	86.5
447.571	100.5
447.792	93.5
448.013	105.5
448.234	97.5
448.455	90.5
448.675	116.5
448.896	106.5
449.117	108.5
449.338	98.5
449.559	119.5
449.779	117.5
450	98.5
450.221	85.5
450.442	81.5
450.662	88.5
450.883	112.5
451.104	111.5
451.324	92.5
451.545	90.5
451.766	82.5
451.986	96.5
452.207	100.5
452.428	82.5
452.648	103.5
452.869	104.5
453.089	103.5
453.31	114.5
453.53	99.5
453.751	98.5
453.971	89.5
454.192	97.5
454.412	78.5
454.633	95.5
454.853	85.5
455.073	88.5
455.294	78.5
455.514	112.5
455.734	89.5
455.955	81.5
456.175	80.5
456.395	78.5
456.616	73.5
456.836	93.5
457.056	88.5
457.276	72.5
457.497	84.5
457.717	83.5
457.937	82.5
458.157	85.5
458.377	92.5
458.598	99.5
458.818	149.5
459.038	139.5
459.258	112.5
459.478	91.5
459.698	96.5
459.918	89.5
460.138	88.5
460.358	82.5
460.578	78.5
460.798	86.5
461.018	88.5
461.238	77.5
461.458	95.5
461.678	99.5
461.898	72.5
462.118	76.5
462.338	100.5
462.558	92.5
462.777	91.5
462.997	71.5
463.217	83.5
463.437	101.5
463.657	79.5
463.876	84.5
464.096	83.5
464.316	84.5
464.536	75.5
464.755	97.5
464.975	123.5
465.195	145.5
465.414	151.5
465.634	109.5
465.854	84.5
466.073	91.5
466.293	79.5
466.512	98.5
466.732	87.5
466.951	92.5
467.171	102.5
467.391	85.5
467.61	83.5
467.829	87.5
468.049	82.5
468.268	87.5
468.488	77.5
468.707	86.5
468.927	92.5
469.146	82.5
469.365	84.5
469.585	93.5
469.804	97.5
470.023	84.5
470.243	92.5
470.462	88.5
470.681	92.5
470.901	78.5
471.12	72.5
471.339	80.5
471.558	89.5
471.777	91.5
471.997	88.5
472.216	85.5
472.435	114.5
472.654	85.5
472.873	90.5
473.092	89.5
473.311	91.5
473.53	88.5
473.749	91.5
473.968	100.5
474.187	106.5
474.406	104.5
474.625	76.5
474.844	90.5
475.063	82.5
475.282	69.5
475.501	79.5
475.72	94.5
475.939	83.5
476.158	100.5
476.377	85.5
476.596	81.5
476.814	96.5
477.033	81.5
477.252	93.5
477.471	93.5
477.69	105.5
477.908	96.5
478.127	100.5
478.346	87.5
478.564	87.5
478.783	87.5
479.002	98.5
479.22	101.5
479.439	88.5
479.658	103.5
479.876	91.5
480.095	98.5
480.313	84.5
480.532	91.5
480.751	92.5
480.969	92.5
481.188	115.5
481.406	99.5
481.624	91.5
481.843	84.5
482.061	101.5
482.28	98.5
482.498	83.5
482.717	92.5
482.935	91.5
483.153	91.5
483.372	84.5
483.59	108.5
483.808	92.5
484.027	93.5
484.245	89.5
484.463	96.5
484.681	83.5
484.9	92.5
485.118	91.5
485.336	85.5
485.554	98.5
485.772	104.5
485.99	100.5
486.209	102.5
486.427	88.5
486.645	91.5
486.863	104.5
487.081	105.5
487.299	97.5
487.517	103.5
487.735	91.5
487.953	97.5
488.171	92.5
488.389	101.5
488.607	103.5
488.825	102.5
489.043	89.5
489.261	103.5
489.479	96.5
489.696	84.5
489.914	79.5
490.132	89.5
490.35	96.5
490.568	101.5
490.786	91.5
491.003	78.5
491.221	89.5
491.439	82.5
491.657	88.5
491.874	104.5
492.092	89.5
492.31	90.5
492.527	95.5
492.745	91.5
492.963	98.5
493.18	92.5
493.398	87.5
493.615	110.5
493.833	91.5
494.05	90.5
494.268	101.5
494.485	79.5
494.703	107.5
494.92	101.5
495.138	87.5
495.355	88.5
495.573	89.5
495.79	87.5
496.008	87.5
496.225	92.5
496.442	68.5
496.66	88.5
496.877	97.5
497.094	106.5
497.312	107.5
497.529	93.5
497.746	96.5
497.963	93.5
498.181	83.5
498.398	102.5
498.615	104.5
498.832	90.5
499.049	77.5
499.267	87.5
499.484	83.5
499.701	93.5
499.918	95.5
500.135	98.5
500.352	90.5
500.569	81.5
500.786	83.5
501.003	88.5
501.22	87.5
501.437	96.5
501.654	79.5
501.871	92.5
502.088	84.5
502.305	85.5
502.522	104.5
502.739	101.5
502.956	101.5
503.172	83.5
503.389	90.5
503.606	111.5
503.823	100.5
504.04	79.5
504.256	88.5
504.473	74.5
504.69	76.5
504.907	96.5
505.123	101.5
505.34	101.5
505.557	85.5
505.773	88.5
505.99	81.5
506.207	93.5
506.423	96.5
506.64	83.5
506.856	99.5
507.073	87.5
507.289	71.5
507.506	95.5
507.722	105.5
507.939	97.5
508.155	97.5
508.372	98.5
508.588	82.5
508.805	86.5
509.021	96.5
509.238	83.5
509.454	102.5
509.67	113.5
509.887	106.5
510.103	117.5
510.319	196.5
510.536	677.5
510.752	2115.5
510.968	594.5
511.184	139.5
511.401	99.5
511.617	97.5
511.833	97.5
512.049	88.5
512.265	91.5
512.481	88.5
512.698	94.5
512.914	90.5
513.13	91.5
513.346	88.5
513.562	90.5
513.778	102.5
513.994	93.5
514.21	116.5
514.426	102.5
514.642	115.5
514.858	123.5
515.074	148.5
515.29	378.5
515.506	1199.5
515.721	467.5
515.937	140.5
516.153	112.5
516.369	92.5
516.585	83.5
516.801	95.5
517.016	92.5
517.232	84.5
517.448	101.5
517.664	92.5
517.879	82.5
518.095	105.5
518.311	106.5
518.527	98.5
518.742	93.5
518.958	98.5
519.173	113.5
519.389	88.5
519.605	98.5
519.82	105.5
520.036	101.5
520.251	103.5
520.467	87.5
520.682	105.5
520.898	97.5
521.113	105.5
521.329	111.5
521.544	175.5
521.76	467.5
521.975	1996.5
522.19	1183.5
522.406	250.5
522.621	113.5
522.836	98.5
523.052	110.5
523.267	109.5
523.482	92.5
523.698	97.5
523.913	111.5
524.128	102.5
524.343	93.5
524.559	89.5
524.774	84.5
524.989	86.5
525.204	105.5
525.419	90.5
525.634	88.5
525.849	89.5
526.064	94.5
526.28	80.5
526.495	90.5
526.71	81.5
526.925	89.5
527.14	86.5
527.355	86.5
527.57	104.5
527.785	97.5
527.999	91.5
528.214	86.5
528.429	97.5
528.644	103.5
528.859	97.5
529.074	107.5
529.289	116.5
529.503	153.5
529.718	103.5
529.933	100.5
530.148	89.5
530.363	108.5
530.577	74.5
530.792	95.5
531.007	94.5
531.221	104.5
531.436	99.5
531.651	83.5
531.865	88.5
532.08	91.5
532.295	97.5
532.509	97.5
532.724	100.5
532.938	97.5
533.153	84.5
533.367	90.5
533.582	79.5
533.796	96.5
534.011	88.5
534.225	107.5
534.44	73.5
534.654	90.5
534.868	95.5
535.083	107.5
