Data from Uncirc_2002_H10_HRD10591_00040.txt Node
Date: Wed Jan 03 10:39:49 EST 2024
User: Yrep
Spectrometer: HR+D1059
Trigger mode: 1
Integration Time (sec): 1.000000E-1
Scans to average: 1
Electric dark correction enabled: true
Nonlinearity correction enabled: false
Boxcar width: 0
XAxis mode: Wavelengths
Number of Pixels in Spectrum: 2048
>>>>>Begin Spectral Data<<<<<
223.165	-1.38
223.4	-1.38
223.635	-1.38
223.869	-16.38
224.104	-31.38
224.338	-5.38
224.573	-14.38
224.808	-21.38
225.042	-19.38
225.277	-15.38
225.511	7.62
225.746	15.62
225.98	8.62
226.215	13.62
226.449	5.62
226.683	20.62
226.918	26.62
227.152	26.62
227.387	40.62
227.621	61.62
227.856	48.62
228.09	53.62
228.324	60.62
228.559	70.62
228.793	62.62
229.027	62.62
229.262	57.62
229.496	78.62
229.73	82.62
229.964	86.62
230.199	77.62
230.433	82.62
230.667	77.62
230.901	96.62
231.136	76.62
231.37	73.62
231.604	75.62
231.838	83.62
232.072	80.62
232.306	90.62
232.541	94.62
232.775	89.62
233.009	89.62
233.243	69.62
233.477	89.62
233.711	67.62
233.945	68.62
234.179	83.62
234.413	92.62
234.647	84.62
234.881	90.62
235.115	70.62
235.349	78.62
235.583	81.62
235.817	76.62
236.051	82.62
236.285	83.62
236.519	72.62
236.753	88.62
236.987	74.62
237.221	81.62
237.455	74.62
237.689	81.62
237.922	76.62
238.156	80.62
238.39	76.62
238.624	81.62
238.858	74.62
239.091	69.62
239.325	81.62
239.559	84.62
239.793	82.62
240.027	78.62
240.26	84.62
240.494	78.62
240.728	80.62
240.961	83.62
241.195	75.62
241.429	81.62
241.662	74.62
241.896	89.62
242.13	82.62
242.363	82.62
242.597	76.62
242.83	76.62
243.064	72.62
243.298	85.62
243.531	78.62
243.765	95.62
243.998	66.62
244.232	72.62
244.465	73.62
244.699	75.62
244.932	82.62
245.166	80.62
245.399	72.62
245.633	78.62
245.866	86.62
246.099	85.62
246.333	77.62
246.566	87.62
246.8	76.62
247.033	74.62
247.266	69.62
247.5	84.62
247.733	68.62
247.966	83.62
248.2	76.62
248.433	89.62
248.666	83.62
248.899	81.62
249.133	88.62
249.366	89.62
249.599	75.62
249.832	74.62
250.066	87.62
250.299	83.62
250.532	88.62
250.765	73.62
250.998	87.62
251.231	69.62
251.465	78.62
251.698	75.62
251.931	70.62
252.164	83.62
252.397	78.62
252.63	93.62
252.863	83.62
253.096	79.62
253.329	84.62
253.562	78.62
253.795	77.62
254.028	101.62
254.261	84.62
254.494	82.62
254.727	70.62
254.96	68.62
255.193	82.62
255.426	84.62
255.659	94.62
255.892	81.62
256.124	82.62
256.357	92.62
256.59	66.62
256.823	80.62
257.056	84.62
257.289	73.62
257.521	95.62
257.754	86.62
257.987	79.62
258.22	85.62
258.452	85.62
258.685	72.62
258.918	76.62
259.151	78.62
259.383	75.62
259.616	92.62
259.849	95.62
260.081	97.62
260.314	95.62
260.547	87.62
260.779	88.62
261.012	83.62
261.244	83.62
261.477	96.62
261.71	99.62
261.942	114.62
262.175	111.62
262.407	100.62
262.64	85.62
262.872	73.62
263.105	78.62
263.337	90.62
263.57	68.62
263.802	87.62
264.035	86.62
264.267	90.62
264.499	89.62
264.732	91.62
264.964	89.62
265.197	82.62
265.429	82.62
265.661	97.62
265.894	91.62
266.126	80.62
266.358	78.62
266.591	98.62
266.823	85.62
267.055	89.62
267.287	67.62
267.52	80.62
267.752	91.62
267.984	99.62
268.216	76.62
268.448	93.62
268.681	77.62
268.913	89.62
269.145	81.62
269.377	93.62
269.609	91.62
269.841	96.62
270.073	86.62
270.306	89.62
270.538	88.62
270.77	81.62
271.002	91.62
271.234	78.62
271.466	80.62
271.698	89.62
271.93	99.62
272.162	88.62
272.394	82.62
272.626	92.62
272.858	89.62
273.09	90.62
273.322	88.62
273.553	78.62
273.785	77.62
274.017	81.62
274.249	82.62
274.481	73.62
274.713	98.62
274.945	100.62
275.176	94.62
275.408	91.62
275.64	92.62
275.872	105.62
276.104	90.62
276.335	106.62
276.567	101.62
276.799	100.62
277.031	103.62
277.262	83.62
277.494	77.62
277.726	78.62
277.957	81.62
278.189	97.62
278.421	80.62
278.652	89.62
278.884	82.62
279.115	100.62
279.347	89.62
279.579	77.62
279.81	85.62
280.042	104.62
280.273	84.62
280.505	66.62
280.736	91.62
280.968	89.62
281.199	90.62
281.431	88.62
281.662	85.62
281.894	73.62
282.125	107.62
282.356	124.62
282.588	133.62
282.819	115.62
283.051	98.62
283.282	96.62
283.513	101.62
283.745	93.62
283.976	88.62
284.207	95.62
284.439	82.62
284.67	86.62
284.901	85.62
285.132	102.62
285.364	88.62
285.595	81.62
285.826	84.62
286.057	85.62
286.288	104.62
286.52	97.62
286.751	88.62
286.982	79.62
287.213	86.62
287.444	77.62
287.675	75.62
287.906	85.62
288.138	89.62
288.369	94.62
288.6	91.62
288.831	100.62
289.062	87.62
289.293	86.62
289.524	96.62
289.755	93.62
289.986	88.62
290.217	97.62
290.448	95.62
290.679	90.62
290.91	76.62
291.141	96.62
291.371	87.62
291.602	73.62
291.833	89.62
292.064	106.62
292.295	86.62
292.526	95.62
292.757	98.62
292.987	91.62
293.218	84.62
293.449	89.62
293.68	86.62
293.91	75.62
294.141	108.62
294.372	94.62
294.603	88.62
294.833	83.62
295.064	85.62
295.295	101.62
295.525	93.62
295.756	109.62
295.987	107.62
296.217	132.62
296.448	109.62
296.679	100.62
296.909	102.62
297.14	81.62
297.37	92.62
297.601	86.62
297.831	84.62
298.062	93.62
298.292	92.62
298.523	86.62
298.753	87.62
298.984	91.62
299.214	89.62
299.445	89.62
299.675	99.62
299.905	93.62
300.136	88.62
300.366	78.62
300.597	102.62
300.827	90.62
301.057	96.62
301.288	83.62
301.518	114.62
301.748	94.62
301.979	109.62
302.209	97.62
302.439	93.62
302.669	94.62
302.9	82.62
303.13	84.62
303.36	111.62
303.59	87.62
303.82	110.62
304.051	99.62
304.281	94.62
304.511	86.62
304.741	94.62
304.971	89.62
305.201	97.62
305.431	86.62
305.661	94.62
305.891	91.62
306.121	98.62
306.352	89.62
306.582	96.62
306.812	97.62
307.042	98.62
307.272	98.62
307.502	81.62
307.731	88.62
307.961	94.62
308.191	109.62
308.421	111.62
308.651	96.62
308.881	88.62
309.111	87.62
309.341	83.62
309.571	97.62
309.8	92.62
310.03	90.62
310.26	97.62
310.49	99.62
310.72	112.62
310.949	100.62
311.179	93.62
311.409	107.62
311.639	91.62
311.868	89.62
312.098	90.62
312.328	96.62
312.557	94.62
312.787	109.62
313.017	91.62
313.246	100.62
313.476	85.62
313.706	81.62
313.935	81.62
314.165	90.62
314.394	108.62
314.624	98.62
314.853	96.62
315.083	105.62
315.312	83.62
315.542	91.62
315.771	85.62
316.001	93.62
316.23	85.62
316.46	100.62
316.689	107.62
316.919	98.62
317.148	106.62
317.377	92.62
317.607	89.62
317.836	100.62
318.065	91.62
318.295	91.62
318.524	100.62
318.753	85.62
318.983	77.62
319.212	99.62
319.441	105.62
319.67	115.62
319.9	83.62
320.129	94.62
320.358	97.62
320.587	101.62
320.816	107.62
321.046	92.62
321.275	97.62
321.504	96.62
321.733	104.62
321.962	95.62
322.191	90.62
322.42	89.62
322.649	101.62
322.878	101.62
323.108	116.62
323.337	123.62
323.566	144.62
323.795	132.62
324.024	182.62
324.253	343.62
324.482	714.62
324.71	1402.62
324.939	1805.62
325.168	688.62
325.397	208.62
325.626	132.62
325.855	130.62
326.084	111.62
326.313	116.62
326.542	146.62
326.77	225.62
326.999	408.62
327.228	808.62
327.457	1450.62
327.686	1119.62
327.914	314.62
328.143	180.62
328.372	139.62
328.6	113.62
328.829	108.62
329.058	121.62
329.287	101.62
329.515	97.62
329.744	102.62
329.972	101.62
330.201	107.62
330.43	105.62
330.658	103.62
330.887	125.62
331.115	113.62
331.344	107.62
331.572	97.62
331.801	107.62
332.03	100.62
332.258	111.62
332.486	89.62
332.715	96.62
332.943	97.62
333.172	90.62
333.4	102.62
333.629	100.62
333.857	107.62
334.085	98.62
334.314	100.62
334.542	102.62
334.771	104.62
334.999	90.62
335.227	90.62
335.455	99.62
335.684	90.62
335.912	107.62
336.14	91.62
336.369	101.62
336.597	90.62
336.825	95.62
337.053	93.62
337.281	101.62
337.51	100.62
337.738	89.62
337.966	106.62
338.194	101.62
338.422	94.62
338.65	110.62
338.878	102.62
339.106	92.62
339.334	89.62
339.562	68.62
339.79	97.62
340.018	97.62
340.246	98.62
340.474	91.62
340.702	96.62
340.93	100.62
341.158	101.62
341.386	105.62
341.614	93.62
341.842	98.62
342.07	106.62
342.298	92.62
342.526	94.62
342.754	84.62
342.981	89.62
343.209	100.62
343.437	94.62
343.665	92.62
343.893	77.62
344.12	92.62
344.348	91.62
344.576	94.62
344.804	101.62
345.031	104.62
345.259	79.62
345.487	103.62
345.714	102.62
345.942	84.62
346.17	95.62
346.397	103.62
346.625	107.62
346.853	110.62
347.08	81.62
347.308	78.62
347.535	93.62
347.763	110.62
347.99	87.62
348.218	111.62
348.445	102.62
348.673	94.62
348.9	99.62
349.128	81.62
349.355	86.62
349.583	100.62
349.81	95.62
350.037	84.62
350.265	100.62
350.492	113.62
350.72	98.62
350.947	104.62
351.174	105.62
351.402	106.62
351.629	97.62
351.856	121.62
352.083	96.62
352.311	102.62
352.538	116.62
352.765	103.62
352.992	96.62
353.22	117.62
353.447	100.62
353.674	100.62
353.901	95.62
354.128	92.62
354.355	98.62
354.583	106.62
354.81	97.62
355.037	97.62
355.264	86.62
355.491	79.62
355.718	85.62
355.945	91.62
356.172	98.62
356.399	82.62
356.626	97.62
356.853	108.62
357.08	109.62
357.307	97.62
357.534	97.62
357.761	107.62
357.988	91.62
358.215	91.62
358.441	100.62
358.668	85.62
358.895	84.62
359.122	81.62
359.349	80.62
359.576	99.62
359.802	88.62
360.029	97.62
360.256	96.62
360.483	86.62
360.709	89.62
360.936	88.62
361.163	90.62
361.39	90.62
361.616	100.62
361.843	86.62
362.07	112.62
362.296	109.62
362.523	93.62
362.749	103.62
362.976	104.62
363.203	92.62
363.429	100.62
363.656	73.62
363.882	80.62
364.109	83.62
364.335	106.62
364.562	97.62
364.788	84.62
365.015	91.62
365.241	94.62
365.468	113.62
365.694	98.62
365.92	102.62
366.147	82.62
366.373	100.62
366.599	105.62
366.826	76.62
367.052	84.62
367.278	92.62
367.505	96.62
367.731	99.62
367.957	88.62
368.184	104.62
368.41	106.62
368.636	103.62
368.862	116.62
369.089	96.62
369.315	91.62
369.541	104.62
369.767	94.62
369.993	81.62
370.219	83.62
370.445	87.62
370.672	100.62
370.898	98.62
371.124	87.62
371.35	91.62
371.576	93.62
371.802	101.62
372.028	89.62
372.254	90.62
372.48	94.62
372.706	76.62
372.932	78.62
373.158	84.62
373.384	92.62
373.61	87.62
373.835	81.62
374.061	102.62
374.287	91.62
374.513	92.62
374.739	86.62
374.965	96.62
375.191	105.62
375.416	100.62
375.642	91.62
375.868	74.62
376.094	96.62
376.319	93.62
376.545	91.62
376.771	91.62
376.997	90.62
377.222	85.62
377.448	110.62
377.674	92.62
377.899	93.62
378.125	82.62
378.35	91.62
378.576	96.62
378.802	92.62
379.027	86.62
379.253	95.62
379.478	89.62
379.704	94.62
379.929	90.62
380.155	92.62
380.38	89.62
380.606	82.62
380.831	89.62
381.057	90.62
381.282	97.62
381.507	90.62
381.733	102.62
381.958	103.62
382.184	89.62
382.409	99.62
382.634	102.62
382.86	92.62
383.085	99.62
383.31	104.62
383.535	85.62
383.761	107.62
383.986	91.62
384.211	97.62
384.436	86.62
384.662	90.62
384.887	91.62
385.112	101.62
385.337	103.62
385.562	97.62
385.787	96.62
386.013	89.62
386.238	113.62
386.463	108.62
386.688	93.62
386.913	103.62
387.138	114.62
387.363	104.62
387.588	97.62
387.813	88.62
388.038	98.62
388.263	113.62
388.488	117.62
388.713	99.62
388.938	93.62
389.163	95.62
389.387	102.62
389.612	106.62
389.837	98.62
390.062	97.62
390.287	93.62
390.512	80.62
390.736	84.62
390.961	97.62
391.186	101.62
391.411	106.62
391.636	101.62
391.86	86.62
392.085	96.62
392.31	92.62
392.534	85.62
392.759	93.62
392.984	92.62
393.208	99.62
393.433	104.62
393.658	110.62
393.882	103.62
394.107	90.62
394.331	93.62
394.556	85.62
394.78	96.62
395.005	93.62
395.229	78.62
395.454	97.62
395.678	84.62
395.903	98.62
396.127	99.62
396.352	86.62
396.576	100.62
396.801	80.62
397.025	99.62
397.249	99.62
397.474	102.62
397.698	95.62
397.922	81.62
398.147	87.62
398.371	98.62
398.595	94.62
398.82	83.62
399.044	109.62
399.268	90.62
399.492	91.62
399.717	94.62
399.941	92.62
400.165	92.62
400.389	75.62
400.613	99.62
400.837	82.62
401.062	88.62
401.286	91.62
401.51	88.62
401.734	96.62
401.958	100.62
402.182	102.62
402.406	158.62
402.63	113.62
402.854	93.62
403.078	100.62
403.302	86.62
403.526	93.62
403.75	82.62
403.974	93.62
404.198	92.62
404.422	85.62
404.645	108.62
404.869	96.62
405.093	96.62
405.317	93.62
405.541	93.62
405.765	92.62
405.988	122.62
406.212	153.62
406.436	196.62
406.66	134.62
406.883	103.62
407.107	91.62
407.331	96.62
407.555	98.62
407.778	92.62
408.002	86.62
408.226	88.62
408.449	85.62
408.673	87.62
408.896	90.62
409.12	88.62
409.344	102.62
409.567	91.62
409.791	93.62
410.014	96.62
410.238	103.62
410.461	83.62
410.685	111.62
410.908	101.62
411.132	104.62
411.355	101.62
411.578	113.62
411.802	109.62
412.025	87.62
412.249	91.62
412.472	93.62
412.695	91.62
412.919	89.62
413.142	69.62
413.365	80.62
413.589	90.62
413.812	92.62
414.035	85.62
414.258	90.62
414.482	105.62
414.705	95.62
414.928	100.62
415.151	102.62
415.374	103.62
415.597	81.62
415.821	87.62
416.044	94.62
416.267	98.62
416.49	102.62
416.713	79.62
416.936	92.62
417.159	97.62
417.382	91.62
417.605	93.62
417.828	99.62
418.051	95.62
418.274	92.62
418.497	93.62
418.72	78.62
418.943	86.62
419.166	83.62
419.389	85.62
419.611	90.62
419.834	85.62
420.057	86.62
420.28	94.62
420.503	86.62
420.726	99.62
420.948	83.62
421.171	98.62
421.394	113.62
421.617	97.62
421.839	99.62
422.062	92.62
422.285	100.62
422.507	89.62
422.73	111.62
422.953	95.62
423.175	84.62
423.398	94.62
423.621	98.62
423.843	92.62
424.066	98.62
424.288	91.62
424.511	87.62
424.733	100.62
424.956	102.62
425.178	97.62
425.401	101.62
425.623	99.62
425.846	86.62
426.068	87.62
426.291	81.62
426.513	81.62
426.735	96.62
426.958	95.62
427.18	92.62
427.402	125.62
427.625	151.62
427.847	112.62
428.069	103.62
428.292	93.62
428.514	94.62
428.736	93.62
428.958	89.62
429.181	80.62
429.403	89.62
429.625	86.62
429.847	82.62
430.069	100.62
430.292	91.62
430.514	99.62
430.736	92.62
430.958	89.62
431.18	84.62
431.402	84.62
431.624	83.62
431.846	89.62
432.068	95.62
432.29	82.62
432.512	87.62
432.734	86.62
432.956	99.62
433.178	94.62
433.4	94.62
433.622	86.62
433.844	99.62
434.066	95.62
434.287	90.62
434.509	100.62
434.731	85.62
434.953	88.62
435.175	95.62
435.397	85.62
435.618	100.62
435.84	105.62
436.062	114.62
436.284	107.62
436.505	87.62
436.727	98.62
436.949	93.62
437.17	80.62
437.392	90.62
437.614	92.62
437.835	101.62
438.057	107.62
438.278	104.62
438.5	106.62
438.721	118.62
438.943	91.62
439.165	90.62
439.386	89.62
439.608	104.62
439.829	104.62
440.05	113.62
440.272	142.62
440.493	100.62
440.715	90.62
440.936	85.62
441.158	86.62
441.379	79.62
441.6	97.62
441.822	91.62
442.043	98.62
442.264	86.62
442.486	92.62
442.707	82.62
442.928	103.62
443.149	115.62
443.371	124.62
443.592	92.62
443.813	106.62
444.034	104.62
444.255	93.62
444.476	97.62
444.698	91.62
444.919	93.62
445.14	134.62
445.361	128.62
445.582	97.62
445.803	114.62
446.024	131.62
446.245	117.62
446.466	104.62
446.687	74.62
446.908	92.62
447.129	85.62
447.35	85.62
447.571	90.62
447.792	94.62
448.013	96.62
448.234	101.62
448.455	99.62
448.675	111.62
448.896	116.62
449.117	111.62
449.338	98.62
449.559	119.62
449.779	142.62
450	108.62
450.221	103.62
450.442	95.62
450.662	95.62
450.883	89.62
451.104	125.62
451.324	85.62
451.545	98.62
451.766	83.62
451.986	92.62
452.207	87.62
452.428	101.62
452.648	89.62
452.869	102.62
453.089	95.62
453.31	108.62
453.53	97.62
453.751	102.62
453.971	108.62
454.192	102.62
454.412	93.62
454.633	95.62
454.853	91.62
455.073	98.62
455.294	97.62
455.514	101.62
455.734	92.62
455.955	78.62
456.175	95.62
456.395	81.62
456.616	93.62
456.836	79.62
457.056	92.62
457.276	89.62
457.497	95.62
457.717	84.62
457.937	86.62
458.157	87.62
458.377	74.62
458.598	99.62
458.818	145.62
459.038	127.62
459.258	120.62
459.478	91.62
459.698	94.62
459.918	91.62
460.138	65.62
460.358	85.62
460.578	100.62
460.798	84.62
461.018	106.62
461.238	96.62
461.458	77.62
461.678	91.62
461.898	90.62
462.118	97.62
462.338	100.62
462.558	87.62
462.777	98.62
462.997	101.62
463.217	86.62
463.437	81.62
463.657	84.62
463.876	91.62
464.096	98.62
464.316	88.62
464.536	94.62
464.755	92.62
464.975	99.62
465.195	150.62
465.414	125.62
465.634	80.62
465.854	83.62
466.073	100.62
466.293	85.62
466.512	89.62
466.732	91.62
466.951	88.62
467.171	102.62
467.391	96.62
467.61	106.62
467.829	100.62
468.049	96.62
468.268	93.62
468.488	97.62
468.707	88.62
468.927	95.62
469.146	88.62
469.365	78.62
469.585	84.62
469.804	107.62
470.023	103.62
470.243	93.62
470.462	108.62
470.681	88.62
470.901	103.62
471.12	92.62
471.339	100.62
471.558	94.62
471.777	114.62
471.997	91.62
472.216	74.62
472.435	84.62
472.654	89.62
472.873	95.62
473.092	92.62
473.311	98.62
473.53	78.62
473.749	84.62
473.968	97.62
474.187	101.62
474.406	102.62
474.625	95.62
474.844	112.62
475.063	90.62
475.282	88.62
475.501	88.62
475.72	105.62
475.939	90.62
476.158	85.62
476.377	88.62
476.596	84.62
476.814	93.62
477.033	82.62
477.252	88.62
477.471	85.62
477.69	80.62
477.908	79.62
478.127	107.62
478.346	94.62
478.564	97.62
478.783	98.62
479.002	81.62
479.22	98.62
479.439	96.62
479.658	100.62
479.876	103.62
480.095	97.62
480.313	93.62
480.532	102.62
480.751	88.62
480.969	100.62
481.188	112.62
481.406	102.62
481.624	82.62
481.843	97.62
482.061	93.62
482.28	100.62
482.498	101.62
482.717	92.62
482.935	89.62
483.153	85.62
483.372	91.62
483.59	80.62
483.808	107.62
484.027	97.62
484.245	109.62
484.463	90.62
484.681	100.62
484.9	98.62
485.118	91.62
485.336	91.62
485.554	94.62
485.772	87.62
485.99	98.62
486.209	101.62
486.427	103.62
486.645	103.62
486.863	95.62
487.081	100.62
487.299	89.62
487.517	100.62
487.735	82.62
487.953	91.62
488.171	97.62
488.389	88.62
488.607	97.62
488.825	88.62
489.043	102.62
489.261	97.62
489.479	98.62
489.696	98.62
489.914	90.62
490.132	97.62
490.35	89.62
490.568	93.62
490.786	85.62
491.003	94.62
491.221	82.62
491.439	102.62
491.657	97.62
491.874	112.62
492.092	97.62
492.31	91.62
492.527	86.62
492.745	100.62
492.963	92.62
493.18	93.62
493.398	97.62
493.615	76.62
493.833	100.62
494.05	82.62
494.268	97.62
494.485	91.62
494.703	100.62
494.92	94.62
495.138	92.62
495.355	93.62
495.573	99.62
495.79	82.62
496.008	103.62
496.225	97.62
496.442	85.62
496.66	100.62
496.877	105.62
497.094	104.62
497.312	82.62
497.529	94.62
497.746	103.62
497.963	81.62
498.181	95.62
498.398	101.62
498.615	104.62
498.832	98.62
499.049	84.62
499.267	98.62
499.484	99.62
499.701	85.62
499.918	95.62
500.135	87.62
500.352	88.62
500.569	75.62
500.786	95.62
501.003	90.62
501.22	106.62
501.437	85.62
501.654	97.62
501.871	101.62
502.088	89.62
502.305	84.62
502.522	98.62
502.739	100.62
502.956	86.62
503.172	90.62
503.389	104.62
503.606	112.62
503.823	104.62
504.04	87.62
504.256	80.62
504.473	105.62
504.69	93.62
504.907	98.62
505.123	84.62
505.34	90.62
505.557	108.62
505.773	81.62
505.99	80.62
506.207	92.62
506.423	90.62
506.64	90.62
506.856	80.62
507.073	91.62
507.289	109.62
507.506	96.62
507.722	112.62
507.939	112.62
508.155	89.62
508.372	87.62
508.588	92.62
508.805	95.62
509.021	94.62
509.238	102.62
509.454	91.62
509.67	87.62
509.887	101.62
510.103	122.62
510.319	192.62
510.536	664.62
510.752	2047.62
510.968	562.62
511.184	141.62
511.401	100.62
511.617	104.62
511.833	95.62
512.049	109.62
512.265	89.62
512.481	115.62
512.698	100.62
512.914	82.62
513.13	88.62
513.346	91.62
513.562	93.62
513.778	101.62
513.994	89.62
514.21	99.62
514.426	117.62
514.642	120.62
514.858	110.62
515.074	158.62
