Data from Uncirc_2002_H10_HRD10591_00035.txt Node
Date: Wed Jan 03 10:39:48 EST 2024
User: Yrep
Spectrometer: HR+D1059
Trigger mode: 1
Integration Time (sec): 1.000000E-1
Scans to average: 1
Electric dark correction enabled: true
Nonlinearity correction enabled: false
Boxcar width: 0
XAxis mode: Wavelengths
Number of Pixels in Spectrum: 2048
>>>>>Begin Spectral Data<<<<<
223.165	-8.94
223.4	-8.94
223.635	-8.94
223.869	-24.94
224.104	-27.94
224.338	-25.94
224.573	-14.94
224.808	0.06
225.042	-18.94
225.277	-3.94
225.511	7.06
225.746	2.06
225.98	9.06
226.215	3.06
226.449	13.06
226.683	26.06
226.918	23.06
227.152	42.06
227.387	35.06
227.621	36.06
227.856	43.06
228.09	41.06
228.324	48.06
228.559	53.06
228.793	63.06
229.027	74.06
229.262	62.06
229.496	56.06
229.73	72.06
229.964	77.06
230.199	52.06
230.433	81.06
230.667	71.06
230.901	81.06
231.136	75.06
231.37	94.06
231.604	85.06
231.838	90.06
232.072	72.06
232.306	83.06
232.541	84.06
232.775	85.06
233.009	75.06
233.243	87.06
233.477	85.06
233.711	82.06
233.945	77.06
234.179	88.06
234.413	79.06
234.647	73.06
234.881	84.06
235.115	80.06
235.349	80.06
235.583	84.06
235.817	87.06
236.051	70.06
236.285	69.06
236.519	78.06
236.753	66.06
236.987	73.06
237.221	91.06
237.455	75.06
237.689	65.06
237.922	78.06
238.156	82.06
238.39	81.06
238.624	64.06
238.858	74.06
239.091	77.06
239.325	90.06
239.559	84.06
239.793	77.06
240.027	89.06
240.26	77.06
240.494	73.06
240.728	72.06
240.961	69.06
241.195	97.06
241.429	70.06
241.662	73.06
241.896	79.06
242.13	74.06
242.363	77.06
242.597	77.06
242.83	68.06
243.064	85.06
243.298	79.06
243.531	88.06
243.765	84.06
243.998	61.06
244.232	75.06
244.465	68.06
244.699	79.06
244.932	71.06
245.166	80.06
245.399	65.06
245.633	67.06
245.866	79.06
246.099	78.06
246.333	82.06
246.566	77.06
246.8	81.06
247.033	84.06
247.266	77.06
247.5	77.06
247.733	71.06
247.966	67.06
248.2	70.06
248.433	86.06
248.666	77.06
248.899	87.06
249.133	84.06
249.366	91.06
249.599	85.06
249.832	70.06
250.066	83.06
250.299	75.06
250.532	59.06
250.765	75.06
250.998	75.06
251.231	74.06
251.465	90.06
251.698	72.06
251.931	67.06
252.164	75.06
252.397	72.06
252.63	63.06
252.863	73.06
253.096	81.06
253.329	82.06
253.562	84.06
253.795	81.06
254.028	79.06
254.261	95.06
254.494	79.06
254.727	84.06
254.96	77.06
255.193	83.06
255.426	80.06
255.659	88.06
255.892	84.06
256.124	83.06
256.357	90.06
256.59	89.06
256.823	94.06
257.056	78.06
257.289	79.06
257.521	80.06
257.754	86.06
257.987	72.06
258.22	86.06
258.452	73.06
258.685	81.06
258.918	74.06
259.151	77.06
259.383	81.06
259.616	85.06
259.849	66.06
260.081	88.06
260.314	76.06
260.547	83.06
260.779	88.06
261.012	82.06
261.244	94.06
261.477	91.06
261.71	90.06
261.942	88.06
262.175	106.06
262.407	93.06
262.64	78.06
262.872	86.06
263.105	65.06
263.337	81.06
263.57	91.06
263.802	78.06
264.035	72.06
264.267	86.06
264.499	77.06
264.732	90.06
264.964	80.06
265.197	94.06
265.429	87.06
265.661	88.06
265.894	92.06
266.126	92.06
266.358	69.06
266.591	73.06
266.823	67.06
267.055	72.06
267.287	71.06
267.52	94.06
267.752	85.06
267.984	95.06
268.216	85.06
268.448	85.06
268.681	74.06
268.913	83.06
269.145	72.06
269.377	98.06
269.609	91.06
269.841	77.06
270.073	74.06
270.306	99.06
270.538	81.06
270.77	78.06
271.002	79.06
271.234	82.06
271.466	95.06
271.698	92.06
271.93	84.06
272.162	86.06
272.394	79.06
272.626	84.06
272.858	80.06
273.09	73.06
273.322	66.06
273.553	88.06
273.785	81.06
274.017	83.06
274.249	76.06
274.481	85.06
274.713	95.06
274.945	83.06
275.176	91.06
275.408	89.06
275.64	99.06
275.872	74.06
276.104	83.06
276.335	89.06
276.567	95.06
276.799	106.06
277.031	98.06
277.262	95.06
277.494	85.06
277.726	85.06
277.957	83.06
278.189	91.06
278.421	67.06
278.652	83.06
278.884	92.06
279.115	80.06
279.347	85.06
279.579	90.06
279.81	70.06
280.042	85.06
280.273	80.06
280.505	83.06
280.736	77.06
280.968	67.06
281.199	76.06
281.431	73.06
281.662	88.06
281.894	96.06
282.125	93.06
282.356	109.06
282.588	112.06
282.819	110.06
283.051	75.06
283.282	97.06
283.513	81.06
283.745	67.06
283.976	81.06
284.207	90.06
284.439	90.06
284.67	91.06
284.901	72.06
285.132	94.06
285.364	87.06
285.595	81.06
285.826	90.06
286.057	90.06
286.288	88.06
286.52	79.06
286.751	75.06
286.982	93.06
287.213	81.06
287.444	85.06
287.675	85.06
287.906	100.06
288.138	85.06
288.369	88.06
288.6	67.06
288.831	87.06
289.062	81.06
289.293	87.06
289.524	87.06
289.755	88.06
289.986	81.06
290.217	89.06
290.448	84.06
290.679	74.06
290.91	81.06
291.141	70.06
291.371	83.06
291.602	78.06
291.833	89.06
292.064	95.06
292.295	97.06
292.526	87.06
292.757	75.06
292.987	79.06
293.218	77.06
293.449	90.06
293.68	84.06
293.91	74.06
294.141	81.06
294.372	85.06
294.603	94.06
294.833	86.06
295.064	90.06
295.295	85.06
295.525	91.06
295.756	99.06
295.987	99.06
296.217	133.06
296.448	105.06
296.679	82.06
296.909	88.06
297.14	89.06
297.37	93.06
297.601	87.06
297.831	69.06
298.062	79.06
298.292	81.06
298.523	91.06
298.753	87.06
298.984	97.06
299.214	85.06
299.445	103.06
299.675	94.06
299.905	102.06
300.136	90.06
300.366	79.06
300.597	87.06
300.827	88.06
301.057	97.06
301.288	105.06
301.518	87.06
301.748	90.06
301.979	100.06
302.209	86.06
302.439	86.06
302.669	85.06
302.9	78.06
303.13	85.06
303.36	94.06
303.59	95.06
303.82	106.06
304.051	82.06
304.281	90.06
304.511	90.06
304.741	82.06
304.971	97.06
305.201	93.06
305.431	95.06
305.661	99.06
305.891	94.06
306.121	102.06
306.352	104.06
306.582	102.06
306.812	89.06
307.042	84.06
307.272	87.06
307.502	102.06
307.731	88.06
307.961	91.06
308.191	91.06
308.421	80.06
308.651	88.06
308.881	92.06
309.111	87.06
309.341	106.06
309.571	90.06
309.8	95.06
310.03	91.06
310.26	94.06
310.49	99.06
310.72	87.06
310.949	97.06
311.179	86.06
311.409	92.06
311.639	97.06
311.868	91.06
312.098	75.06
312.328	101.06
312.557	105.06
312.787	87.06
313.017	96.06
313.246	86.06
313.476	91.06
313.706	104.06
313.935	97.06
314.165	81.06
314.394	112.06
314.624	98.06
314.853	79.06
315.083	89.06
315.312	85.06
315.542	74.06
315.771	92.06
316.001	89.06
316.23	97.06
316.46	94.06
316.689	89.06
316.919	88.06
317.148	91.06
317.377	98.06
317.607	88.06
317.836	99.06
318.065	101.06
318.295	89.06
318.524	85.06
318.753	79.06
318.983	89.06
319.212	82.06
319.441	109.06
319.67	96.06
319.9	100.06
320.129	90.06
320.358	78.06
320.587	102.06
320.816	84.06
321.046	89.06
321.275	86.06
321.504	93.06
321.733	91.06
321.962	84.06
322.191	104.06
322.42	102.06
322.649	112.06
322.878	115.06
323.108	108.06
323.337	115.06
323.566	121.06
323.795	149.06
324.024	186.06
324.253	333.06
324.482	662.06
324.71	1399.06
324.939	1838.06
325.168	671.06
325.397	220.06
325.626	137.06
325.855	108.06
326.084	117.06
326.313	102.06
326.542	116.06
326.77	206.06
326.999	401.06
327.228	787.06
327.457	1408.06
327.686	1104.06
327.914	324.06
328.143	174.06
328.372	112.06
328.6	115.06
328.829	114.06
329.058	114.06
329.287	111.06
329.515	106.06
329.744	106.06
329.972	100.06
330.201	101.06
330.43	104.06
330.658	127.06
330.887	121.06
331.115	105.06
331.344	100.06
331.572	102.06
331.801	96.06
332.03	98.06
332.258	91.06
332.486	99.06
332.715	92.06
332.943	93.06
333.172	97.06
333.4	92.06
333.629	99.06
333.857	109.06
334.085	99.06
334.314	107.06
334.542	95.06
334.771	109.06
334.999	83.06
335.227	100.06
335.455	92.06
335.684	94.06
335.912	98.06
336.14	102.06
336.369	99.06
336.597	105.06
336.825	101.06
337.053	71.06
337.281	86.06
337.51	93.06
337.738	85.06
337.966	72.06
338.194	99.06
338.422	99.06
338.65	93.06
338.878	90.06
339.106	81.06
339.334	98.06
339.562	91.06
339.79	85.06
340.018	78.06
340.246	87.06
340.474	82.06
340.702	95.06
340.93	88.06
341.158	75.06
341.386	101.06
341.614	98.06
341.842	95.06
342.07	94.06
342.298	95.06
342.526	87.06
342.754	78.06
342.981	74.06
343.209	89.06
343.437	105.06
343.665	97.06
343.893	95.06
344.12	95.06
344.348	91.06
344.576	90.06
344.804	87.06
345.031	87.06
345.259	114.06
345.487	93.06
345.714	84.06
345.942	88.06
346.17	103.06
346.397	81.06
346.625	86.06
346.853	97.06
347.08	84.06
347.308	77.06
347.535	87.06
347.763	101.06
347.99	103.06
348.218	89.06
348.445	79.06
348.673	93.06
348.9	93.06
349.128	90.06
349.355	85.06
349.583	95.06
349.81	85.06
350.037	94.06
350.265	91.06
350.492	84.06
350.72	90.06
350.947	110.06
351.174	103.06
351.402	102.06
351.629	92.06
351.856	102.06
352.083	91.06
352.311	104.06
352.538	105.06
352.765	109.06
352.992	101.06
353.22	93.06
353.447	113.06
353.674	103.06
353.901	83.06
354.128	85.06
354.355	81.06
354.583	98.06
354.81	92.06
355.037	86.06
355.264	109.06
355.491	97.06
355.718	97.06
355.945	83.06
356.172	103.06
356.399	94.06
356.626	82.06
356.853	86.06
357.08	101.06
357.307	91.06
357.534	98.06
357.761	90.06
357.988	106.06
358.215	116.06
358.441	83.06
358.668	97.06
358.895	102.06
359.122	93.06
359.349	89.06
359.576	88.06
359.802	86.06
360.029	97.06
360.256	94.06
360.483	91.06
360.709	78.06
360.936	97.06
361.163	90.06
361.39	82.06
361.616	99.06
361.843	75.06
362.07	86.06
362.296	68.06
362.523	88.06
362.749	82.06
362.976	103.06
363.203	90.06
363.429	84.06
363.656	90.06
363.882	101.06
364.109	83.06
364.335	86.06
364.562	84.06
364.788	95.06
365.015	90.06
365.241	99.06
365.468	93.06
365.694	91.06
365.92	73.06
366.147	75.06
366.373	79.06
366.599	88.06
366.826	71.06
367.052	67.06
367.278	85.06
367.505	88.06
367.731	81.06
367.957	78.06
368.184	94.06
368.41	87.06
368.636	95.06
368.862	100.06
369.089	109.06
369.315	93.06
369.541	92.06
369.767	93.06
369.993	95.06
370.219	89.06
370.445	84.06
370.672	89.06
370.898	74.06
371.124	88.06
371.35	86.06
371.576	84.06
371.802	92.06
372.028	62.06
372.254	82.06
372.48	84.06
372.706	95.06
372.932	86.06
373.158	90.06
373.384	82.06
373.61	81.06
373.835	92.06
374.061	81.06
374.287	78.06
374.513	94.06
374.739	76.06
374.965	87.06
375.191	85.06
375.416	92.06
375.642	108.06
375.868	102.06
376.094	99.06
376.319	92.06
376.545	92.06
376.771	88.06
376.997	109.06
377.222	94.06
377.448	81.06
377.674	105.06
377.899	91.06
378.125	86.06
378.35	82.06
378.576	88.06
378.802	92.06
379.027	91.06
379.253	91.06
379.478	90.06
379.704	95.06
379.929	86.06
380.155	90.06
380.38	91.06
380.606	81.06
380.831	88.06
381.057	98.06
381.282	98.06
381.507	73.06
381.733	88.06
381.958	91.06
382.184	91.06
382.409	86.06
382.634	102.06
382.86	85.06
383.085	98.06
383.31	102.06
383.535	103.06
383.761	83.06
383.986	101.06
384.211	77.06
384.436	96.06
384.662	105.06
384.887	95.06
385.112	110.06
385.337	97.06
385.562	94.06
385.787	85.06
386.013	94.06
386.238	99.06
386.463	102.06
386.688	112.06
386.913	102.06
387.138	100.06
387.363	96.06
387.588	89.06
387.813	95.06
388.038	96.06
388.263	122.06
388.488	101.06
388.713	92.06
388.938	89.06
389.163	101.06
389.387	106.06
389.612	101.06
389.837	83.06
390.062	87.06
390.287	101.06
390.512	85.06
390.736	89.06
390.961	96.06
391.186	91.06
391.411	99.06
391.636	91.06
391.86	85.06
392.085	102.06
392.31	77.06
392.534	74.06
392.759	90.06
392.984	101.06
393.208	102.06
393.433	89.06
393.658	96.06
393.882	95.06
394.107	90.06
394.331	79.06
394.556	96.06
394.78	99.06
395.005	82.06
395.229	78.06
395.454	105.06
395.678	73.06
395.903	89.06
396.127	89.06
396.352	76.06
396.576	81.06
396.801	85.06
397.025	103.06
397.249	85.06
397.474	84.06
397.698	95.06
397.922	69.06
398.147	70.06
398.371	97.06
398.595	87.06
398.82	88.06
399.044	90.06
399.268	89.06
399.492	93.06
399.717	86.06
399.941	90.06
400.165	91.06
400.389	109.06
400.613	88.06
400.837	86.06
401.062	84.06
401.286	81.06
401.51	90.06
401.734	90.06
401.958	87.06
402.182	109.06
402.406	137.06
402.63	104.06
402.854	70.06
403.078	92.06
403.302	79.06
403.526	82.06
403.75	90.06
403.974	81.06
404.198	75.06
404.422	99.06
404.645	101.06
404.869	80.06
405.093	85.06
405.317	92.06
405.541	91.06
405.765	103.06
405.988	109.06
406.212	125.06
406.436	181.06
406.66	125.06
406.883	88.06
407.107	90.06
407.331	84.06
407.555	91.06
407.778	84.06
408.002	78.06
408.226	96.06
408.449	96.06
408.673	90.06
408.896	87.06
409.12	80.06
409.344	81.06
409.567	88.06
409.791	89.06
410.014	94.06
410.238	94.06
410.461	84.06
410.685	91.06
410.908	89.06
411.132	110.06
411.355	105.06
411.578	80.06
411.802	73.06
412.025	74.06
412.249	82.06
412.472	81.06
412.695	78.06
412.919	88.06
413.142	80.06
413.365	85.06
413.589	98.06
413.812	105.06
414.035	93.06
414.258	88.06
414.482	90.06
414.705	83.06
414.928	81.06
415.151	83.06
415.374	85.06
415.597	69.06
415.821	88.06
416.044	88.06
416.267	83.06
416.49	84.06
416.713	91.06
416.936	91.06
417.159	82.06
417.382	95.06
417.605	83.06
417.828	91.06
418.051	79.06
418.274	87.06
418.497	91.06
418.72	80.06
418.943	80.06
419.166	81.06
419.389	94.06
419.611	97.06
419.834	81.06
420.057	89.06
420.28	88.06
420.503	77.06
420.726	92.06
420.948	89.06
421.171	82.06
421.394	91.06
421.617	84.06
421.839	88.06
422.062	78.06
422.285	107.06
422.507	93.06
422.73	101.06
422.953	107.06
423.175	82.06
423.398	96.06
423.621	88.06
423.843	70.06
424.066	86.06
424.288	87.06
424.511	81.06
424.733	82.06
424.956	105.06
425.178	89.06
425.401	88.06
425.623	83.06
425.846	101.06
426.068	93.06
426.291	80.06
426.513	86.06
426.735	83.06
426.958	90.06
427.18	89.06
427.402	110.06
427.625	140.06
427.847	113.06
428.069	97.06
428.292	83.06
428.514	70.06
428.736	85.06
428.958	82.06
429.181	87.06
429.403	78.06
429.625	71.06
429.847	104.06
430.069	102.06
430.292	84.06
430.514	91.06
430.736	80.06
430.958	75.06
431.18	77.06
431.402	94.06
431.624	85.06
431.846	99.06
432.068	91.06
432.29	72.06
432.512	84.06
432.734	86.06
432.956	94.06
433.178	106.06
433.4	83.06
433.622	96.06
433.844	97.06
434.066	85.06
434.287	83.06
434.509	91.06
434.731	83.06
434.953	99.06
435.175	84.06
435.397	90.06
435.618	94.06
435.84	88.06
436.062	118.06
436.284	88.06
436.505	94.06
436.727	97.06
436.949	99.06
437.17	90.06
437.392	91.06
437.614	96.06
437.835	93.06
438.057	107.06
438.278	102.06
438.5	91.06
438.721	92.06
438.943	108.06
439.165	78.06
439.386	97.06
439.608	84.06
439.829	88.06
440.05	123.06
440.272	130.06
440.493	87.06
440.715	97.06
440.936	98.06
441.158	83.06
441.379	95.06
441.6	88.06
441.822	95.06
442.043	104.06
442.264	93.06
442.486	78.06
442.707	95.06
442.928	91.06
443.149	111.06
443.371	119.06
443.592	113.06
443.813	95.06
444.034	96.06
444.255	102.06
444.476	88.06
444.698	113.06
444.919	110.06
445.14	130.06
445.361	103.06
445.582	102.06
445.803	111.06
446.024	112.06
446.245	116.06
446.466	108.06
446.687	95.06
446.908	90.06
447.129	90.06
447.35	75.06
447.571	85.06
447.792	82.06
448.013	93.06
448.234	108.06
448.455	90.06
448.675	94.06
448.896	111.06
449.117	95.06
449.338	81.06
449.559	128.06
449.779	113.06
450	103.06
450.221	86.06
450.442	85.06
450.662	91.06
450.883	92.06
451.104	91.06
451.324	86.06
451.545	70.06
451.766	81.06
451.986	99.06
452.207	91.06
452.428	90.06
452.648	88.06
452.869	108.06
453.089	107.06
453.31	101.06
453.53	87.06
453.751	88.06
453.971	102.06
454.192	101.06
454.412	85.06
454.633	80.06
454.853	93.06
455.073	78.06
455.294	90.06
455.514	95.06
455.734	86.06
455.955	77.06
456.175	92.06
456.395	83.06
456.616	83.06
456.836	80.06
457.056	89.06
457.276	94.06
457.497	67.06
457.717	84.06
457.937	90.06
458.157	99.06
458.377	86.06
458.598	106.06
458.818	136.06
459.038	128.06
459.258	107.06
459.478	87.06
459.698	85.06
459.918	68.06
460.138	79.06
460.358	85.06
460.578	85.06
460.798	102.06
461.018	101.06
461.238	89.06
461.458	89.06
461.678	97.06
461.898	82.06
462.118	76.06
462.338	92.06
462.558	85.06
462.777	85.06
462.997	81.06
463.217	95.06
463.437	72.06
463.657	79.06
463.876	90.06
464.096	90.06
464.316	92.06
464.536	91.06
464.755	69.06
464.975	104.06
465.195	143.06
465.414	137.06
465.634	88.06
465.854	83.06
466.073	84.06
466.293	94.06
466.512	79.06
466.732	95.06
466.951	91.06
467.171	82.06
467.391	100.06
467.61	101.06
467.829	101.06
468.049	80.06
468.268	91.06
468.488	81.06
468.707	79.06
468.927	70.06
469.146	74.06
469.365	93.06
469.585	93.06
469.804	84.06
470.023	81.06
470.243	88.06
470.462	94.06
470.681	85.06
470.901	69.06
471.12	79.06
471.339	78.06
471.558	91.06
471.777	105.06
471.997	77.06
472.216	81.06
472.435	75.06
472.654	79.06
472.873	89.06
473.092	83.06
473.311	91.06
473.53	98.06
473.749	96.06
473.968	101.06
474.187	92.06
474.406	98.06
474.625	95.06
474.844	101.06
475.063	73.06
475.282	86.06
475.501	87.06
475.72	92.06
475.939	92.06
476.158	97.06
476.377	75.06
476.596	80.06
476.814	104.06
477.033	95.06
477.252	79.06
477.471	75.06
477.69	89.06
477.908	87.06
478.127	82.06
478.346	83.06
478.564	84.06
478.783	99.06
479.002	80.06
479.22	76.06
479.439	87.06
479.658	98.06
479.876	97.06
480.095	102.06
480.313	105.06
480.532	76.06
480.751	84.06
480.969	95.06
481.188	107.06
481.406	103.06
481.624	76.06
481.843	74.06
482.061	98.06
482.28	91.06
482.498	77.06
482.717	86.06
482.935	92.06
483.153	89.06
483.372	78.06
483.59	89.06
483.808	108.06
484.027	95.06
484.245	90.06
484.463	101.06
484.681	91.06
484.9	96.06
485.118	101.06
485.336	87.06
485.554	86.06
485.772	111.06
485.99	83.06
486.209	98.06
486.427	107.06
486.645	100.06
486.863	96.06
487.081	108.06
487.299	111.06
487.517	86.06
487.735	101.06
487.953	90.06
488.171	92.06
488.389	84.06
488.607	87.06
488.825	90.06
489.043	85.06
489.261	87.06
489.479	84.06
489.696	75.06
489.914	83.06
490.132	82.06
490.35	82.06
490.568	99.06
490.786	95.06
491.003	81.06
491.221	94.06
491.439	89.06
491.657	93.06
491.874	95.06
492.092	101.06
492.31	92.06
492.527	88.06
492.745	83.06
492.963	93.06
493.18	85.06
493.398	97.06
493.615	93.06
493.833	100.06
494.05	91.06
494.268	86.06
494.485	95.06
494.703	92.06
494.92	106.06
495.138	91.06
495.355	89.06
495.573	102.06
495.79	95.06
496.008	80.06
496.225	80.06
496.442	87.06
496.66	91.06
496.877	101.06
497.094	82.06
497.312	95.06
497.529	100.06
497.746	91.06
497.963	87.06
498.181	91.06
498.398	106.06
498.615	97.06
498.832	98.06
499.049	88.06
499.267	81.06
499.484	83.06
499.701	78.06
499.918	80.06
500.135	95.06
500.352	85.06
500.569	83.06
500.786	83.06
501.003	99.06
501.22	80.06
501.437	98.06
501.654	92.06
501.871	99.06
502.088	83.06
502.305	83.06
502.522	101.06
502.739	90.06
502.956	90.06
503.172	91.06
503.389	85.06
503.606	100.06
503.823	73.06
504.04	87.06
504.256	94.06
504.473	91.06
504.69	89.06
504.907	92.06
505.123	88.06
505.34	90.06
505.557	97.06
505.773	80.06
505.99	80.06
506.207	90.06
506.423	86.06
506.64	98.06
506.856	81.06
507.073	85.06
507.289	88.06
507.506	87.06
507.722	98.06
507.939	112.06
508.155	95.06
508.372	81.06
508.588	71.06
508.805	101.06
509.021	87.06
509.238	106.06
509.454	104.06
509.67	103.06
509.887	109.06
510.103	130.06
510.319	189.06
510.536	661.06
510.752	1893.06
510.968	569.06
511.184	126.06
511.401	112.06
511.617	102.06
511.833	94.06
512.049	103.06
512.265	81.06
512.481	86.06
512.698	97.06
512.914	81.06
513.13	94.06
513.346	99.06
513.562	111.06
513.778	97.06
513.994	91.06
514.21	108.06
514.426	120.06
514.642	115.06
514.858	110.06
515.074	138.06
515.29	355.06
515.506	1109.06
515.721	433.06
515.937	122.06
516.153	107.06
516.369	105.06
516.585	81.06
