Data from Uncirc_2002_H10_HRD10591_00039.txt Node
Date: Wed Jan 03 10:39:49 EST 2024
User: Yrep
Spectrometer: HR+D1059
Trigger mode: 1
Integration Time (sec): 1.000000E-1
Scans to average: 1
Electric dark correction enabled: true
Nonlinearity correction enabled: false
Boxcar width: 0
XAxis mode: Wavelengths
Number of Pixels in Spectrum: 2048
>>>>>Begin Spectral Data<<<<<
223.165	-13.94
223.4	-13.94
223.635	-13.94
223.869	-15.94
224.104	-16.94
224.338	-21.94
224.573	-0.94
224.808	-12.94
225.042	-7.94
225.277	0.06
225.511	-7.94
225.746	-3.94
225.98	-5.94
226.215	15.06
226.449	19.06
226.683	20.06
226.918	19.06
227.152	35.06
227.387	49.06
227.621	31.06
227.856	47.06
228.09	34.06
228.324	36.06
228.559	49.06
228.793	51.06
229.027	55.06
229.262	67.06
229.496	73.06
229.73	67.06
229.964	93.06
230.199	89.06
230.433	79.06
230.667	84.06
230.901	85.06
231.136	72.06
231.37	84.06
231.604	72.06
231.838	85.06
232.072	90.06
232.306	89.06
232.541	87.06
232.775	80.06
233.009	80.06
233.243	84.06
233.477	83.06
233.711	85.06
233.945	82.06
234.179	94.06
234.413	79.06
234.647	75.06
234.881	91.06
235.115	72.06
235.349	74.06
235.583	81.06
235.817	76.06
236.051	81.06
236.285	71.06
236.519	79.06
236.753	80.06
236.987	87.06
237.221	84.06
237.455	84.06
237.689	76.06
237.922	66.06
238.156	82.06
238.39	64.06
238.624	75.06
238.858	85.06
239.091	66.06
239.325	79.06
239.559	79.06
239.793	80.06
240.027	80.06
240.26	71.06
240.494	79.06
240.728	74.06
240.961	81.06
241.195	80.06
241.429	70.06
241.662	87.06
241.896	69.06
242.13	69.06
242.363	77.06
242.597	68.06
242.83	85.06
243.064	81.06
243.298	65.06
243.531	87.06
243.765	75.06
243.998	74.06
244.232	73.06
244.465	72.06
244.699	73.06
244.932	81.06
245.166	85.06
245.399	84.06
245.633	89.06
245.866	73.06
246.099	79.06
246.333	77.06
246.566	70.06
246.8	81.06
247.033	78.06
247.266	75.06
247.5	84.06
247.733	77.06
247.966	84.06
248.2	85.06
248.433	82.06
248.666	83.06
248.899	80.06
249.133	85.06
249.366	97.06
249.599	95.06
249.832	80.06
250.066	86.06
250.299	89.06
250.532	76.06
250.765	78.06
250.998	82.06
251.231	84.06
251.465	81.06
251.698	87.06
251.931	82.06
252.164	77.06
252.397	77.06
252.63	78.06
252.863	76.06
253.096	75.06
253.329	83.06
253.562	72.06
253.795	99.06
254.028	84.06
254.261	75.06
254.494	87.06
254.727	75.06
254.96	85.06
255.193	93.06
255.426	81.06
255.659	77.06
255.892	83.06
256.124	75.06
256.357	75.06
256.59	88.06
256.823	84.06
257.056	88.06
257.289	102.06
257.521	66.06
257.754	72.06
257.987	77.06
258.22	89.06
258.452	68.06
258.685	77.06
258.918	79.06
259.151	79.06
259.383	86.06
259.616	72.06
259.849	88.06
260.081	92.06
260.314	95.06
260.547	78.06
260.779	71.06
261.012	79.06
261.244	82.06
261.477	97.06
261.71	89.06
261.942	98.06
262.175	102.06
262.407	91.06
262.64	77.06
262.872	88.06
263.105	82.06
263.337	84.06
263.57	92.06
263.802	79.06
264.035	85.06
264.267	77.06
264.499	85.06
264.732	94.06
264.964	73.06
265.197	79.06
265.429	89.06
265.661	80.06
265.894	87.06
266.126	86.06
266.358	84.06
266.591	79.06
266.823	78.06
267.055	88.06
267.287	86.06
267.52	85.06
267.752	71.06
267.984	69.06
268.216	90.06
268.448	87.06
268.681	95.06
268.913	89.06
269.145	89.06
269.377	89.06
269.609	76.06
269.841	86.06
270.073	94.06
270.306	91.06
270.538	76.06
270.77	75.06
271.002	72.06
271.234	93.06
271.466	83.06
271.698	84.06
271.93	81.06
272.162	75.06
272.394	81.06
272.626	84.06
272.858	90.06
273.09	98.06
273.322	82.06
273.553	92.06
273.785	90.06
274.017	94.06
274.249	88.06
274.481	87.06
274.713	78.06
274.945	71.06
275.176	94.06
275.408	86.06
275.64	77.06
275.872	83.06
276.104	83.06
276.335	84.06
276.567	98.06
276.799	92.06
277.031	93.06
277.262	85.06
277.494	67.06
277.726	84.06
277.957	89.06
278.189	81.06
278.421	85.06
278.652	87.06
278.884	87.06
279.115	96.06
279.347	92.06
279.579	99.06
279.81	82.06
280.042	97.06
280.273	85.06
280.505	86.06
280.736	84.06
280.968	86.06
281.199	98.06
281.431	97.06
281.662	98.06
281.894	96.06
282.125	93.06
282.356	97.06
282.588	115.06
282.819	104.06
283.051	92.06
283.282	74.06
283.513	81.06
283.745	88.06
283.976	92.06
284.207	101.06
284.439	87.06
284.67	78.06
284.901	86.06
285.132	93.06
285.364	86.06
285.595	93.06
285.826	73.06
286.057	83.06
286.288	89.06
286.52	90.06
286.751	73.06
286.982	91.06
287.213	96.06
287.444	95.06
287.675	104.06
287.906	95.06
288.138	90.06
288.369	102.06
288.6	88.06
288.831	81.06
289.062	91.06
289.293	92.06
289.524	93.06
289.755	83.06
289.986	88.06
290.217	76.06
290.448	85.06
290.679	98.06
290.91	90.06
291.141	89.06
291.371	92.06
291.602	100.06
291.833	86.06
292.064	81.06
292.295	92.06
292.526	91.06
292.757	72.06
292.987	93.06
293.218	89.06
293.449	88.06
293.68	82.06
293.91	92.06
294.141	84.06
294.372	90.06
294.603	95.06
294.833	95.06
295.064	91.06
295.295	92.06
295.525	92.06
295.756	86.06
295.987	95.06
296.217	134.06
296.448	119.06
296.679	81.06
296.909	76.06
297.14	92.06
297.37	92.06
297.601	92.06
297.831	84.06
298.062	102.06
298.292	85.06
298.523	103.06
298.753	65.06
298.984	95.06
299.214	88.06
299.445	85.06
299.675	87.06
299.905	106.06
300.136	89.06
300.366	72.06
300.597	92.06
300.827	88.06
301.057	100.06
301.288	92.06
301.518	87.06
301.748	102.06
301.979	90.06
302.209	85.06
302.439	88.06
302.669	92.06
302.9	97.06
303.13	92.06
303.36	93.06
303.59	97.06
303.82	90.06
304.051	104.06
304.281	100.06
304.511	104.06
304.741	92.06
304.971	85.06
305.201	91.06
305.431	99.06
305.661	91.06
305.891	87.06
306.121	95.06
306.352	93.06
306.582	101.06
306.812	101.06
307.042	81.06
307.272	95.06
307.502	101.06
307.731	86.06
307.961	97.06
308.191	98.06
308.421	104.06
308.651	86.06
308.881	90.06
309.111	92.06
309.341	75.06
309.571	99.06
309.8	96.06
310.03	96.06
310.26	81.06
310.49	80.06
310.72	86.06
310.949	93.06
311.179	107.06
311.409	93.06
311.639	89.06
311.868	113.06
312.098	87.06
312.328	95.06
312.557	104.06
312.787	90.06
313.017	103.06
313.246	100.06
313.476	97.06
313.706	92.06
313.935	100.06
314.165	114.06
314.394	99.06
314.624	92.06
314.853	104.06
315.083	95.06
315.312	76.06
315.542	92.06
315.771	95.06
316.001	102.06
316.23	99.06
316.46	91.06
316.689	84.06
316.919	94.06
317.148	94.06
317.377	96.06
317.607	87.06
317.836	90.06
318.065	103.06
318.295	86.06
318.524	88.06
318.753	89.06
318.983	85.06
319.212	101.06
319.441	102.06
319.67	105.06
319.9	99.06
320.129	108.06
320.358	95.06
320.587	100.06
320.816	106.06
321.046	103.06
321.275	103.06
321.504	101.06
321.733	104.06
321.962	102.06
322.191	89.06
322.42	97.06
322.649	75.06
322.878	118.06
323.108	102.06
323.337	123.06
323.566	128.06
323.795	145.06
324.024	195.06
324.253	339.06
324.482	691.06
324.71	1367.06
324.939	1773.06
325.168	662.06
325.397	195.06
325.626	139.06
325.855	108.06
326.084	114.06
326.313	113.06
326.542	149.06
326.77	215.06
326.999	405.06
327.228	749.06
327.457	1389.06
327.686	1090.06
327.914	293.06
328.143	169.06
328.372	131.06
328.6	127.06
328.829	120.06
329.058	112.06
329.287	125.06
329.515	114.06
329.744	103.06
329.972	104.06
330.201	95.06
330.43	110.06
330.658	113.06
330.887	105.06
331.115	100.06
331.344	99.06
331.572	108.06
331.801	105.06
332.03	92.06
332.258	81.06
332.486	92.06
332.715	88.06
332.943	95.06
333.172	90.06
333.4	97.06
333.629	99.06
333.857	100.06
334.085	111.06
334.314	96.06
334.542	99.06
334.771	98.06
334.999	111.06
335.227	85.06
335.455	81.06
335.684	95.06
335.912	100.06
336.14	97.06
336.369	99.06
336.597	99.06
336.825	94.06
337.053	96.06
337.281	94.06
337.51	95.06
337.738	102.06
337.966	86.06
338.194	98.06
338.422	93.06
338.65	109.06
338.878	98.06
339.106	90.06
339.334	85.06
339.562	94.06
339.79	99.06
340.018	98.06
340.246	102.06
340.474	97.06
340.702	102.06
340.93	86.06
341.158	97.06
341.386	96.06
341.614	99.06
341.842	106.06
342.07	101.06
342.298	93.06
342.526	94.06
342.754	88.06
342.981	103.06
343.209	88.06
343.437	93.06
343.665	92.06
343.893	93.06
344.12	104.06
344.348	96.06
344.576	82.06
344.804	89.06
345.031	104.06
345.259	103.06
345.487	103.06
345.714	87.06
345.942	97.06
346.17	94.06
346.397	67.06
346.625	83.06
346.853	88.06
347.08	89.06
347.308	101.06
347.535	98.06
347.763	84.06
347.99	105.06
348.218	95.06
348.445	106.06
348.673	81.06
348.9	113.06
349.128	108.06
349.355	87.06
349.583	89.06
349.81	92.06
350.037	104.06
350.265	89.06
350.492	97.06
350.72	100.06
350.947	92.06
351.174	103.06
351.402	111.06
351.629	85.06
351.856	94.06
352.083	107.06
352.311	100.06
352.538	99.06
352.765	101.06
352.992	103.06
353.22	93.06
353.447	106.06
353.674	99.06
353.901	96.06
354.128	93.06
354.355	102.06
354.583	104.06
354.81	111.06
355.037	101.06
355.264	103.06
355.491	93.06
355.718	98.06
355.945	100.06
356.172	95.06
356.399	89.06
356.626	113.06
356.853	96.06
357.08	93.06
357.307	100.06
357.534	99.06
357.761	90.06
357.988	92.06
358.215	107.06
358.441	92.06
358.668	96.06
358.895	80.06
359.122	90.06
359.349	92.06
359.576	76.06
359.802	90.06
360.029	107.06
360.256	97.06
360.483	104.06
360.709	87.06
360.936	102.06
361.163	98.06
361.39	94.06
361.616	75.06
361.843	84.06
362.07	88.06
362.296	104.06
362.523	96.06
362.749	95.06
362.976	93.06
363.203	97.06
363.429	85.06
363.656	81.06
363.882	97.06
364.109	88.06
364.335	104.06
364.562	91.06
364.788	105.06
365.015	89.06
365.241	96.06
365.468	99.06
365.694	92.06
365.92	105.06
366.147	95.06
366.373	77.06
366.599	82.06
366.826	83.06
367.052	78.06
367.278	94.06
367.505	88.06
367.731	97.06
367.957	95.06
368.184	96.06
368.41	113.06
368.636	92.06
368.862	108.06
369.089	102.06
369.315	105.06
369.541	99.06
369.767	78.06
369.993	86.06
370.219	89.06
370.445	87.06
370.672	91.06
370.898	78.06
371.124	80.06
371.35	89.06
371.576	97.06
371.802	88.06
372.028	77.06
372.254	77.06
372.48	79.06
372.706	88.06
372.932	79.06
373.158	79.06
373.384	89.06
373.61	86.06
373.835	86.06
374.061	90.06
374.287	96.06
374.513	92.06
374.739	78.06
374.965	97.06
375.191	94.06
375.416	90.06
375.642	86.06
375.868	92.06
376.094	96.06
376.319	83.06
376.545	78.06
376.771	107.06
376.997	93.06
377.222	98.06
377.448	98.06
377.674	79.06
377.899	100.06
378.125	90.06
378.35	84.06
378.576	84.06
378.802	96.06
379.027	98.06
379.253	96.06
379.478	95.06
379.704	96.06
379.929	96.06
380.155	96.06
380.38	94.06
380.606	87.06
380.831	88.06
381.057	107.06
381.282	88.06
381.507	110.06
381.733	83.06
381.958	91.06
382.184	113.06
382.409	102.06
382.634	119.06
382.86	106.06
383.085	93.06
383.31	97.06
383.535	103.06
383.761	105.06
383.986	99.06
384.211	95.06
384.436	98.06
384.662	102.06
384.887	102.06
385.112	103.06
385.337	98.06
385.562	104.06
385.787	95.06
386.013	101.06
386.238	112.06
386.463	111.06
386.688	97.06
386.913	100.06
387.138	103.06
387.363	105.06
387.588	103.06
387.813	105.06
388.038	104.06
388.263	109.06
388.488	110.06
388.713	112.06
388.938	103.06
389.163	95.06
389.387	91.06
389.612	82.06
389.837	90.06
390.062	70.06
390.287	102.06
390.512	90.06
390.736	91.06
390.961	97.06
391.186	105.06
391.411	96.06
391.636	103.06
391.86	86.06
392.085	95.06
392.31	96.06
392.534	97.06
392.759	90.06
392.984	94.06
393.208	77.06
393.433	111.06
393.658	91.06
393.882	72.06
394.107	100.06
394.331	77.06
394.556	84.06
394.78	86.06
395.005	83.06
395.229	97.06
395.454	103.06
395.678	108.06
395.903	96.06
396.127	97.06
396.352	79.06
396.576	80.06
396.801	94.06
397.025	103.06
397.249	101.06
397.474	87.06
397.698	88.06
397.922	80.06
398.147	91.06
398.371	86.06
398.595	90.06
398.82	92.06
399.044	82.06
399.268	92.06
399.492	84.06
399.717	84.06
399.941	91.06
400.165	84.06
400.389	92.06
400.613	75.06
400.837	93.06
401.062	92.06
401.286	93.06
401.51	103.06
401.734	97.06
401.958	90.06
402.182	112.06
402.406	142.06
402.63	120.06
402.854	118.06
403.078	93.06
403.302	93.06
403.526	87.06
403.75	80.06
403.974	88.06
404.198	91.06
404.422	84.06
404.645	89.06
404.869	84.06
405.093	98.06
405.317	92.06
405.541	95.06
405.765	88.06
405.988	131.06
406.212	144.06
406.436	186.06
406.66	123.06
406.883	97.06
407.107	85.06
407.331	97.06
407.555	95.06
407.778	101.06
408.002	87.06
408.226	97.06
408.449	91.06
408.673	83.06
408.896	99.06
409.12	102.06
409.344	77.06
409.567	85.06
409.791	95.06
410.014	108.06
410.238	101.06
410.461	98.06
410.685	99.06
410.908	107.06
411.132	93.06
411.355	93.06
411.578	94.06
411.802	97.06
412.025	77.06
412.249	90.06
412.472	84.06
412.695	91.06
412.919	91.06
413.142	93.06
413.365	101.06
413.589	91.06
413.812	100.06
414.035	100.06
414.258	93.06
414.482	80.06
414.705	95.06
414.928	88.06
415.151	102.06
415.374	98.06
415.597	108.06
415.821	82.06
416.044	88.06
416.267	93.06
416.49	86.06
416.713	91.06
416.936	102.06
417.159	89.06
417.382	97.06
417.605	92.06
417.828	93.06
418.051	102.06
418.274	94.06
418.497	87.06
418.72	82.06
418.943	90.06
419.166	91.06
419.389	84.06
419.611	83.06
419.834	102.06
420.057	88.06
420.28	96.06
420.503	86.06
420.726	85.06
420.948	101.06
421.171	92.06
421.394	89.06
421.617	88.06
421.839	85.06
422.062	84.06
422.285	89.06
422.507	99.06
422.73	103.06
422.953	98.06
423.175	87.06
423.398	91.06
423.621	97.06
423.843	91.06
424.066	95.06
424.288	76.06
424.511	89.06
424.733	92.06
424.956	99.06
425.178	81.06
425.401	77.06
425.623	100.06
425.846	85.06
426.068	95.06
426.291	89.06
426.513	90.06
426.735	84.06
426.958	88.06
427.18	98.06
427.402	124.06
427.625	149.06
427.847	132.06
428.069	83.06
428.292	85.06
428.514	86.06
428.736	74.06
428.958	77.06
429.181	108.06
429.403	98.06
429.625	85.06
429.847	93.06
430.069	98.06
430.292	75.06
430.514	87.06
430.736	85.06
430.958	100.06
431.18	95.06
431.402	85.06
431.624	83.06
431.846	90.06
432.068	96.06
432.29	95.06
432.512	88.06
432.734	93.06
432.956	83.06
433.178	91.06
433.4	98.06
433.622	76.06
433.844	90.06
434.066	86.06
434.287	87.06
434.509	84.06
434.731	97.06
434.953	91.06
435.175	84.06
435.397	92.06
435.618	85.06
435.84	100.06
436.062	114.06
436.284	103.06
436.505	88.06
436.727	101.06
436.949	89.06
437.17	91.06
437.392	88.06
437.614	102.06
437.835	95.06
438.057	106.06
438.278	94.06
438.5	104.06
438.721	105.06
438.943	111.06
439.165	91.06
439.386	95.06
439.608	93.06
439.829	99.06
440.05	106.06
440.272	119.06
440.493	92.06
440.715	88.06
440.936	79.06
441.158	92.06
441.379	86.06
441.6	84.06
441.822	102.06
442.043	83.06
442.264	96.06
442.486	93.06
442.707	105.06
442.928	119.06
443.149	113.06
443.371	123.06
443.592	122.06
443.813	98.06
444.034	105.06
444.255	89.06
444.476	76.06
444.698	87.06
444.919	99.06
445.14	144.06
445.361	131.06
445.582	117.06
445.803	120.06
446.024	132.06
446.245	131.06
446.466	104.06
446.687	91.06
446.908	100.06
447.129	90.06
447.35	78.06
447.571	103.06
447.792	103.06
448.013	90.06
448.234	92.06
448.455	99.06
448.675	110.06
448.896	112.06
449.117	98.06
449.338	98.06
449.559	122.06
449.779	131.06
450	89.06
450.221	75.06
450.442	87.06
450.662	102.06
450.883	99.06
451.104	100.06
451.324	97.06
451.545	89.06
451.766	96.06
451.986	80.06
452.207	99.06
452.428	77.06
452.648	107.06
452.869	108.06
453.089	114.06
453.31	89.06
453.53	84.06
453.751	93.06
453.971	91.06
454.192	116.06
454.412	103.06
454.633	80.06
454.853	77.06
455.073	84.06
455.294	86.06
455.514	80.06
455.734	96.06
455.955	90.06
456.175	83.06
456.395	100.06
456.616	77.06
456.836	94.06
457.056	79.06
457.276	82.06
457.497	83.06
457.717	95.06
457.937	97.06
458.157	86.06
458.377	91.06
458.598	91.06
458.818	123.06
459.038	139.06
459.258	121.06
459.478	75.06
459.698	79.06
459.918	88.06
460.138	82.06
460.358	82.06
460.578	85.06
460.798	84.06
461.018	97.06
461.238	88.06
461.458	83.06
461.678	82.06
461.898	75.06
462.118	80.06
462.338	77.06
462.558	87.06
462.777	90.06
462.997	85.06
463.217	92.06
463.437	113.06
463.657	93.06
463.876	76.06
464.096	72.06
464.316	88.06
464.536	103.06
464.755	85.06
464.975	92.06
465.195	128.06
465.414	137.06
465.634	91.06
465.854	86.06
466.073	84.06
466.293	88.06
466.512	84.06
466.732	87.06
466.951	86.06
467.171	86.06
467.391	83.06
467.61	96.06
467.829	97.06
468.049	83.06
468.268	93.06
468.488	95.06
468.707	92.06
468.927	87.06
469.146	86.06
469.365	87.06
469.585	100.06
469.804	98.06
470.023	93.06
470.243	97.06
470.462	93.06
470.681	91.06
470.901	77.06
471.12	101.06
471.339	95.06
471.558	85.06
471.777	97.06
471.997	92.06
472.216	88.06
472.435	98.06
472.654	96.06
472.873	82.06
473.092	95.06
473.311	90.06
473.53	103.06
473.749	84.06
473.968	88.06
474.187	88.06
474.406	92.06
474.625	67.06
474.844	66.06
475.063	80.06
475.282	89.06
475.501	81.06
475.72	92.06
475.939	88.06
476.158	86.06
476.377	101.06
476.596	88.06
476.814	87.06
477.033	85.06
477.252	91.06
477.471	78.06
477.69	92.06
477.908	93.06
478.127	90.06
478.346	110.06
478.564	85.06
478.783	87.06
479.002	105.06
479.22	97.06
479.439	98.06
479.658	86.06
479.876	91.06
480.095	77.06
480.313	79.06
480.532	90.06
480.751	94.06
480.969	77.06
481.188	105.06
481.406	97.06
481.624	84.06
481.843	108.06
482.061	86.06
482.28	93.06
482.498	104.06
482.717	87.06
482.935	90.06
483.153	105.06
483.372	93.06
483.59	85.06
483.808	102.06
484.027	97.06
484.245	98.06
484.463	101.06
484.681	100.06
484.9	88.06
485.118	103.06
485.336	90.06
485.554	108.06
485.772	109.06
485.99	108.06
486.209	104.06
486.427	105.06
486.645	114.06
486.863	122.06
487.081	106.06
487.299	99.06
487.517	89.06
487.735	85.06
487.953	85.06
488.171	103.06
488.389	99.06
488.607	92.06
488.825	90.06
489.043	98.06
489.261	89.06
489.479	91.06
489.696	83.06
489.914	75.06
490.132	104.06
490.35	98.06
490.568	96.06
490.786	93.06
491.003	96.06
491.221	93.06
491.439	81.06
491.657	86.06
491.874	95.06
492.092	84.06
492.31	86.06
492.527	98.06
492.745	89.06
492.963	98.06
493.18	95.06
493.398	89.06
493.615	103.06
493.833	92.06
494.05	84.06
494.268	76.06
494.485	95.06
494.703	83.06
494.92	89.06
495.138	101.06
495.355	83.06
495.573	98.06
495.79	84.06
496.008	84.06
496.225	94.06
496.442	98.06
496.66	81.06
496.877	83.06
497.094	85.06
497.312	85.06
497.529	99.06
497.746	89.06
497.963	92.06
498.181	75.06
498.398	107.06
498.615	96.06
498.832	100.06
499.049	95.06
499.267	99.06
499.484	88.06
499.701	98.06
499.918	68.06
500.135	87.06
500.352	93.06
500.569	90.06
500.786	82.06
501.003	88.06
501.22	86.06
501.437	92.06
501.654	109.06
501.871	88.06
502.088	83.06
502.305	104.06
502.522	89.06
502.739	98.06
502.956	90.06
503.172	92.06
503.389	80.06
503.606	103.06
503.823	92.06
504.04	92.06
504.256	93.06
504.473	93.06
504.69	86.06
504.907	93.06
505.123	105.06
505.34	102.06
505.557	91.06
505.773	75.06
505.99	84.06
506.207	89.06
506.423	93.06
506.64	81.06
506.856	92.06
507.073	91.06
507.289	109.06
507.506	73.06
507.722	116.06
507.939	102.06
508.155	96.06
508.372	90.06
508.588	94.06
508.805	81.06
509.021	97.06
509.238	91.06
509.454	92.06
509.67	109.06
509.887	106.06
510.103	122.06
510.319	202.06
510.536	650.06
510.752	1923.06
510.968	552.06
511.184	132.06
511.401	97.06
511.617	103.06
511.833	101.06
512.049	87.06
512.265	93.06
512.481	83.06
512.698	103.06
512.914	97.06
513.13	111.06
513.346	84.06
513.562	88.06
513.778	100.06
513.994	80.06
514.21	88.06
514.426	115.06
514.642	131.06
514.858	120.06
515.074	150.06
515.29	373.06
515.506	1113.06
515.721	449.06
