Data from Uncirc_2002_H10_HRD10591_00096.txt Node
Date: Wed Jan 03 10:40:00 EST 2024
User: Yrep
Spectrometer: HR+D1059
Trigger mode: 1
Integration Time (sec): 1.000000E-1
Scans to average: 1
Electric dark correction enabled: true
Nonlinearity correction enabled: false
Boxcar width: 0
XAxis mode: Wavelengths
Number of Pixels in Spectrum: 2048
>>>>>Begin Spectral Data<<<<<
223.165	-26.06
223.4	-26.06
223.635	-26.06
223.869	-23.06
224.104	-31.06
224.338	-17.06
224.573	-22.06
224.808	-6.06
225.042	0.94
225.277	-7.06
225.511	-2.06
225.746	6.94
225.98	2.94
226.215	29.94
226.449	18.94
226.683	26.94
226.918	16.94
227.152	30.94
227.387	25.94
227.621	44.94
227.856	44.94
228.09	39.94
228.324	52.94
228.559	62.94
228.793	57.94
229.027	71.94
229.262	89.94
229.496	70.94
229.73	78.94
229.964	74.94
230.199	74.94
230.433	77.94
230.667	74.94
230.901	72.94
231.136	80.94
231.37	80.94
231.604	82.94
231.838	69.94
232.072	81.94
232.306	72.94
232.541	78.94
232.775	71.94
233.009	67.94
233.243	75.94
233.477	65.94
233.711	90.94
233.945	87.94
234.179	101.94
234.413	79.94
234.647	89.94
234.881	79.94
235.115	73.94
235.349	90.94
235.583	88.94
235.817	80.94
236.051	69.94
236.285	82.94
236.519	60.94
236.753	92.94
236.987	78.94
237.221	86.94
237.455	71.94
237.689	71.94
237.922	65.94
238.156	71.94
238.39	86.94
238.624	90.94
238.858	84.94
239.091	74.94
239.325	75.94
239.559	83.94
239.793	78.94
240.027	87.94
240.26	65.94
240.494	75.94
240.728	71.94
240.961	78.94
241.195	85.94
241.429	85.94
241.662	98.94
241.896	76.94
242.13	70.94
242.363	68.94
242.597	71.94
242.83	74.94
243.064	89.94
243.298	99.94
243.531	82.94
243.765	83.94
243.998	82.94
244.232	82.94
244.465	97.94
244.699	72.94
244.932	79.94
245.166	80.94
245.399	65.94
245.633	81.94
245.866	71.94
246.099	84.94
246.333	73.94
246.566	69.94
246.8	67.94
247.033	86.94
247.266	80.94
247.5	85.94
247.733	76.94
247.966	69.94
248.2	77.94
248.433	71.94
248.666	85.94
248.899	92.94
249.133	80.94
249.366	100.94
249.599	108.94
249.832	94.94
250.066	88.94
250.299	92.94
250.532	87.94
250.765	67.94
250.998	80.94
251.231	95.94
251.465	87.94
251.698	86.94
251.931	63.94
252.164	70.94
252.397	95.94
252.63	80.94
252.863	56.94
253.096	86.94
253.329	59.94
253.562	69.94
253.795	92.94
254.028	87.94
254.261	88.94
254.494	87.94
254.727	93.94
254.96	73.94
255.193	62.94
255.426	91.94
255.659	81.94
255.892	84.94
256.124	66.94
256.357	80.94
256.59	78.94
256.823	83.94
257.056	71.94
257.289	87.94
257.521	85.94
257.754	87.94
257.987	94.94
258.22	78.94
258.452	72.94
258.685	84.94
258.918	78.94
259.151	93.94
259.383	73.94
259.616	95.94
259.849	81.94
260.081	76.94
260.314	76.94
260.547	69.94
260.779	89.94
261.012	72.94
261.244	83.94
261.477	83.94
261.71	87.94
261.942	123.94
262.175	110.94
262.407	96.94
262.64	79.94
262.872	84.94
263.105	93.94
263.337	82.94
263.57	90.94
263.802	79.94
264.035	90.94
264.267	87.94
264.499	82.94
264.732	95.94
264.964	88.94
265.197	84.94
265.429	99.94
265.661	80.94
265.894	87.94
266.126	82.94
266.358	83.94
266.591	77.94
266.823	67.94
267.055	67.94
267.287	87.94
267.52	83.94
267.752	83.94
267.984	77.94
268.216	87.94
268.448	79.94
268.681	89.94
268.913	85.94
269.145	96.94
269.377	77.94
269.609	84.94
269.841	72.94
270.073	84.94
270.306	86.94
270.538	78.94
270.77	80.94
271.002	81.94
271.234	64.94
271.466	82.94
271.698	78.94
271.93	85.94
272.162	92.94
272.394	89.94
272.626	74.94
272.858	68.94
273.09	85.94
273.322	85.94
273.553	75.94
273.785	85.94
274.017	88.94
274.249	87.94
274.481	88.94
274.713	94.94
274.945	91.94
275.176	95.94
275.408	77.94
275.64	81.94
275.872	76.94
276.104	97.94
276.335	82.94
276.567	107.94
276.799	102.94
277.031	93.94
277.262	78.94
277.494	84.94
277.726	90.94
277.957	94.94
278.189	69.94
278.421	93.94
278.652	89.94
278.884	80.94
279.115	72.94
279.347	84.94
279.579	85.94
279.81	88.94
280.042	102.94
280.273	82.94
280.505	95.94
280.736	82.94
280.968	77.94
281.199	79.94
281.431	75.94
281.662	96.94
281.894	97.94
282.125	98.94
282.356	118.94
282.588	128.94
282.819	117.94
283.051	82.94
283.282	88.94
283.513	88.94
283.745	99.94
283.976	85.94
284.207	95.94
284.439	89.94
284.67	81.94
284.901	90.94
285.132	85.94
285.364	97.94
285.595	91.94
285.826	86.94
286.057	89.94
286.288	91.94
286.52	81.94
286.751	73.94
286.982	88.94
287.213	86.94
287.444	84.94
287.675	83.94
287.906	97.94
288.138	82.94
288.369	95.94
288.6	97.94
288.831	90.94
289.062	83.94
289.293	92.94
289.524	93.94
289.755	88.94
289.986	90.94
290.217	89.94
290.448	88.94
290.679	86.94
290.91	89.94
291.141	75.94
291.371	89.94
291.602	80.94
291.833	87.94
292.064	95.94
292.295	98.94
292.526	95.94
292.757	89.94
292.987	86.94
293.218	98.94
293.449	92.94
293.68	94.94
293.91	79.94
294.141	86.94
294.372	96.94
294.603	97.94
294.833	77.94
295.064	82.94
295.295	76.94
295.525	89.94
295.756	105.94
295.987	111.94
296.217	139.94
296.448	139.94
296.679	87.94
296.909	80.94
297.14	88.94
297.37	100.94
297.601	83.94
297.831	82.94
298.062	84.94
298.292	104.94
298.523	83.94
298.753	71.94
298.984	79.94
299.214	97.94
299.445	101.94
299.675	92.94
299.905	84.94
300.136	96.94
300.366	93.94
300.597	89.94
300.827	97.94
301.057	87.94
301.288	99.94
301.518	90.94
301.748	79.94
301.979	96.94
302.209	79.94
302.439	98.94
302.669	94.94
302.9	83.94
303.13	94.94
303.36	108.94
303.59	109.94
303.82	118.94
304.051	103.94
304.281	86.94
304.511	88.94
304.741	92.94
304.971	82.94
305.201	87.94
305.431	83.94
305.661	94.94
305.891	80.94
306.121	94.94
306.352	101.94
306.582	116.94
306.812	89.94
307.042	95.94
307.272	91.94
307.502	104.94
307.731	89.94
307.961	88.94
308.191	74.94
308.421	79.94
308.651	105.94
308.881	84.94
309.111	92.94
309.341	83.94
309.571	82.94
309.8	97.94
310.03	94.94
310.26	92.94
310.49	103.94
310.72	85.94
310.949	101.94
311.179	97.94
311.409	94.94
311.639	91.94
311.868	90.94
312.098	93.94
312.328	98.94
312.557	111.94
312.787	106.94
313.017	106.94
313.246	100.94
313.476	88.94
313.706	94.94
313.935	87.94
314.165	93.94
314.394	107.94
314.624	102.94
314.853	96.94
315.083	104.94
315.312	82.94
315.542	93.94
315.771	94.94
316.001	85.94
316.23	83.94
316.46	84.94
316.689	106.94
316.919	104.94
317.148	92.94
317.377	99.94
317.607	70.94
317.836	82.94
318.065	104.94
318.295	99.94
318.524	96.94
318.753	91.94
318.983	88.94
319.212	97.94
319.441	107.94
319.67	107.94
319.9	90.94
320.129	103.94
320.358	98.94
320.587	89.94
320.816	108.94
321.046	114.94
321.275	96.94
321.504	99.94
321.733	101.94
321.962	106.94
322.191	97.94
322.42	112.94
322.649	114.94
322.878	112.94
323.108	119.94
323.337	124.94
323.566	121.94
323.795	152.94
324.024	212.94
324.253	417.94
324.482	867.94
324.71	1779.94
324.939	2311.94
325.168	844.94
325.397	249.94
325.626	148.94
325.855	150.94
326.084	134.94
326.313	142.94
326.542	165.94
326.77	235.94
326.999	455.94
327.228	979.94
327.457	1756.94
327.686	1442.94
327.914	390.94
328.143	190.94
328.372	151.94
328.6	115.94
328.829	128.94
329.058	127.94
329.287	126.94
329.515	112.94
329.744	102.94
329.972	87.94
330.201	116.94
330.43	112.94
330.658	134.94
330.887	158.94
331.115	116.94
331.344	102.94
331.572	103.94
331.801	87.94
332.03	117.94
332.258	103.94
332.486	109.94
332.715	92.94
332.943	97.94
333.172	105.94
333.4	102.94
333.629	105.94
333.857	115.94
334.085	100.94
334.314	99.94
334.542	108.94
334.771	103.94
334.999	86.94
335.227	101.94
335.455	89.94
335.684	103.94
335.912	89.94
336.14	92.94
336.369	96.94
336.597	110.94
336.825	87.94
337.053	85.94
337.281	91.94
337.51	93.94
337.738	86.94
337.966	92.94
338.194	91.94
338.422	85.94
338.65	88.94
338.878	98.94
339.106	94.94
339.334	84.94
339.562	91.94
339.79	92.94
340.018	94.94
340.246	83.94
340.474	110.94
340.702	94.94
340.93	101.94
341.158	93.94
341.386	95.94
341.614	89.94
341.842	94.94
342.07	98.94
342.298	102.94
342.526	100.94
342.754	74.94
342.981	82.94
343.209	88.94
343.437	99.94
343.665	98.94
343.893	105.94
344.12	95.94
344.348	99.94
344.576	90.94
344.804	90.94
345.031	100.94
345.259	111.94
345.487	98.94
345.714	103.94
345.942	95.94
346.17	83.94
346.397	84.94
346.625	102.94
346.853	91.94
347.08	88.94
347.308	95.94
347.535	108.94
347.763	103.94
347.99	113.94
348.218	102.94
348.445	124.94
348.673	114.94
348.9	100.94
349.128	93.94
349.355	88.94
349.583	105.94
349.81	89.94
350.037	86.94
350.265	101.94
350.492	91.94
350.72	104.94
350.947	97.94
351.174	100.94
351.402	111.94
351.629	108.94
351.856	96.94
352.083	119.94
352.311	106.94
352.538	96.94
352.765	109.94
352.992	120.94
353.22	130.94
353.447	100.94
353.674	83.94
353.901	85.94
354.128	81.94
354.355	95.94
354.583	101.94
354.81	115.94
355.037	112.94
355.264	99.94
355.491	84.94
355.718	103.94
355.945	94.94
356.172	85.94
356.399	99.94
356.626	91.94
356.853	94.94
357.08	100.94
357.307	82.94
357.534	95.94
357.761	102.94
357.988	89.94
358.215	92.94
358.441	94.94
358.668	98.94
358.895	87.94
359.122	85.94
359.349	78.94
359.576	106.94
359.802	89.94
360.029	112.94
360.256	99.94
360.483	92.94
360.709	96.94
360.936	82.94
361.163	110.94
361.39	90.94
361.616	101.94
361.843	100.94
362.07	86.94
362.296	100.94
362.523	85.94
362.749	100.94
362.976	82.94
363.203	89.94
363.429	84.94
363.656	96.94
363.882	89.94
364.109	95.94
364.335	88.94
364.562	98.94
364.788	103.94
365.015	81.94
365.241	88.94
365.468	114.94
365.694	112.94
365.92	98.94
366.147	91.94
366.373	94.94
366.599	87.94
366.826	96.94
367.052	80.94
367.278	79.94
367.505	97.94
367.731	97.94
367.957	83.94
368.184	102.94
368.41	108.94
368.636	111.94
368.862	128.94
369.089	112.94
369.315	94.94
369.541	107.94
369.767	100.94
369.993	88.94
370.219	91.94
370.445	95.94
370.672	84.94
370.898	83.94
371.124	83.94
371.35	81.94
371.576	88.94
371.802	82.94
372.028	86.94
372.254	80.94
372.48	98.94
372.706	92.94
372.932	85.94
373.158	99.94
373.384	88.94
373.61	92.94
373.835	99.94
374.061	94.94
374.287	86.94
374.513	79.94
374.739	86.94
374.965	82.94
375.191	86.94
375.416	84.94
375.642	87.94
375.868	89.94
376.094	83.94
376.319	94.94
376.545	86.94
376.771	82.94
376.997	78.94
377.222	84.94
377.448	91.94
377.674	90.94
377.899	79.94
378.125	82.94
378.35	86.94
378.576	92.94
378.802	90.94
379.027	85.94
379.253	90.94
379.478	99.94
379.704	86.94
379.929	85.94
380.155	77.94
380.38	87.94
380.606	96.94
380.831	88.94
381.057	96.94
381.282	89.94
381.507	86.94
381.733	75.94
381.958	80.94
382.184	83.94
382.409	98.94
382.634	89.94
382.86	104.94
383.085	116.94
383.31	104.94
383.535	94.94
383.761	83.94
383.986	86.94
384.211	100.94
384.436	96.94
384.662	106.94
384.887	107.94
385.112	95.94
385.337	106.94
385.562	92.94
385.787	85.94
386.013	106.94
386.238	105.94
386.463	99.94
386.688	108.94
386.913	96.94
387.138	91.94
387.363	89.94
387.588	95.94
387.813	114.94
388.038	104.94
388.263	107.94
388.488	102.94
388.713	89.94
388.938	100.94
389.163	94.94
389.387	79.94
389.612	92.94
389.837	91.94
390.062	98.94
390.287	100.94
390.512	90.94
390.736	88.94
390.961	91.94
391.186	92.94
391.411	92.94
391.636	92.94
391.86	83.94
392.085	96.94
392.31	78.94
392.534	79.94
392.759	73.94
392.984	84.94
393.208	88.94
393.433	78.94
393.658	88.94
393.882	91.94
394.107	96.94
394.331	98.94
394.556	96.94
394.78	88.94
395.005	79.94
395.229	88.94
395.454	99.94
395.678	94.94
395.903	73.94
396.127	98.94
396.352	102.94
396.576	91.94
396.801	90.94
397.025	91.94
397.249	77.94
397.474	80.94
397.698	86.94
397.922	92.94
398.147	74.94
398.371	92.94
398.595	83.94
398.82	92.94
399.044	78.94
399.268	72.94
399.492	89.94
399.717	95.94
399.941	92.94
400.165	88.94
400.389	95.94
400.613	92.94
400.837	85.94
401.062	84.94
401.286	82.94
401.51	98.94
401.734	95.94
401.958	102.94
402.182	125.94
402.406	154.94
402.63	129.94
402.854	92.94
403.078	86.94
403.302	95.94
403.526	84.94
403.75	94.94
403.974	75.94
404.198	86.94
404.422	95.94
404.645	92.94
404.869	76.94
405.093	91.94
405.317	115.94
405.541	104.94
405.765	102.94
405.988	121.94
406.212	170.94
406.436	236.94
406.66	142.94
406.883	100.94
407.107	103.94
407.331	109.94
407.555	95.94
407.778	89.94
408.002	84.94
408.226	89.94
408.449	90.94
408.673	96.94
408.896	77.94
409.12	102.94
409.344	95.94
409.567	91.94
409.791	96.94
410.014	103.94
410.238	78.94
410.461	90.94
410.685	92.94
410.908	104.94
411.132	110.94
411.355	92.94
411.578	101.94
411.802	74.94
412.025	89.94
412.249	92.94
412.472	92.94
412.695	79.94
412.919	93.94
413.142	73.94
413.365	81.94
413.589	79.94
413.812	91.94
414.035	85.94
414.258	98.94
414.482	79.94
414.705	97.94
414.928	91.94
415.151	97.94
415.374	100.94
415.597	79.94
415.821	95.94
416.044	90.94
416.267	90.94
416.49	106.94
416.713	94.94
416.936	87.94
417.159	79.94
417.382	94.94
417.605	86.94
417.828	84.94
418.051	98.94
418.274	95.94
418.497	96.94
418.72	83.94
418.943	88.94
419.166	83.94
419.389	87.94
419.611	89.94
419.834	99.94
420.057	90.94
420.28	93.94
420.503	89.94
420.726	89.94
420.948	91.94
421.171	92.94
421.394	87.94
421.617	89.94
421.839	95.94
422.062	100.94
422.285	84.94
422.507	89.94
422.73	103.94
422.953	101.94
423.175	88.94
423.398	93.94
423.621	88.94
423.843	90.94
424.066	73.94
424.288	93.94
424.511	95.94
424.733	104.94
424.956	104.94
425.178	106.94
425.401	100.94
425.623	105.94
425.846	79.94
426.068	96.94
426.291	81.94
426.513	93.94
426.735	90.94
426.958	100.94
427.18	111.94
427.402	118.94
427.625	175.94
427.847	146.94
428.069	93.94
428.292	104.94
428.514	96.94
428.736	70.94
428.958	85.94
429.181	91.94
429.403	82.94
429.625	68.94
429.847	100.94
430.069	102.94
430.292	108.94
430.514	96.94
430.736	95.94
430.958	83.94
431.18	85.94
431.402	80.94
431.624	96.94
431.846	95.94
432.068	87.94
432.29	79.94
432.512	100.94
432.734	87.94
432.956	96.94
433.178	93.94
433.4	82.94
433.622	90.94
433.844	105.94
434.066	96.94
434.287	92.94
434.509	94.94
434.731	104.94
434.953	80.94
435.175	88.94
435.397	79.94
435.618	92.94
435.84	106.94
436.062	125.94
436.284	125.94
436.505	106.94
436.727	103.94
436.949	88.94
437.17	78.94
437.392	83.94
437.614	91.94
437.835	95.94
438.057	110.94
438.278	113.94
438.5	104.94
438.721	114.94
438.943	95.94
439.165	92.94
439.386	86.94
439.608	90.94
439.829	86.94
440.05	130.94
440.272	156.94
440.493	90.94
440.715	84.94
440.936	70.94
441.158	88.94
441.379	88.94
441.6	86.94
441.822	82.94
442.043	106.94
442.264	103.94
442.486	113.94
442.707	86.94
442.928	91.94
443.149	117.94
443.371	140.94
443.592	105.94
443.813	117.94
444.034	106.94
444.255	106.94
444.476	88.94
444.698	90.94
444.919	88.94
445.14	140.94
445.361	114.94
445.582	113.94
445.803	131.94
446.024	138.94
446.245	140.94
446.466	112.94
446.687	100.94
446.908	95.94
447.129	79.94
447.35	99.94
447.571	97.94
447.792	92.94
448.013	89.94
448.234	107.94
448.455	99.94
448.675	116.94
448.896	120.94
449.117	107.94
449.338	111.94
449.559	116.94
449.779	117.94
450	87.94
450.221	84.94
450.442	90.94
450.662	79.94
450.883	75.94
451.104	110.94
451.324	99.94
451.545	96.94
451.766	89.94
451.986	102.94
452.207	94.94
452.428	86.94
452.648	112.94
452.869	101.94
453.089	123.94
453.31	120.94
453.53	100.94
453.751	85.94
453.971	105.94
454.192	110.94
454.412	96.94
454.633	91.94
454.853	94.94
455.073	86.94
455.294	97.94
455.514	92.94
455.734	89.94
455.955	98.94
456.175	77.94
456.395	87.94
456.616	87.94
456.836	88.94
457.056	80.94
457.276	83.94
457.497	81.94
457.717	78.94
457.937	72.94
458.157	98.94
458.377	86.94
458.598	97.94
458.818	148.94
459.038	162.94
459.258	108.94
459.478	81.94
459.698	99.94
459.918	84.94
460.138	87.94
460.358	95.94
460.578	91.94
460.798	84.94
461.018	79.94
461.238	86.94
461.458	88.94
461.678	87.94
461.898	92.94
462.118	75.94
462.338	80.94
462.558	102.94
462.777	80.94
462.997	106.94
463.217	90.94
463.437	91.94
463.657	93.94
463.876	86.94
464.096	94.94
464.316	97.94
464.536	90.94
464.755	97.94
464.975	106.94
465.195	177.94
465.414	155.94
465.634	106.94
465.854	98.94
466.073	85.94
466.293	88.94
466.512	84.94
466.732	89.94
466.951	80.94
467.171	99.94
467.391	88.94
467.61	119.94
467.829	94.94
468.049	88.94
468.268	87.94
468.488	92.94
468.707	82.94
468.927	90.94
469.146	78.94
469.365	85.94
469.585	84.94
469.804	82.94
470.023	94.94
470.243	82.94
470.462	96.94
470.681	115.94
470.901	106.94
471.12	89.94
471.339	66.94
471.558	85.94
471.777	85.94
471.997	91.94
472.216	80.94
472.435	92.94
472.654	86.94
472.873	87.94
473.092	89.94
473.311	83.94
473.53	86.94
473.749	94.94
473.968	96.94
474.187	115.94
474.406	92.94
474.625	90.94
474.844	95.94
475.063	80.94
475.282	73.94
475.501	97.94
475.72	79.94
475.939	86.94
476.158	81.94
476.377	97.94
476.596	95.94
476.814	91.94
477.033	89.94
477.252	92.94
477.471	92.94
477.69	87.94
477.908	79.94
478.127	83.94
478.346	86.94
478.564	92.94
478.783	84.94
479.002	93.94
479.22	94.94
479.439	90.94
479.658	117.94
479.876	88.94
480.095	103.94
480.313	107.94
480.532	94.94
480.751	90.94
480.969	88.94
481.188	117.94
481.406	107.94
481.624	83.94
481.843	76.94
482.061	90.94
482.28	105.94
482.498	90.94
482.717	93.94
482.935	73.94
483.153	90.94
483.372	70.94
483.59	94.94
483.808	101.94
484.027	91.94
484.245	88.94
484.463	81.94
484.681	95.94
484.9	92.94
485.118	100.94
485.336	99.94
485.554	96.94
485.772	98.94
485.99	91.94
486.209	99.94
486.427	109.94
486.645	110.94
486.863	109.94
487.081	105.94
487.299	86.94
487.517	99.94
487.735	96.94
487.953	90.94
488.171	96.94
488.389	94.94
488.607	107.94
488.825	92.94
489.043	103.94
489.261	91.94
489.479	88.94
489.696	96.94
489.914	81.94
490.132	89.94
490.35	90.94
490.568	82.94
490.786	91.94
491.003	79.94
491.221	89.94
491.439	84.94
491.657	91.94
491.874	92.94
492.092	104.94
492.31	98.94
492.527	94.94
492.745	84.94
492.963	88.94
493.18	105.94
493.398	87.94
493.615	97.94
493.833	97.94
494.05	80.94
494.268	95.94
494.485	79.94
494.703	85.94
494.92	100.94
495.138	79.94
495.355	102.94
495.573	95.94
495.79	87.94
496.008	88.94
496.225	110.94
496.442	86.94
496.66	89.94
496.877	96.94
497.094	97.94
497.312	103.94
497.529	100.94
497.746	98.94
497.963	76.94
498.181	103.94
498.398	93.94
498.615	108.94
498.832	103.94
499.049	94.94
499.267	87.94
499.484	86.94
499.701	80.94
499.918	86.94
500.135	95.94
500.352	90.94
500.569	74.94
500.786	87.94
501.003	91.94
501.22	83.94
501.437	97.94
501.654	107.94
501.871	106.94
502.088	84.94
502.305	90.94
502.522	95.94
502.739	80.94
502.956	78.94
503.172	85.94
503.389	117.94
503.606	111.94
503.823	104.94
504.04	96.94
504.256	96.94
504.473	90.94
504.69	90.94
504.907	98.94
505.123	87.94
505.34	84.94
505.557	75.94
505.773	86.94
505.99	86.94
506.207	93.94
506.423	88.94
506.64	97.94
506.856	102.94
507.073	88.94
507.289	67.94
507.506	91.94
507.722	110.94
507.939	113.94
508.155	87.94
508.372	104.94
508.588	99.94
508.805	99.94
509.021	97.94
509.238	96.94
509.454	92.94
509.67	102.94
509.887	110.94
510.103	135.94
510.319	223.94
510.536	804.94
510.752	2605.94
510.968	720.94
511.184	163.94
511.401	103.94
511.617	99.94
511.833	98.94
512.049	106.94
512.265	101.94
512.481	84.94
512.698	99.94
512.914	93.94
513.13	96.94
513.346	88.94
513.562	95.94
513.778	104.94
513.994	96.94
514.21	107.94
514.426	108.94
514.642	127.94
514.858	147.94
515.074	180.94
515.29	493.94
515.506	1607.94
