Data from Uncirc_2002_H10_HRD10591_00031.txt Node
Date: Wed Jan 03 10:39:47 EST 2024
User: Yrep
Spectrometer: HR+D1059
Trigger mode: 1
Integration Time (sec): 1.000000E-1
Scans to average: 1
Electric dark correction enabled: true
Nonlinearity correction enabled: false
Boxcar width: 0
XAxis mode: Wavelengths
Number of Pixels in Spectrum: 2048
>>>>>Begin Spectral Data<<<<<
223.165	-12.69
223.4	-12.69
223.635	-12.69
223.869	-21.69
224.104	-18.69
224.338	-19.69
224.573	-18.69
224.808	-13.69
225.042	-15.69
225.277	15.31
225.511	-0.69
225.746	-4.69
225.98	7.31
226.215	14.31
226.449	18.31
226.683	21.31
226.918	22.31
227.152	27.31
227.387	35.31
227.621	44.31
227.856	50.31
228.09	48.31
228.324	48.31
228.559	65.31
228.793	76.31
229.027	76.31
229.262	62.31
229.496	72.31
229.73	98.31
229.964	86.31
230.199	92.31
230.433	73.31
230.667	70.31
230.901	79.31
231.136	70.31
231.37	79.31
231.604	91.31
231.838	88.31
232.072	82.31
232.306	93.31
232.541	87.31
232.775	90.31
233.009	88.31
233.243	78.31
233.477	78.31
233.711	86.31
233.945	79.31
234.179	75.31
234.413	96.31
234.647	78.31
234.881	69.31
235.115	81.31
235.349	85.31
235.583	97.31
235.817	84.31
236.051	84.31
236.285	71.31
236.519	83.31
236.753	89.31
236.987	77.31
237.221	93.31
237.455	83.31
237.689	70.31
237.922	72.31
238.156	80.31
238.39	81.31
238.624	72.31
238.858	74.31
239.091	75.31
239.325	85.31
239.559	82.31
239.793	86.31
240.027	81.31
240.26	91.31
240.494	78.31
240.728	80.31
240.961	78.31
241.195	96.31
241.429	72.31
241.662	73.31
241.896	79.31
242.13	96.31
242.363	87.31
242.597	89.31
242.83	78.31
243.064	73.31
243.298	100.31
243.531	87.31
243.765	81.31
243.998	95.31
244.232	89.31
244.465	82.31
244.699	78.31
244.932	85.31
245.166	82.31
245.399	71.31
245.633	70.31
245.866	95.31
246.099	89.31
246.333	86.31
246.566	94.31
246.8	72.31
247.033	93.31
247.266	82.31
247.5	93.31
247.733	76.31
247.966	83.31
248.2	82.31
248.433	84.31
248.666	84.31
248.899	75.31
249.133	84.31
249.366	86.31
249.599	90.31
249.832	81.31
250.066	69.31
250.299	79.31
250.532	74.31
250.765	80.31
250.998	86.31
251.231	96.31
251.465	82.31
251.698	87.31
251.931	92.31
252.164	89.31
252.397	100.31
252.63	73.31
252.863	100.31
253.096	80.31
253.329	66.31
253.562	85.31
253.795	76.31
254.028	89.31
254.261	87.31
254.494	85.31
254.727	92.31
254.96	92.31
255.193	78.31
255.426	89.31
255.659	84.31
255.892	80.31
256.124	85.31
256.357	93.31
256.59	91.31
256.823	85.31
257.056	87.31
257.289	86.31
257.521	78.31
257.754	87.31
257.987	98.31
258.22	85.31
258.452	82.31
258.685	83.31
258.918	89.31
259.151	83.31
259.383	73.31
259.616	92.31
259.849	81.31
260.081	100.31
260.314	76.31
260.547	80.31
260.779	84.31
261.012	90.31
261.244	98.31
261.477	83.31
261.71	80.31
261.942	110.31
262.175	109.31
262.407	86.31
262.64	91.31
262.872	92.31
263.105	86.31
263.337	82.31
263.57	92.31
263.802	102.31
264.035	93.31
264.267	90.31
264.499	98.31
264.732	112.31
264.964	90.31
265.197	93.31
265.429	91.31
265.661	88.31
265.894	74.31
266.126	85.31
266.358	89.31
266.591	79.31
266.823	88.31
267.055	84.31
267.287	85.31
267.52	78.31
267.752	69.31
267.984	81.31
268.216	93.31
268.448	90.31
268.681	72.31
268.913	88.31
269.145	80.31
269.377	81.31
269.609	90.31
269.841	80.31
270.073	85.31
270.306	84.31
270.538	95.31
270.77	80.31
271.002	76.31
271.234	86.31
271.466	84.31
271.698	87.31
271.93	93.31
272.162	91.31
272.394	82.31
272.626	100.31
272.858	90.31
273.09	79.31
273.322	88.31
273.553	89.31
273.785	93.31
274.017	75.31
274.249	80.31
274.481	91.31
274.713	84.31
274.945	91.31
275.176	93.31
275.408	90.31
275.64	76.31
275.872	101.31
276.104	91.31
276.335	83.31
276.567	92.31
276.799	90.31
277.031	81.31
277.262	90.31
277.494	90.31
277.726	92.31
277.957	79.31
278.189	98.31
278.421	91.31
278.652	90.31
278.884	84.31
279.115	89.31
279.347	91.31
279.579	88.31
279.81	74.31
280.042	86.31
280.273	89.31
280.505	85.31
280.736	97.31
280.968	99.31
281.199	72.31
281.431	85.31
281.662	91.31
281.894	90.31
282.125	101.31
282.356	106.31
282.588	128.31
282.819	101.31
283.051	76.31
283.282	86.31
283.513	91.31
283.745	96.31
283.976	81.31
284.207	74.31
284.439	87.31
284.67	93.31
284.901	89.31
285.132	93.31
285.364	86.31
285.595	80.31
285.826	84.31
286.057	100.31
286.288	87.31
286.52	84.31
286.751	99.31
286.982	80.31
287.213	96.31
287.444	97.31
287.675	98.31
287.906	91.31
288.138	90.31
288.369	89.31
288.6	95.31
288.831	80.31
289.062	80.31
289.293	85.31
289.524	88.31
289.755	83.31
289.986	100.31
290.217	94.31
290.448	100.31
290.679	85.31
290.91	104.31
291.141	86.31
291.371	97.31
291.602	86.31
291.833	88.31
292.064	92.31
292.295	97.31
292.526	96.31
292.757	84.31
292.987	102.31
293.218	91.31
293.449	101.31
293.68	93.31
293.91	78.31
294.141	83.31
294.372	71.31
294.603	86.31
294.833	87.31
295.064	88.31
295.295	94.31
295.525	98.31
295.756	99.31
295.987	93.31
296.217	128.31
296.448	124.31
296.679	97.31
296.909	93.31
297.14	98.31
297.37	94.31
297.601	94.31
297.831	74.31
298.062	98.31
298.292	90.31
298.523	95.31
298.753	88.31
298.984	91.31
299.214	90.31
299.445	82.31
299.675	89.31
299.905	93.31
300.136	93.31
300.366	100.31
300.597	83.31
300.827	95.31
301.057	105.31
301.288	114.31
301.518	93.31
301.748	85.31
301.979	103.31
302.209	99.31
302.439	91.31
302.669	82.31
302.9	89.31
303.13	90.31
303.36	100.31
303.59	100.31
303.82	89.31
304.051	90.31
304.281	98.31
304.511	92.31
304.741	84.31
304.971	87.31
305.201	89.31
305.431	88.31
305.661	87.31
305.891	89.31
306.121	98.31
306.352	105.31
306.582	104.31
306.812	98.31
307.042	101.31
307.272	105.31
307.502	93.31
307.731	98.31
307.961	101.31
308.191	99.31
308.421	98.31
308.651	84.31
308.881	86.31
309.111	88.31
309.341	78.31
309.571	104.31
309.8	82.31
310.03	85.31
310.26	92.31
310.49	91.31
310.72	99.31
310.949	92.31
311.179	90.31
311.409	105.31
311.639	100.31
311.868	98.31
312.098	101.31
312.328	87.31
312.557	103.31
312.787	101.31
313.017	110.31
313.246	97.31
313.476	103.31
313.706	90.31
313.935	79.31
314.165	99.31
314.394	89.31
314.624	87.31
314.853	110.31
315.083	82.31
315.312	100.31
315.542	80.31
315.771	85.31
316.001	98.31
316.23	96.31
316.46	75.31
316.689	98.31
316.919	94.31
317.148	102.31
317.377	96.31
317.607	87.31
317.836	99.31
318.065	97.31
318.295	93.31
318.524	93.31
318.753	102.31
318.983	106.31
319.212	93.31
319.441	112.31
319.67	105.31
319.9	102.31
320.129	88.31
320.358	97.31
320.587	96.31
320.816	95.31
321.046	102.31
321.275	91.31
321.504	88.31
321.733	95.31
321.962	96.31
322.191	95.31
322.42	99.31
322.649	115.31
322.878	122.31
323.108	118.31
323.337	118.31
323.566	114.31
323.795	122.31
324.024	168.31
324.253	308.31
324.482	625.31
324.71	1241.31
324.939	1566.31
325.168	619.31
325.397	210.31
325.626	126.31
325.855	119.31
326.084	110.31
326.313	133.31
326.542	138.31
326.77	188.31
326.999	356.31
327.228	693.31
327.457	1258.31
327.686	957.31
327.914	296.31
328.143	165.31
328.372	124.31
328.6	103.31
328.829	112.31
329.058	112.31
329.287	117.31
329.515	110.31
329.744	92.31
329.972	90.31
330.201	108.31
330.43	109.31
330.658	93.31
330.887	130.31
331.115	106.31
331.344	91.31
331.572	89.31
331.801	102.31
332.03	103.31
332.258	101.31
332.486	103.31
332.715	94.31
332.943	88.31
333.172	93.31
333.4	90.31
333.629	107.31
333.857	86.31
334.085	107.31
334.314	100.31
334.542	104.31
334.771	100.31
334.999	89.31
335.227	91.31
335.455	85.31
335.684	100.31
335.912	102.31
336.14	103.31
336.369	105.31
336.597	87.31
336.825	98.31
337.053	82.31
337.281	94.31
337.51	82.31
337.738	81.31
337.966	91.31
338.194	96.31
338.422	88.31
338.65	98.31
338.878	102.31
339.106	90.31
339.334	105.31
339.562	89.31
339.79	88.31
340.018	92.31
340.246	92.31
340.474	96.31
340.702	98.31
340.93	97.31
341.158	97.31
341.386	105.31
341.614	91.31
341.842	97.31
342.07	81.31
342.298	96.31
342.526	93.31
342.754	97.31
342.981	78.31
343.209	91.31
343.437	100.31
343.665	98.31
343.893	89.31
344.12	96.31
344.348	91.31
344.576	80.31
344.804	86.31
345.031	94.31
345.259	101.31
345.487	118.31
345.714	93.31
345.942	105.31
346.17	89.31
346.397	94.31
346.625	87.31
346.853	100.31
347.08	94.31
347.308	81.31
347.535	113.31
347.763	97.31
347.99	82.31
348.218	97.31
348.445	100.31
348.673	99.31
348.9	103.31
349.128	96.31
349.355	104.31
349.583	91.31
349.81	90.31
350.037	90.31
350.265	94.31
350.492	102.31
350.72	98.31
350.947	90.31
351.174	99.31
351.402	101.31
351.629	92.31
351.856	96.31
352.083	100.31
352.311	101.31
352.538	118.31
352.765	110.31
352.992	114.31
353.22	106.31
353.447	89.31
353.674	99.31
353.901	91.31
354.128	94.31
354.355	93.31
354.583	96.31
354.81	107.31
355.037	105.31
355.264	96.31
355.491	84.31
355.718	104.31
355.945	101.31
356.172	88.31
356.399	100.31
356.626	94.31
356.853	92.31
357.08	81.31
357.307	107.31
357.534	94.31
357.761	94.31
357.988	88.31
358.215	92.31
358.441	86.31
358.668	94.31
358.895	84.31
359.122	106.31
359.349	96.31
359.576	78.31
359.802	97.31
360.029	101.31
360.256	99.31
360.483	90.31
360.709	91.31
360.936	100.31
361.163	89.31
361.39	84.31
361.616	96.31
361.843	87.31
362.07	94.31
362.296	98.31
362.523	94.31
362.749	91.31
362.976	88.31
363.203	93.31
363.429	100.31
363.656	92.31
363.882	84.31
364.109	92.31
364.335	101.31
364.562	98.31
364.788	86.31
365.015	102.31
365.241	102.31
365.468	109.31
365.694	101.31
365.92	98.31
366.147	90.31
366.373	80.31
366.599	85.31
366.826	101.31
367.052	97.31
367.278	103.31
367.505	85.31
367.731	84.31
367.957	83.31
368.184	87.31
368.41	105.31
368.636	94.31
368.862	120.31
369.089	100.31
369.315	100.31
369.541	94.31
369.767	100.31
369.993	89.31
370.219	88.31
370.445	100.31
370.672	90.31
370.898	75.31
371.124	86.31
371.35	93.31
371.576	97.31
371.802	91.31
372.028	94.31
372.254	86.31
372.48	89.31
372.706	85.31
372.932	78.31
373.158	89.31
373.384	83.31
373.61	85.31
373.835	86.31
374.061	84.31
374.287	95.31
374.513	92.31
374.739	72.31
374.965	80.31
375.191	90.31
375.416	83.31
375.642	82.31
375.868	98.31
376.094	94.31
376.319	76.31
376.545	93.31
376.771	91.31
376.997	81.31
377.222	87.31
377.448	81.31
377.674	92.31
377.899	96.31
378.125	84.31
378.35	83.31
378.576	97.31
378.802	100.31
379.027	88.31
379.253	88.31
379.478	103.31
379.704	99.31
379.929	91.31
380.155	90.31
380.38	111.31
380.606	94.31
380.831	98.31
381.057	104.31
381.282	86.31
381.507	88.31
381.733	103.31
381.958	97.31
382.184	104.31
382.409	100.31
382.634	104.31
382.86	97.31
383.085	102.31
383.31	94.31
383.535	108.31
383.761	90.31
383.986	102.31
384.211	96.31
384.436	96.31
384.662	99.31
384.887	96.31
385.112	112.31
385.337	113.31
385.562	106.31
385.787	125.31
386.013	109.31
386.238	101.31
386.463	104.31
386.688	98.31
386.913	107.31
387.138	105.31
387.363	103.31
387.588	86.31
387.813	105.31
388.038	107.31
388.263	105.31
388.488	97.31
388.713	92.31
388.938	88.31
389.163	100.31
389.387	109.31
389.612	102.31
389.837	99.31
390.062	83.31
390.287	91.31
390.512	94.31
390.736	99.31
390.961	91.31
391.186	88.31
391.411	90.31
391.636	80.31
391.86	104.31
392.085	84.31
392.31	79.31
392.534	82.31
392.759	91.31
392.984	89.31
393.208	102.31
393.433	110.31
393.658	113.31
393.882	90.31
394.107	97.31
394.331	91.31
394.556	82.31
394.78	97.31
395.005	92.31
395.229	100.31
395.454	90.31
395.678	82.31
395.903	98.31
396.127	98.31
396.352	87.31
396.576	92.31
396.801	97.31
397.025	86.31
397.249	97.31
397.474	97.31
397.698	84.31
397.922	90.31
398.147	91.31
398.371	79.31
398.595	79.31
398.82	101.31
399.044	84.31
399.268	88.31
399.492	93.31
399.717	103.31
399.941	90.31
400.165	88.31
400.389	88.31
400.613	91.31
400.837	100.31
401.062	97.31
401.286	84.31
401.51	80.31
401.734	80.31
401.958	100.31
402.182	108.31
402.406	139.31
402.63	101.31
402.854	84.31
403.078	88.31
403.302	104.31
403.526	102.31
403.75	99.31
403.974	83.31
404.198	80.31
404.422	93.31
404.645	86.31
404.869	80.31
405.093	82.31
405.317	93.31
405.541	79.31
405.765	88.31
405.988	107.31
406.212	143.31
406.436	185.31
406.66	130.31
406.883	97.31
407.107	100.31
407.331	103.31
407.555	101.31
407.778	102.31
408.002	103.31
408.226	92.31
408.449	88.31
408.673	86.31
408.896	91.31
409.12	97.31
409.344	86.31
409.567	94.31
409.791	99.31
410.014	97.31
410.238	94.31
410.461	88.31
410.685	90.31
410.908	98.31
411.132	117.31
411.355	106.31
411.578	102.31
411.802	93.31
412.025	89.31
412.249	82.31
412.472	86.31
412.695	88.31
412.919	89.31
413.142	90.31
413.365	101.31
413.589	88.31
413.812	77.31
414.035	98.31
414.258	79.31
414.482	93.31
414.705	91.31
414.928	80.31
415.151	99.31
415.374	93.31
415.597	90.31
415.821	79.31
416.044	88.31
416.267	91.31
416.49	82.31
416.713	105.31
416.936	93.31
417.159	87.31
417.382	79.31
417.605	85.31
417.828	89.31
418.051	92.31
418.274	93.31
418.497	97.31
418.72	79.31
418.943	94.31
419.166	100.31
419.389	81.31
419.611	81.31
419.834	105.31
420.057	84.31
420.28	83.31
420.503	80.31
420.726	92.31
420.948	94.31
421.171	95.31
421.394	89.31
421.617	70.31
421.839	103.31
422.062	111.31
422.285	105.31
422.507	109.31
422.73	109.31
422.953	98.31
423.175	105.31
423.398	108.31
423.621	99.31
423.843	93.31
424.066	80.31
424.288	93.31
424.511	78.31
424.733	90.31
424.956	104.31
425.178	96.31
425.401	102.31
425.623	76.31
425.846	100.31
426.068	94.31
426.291	96.31
426.513	96.31
426.735	94.31
426.958	91.31
427.18	100.31
427.402	123.31
427.625	141.31
427.847	111.31
428.069	91.31
428.292	92.31
428.514	76.31
428.736	88.31
428.958	88.31
429.181	86.31
429.403	88.31
429.625	103.31
429.847	96.31
430.069	96.31
430.292	78.31
430.514	93.31
430.736	90.31
430.958	64.31
431.18	81.31
431.402	81.31
431.624	88.31
431.846	81.31
432.068	78.31
432.29	83.31
432.512	89.31
432.734	83.31
432.956	89.31
433.178	102.31
433.4	97.31
433.622	68.31
433.844	85.31
434.066	97.31
434.287	89.31
434.509	94.31
434.731	92.31
434.953	100.31
435.175	88.31
435.397	92.31
435.618	89.31
435.84	103.31
436.062	123.31
436.284	106.31
436.505	90.31
436.727	87.31
436.949	99.31
437.17	85.31
437.392	73.31
437.614	107.31
437.835	89.31
438.057	97.31
438.278	104.31
438.5	89.31
438.721	100.31
438.943	100.31
439.165	81.31
439.386	76.31
439.608	85.31
439.829	91.31
440.05	102.31
440.272	121.31
440.493	98.31
440.715	80.31
440.936	99.31
441.158	84.31
441.379	78.31
441.6	97.31
441.822	76.31
442.043	73.31
442.264	95.31
442.486	86.31
442.707	89.31
442.928	101.31
443.149	107.31
443.371	107.31
443.592	120.31
443.813	112.31
444.034	104.31
444.255	90.31
444.476	89.31
444.698	72.31
444.919	95.31
445.14	142.31
445.361	116.31
445.582	113.31
445.803	130.31
446.024	110.31
446.245	117.31
446.466	91.31
446.687	80.31
446.908	91.31
447.129	102.31
447.35	91.31
447.571	93.31
447.792	90.31
448.013	106.31
448.234	96.31
448.455	94.31
448.675	115.31
448.896	99.31
449.117	97.31
449.338	101.31
449.559	114.31
449.779	104.31
450	93.31
450.221	90.31
450.442	97.31
450.662	96.31
450.883	102.31
451.104	102.31
451.324	88.31
451.545	97.31
451.766	86.31
451.986	90.31
452.207	98.31
452.428	96.31
452.648	85.31
452.869	86.31
453.089	110.31
453.31	125.31
453.53	89.31
453.751	104.31
453.971	83.31
454.192	91.31
454.412	95.31
454.633	84.31
454.853	85.31
455.073	93.31
455.294	99.31
455.514	93.31
455.734	78.31
455.955	96.31
456.175	93.31
456.395	90.31
456.616	91.31
456.836	101.31
457.056	96.31
457.276	88.31
457.497	81.31
457.717	87.31
457.937	91.31
458.157	80.31
458.377	95.31
458.598	98.31
458.818	106.31
459.038	144.31
459.258	104.31
459.478	91.31
459.698	75.31
459.918	79.31
460.138	94.31
460.358	97.31
460.578	81.31
460.798	81.31
461.018	93.31
461.238	95.31
461.458	103.31
461.678	77.31
461.898	92.31
462.118	96.31
462.338	77.31
462.558	80.31
462.777	91.31
462.997	80.31
463.217	98.31
463.437	91.31
463.657	80.31
463.876	78.31
464.096	88.31
464.316	77.31
464.536	93.31
464.755	84.31
464.975	96.31
465.195	150.31
465.414	128.31
465.634	97.31
465.854	90.31
466.073	93.31
466.293	86.31
466.512	89.31
466.732	75.31
466.951	86.31
467.171	98.31
467.391	103.31
467.61	90.31
467.829	93.31
468.049	106.31
468.268	98.31
468.488	84.31
468.707	83.31
468.927	94.31
469.146	89.31
469.365	77.31
469.585	86.31
469.804	85.31
470.023	94.31
470.243	97.31
470.462	104.31
470.681	107.31
470.901	96.31
471.12	94.31
471.339	80.31
471.558	86.31
471.777	82.31
471.997	95.31
472.216	87.31
472.435	95.31
472.654	93.31
472.873	77.31
473.092	94.31
473.311	89.31
473.53	93.31
473.749	86.31
473.968	101.31
474.187	87.31
474.406	108.31
474.625	85.31
474.844	89.31
475.063	94.31
475.282	79.31
475.501	83.31
475.72	80.31
475.939	82.31
476.158	94.31
476.377	92.31
476.596	83.31
476.814	90.31
477.033	81.31
477.252	94.31
477.471	82.31
477.69	87.31
477.908	85.31
478.127	88.31
478.346	101.31
478.564	92.31
478.783	89.31
479.002	78.31
479.22	86.31
479.439	89.31
479.658	86.31
479.876	91.31
480.095	74.31
480.313	88.31
480.532	85.31
480.751	91.31
480.969	83.31
481.188	113.31
481.406	114.31
481.624	94.31
481.843	91.31
482.061	90.31
482.28	77.31
482.498	92.31
482.717	84.31
482.935	85.31
483.153	87.31
483.372	85.31
483.59	92.31
483.808	90.31
484.027	98.31
484.245	94.31
484.463	105.31
484.681	93.31
484.9	97.31
485.118	94.31
485.336	80.31
485.554	101.31
485.772	104.31
485.99	93.31
486.209	98.31
486.427	105.31
486.645	107.31
486.863	115.31
487.081	95.31
487.299	90.31
487.517	107.31
487.735	96.31
487.953	98.31
488.171	106.31
488.389	95.31
488.607	89.31
488.825	96.31
489.043	93.31
489.261	79.31
489.479	103.31
489.696	99.31
489.914	101.31
490.132	90.31
490.35	90.31
490.568	81.31
490.786	86.31
491.003	76.31
491.221	92.31
491.439	88.31
491.657	83.31
491.874	89.31
492.092	86.31
492.31	92.31
492.527	99.31
492.745	108.31
492.963	90.31
493.18	103.31
493.398	92.31
493.615	102.31
493.833	88.31
494.05	89.31
494.268	94.31
494.485	92.31
494.703	106.31
494.92	95.31
495.138	104.31
495.355	93.31
495.573	90.31
495.79	92.31
496.008	79.31
496.225	96.31
496.442	94.31
496.66	102.31
496.877	89.31
497.094	99.31
497.312	84.31
497.529	89.31
497.746	111.31
497.963	103.31
498.181	99.31
498.398	108.31
498.615	90.31
498.832	100.31
499.049	94.31
499.267	106.31
499.484	94.31
499.701	87.31
499.918	91.31
500.135	98.31
500.352	92.31
500.569	88.31
500.786	88.31
501.003	94.31
501.22	100.31
501.437	85.31
501.654	104.31
501.871	102.31
502.088	89.31
502.305	93.31
502.522	87.31
502.739	97.31
502.956	84.31
503.172	109.31
503.389	98.31
503.606	99.31
503.823	99.31
504.04	90.31
504.256	104.31
504.473	85.31
504.69	93.31
504.907	96.31
505.123	101.31
505.34	93.31
505.557	93.31
505.773	78.31
505.99	94.31
506.207	99.31
506.423	86.31
506.64	96.31
506.856	96.31
507.073	96.31
507.289	108.31
507.506	99.31
507.722	99.31
507.939	123.31
508.155	105.31
508.372	97.31
508.588	101.31
508.805	104.31
509.021	98.31
509.238	96.31
509.454	88.31
509.67	90.31
509.887	93.31
510.103	114.31
510.319	187.31
510.536	619.31
510.752	1816.31
510.968	539.31
511.184	134.31
511.401	99.31
511.617	94.31
511.833	98.31
512.049	104.31
512.265	99.31
512.481	90.31
512.698	100.31
512.914	107.31
513.13	93.31
513.346	97.31
513.562	99.31
513.778	89.31
513.994	100.31
514.21	93.31
514.426	105.31
514.642	121.31
514.858	110.31
515.074	134.31
515.29	354.31
515.506	1104.31
