Data from Uncirc_2002_H10_HRD10591_00074.txt Node
Date: Wed Jan 03 10:39:56 EST 2024
User: Yrep
Spectrometer: HR+D1059
Trigger mode: 1
Integration Time (sec): 1.000000E-1
Scans to average: 1
Electric dark correction enabled: true
Nonlinearity correction enabled: false
Boxcar width: 0
XAxis mode: Wavelengths
Number of Pixels in Spectrum: 2048
>>>>>Begin Spectral Data<<<<<
223.165	-5.81
223.4	-5.81
223.635	-5.81
223.869	-25.81
224.104	-5.81
224.338	-4.81
224.573	-10.81
224.808	-20.81
225.042	-15.81
225.277	-12.81
225.511	-4.81
225.746	0.19
225.98	-3.81
226.215	17.19
226.449	16.19
226.683	21.19
226.918	27.19
227.152	29.19
227.387	30.19
227.621	40.19
227.856	45.19
228.09	42.19
228.324	40.19
228.559	57.19
228.793	58.19
229.027	57.19
229.262	64.19
229.496	56.19
229.73	81.19
229.964	83.19
230.199	66.19
230.433	80.19
230.667	83.19
230.901	68.19
231.136	80.19
231.37	91.19
231.604	75.19
231.838	81.19
232.072	80.19
232.306	90.19
232.541	81.19
232.775	85.19
233.009	102.19
233.243	83.19
233.477	80.19
233.711	77.19
233.945	76.19
234.179	81.19
234.413	84.19
234.647	83.19
234.881	69.19
235.115	79.19
235.349	84.19
235.583	74.19
235.817	81.19
236.051	86.19
236.285	87.19
236.519	83.19
236.753	72.19
236.987	83.19
237.221	78.19
237.455	68.19
237.689	71.19
237.922	82.19
238.156	75.19
238.39	82.19
238.624	62.19
238.858	92.19
239.091	78.19
239.325	68.19
239.559	64.19
239.793	82.19
240.027	83.19
240.26	77.19
240.494	83.19
240.728	88.19
240.961	87.19
241.195	88.19
241.429	89.19
241.662	82.19
241.896	77.19
242.13	66.19
242.363	83.19
242.597	85.19
242.83	87.19
243.064	81.19
243.298	79.19
243.531	75.19
243.765	60.19
243.998	93.19
244.232	85.19
244.465	86.19
244.699	76.19
244.932	91.19
245.166	70.19
245.399	82.19
245.633	78.19
245.866	70.19
246.099	85.19
246.333	76.19
246.566	83.19
246.8	70.19
247.033	90.19
247.266	77.19
247.5	67.19
247.733	76.19
247.966	102.19
248.2	81.19
248.433	71.19
248.666	74.19
248.899	90.19
249.133	92.19
249.366	92.19
249.599	76.19
249.832	79.19
250.066	91.19
250.299	78.19
250.532	80.19
250.765	80.19
250.998	86.19
251.231	86.19
251.465	78.19
251.698	83.19
251.931	96.19
252.164	88.19
252.397	73.19
252.63	81.19
252.863	78.19
253.096	80.19
253.329	80.19
253.562	90.19
253.795	97.19
254.028	80.19
254.261	93.19
254.494	89.19
254.727	67.19
254.96	87.19
255.193	74.19
255.426	89.19
255.659	69.19
255.892	78.19
256.124	78.19
256.357	101.19
256.59	90.19
256.823	76.19
257.056	72.19
257.289	81.19
257.521	87.19
257.754	81.19
257.987	92.19
258.22	95.19
258.452	70.19
258.685	72.19
258.918	73.19
259.151	78.19
259.383	80.19
259.616	90.19
259.849	89.19
260.081	78.19
260.314	87.19
260.547	86.19
260.779	90.19
261.012	78.19
261.244	86.19
261.477	87.19
261.71	89.19
261.942	104.19
262.175	99.19
262.407	80.19
262.64	78.19
262.872	93.19
263.105	80.19
263.337	95.19
263.57	74.19
263.802	76.19
264.035	87.19
264.267	85.19
264.499	91.19
264.732	75.19
264.964	91.19
265.197	91.19
265.429	95.19
265.661	92.19
265.894	84.19
266.126	76.19
266.358	92.19
266.591	77.19
266.823	81.19
267.055	98.19
267.287	89.19
267.52	68.19
267.752	90.19
267.984	86.19
268.216	76.19
268.448	83.19
268.681	81.19
268.913	104.19
269.145	87.19
269.377	86.19
269.609	85.19
269.841	80.19
270.073	96.19
270.306	96.19
270.538	92.19
270.77	76.19
271.002	68.19
271.234	94.19
271.466	84.19
271.698	88.19
271.93	95.19
272.162	74.19
272.394	98.19
272.626	103.19
272.858	98.19
273.09	101.19
273.322	78.19
273.553	104.19
273.785	89.19
274.017	76.19
274.249	93.19
274.481	93.19
274.713	89.19
274.945	84.19
275.176	93.19
275.408	100.19
275.64	100.19
275.872	91.19
276.104	85.19
276.335	86.19
276.567	95.19
276.799	108.19
277.031	83.19
277.262	99.19
277.494	90.19
277.726	93.19
277.957	77.19
278.189	91.19
278.421	93.19
278.652	76.19
278.884	91.19
279.115	89.19
279.347	82.19
279.579	91.19
279.81	88.19
280.042	96.19
280.273	88.19
280.505	88.19
280.736	77.19
280.968	98.19
281.199	89.19
281.431	99.19
281.662	92.19
281.894	93.19
282.125	90.19
282.356	122.19
282.588	133.19
282.819	114.19
283.051	92.19
283.282	74.19
283.513	89.19
283.745	103.19
283.976	91.19
284.207	93.19
284.439	85.19
284.67	85.19
284.901	93.19
285.132	80.19
285.364	96.19
285.595	81.19
285.826	93.19
286.057	87.19
286.288	92.19
286.52	97.19
286.751	93.19
286.982	92.19
287.213	101.19
287.444	96.19
287.675	94.19
287.906	93.19
288.138	95.19
288.369	90.19
288.6	102.19
288.831	89.19
289.062	73.19
289.293	89.19
289.524	88.19
289.755	83.19
289.986	98.19
290.217	96.19
290.448	85.19
290.679	96.19
290.91	104.19
291.141	76.19
291.371	91.19
291.602	85.19
291.833	99.19
292.064	80.19
292.295	88.19
292.526	98.19
292.757	83.19
292.987	89.19
293.218	97.19
293.449	94.19
293.68	115.19
293.91	97.19
294.141	103.19
294.372	85.19
294.603	98.19
294.833	101.19
295.064	94.19
295.295	105.19
295.525	90.19
295.756	94.19
295.987	102.19
296.217	127.19
296.448	132.19
296.679	83.19
296.909	84.19
297.14	102.19
297.37	88.19
297.601	95.19
297.831	75.19
298.062	94.19
298.292	96.19
298.523	89.19
298.753	106.19
298.984	95.19
299.214	96.19
299.445	90.19
299.675	104.19
299.905	93.19
300.136	92.19
300.366	100.19
300.597	73.19
300.827	95.19
301.057	97.19
301.288	89.19
301.518	97.19
301.748	76.19
301.979	100.19
302.209	85.19
302.439	101.19
302.669	90.19
302.9	91.19
303.13	85.19
303.36	94.19
303.59	100.19
303.82	98.19
304.051	101.19
304.281	89.19
304.511	79.19
304.741	93.19
304.971	89.19
305.201	101.19
305.431	98.19
305.661	72.19
305.891	103.19
306.121	91.19
306.352	115.19
306.582	104.19
306.812	89.19
307.042	100.19
307.272	98.19
307.502	89.19
307.731	100.19
307.961	112.19
308.191	95.19
308.421	91.19
308.651	98.19
308.881	97.19
309.111	106.19
309.341	96.19
309.571	94.19
309.8	98.19
310.03	101.19
310.26	103.19
310.49	106.19
310.72	93.19
310.949	93.19
311.179	110.19
311.409	78.19
311.639	98.19
311.868	88.19
312.098	109.19
312.328	98.19
312.557	108.19
312.787	100.19
313.017	105.19
313.246	94.19
313.476	100.19
313.706	107.19
313.935	89.19
314.165	97.19
314.394	98.19
314.624	97.19
314.853	101.19
315.083	91.19
315.312	93.19
315.542	88.19
315.771	94.19
316.001	91.19
316.23	80.19
316.46	94.19
316.689	94.19
316.919	85.19
317.148	89.19
317.377	87.19
317.607	97.19
317.836	103.19
318.065	95.19
318.295	104.19
318.524	91.19
318.753	93.19
318.983	83.19
319.212	117.19
319.441	99.19
319.67	115.19
319.9	105.19
320.129	89.19
320.358	93.19
320.587	91.19
320.816	89.19
321.046	99.19
321.275	105.19
321.504	100.19
321.733	107.19
321.962	89.19
322.191	99.19
322.42	115.19
322.649	130.19
322.878	101.19
323.108	112.19
323.337	118.19
323.566	131.19
323.795	156.19
324.024	200.19
324.253	345.19
324.482	736.19
324.71	1498.19
324.939	1954.19
325.168	725.19
325.397	225.19
325.626	144.19
325.855	123.19
326.084	127.19
326.313	129.19
326.542	153.19
326.77	212.19
326.999	415.19
327.228	802.19
327.457	1494.19
327.686	1187.19
327.914	328.19
328.143	181.19
328.372	156.19
328.6	109.19
328.829	99.19
329.058	133.19
329.287	138.19
329.515	106.19
329.744	89.19
329.972	92.19
330.201	112.19
330.43	108.19
330.658	123.19
330.887	132.19
331.115	115.19
331.344	103.19
331.572	105.19
331.801	95.19
332.03	95.19
332.258	102.19
332.486	102.19
332.715	93.19
332.943	98.19
333.172	97.19
333.4	95.19
333.629	97.19
333.857	107.19
334.085	100.19
334.314	99.19
334.542	99.19
334.771	101.19
334.999	94.19
335.227	103.19
335.455	88.19
335.684	81.19
335.912	98.19
336.14	94.19
336.369	98.19
336.597	93.19
336.825	104.19
337.053	88.19
337.281	102.19
337.51	91.19
337.738	98.19
337.966	93.19
338.194	80.19
338.422	84.19
338.65	89.19
338.878	105.19
339.106	99.19
339.334	90.19
339.562	88.19
339.79	91.19
340.018	93.19
340.246	97.19
340.474	85.19
340.702	94.19
340.93	93.19
341.158	103.19
341.386	97.19
341.614	116.19
341.842	85.19
342.07	89.19
342.298	104.19
342.526	94.19
342.754	86.19
342.981	93.19
343.209	89.19
343.437	91.19
343.665	83.19
343.893	100.19
344.12	92.19
344.348	82.19
344.576	94.19
344.804	87.19
345.031	101.19
345.259	96.19
345.487	114.19
345.714	93.19
345.942	99.19
346.17	93.19
346.397	82.19
346.625	104.19
346.853	93.19
347.08	91.19
347.308	106.19
347.535	92.19
347.763	108.19
347.99	107.19
348.218	102.19
348.445	104.19
348.673	93.19
348.9	112.19
349.128	105.19
349.355	92.19
349.583	87.19
349.81	87.19
350.037	92.19
350.265	99.19
350.492	94.19
350.72	106.19
350.947	88.19
351.174	128.19
351.402	116.19
351.629	98.19
351.856	109.19
352.083	109.19
352.311	103.19
352.538	109.19
352.765	116.19
352.992	133.19
353.22	115.19
353.447	106.19
353.674	104.19
353.901	103.19
354.128	86.19
354.355	88.19
354.583	97.19
354.81	109.19
355.037	100.19
355.264	105.19
355.491	101.19
355.718	83.19
355.945	103.19
356.172	83.19
356.399	87.19
356.626	102.19
356.853	94.19
357.08	107.19
357.307	85.19
357.534	101.19
357.761	90.19
357.988	91.19
358.215	89.19
358.441	97.19
358.668	100.19
358.895	87.19
359.122	97.19
359.349	91.19
359.576	93.19
359.802	93.19
360.029	101.19
360.256	111.19
360.483	96.19
360.709	84.19
360.936	99.19
361.163	93.19
361.39	92.19
361.616	86.19
361.843	86.19
362.07	83.19
362.296	98.19
362.523	101.19
362.749	89.19
362.976	80.19
363.203	83.19
363.429	80.19
363.656	96.19
363.882	106.19
364.109	87.19
364.335	107.19
364.562	92.19
364.788	99.19
365.015	103.19
365.241	117.19
365.468	111.19
365.694	106.19
365.92	108.19
366.147	98.19
366.373	85.19
366.599	92.19
366.826	86.19
367.052	87.19
367.278	105.19
367.505	88.19
367.731	81.19
367.957	108.19
368.184	100.19
368.41	106.19
368.636	110.19
368.862	122.19
369.089	108.19
369.315	100.19
369.541	88.19
369.767	88.19
369.993	99.19
370.219	88.19
370.445	96.19
370.672	94.19
370.898	87.19
371.124	95.19
371.35	88.19
371.576	89.19
371.802	91.19
372.028	94.19
372.254	88.19
372.48	88.19
372.706	97.19
372.932	82.19
373.158	84.19
373.384	91.19
373.61	94.19
373.835	83.19
374.061	101.19
374.287	107.19
374.513	100.19
374.739	96.19
374.965	94.19
375.191	84.19
375.416	88.19
375.642	93.19
375.868	89.19
376.094	84.19
376.319	93.19
376.545	93.19
376.771	88.19
376.997	89.19
377.222	77.19
377.448	91.19
377.674	86.19
377.899	94.19
378.125	109.19
378.35	89.19
378.576	85.19
378.802	97.19
379.027	81.19
379.253	85.19
379.478	98.19
379.704	88.19
379.929	89.19
380.155	88.19
380.38	88.19
380.606	94.19
380.831	97.19
381.057	98.19
381.282	92.19
381.507	97.19
381.733	91.19
381.958	91.19
382.184	99.19
382.409	86.19
382.634	93.19
382.86	100.19
383.085	104.19
383.31	100.19
383.535	108.19
383.761	92.19
383.986	85.19
384.211	94.19
384.436	101.19
384.662	107.19
384.887	115.19
385.112	96.19
385.337	91.19
385.562	98.19
385.787	100.19
386.013	112.19
386.238	106.19
386.463	100.19
386.688	108.19
386.913	91.19
387.138	96.19
387.363	105.19
387.588	101.19
387.813	108.19
388.038	100.19
388.263	105.19
388.488	106.19
388.713	109.19
388.938	100.19
389.163	112.19
389.387	105.19
389.612	101.19
389.837	106.19
390.062	97.19
390.287	89.19
390.512	94.19
390.736	98.19
390.961	76.19
391.186	76.19
391.411	93.19
391.636	93.19
391.86	72.19
392.085	84.19
392.31	89.19
392.534	72.19
392.759	90.19
392.984	97.19
393.208	98.19
393.433	101.19
393.658	95.19
393.882	89.19
394.107	84.19
394.331	95.19
394.556	92.19
394.78	98.19
395.005	94.19
395.229	82.19
395.454	92.19
395.678	83.19
395.903	83.19
396.127	84.19
396.352	90.19
396.576	77.19
396.801	76.19
397.025	89.19
397.249	95.19
397.474	83.19
397.698	79.19
397.922	94.19
398.147	99.19
398.371	82.19
398.595	91.19
398.82	78.19
399.044	89.19
399.268	87.19
399.492	86.19
399.717	93.19
399.941	98.19
400.165	105.19
400.389	93.19
400.613	75.19
400.837	73.19
401.062	91.19
401.286	97.19
401.51	92.19
401.734	98.19
401.958	100.19
402.182	109.19
402.406	141.19
402.63	99.19
402.854	95.19
403.078	93.19
403.302	90.19
403.526	92.19
403.75	91.19
403.974	106.19
404.198	98.19
404.422	88.19
404.645	78.19
404.869	99.19
405.093	94.19
405.317	97.19
405.541	100.19
405.765	108.19
405.988	119.19
406.212	168.19
406.436	217.19
406.66	141.19
406.883	104.19
407.107	86.19
407.331	85.19
407.555	92.19
407.778	86.19
408.002	104.19
408.226	88.19
408.449	93.19
408.673	76.19
408.896	89.19
409.12	99.19
409.344	85.19
409.567	94.19
409.791	90.19
410.014	97.19
410.238	99.19
410.461	98.19
410.685	96.19
410.908	94.19
411.132	108.19
411.355	99.19
411.578	94.19
411.802	87.19
412.025	90.19
412.249	84.19
412.472	82.19
412.695	105.19
412.919	90.19
413.142	94.19
413.365	96.19
413.589	99.19
413.812	93.19
414.035	90.19
414.258	72.19
414.482	74.19
414.705	86.19
414.928	79.19
415.151	87.19
415.374	100.19
415.597	91.19
415.821	98.19
416.044	86.19
416.267	87.19
416.49	92.19
416.713	84.19
416.936	85.19
417.159	88.19
417.382	103.19
417.605	86.19
417.828	84.19
418.051	79.19
418.274	82.19
418.497	77.19
418.72	97.19
418.943	96.19
419.166	81.19
419.389	97.19
419.611	88.19
419.834	99.19
420.057	92.19
420.28	94.19
420.503	93.19
420.726	90.19
420.948	85.19
421.171	97.19
421.394	96.19
421.617	93.19
421.839	98.19
422.062	88.19
422.285	105.19
422.507	94.19
422.73	98.19
422.953	92.19
423.175	89.19
423.398	97.19
423.621	87.19
423.843	79.19
424.066	94.19
424.288	71.19
424.511	93.19
424.733	100.19
424.956	93.19
425.178	106.19
425.401	105.19
425.623	92.19
425.846	88.19
426.068	92.19
426.291	95.19
426.513	94.19
426.735	89.19
426.958	91.19
427.18	101.19
427.402	124.19
427.625	156.19
427.847	104.19
428.069	95.19
428.292	99.19
428.514	91.19
428.736	87.19
428.958	94.19
429.181	75.19
429.403	103.19
429.625	100.19
429.847	91.19
430.069	97.19
430.292	94.19
430.514	89.19
430.736	86.19
430.958	83.19
431.18	81.19
431.402	94.19
431.624	92.19
431.846	85.19
432.068	88.19
432.29	84.19
432.512	99.19
432.734	92.19
432.956	88.19
433.178	111.19
433.4	97.19
433.622	101.19
433.844	88.19
434.066	98.19
434.287	99.19
434.509	81.19
434.731	78.19
434.953	96.19
435.175	87.19
435.397	92.19
435.618	90.19
435.84	101.19
436.062	107.19
436.284	112.19
436.505	106.19
436.727	93.19
436.949	99.19
437.17	83.19
437.392	91.19
437.614	93.19
437.835	98.19
438.057	119.19
438.278	108.19
438.5	109.19
438.721	109.19
438.943	106.19
439.165	96.19
439.386	108.19
439.608	98.19
439.829	111.19
440.05	109.19
440.272	124.19
440.493	90.19
440.715	90.19
440.936	86.19
441.158	84.19
441.379	81.19
441.6	97.19
441.822	91.19
442.043	87.19
442.264	97.19
442.486	111.19
442.707	91.19
442.928	100.19
443.149	145.19
443.371	124.19
443.592	104.19
443.813	111.19
444.034	110.19
444.255	95.19
444.476	85.19
444.698	96.19
444.919	85.19
445.14	137.19
445.361	113.19
445.582	95.19
445.803	111.19
446.024	140.19
446.245	133.19
446.466	98.19
446.687	74.19
446.908	92.19
447.129	104.19
447.35	89.19
447.571	93.19
447.792	96.19
448.013	94.19
448.234	100.19
448.455	121.19
448.675	100.19
448.896	104.19
449.117	96.19
449.338	103.19
449.559	124.19
449.779	122.19
450	106.19
450.221	81.19
450.442	93.19
450.662	89.19
450.883	112.19
451.104	115.19
451.324	95.19
451.545	89.19
451.766	88.19
451.986	93.19
452.207	78.19
452.428	99.19
452.648	93.19
452.869	99.19
453.089	109.19
453.31	111.19
453.53	82.19
453.751	82.19
453.971	106.19
454.192	104.19
454.412	90.19
454.633	98.19
454.853	79.19
455.073	93.19
455.294	80.19
455.514	93.19
455.734	78.19
455.955	91.19
456.175	101.19
456.395	94.19
456.616	81.19
456.836	92.19
457.056	62.19
457.276	75.19
457.497	80.19
457.717	90.19
457.937	78.19
458.157	87.19
458.377	82.19
458.598	106.19
458.818	145.19
459.038	148.19
459.258	114.19
459.478	75.19
459.698	92.19
459.918	80.19
460.138	98.19
460.358	73.19
460.578	91.19
460.798	91.19
461.018	98.19
461.238	86.19
461.458	74.19
461.678	98.19
461.898	96.19
462.118	90.19
462.338	94.19
462.558	82.19
462.777	80.19
462.997	92.19
463.217	88.19
463.437	90.19
463.657	81.19
463.876	92.19
464.096	88.19
464.316	115.19
464.536	103.19
464.755	96.19
464.975	99.19
465.195	154.19
465.414	148.19
465.634	111.19
465.854	91.19
466.073	82.19
466.293	92.19
466.512	89.19
466.732	96.19
466.951	94.19
467.171	96.19
467.391	102.19
467.61	116.19
467.829	89.19
468.049	98.19
468.268	91.19
468.488	99.19
468.707	88.19
468.927	84.19
469.146	77.19
469.365	85.19
469.585	98.19
469.804	85.19
470.023	93.19
470.243	103.19
470.462	97.19
470.681	115.19
470.901	109.19
471.12	82.19
471.339	95.19
471.558	98.19
471.777	89.19
471.997	78.19
472.216	87.19
472.435	89.19
472.654	78.19
472.873	96.19
473.092	85.19
473.311	70.19
473.53	91.19
473.749	74.19
473.968	93.19
474.187	92.19
474.406	100.19
474.625	81.19
474.844	89.19
475.063	83.19
475.282	85.19
475.501	102.19
475.72	84.19
475.939	89.19
476.158	92.19
476.377	84.19
476.596	100.19
476.814	99.19
477.033	90.19
477.252	101.19
477.471	92.19
477.69	100.19
477.908	97.19
478.127	91.19
478.346	94.19
478.564	86.19
478.783	102.19
479.002	85.19
479.22	91.19
479.439	101.19
479.658	97.19
479.876	95.19
480.095	88.19
480.313	82.19
480.532	85.19
480.751	86.19
480.969	95.19
481.188	106.19
481.406	112.19
481.624	87.19
481.843	81.19
482.061	98.19
482.28	80.19
482.498	89.19
482.717	99.19
482.935	93.19
483.153	90.19
483.372	73.19
483.59	92.19
483.808	82.19
484.027	94.19
484.245	99.19
484.463	92.19
484.681	106.19
484.9	85.19
485.118	84.19
485.336	98.19
485.554	98.19
485.772	106.19
485.99	101.19
486.209	104.19
486.427	105.19
486.645	114.19
486.863	103.19
487.081	98.19
487.299	88.19
487.517	86.19
487.735	74.19
487.953	92.19
488.171	105.19
488.389	89.19
488.607	95.19
488.825	106.19
489.043	96.19
489.261	103.19
489.479	85.19
489.696	82.19
489.914	91.19
490.132	89.19
490.35	102.19
490.568	91.19
490.786	88.19
491.003	86.19
491.221	85.19
491.439	89.19
491.657	98.19
491.874	98.19
492.092	109.19
492.31	97.19
492.527	99.19
492.745	88.19
492.963	102.19
493.18	98.19
493.398	103.19
493.615	114.19
493.833	103.19
494.05	93.19
494.268	93.19
494.485	89.19
494.703	91.19
494.92	105.19
495.138	92.19
495.355	93.19
495.573	92.19
495.79	103.19
496.008	102.19
496.225	96.19
496.442	91.19
496.66	97.19
496.877	103.19
497.094	77.19
497.312	88.19
497.529	105.19
497.746	89.19
497.963	93.19
498.181	94.19
498.398	91.19
498.615	110.19
498.832	101.19
499.049	102.19
499.267	86.19
499.484	92.19
499.701	101.19
499.918	100.19
500.135	90.19
500.352	83.19
500.569	91.19
500.786	79.19
501.003	86.19
501.22	95.19
501.437	91.19
501.654	78.19
501.871	109.19
502.088	86.19
502.305	85.19
502.522	89.19
502.739	94.19
502.956	84.19
503.172	86.19
503.389	102.19
503.606	101.19
503.823	92.19
504.04	101.19
504.256	93.19
504.473	90.19
504.69	99.19
504.907	92.19
505.123	97.19
505.34	98.19
505.557	88.19
505.773	90.19
505.99	105.19
506.207	83.19
506.423	91.19
506.64	88.19
506.856	104.19
507.073	93.19
507.289	98.19
507.506	107.19
507.722	101.19
507.939	112.19
508.155	90.19
508.372	78.19
508.588	98.19
508.805	92.19
509.021	118.19
509.238	105.19
509.454	93.19
509.67	91.19
509.887	100.19
510.103	121.19
510.319	198.19
510.536	746.19
510.752	2328.19
510.968	642.19
511.184	156.19
511.401	112.19
511.617	104.19
511.833	96.19
512.049	92.19
512.265	102.19
512.481	94.19
512.698	88.19
512.914	109.19
513.13	81.19
513.346	97.19
513.562	83.19
513.778	108.19
513.994	96.19
514.21	95.19
514.426	117.19
514.642	129.19
514.858	124.19
515.074	162.19
515.29	404.19
