Data from Uncirc_2002_H10_HRD10591_00061.txt Node
Date: Wed Jan 03 10:39:53 EST 2024
User: Yrep
Spectrometer: HR+D1059
Trigger mode: 1
Integration Time (sec): 1.000000E-1
Scans to average: 1
Electric dark correction enabled: true
Nonlinearity correction enabled: false
Boxcar width: 0
XAxis mode: Wavelengths
Number of Pixels in Spectrum: 2048
>>>>>Begin Spectral Data<<<<<
223.165	-3.31
223.4	-3.31
223.635	-3.31
223.869	-11.31
224.104	-17.31
224.338	-20.31
224.573	-20.31
224.808	-18.31
225.042	-23.31
225.277	6.69
225.511	3.69
225.746	-7.31
225.98	7.69
226.215	15.69
226.449	15.69
226.683	18.69
226.918	21.69
227.152	31.69
227.387	45.69
227.621	42.69
227.856	35.69
228.09	39.69
228.324	55.69
228.559	59.69
228.793	62.69
229.027	65.69
229.262	69.69
229.496	59.69
229.73	85.69
229.964	80.69
230.199	83.69
230.433	81.69
230.667	77.69
230.901	72.69
231.136	85.69
231.37	68.69
231.604	82.69
231.838	85.69
232.072	66.69
232.306	74.69
232.541	84.69
232.775	78.69
233.009	64.69
233.243	73.69
233.477	80.69
233.711	86.69
233.945	69.69
234.179	80.69
234.413	73.69
234.647	79.69
234.881	77.69
235.115	75.69
235.349	76.69
235.583	73.69
235.817	83.69
236.051	75.69
236.285	87.69
236.519	70.69
236.753	86.69
236.987	78.69
237.221	83.69
237.455	80.69
237.689	80.69
237.922	77.69
238.156	61.69
238.39	72.69
238.624	71.69
238.858	79.69
239.091	78.69
239.325	70.69
239.559	77.69
239.793	82.69
240.027	72.69
240.26	84.69
240.494	71.69
240.728	85.69
240.961	84.69
241.195	80.69
241.429	77.69
241.662	71.69
241.896	71.69
242.13	65.69
242.363	72.69
242.597	81.69
242.83	72.69
243.064	69.69
243.298	74.69
243.531	73.69
243.765	82.69
243.998	81.69
244.232	74.69
244.465	70.69
244.699	76.69
244.932	73.69
245.166	87.69
245.399	75.69
245.633	85.69
245.866	83.69
246.099	86.69
246.333	71.69
246.566	68.69
246.8	75.69
247.033	74.69
247.266	81.69
247.5	77.69
247.733	68.69
247.966	90.69
248.2	83.69
248.433	76.69
248.666	84.69
248.899	80.69
249.133	71.69
249.366	98.69
249.599	93.69
249.832	94.69
250.066	88.69
250.299	97.69
250.532	71.69
250.765	81.69
250.998	90.69
251.231	88.69
251.465	77.69
251.698	87.69
251.931	70.69
252.164	92.69
252.397	88.69
252.63	74.69
252.863	67.69
253.096	95.69
253.329	82.69
253.562	73.69
253.795	79.69
254.028	81.69
254.261	81.69
254.494	75.69
254.727	75.69
254.96	78.69
255.193	69.69
255.426	74.69
255.659	66.69
255.892	69.69
256.124	73.69
256.357	75.69
256.59	65.69
256.823	81.69
257.056	76.69
257.289	79.69
257.521	80.69
257.754	75.69
257.987	73.69
258.22	76.69
258.452	73.69
258.685	81.69
258.918	82.69
259.151	83.69
259.383	82.69
259.616	80.69
259.849	79.69
260.081	81.69
260.314	73.69
260.547	75.69
260.779	83.69
261.012	86.69
261.244	79.69
261.477	74.69
261.71	106.69
261.942	113.69
262.175	97.69
262.407	96.69
262.64	84.69
262.872	77.69
263.105	91.69
263.337	82.69
263.57	96.69
263.802	91.69
264.035	91.69
264.267	75.69
264.499	78.69
264.732	95.69
264.964	88.69
265.197	87.69
265.429	94.69
265.661	80.69
265.894	74.69
266.126	91.69
266.358	97.69
266.591	90.69
266.823	86.69
267.055	69.69
267.287	74.69
267.52	81.69
267.752	89.69
267.984	91.69
268.216	87.69
268.448	87.69
268.681	87.69
268.913	96.69
269.145	91.69
269.377	80.69
269.609	86.69
269.841	75.69
270.073	71.69
270.306	76.69
270.538	81.69
270.77	86.69
271.002	86.69
271.234	91.69
271.466	86.69
271.698	84.69
271.93	82.69
272.162	78.69
272.394	87.69
272.626	88.69
272.858	84.69
273.09	78.69
273.322	74.69
273.553	79.69
273.785	67.69
274.017	71.69
274.249	89.69
274.481	84.69
274.713	83.69
274.945	78.69
275.176	102.69
275.408	99.69
275.64	77.69
275.872	88.69
276.104	75.69
276.335	87.69
276.567	101.69
276.799	119.69
277.031	98.69
277.262	95.69
277.494	80.69
277.726	81.69
277.957	92.69
278.189	76.69
278.421	81.69
278.652	93.69
278.884	91.69
279.115	86.69
279.347	87.69
279.579	78.69
279.81	86.69
280.042	95.69
280.273	90.69
280.505	102.69
280.736	86.69
280.968	93.69
281.199	87.69
281.431	88.69
281.662	96.69
281.894	95.69
282.125	98.69
282.356	117.69
282.588	124.69
282.819	103.69
283.051	88.69
283.282	62.69
283.513	87.69
283.745	86.69
283.976	74.69
284.207	77.69
284.439	91.69
284.67	80.69
284.901	80.69
285.132	81.69
285.364	90.69
285.595	92.69
285.826	72.69
286.057	80.69
286.288	86.69
286.52	100.69
286.751	78.69
286.982	74.69
287.213	92.69
287.444	87.69
287.675	100.69
287.906	71.69
288.138	95.69
288.369	74.69
288.6	96.69
288.831	86.69
289.062	85.69
289.293	93.69
289.524	96.69
289.755	86.69
289.986	84.69
290.217	91.69
290.448	101.69
290.679	80.69
290.91	89.69
291.141	73.69
291.371	81.69
291.602	83.69
291.833	93.69
292.064	91.69
292.295	80.69
292.526	91.69
292.757	77.69
292.987	75.69
293.218	82.69
293.449	98.69
293.68	85.69
293.91	80.69
294.141	90.69
294.372	89.69
294.603	92.69
294.833	90.69
295.064	72.69
295.295	94.69
295.525	98.69
295.756	106.69
295.987	120.69
296.217	130.69
296.448	110.69
296.679	96.69
296.909	78.69
297.14	88.69
297.37	94.69
297.601	81.69
297.831	77.69
298.062	82.69
298.292	80.69
298.523	88.69
298.753	85.69
298.984	90.69
299.214	75.69
299.445	91.69
299.675	83.69
299.905	96.69
300.136	90.69
300.366	74.69
300.597	95.69
300.827	94.69
301.057	99.69
301.288	100.69
301.518	98.69
301.748	78.69
301.979	95.69
302.209	75.69
302.439	89.69
302.669	99.69
302.9	79.69
303.13	75.69
303.36	86.69
303.59	99.69
303.82	115.69
304.051	87.69
304.281	84.69
304.511	100.69
304.741	87.69
304.971	96.69
305.201	93.69
305.431	90.69
305.661	100.69
305.891	94.69
306.121	105.69
306.352	103.69
306.582	91.69
306.812	91.69
307.042	92.69
307.272	91.69
307.502	87.69
307.731	91.69
307.961	88.69
308.191	81.69
308.421	83.69
308.651	111.69
308.881	106.69
309.111	91.69
309.341	90.69
309.571	106.69
309.8	96.69
310.03	112.69
310.26	85.69
310.49	110.69
310.72	99.69
310.949	87.69
311.179	91.69
311.409	81.69
311.639	79.69
311.868	92.69
312.098	96.69
312.328	96.69
312.557	97.69
312.787	81.69
313.017	100.69
313.246	95.69
313.476	98.69
313.706	96.69
313.935	83.69
314.165	92.69
314.394	91.69
314.624	100.69
314.853	79.69
315.083	62.69
315.312	83.69
315.542	83.69
315.771	74.69
316.001	94.69
316.23	82.69
316.46	86.69
316.689	91.69
316.919	84.69
317.148	89.69
317.377	85.69
317.607	98.69
317.836	106.69
318.065	91.69
318.295	97.69
318.524	79.69
318.753	83.69
318.983	95.69
319.212	95.69
319.441	94.69
319.67	101.69
319.9	72.69
320.129	93.69
320.358	80.69
320.587	106.69
320.816	94.69
321.046	87.69
321.275	89.69
321.504	96.69
321.733	92.69
321.962	100.69
322.191	107.69
322.42	109.69
322.649	101.69
322.878	106.69
323.108	116.69
323.337	105.69
323.566	131.69
323.795	146.69
324.024	171.69
324.253	306.69
324.482	669.69
324.71	1281.69
324.939	1707.69
325.168	643.69
325.397	218.69
325.626	127.69
325.855	120.69
326.084	117.69
326.313	107.69
326.542	145.69
326.77	198.69
326.999	373.69
327.228	754.69
327.457	1347.69
327.686	1051.69
327.914	313.69
328.143	171.69
328.372	134.69
328.6	120.69
328.829	114.69
329.058	118.69
329.287	104.69
329.515	81.69
329.744	97.69
329.972	88.69
330.201	88.69
330.43	100.69
330.658	107.69
330.887	134.69
331.115	106.69
331.344	93.69
331.572	94.69
331.801	97.69
332.03	98.69
332.258	88.69
332.486	79.69
332.715	83.69
332.943	96.69
333.172	96.69
333.4	82.69
333.629	101.69
333.857	96.69
334.085	89.69
334.314	98.69
334.542	84.69
334.771	95.69
334.999	90.69
335.227	83.69
335.455	86.69
335.684	88.69
335.912	95.69
336.14	94.69
336.369	102.69
336.597	103.69
336.825	95.69
337.053	83.69
337.281	94.69
337.51	82.69
337.738	102.69
337.966	89.69
338.194	90.69
338.422	103.69
338.65	99.69
338.878	88.69
339.106	90.69
339.334	90.69
339.562	94.69
339.79	98.69
340.018	84.69
340.246	79.69
340.474	106.69
340.702	84.69
340.93	94.69
341.158	90.69
341.386	88.69
341.614	99.69
341.842	87.69
342.07	74.69
342.298	90.69
342.526	96.69
342.754	88.69
342.981	86.69
343.209	92.69
343.437	82.69
343.665	79.69
343.893	99.69
344.12	116.69
344.348	74.69
344.576	90.69
344.804	94.69
345.031	81.69
345.259	82.69
345.487	82.69
345.714	78.69
345.942	91.69
346.17	91.69
346.397	83.69
346.625	81.69
346.853	84.69
347.08	98.69
347.308	97.69
347.535	93.69
347.763	88.69
347.99	103.69
348.218	99.69
348.445	106.69
348.673	87.69
348.9	85.69
349.128	94.69
349.355	95.69
349.583	79.69
349.81	81.69
350.037	97.69
350.265	89.69
350.492	90.69
350.72	106.69
350.947	105.69
351.174	93.69
351.402	93.69
351.629	110.69
351.856	107.69
352.083	107.69
352.311	113.69
352.538	117.69
352.765	91.69
352.992	110.69
353.22	113.69
353.447	98.69
353.674	89.69
353.901	99.69
354.128	99.69
354.355	84.69
354.583	103.69
354.81	84.69
355.037	97.69
355.264	87.69
355.491	91.69
355.718	84.69
355.945	89.69
356.172	99.69
356.399	91.69
356.626	87.69
356.853	91.69
357.08	92.69
357.307	97.69
357.534	99.69
357.761	103.69
357.988	95.69
358.215	89.69
358.441	86.69
358.668	94.69
358.895	82.69
359.122	88.69
359.349	97.69
359.576	85.69
359.802	86.69
360.029	108.69
360.256	109.69
360.483	96.69
360.709	85.69
360.936	77.69
361.163	90.69
361.39	93.69
361.616	94.69
361.843	93.69
362.07	95.69
362.296	94.69
362.523	82.69
362.749	77.69
362.976	99.69
363.203	87.69
363.429	98.69
363.656	83.69
363.882	89.69
364.109	98.69
364.335	92.69
364.562	89.69
364.788	91.69
365.015	85.69
365.241	91.69
365.468	102.69
365.694	93.69
365.92	92.69
366.147	101.69
366.373	83.69
366.599	90.69
366.826	84.69
367.052	84.69
367.278	96.69
367.505	93.69
367.731	105.69
367.957	84.69
368.184	80.69
368.41	84.69
368.636	97.69
368.862	115.69
369.089	106.69
369.315	100.69
369.541	95.69
369.767	97.69
369.993	96.69
370.219	76.69
370.445	85.69
370.672	88.69
370.898	87.69
371.124	96.69
371.35	86.69
371.576	85.69
371.802	85.69
372.028	91.69
372.254	80.69
372.48	71.69
372.706	84.69
372.932	84.69
373.158	75.69
373.384	95.69
373.61	100.69
373.835	85.69
374.061	83.69
374.287	79.69
374.513	96.69
374.739	92.69
374.965	83.69
375.191	98.69
375.416	98.69
375.642	95.69
375.868	105.69
376.094	87.69
376.319	104.69
376.545	88.69
376.771	88.69
376.997	87.69
377.222	86.69
377.448	94.69
377.674	83.69
377.899	91.69
378.125	81.69
378.35	91.69
378.576	93.69
378.802	97.69
379.027	93.69
379.253	89.69
379.478	98.69
379.704	97.69
379.929	97.69
380.155	99.69
380.38	98.69
380.606	106.69
380.831	91.69
381.057	78.69
381.282	93.69
381.507	101.69
381.733	103.69
381.958	104.69
382.184	109.69
382.409	101.69
382.634	105.69
382.86	110.69
383.085	106.69
383.31	91.69
383.535	99.69
383.761	113.69
383.986	93.69
384.211	89.69
384.436	73.69
384.662	95.69
384.887	94.69
385.112	102.69
385.337	100.69
385.562	85.69
385.787	101.69
386.013	107.69
386.238	103.69
386.463	105.69
386.688	109.69
386.913	106.69
387.138	99.69
387.363	96.69
387.588	102.69
387.813	91.69
388.038	101.69
388.263	111.69
388.488	102.69
388.713	103.69
388.938	93.69
389.163	86.69
389.387	100.69
389.612	93.69
389.837	86.69
390.062	89.69
390.287	86.69
390.512	103.69
390.736	93.69
390.961	95.69
391.186	93.69
391.411	102.69
391.636	93.69
391.86	74.69
392.085	95.69
392.31	95.69
392.534	91.69
392.759	87.69
392.984	88.69
393.208	88.69
393.433	94.69
393.658	93.69
393.882	73.69
394.107	69.69
394.331	98.69
394.556	82.69
394.78	101.69
395.005	85.69
395.229	96.69
395.454	83.69
395.678	87.69
395.903	83.69
396.127	81.69
396.352	92.69
396.576	81.69
396.801	86.69
397.025	88.69
397.249	94.69
397.474	79.69
397.698	90.69
397.922	88.69
398.147	86.69
398.371	79.69
398.595	86.69
398.82	102.69
399.044	90.69
399.268	85.69
399.492	87.69
399.717	91.69
399.941	71.69
400.165	83.69
400.389	92.69
400.613	86.69
400.837	86.69
401.062	80.69
401.286	99.69
401.51	82.69
401.734	78.69
401.958	94.69
402.182	127.69
402.406	142.69
402.63	102.69
402.854	83.69
403.078	87.69
403.302	90.69
403.526	91.69
403.75	87.69
403.974	88.69
404.198	87.69
404.422	89.69
404.645	85.69
404.869	73.69
405.093	89.69
405.317	101.69
405.541	90.69
405.765	102.69
405.988	109.69
406.212	155.69
406.436	181.69
406.66	127.69
406.883	83.69
407.107	88.69
407.331	87.69
407.555	83.69
407.778	88.69
408.002	93.69
408.226	91.69
408.449	85.69
408.673	91.69
408.896	88.69
409.12	93.69
409.344	97.69
409.567	91.69
409.791	90.69
410.014	89.69
410.238	80.69
410.461	90.69
410.685	94.69
410.908	94.69
411.132	112.69
411.355	85.69
411.578	88.69
411.802	82.69
412.025	84.69
412.249	90.69
412.472	82.69
412.695	90.69
412.919	96.69
413.142	87.69
413.365	85.69
413.589	73.69
413.812	86.69
414.035	82.69
414.258	89.69
414.482	87.69
414.705	95.69
414.928	90.69
415.151	90.69
415.374	100.69
415.597	92.69
415.821	87.69
416.044	80.69
416.267	84.69
416.49	90.69
416.713	89.69
416.936	96.69
417.159	82.69
417.382	93.69
417.605	87.69
417.828	102.69
418.051	91.69
418.274	90.69
418.497	89.69
418.72	87.69
418.943	91.69
419.166	85.69
419.389	98.69
419.611	100.69
419.834	99.69
420.057	85.69
420.28	82.69
420.503	89.69
420.726	88.69
420.948	100.69
421.171	98.69
421.394	98.69
421.617	102.69
421.839	96.69
422.062	99.69
422.285	96.69
422.507	111.69
422.73	105.69
422.953	90.69
423.175	79.69
423.398	79.69
423.621	88.69
423.843	86.69
424.066	80.69
424.288	95.69
424.511	89.69
424.733	100.69
424.956	104.69
425.178	102.69
425.401	99.69
425.623	101.69
425.846	97.69
426.068	93.69
426.291	99.69
426.513	99.69
426.735	85.69
426.958	73.69
427.18	104.69
427.402	136.69
427.625	134.69
427.847	106.69
428.069	76.69
428.292	83.69
428.514	86.69
428.736	83.69
428.958	83.69
429.181	92.69
429.403	92.69
429.625	91.69
429.847	88.69
430.069	92.69
430.292	91.69
430.514	77.69
430.736	82.69
430.958	88.69
431.18	77.69
431.402	92.69
431.624	86.69
431.846	101.69
432.068	98.69
432.29	94.69
432.512	99.69
432.734	96.69
432.956	92.69
433.178	96.69
433.4	86.69
433.622	108.69
433.844	89.69
434.066	77.69
434.287	78.69
434.509	85.69
434.731	89.69
434.953	82.69
435.175	80.69
435.397	101.69
435.618	94.69
435.84	92.69
436.062	101.69
436.284	89.69
436.505	81.69
436.727	94.69
436.949	91.69
437.17	93.69
437.392	90.69
437.614	92.69
437.835	94.69
438.057	106.69
438.278	101.69
438.5	93.69
438.721	110.69
438.943	94.69
439.165	94.69
439.386	81.69
439.608	103.69
439.829	88.69
440.05	118.69
440.272	120.69
440.493	105.69
440.715	80.69
440.936	83.69
441.158	98.69
441.379	71.69
441.6	101.69
441.822	94.69
442.043	87.69
442.264	103.69
442.486	88.69
442.707	79.69
442.928	93.69
443.149	126.69
443.371	114.69
443.592	89.69
443.813	96.69
444.034	111.69
444.255	84.69
444.476	76.69
444.698	85.69
444.919	92.69
445.14	141.69
445.361	129.69
445.582	118.69
445.803	119.69
446.024	116.69
446.245	106.69
446.466	95.69
446.687	89.69
446.908	88.69
447.129	95.69
447.35	78.69
447.571	85.69
447.792	93.69
448.013	98.69
448.234	99.69
448.455	91.69
448.675	104.69
448.896	93.69
449.117	91.69
449.338	112.69
449.559	120.69
449.779	110.69
450	86.69
450.221	86.69
450.442	88.69
450.662	99.69
450.883	92.69
451.104	95.69
451.324	81.69
451.545	81.69
451.766	81.69
451.986	83.69
452.207	88.69
452.428	79.69
452.648	104.69
452.869	100.69
453.089	99.69
453.31	109.69
453.53	88.69
453.751	89.69
453.971	96.69
454.192	102.69
454.412	86.69
454.633	83.69
454.853	113.69
455.073	98.69
455.294	93.69
455.514	88.69
455.734	83.69
455.955	78.69
456.175	85.69
456.395	82.69
456.616	86.69
456.836	90.69
457.056	73.69
457.276	96.69
457.497	80.69
457.717	69.69
457.937	81.69
458.157	87.69
458.377	106.69
458.598	106.69
458.818	134.69
459.038	131.69
459.258	105.69
459.478	94.69
459.698	82.69
459.918	82.69
460.138	87.69
460.358	85.69
460.578	94.69
460.798	87.69
461.018	103.69
461.238	101.69
461.458	82.69
461.678	78.69
461.898	88.69
462.118	89.69
462.338	90.69
462.558	77.69
462.777	95.69
462.997	82.69
463.217	85.69
463.437	62.69
463.657	97.69
463.876	89.69
464.096	94.69
464.316	97.69
464.536	90.69
464.755	79.69
464.975	105.69
465.195	141.69
465.414	130.69
465.634	97.69
465.854	85.69
466.073	82.69
466.293	87.69
466.512	82.69
466.732	81.69
466.951	95.69
467.171	99.69
467.391	88.69
467.61	88.69
467.829	87.69
468.049	90.69
468.268	95.69
468.488	93.69
468.707	80.69
468.927	75.69
469.146	84.69
469.365	73.69
469.585	88.69
469.804	90.69
470.023	88.69
470.243	92.69
470.462	95.69
470.681	106.69
470.901	82.69
471.12	90.69
471.339	79.69
471.558	89.69
471.777	95.69
471.997	95.69
472.216	93.69
472.435	94.69
472.654	83.69
472.873	91.69
473.092	82.69
473.311	83.69
473.53	94.69
473.749	101.69
473.968	102.69
474.187	103.69
474.406	85.69
474.625	71.69
474.844	89.69
475.063	83.69
475.282	96.69
475.501	82.69
475.72	83.69
475.939	87.69
476.158	88.69
476.377	84.69
476.596	95.69
476.814	81.69
477.033	88.69
477.252	82.69
477.471	83.69
477.69	80.69
477.908	94.69
478.127	88.69
478.346	78.69
478.564	87.69
478.783	102.69
479.002	94.69
479.22	90.69
479.439	89.69
479.658	82.69
479.876	80.69
480.095	86.69
480.313	92.69
480.532	95.69
480.751	82.69
480.969	84.69
481.188	99.69
481.406	94.69
481.624	88.69
481.843	90.69
482.061	94.69
482.28	91.69
482.498	92.69
482.717	78.69
482.935	96.69
483.153	98.69
483.372	100.69
483.59	90.69
483.808	81.69
484.027	80.69
484.245	91.69
484.463	95.69
484.681	99.69
484.9	87.69
485.118	95.69
485.336	92.69
485.554	94.69
485.772	96.69
485.99	114.69
486.209	86.69
486.427	105.69
486.645	109.69
486.863	99.69
487.081	95.69
487.299	107.69
487.517	89.69
487.735	97.69
487.953	95.69
488.171	108.69
488.389	98.69
488.607	93.69
488.825	96.69
489.043	92.69
489.261	80.69
489.479	96.69
489.696	94.69
489.914	81.69
490.132	85.69
490.35	84.69
490.568	81.69
490.786	97.69
491.003	78.69
491.221	81.69
491.439	88.69
491.657	99.69
491.874	92.69
492.092	74.69
492.31	93.69
492.527	77.69
492.745	92.69
492.963	99.69
493.18	78.69
493.398	90.69
493.615	110.69
493.833	106.69
494.05	99.69
494.268	94.69
494.485	94.69
494.703	99.69
494.92	84.69
495.138	81.69
495.355	99.69
495.573	78.69
495.79	97.69
496.008	90.69
496.225	86.69
496.442	81.69
496.66	102.69
496.877	79.69
497.094	95.69
497.312	74.69
497.529	85.69
497.746	77.69
497.963	91.69
498.181	95.69
498.398	88.69
498.615	109.69
498.832	114.69
499.049	99.69
499.267	104.69
499.484	82.69
499.701	90.69
499.918	98.69
500.135	85.69
500.352	87.69
500.569	85.69
500.786	74.69
501.003	101.69
501.22	98.69
501.437	83.69
501.654	101.69
501.871	88.69
502.088	101.69
502.305	71.69
502.522	85.69
502.739	99.69
502.956	89.69
503.172	91.69
503.389	86.69
503.606	101.69
503.823	89.69
504.04	86.69
504.256	107.69
504.473	85.69
504.69	100.69
504.907	107.69
505.123	68.69
505.34	85.69
505.557	89.69
505.773	88.69
505.99	92.69
506.207	91.69
506.423	93.69
506.64	86.69
506.856	87.69
507.073	94.69
507.289	88.69
507.506	104.69
507.722	94.69
507.939	90.69
508.155	82.69
508.372	106.69
508.588	98.69
508.805	87.69
509.021	93.69
509.238	89.69
509.454	112.69
509.67	97.69
509.887	114.69
510.103	108.69
510.319	198.69
510.536	650.69
510.752	2009.69
510.968	576.69
511.184	135.69
511.401	116.69
511.617	93.69
511.833	102.69
512.049	91.69
512.265	94.69
512.481	90.69
512.698	90.69
512.914	95.69
513.13	106.69
513.346	82.69
513.562	94.69
513.778	91.69
513.994	96.69
514.21	96.69
514.426	106.69
514.642	126.69
514.858	127.69
515.074	150.69
515.29	374.69
515.506	1191.69
515.721	457.69
515.937	150.69
516.153	102.69
516.369	103.69
516.585	104.69
