Data from Uncirc_2002_H10_HRD10591_00018.txt Node
Date: Wed Jan 03 10:39:44 EST 2024
User: Yrep
Spectrometer: HR+D1059
Trigger mode: 1
Integration Time (sec): 1.000000E-1
Scans to average: 1
Electric dark correction enabled: true
Nonlinearity correction enabled: false
Boxcar width: 0
XAxis mode: Wavelengths
Number of Pixels in Spectrum: 2048
>>>>>Begin Spectral Data<<<<<
223.165	-16.44
223.4	-16.44
223.635	-16.44
223.869	-18.44
224.104	-4.44
224.338	-0.44
224.573	-9.44
224.808	-8.44
225.042	-17.44
225.277	-9.44
225.511	-7.44
225.746	11.56
225.98	0.56
226.215	2.56
226.449	7.56
226.683	14.56
226.918	18.56
227.152	36.56
227.387	34.56
227.621	33.56
227.856	52.56
228.09	43.56
228.324	56.56
228.559	62.56
228.793	51.56
229.027	57.56
229.262	59.56
229.496	58.56
229.73	74.56
229.964	71.56
230.199	55.56
230.433	69.56
230.667	92.56
230.901	89.56
231.136	91.56
231.37	77.56
231.604	85.56
231.838	79.56
232.072	88.56
232.306	81.56
232.541	75.56
232.775	84.56
233.009	89.56
233.243	81.56
233.477	80.56
233.711	90.56
233.945	82.56
234.179	78.56
234.413	85.56
234.647	70.56
234.881	73.56
235.115	73.56
235.349	84.56
235.583	69.56
235.817	91.56
236.051	75.56
236.285	81.56
236.519	79.56
236.753	78.56
236.987	74.56
237.221	74.56
237.455	103.56
237.689	70.56
237.922	84.56
238.156	77.56
238.39	78.56
238.624	79.56
238.858	79.56
239.091	83.56
239.325	75.56
239.559	89.56
239.793	91.56
240.027	75.56
240.26	85.56
240.494	66.56
240.728	69.56
240.961	71.56
241.195	85.56
241.429	70.56
241.662	51.56
241.896	72.56
242.13	80.56
242.363	88.56
242.597	78.56
242.83	79.56
243.064	85.56
243.298	72.56
243.531	71.56
243.765	103.56
243.998	72.56
244.232	69.56
244.465	79.56
244.699	88.56
244.932	84.56
245.166	79.56
245.399	80.56
245.633	80.56
245.866	90.56
246.099	84.56
246.333	89.56
246.566	72.56
246.8	75.56
247.033	89.56
247.266	86.56
247.5	73.56
247.733	67.56
247.966	78.56
248.2	80.56
248.433	78.56
248.666	80.56
248.899	79.56
249.133	87.56
249.366	110.56
249.599	87.56
249.832	85.56
250.066	76.56
250.299	75.56
250.532	71.56
250.765	82.56
250.998	89.56
251.231	82.56
251.465	76.56
251.698	74.56
251.931	70.56
252.164	68.56
252.397	81.56
252.63	69.56
252.863	72.56
253.096	72.56
253.329	74.56
253.562	86.56
253.795	76.56
254.028	81.56
254.261	66.56
254.494	70.56
254.727	84.56
254.96	76.56
255.193	95.56
255.426	85.56
255.659	67.56
255.892	98.56
256.124	79.56
256.357	80.56
256.59	86.56
256.823	80.56
257.056	94.56
257.289	90.56
257.521	83.56
257.754	79.56
257.987	87.56
258.22	83.56
258.452	91.56
258.685	73.56
258.918	87.56
259.151	63.56
259.383	89.56
259.616	82.56
259.849	87.56
260.081	84.56
260.314	91.56
260.547	81.56
260.779	90.56
261.012	76.56
261.244	94.56
261.477	76.56
261.71	86.56
261.942	93.56
262.175	107.56
262.407	78.56
262.64	94.56
262.872	86.56
263.105	90.56
263.337	85.56
263.57	74.56
263.802	88.56
264.035	67.56
264.267	84.56
264.499	77.56
264.732	79.56
264.964	77.56
265.197	88.56
265.429	77.56
265.661	80.56
265.894	87.56
266.126	84.56
266.358	68.56
266.591	88.56
266.823	85.56
267.055	77.56
267.287	94.56
267.52	86.56
267.752	75.56
267.984	85.56
268.216	79.56
268.448	80.56
268.681	82.56
268.913	87.56
269.145	75.56
269.377	83.56
269.609	91.56
269.841	81.56
270.073	88.56
270.306	78.56
270.538	85.56
270.77	86.56
271.002	82.56
271.234	84.56
271.466	77.56
271.698	90.56
271.93	81.56
272.162	80.56
272.394	62.56
272.626	100.56
272.858	82.56
273.09	82.56
273.322	70.56
273.553	85.56
273.785	96.56
274.017	75.56
274.249	70.56
274.481	70.56
274.713	98.56
274.945	82.56
275.176	103.56
275.408	91.56
275.64	89.56
275.872	73.56
276.104	68.56
276.335	99.56
276.567	90.56
276.799	90.56
277.031	96.56
277.262	94.56
277.494	83.56
277.726	84.56
277.957	84.56
278.189	89.56
278.421	87.56
278.652	73.56
278.884	85.56
279.115	86.56
279.347	89.56
279.579	94.56
279.81	96.56
280.042	89.56
280.273	84.56
280.505	87.56
280.736	100.56
280.968	95.56
281.199	84.56
281.431	78.56
281.662	99.56
281.894	85.56
282.125	102.56
282.356	101.56
282.588	118.56
282.819	97.56
283.051	88.56
283.282	73.56
283.513	74.56
283.745	87.56
283.976	97.56
284.207	88.56
284.439	91.56
284.67	80.56
284.901	87.56
285.132	95.56
285.364	87.56
285.595	85.56
285.826	91.56
286.057	66.56
286.288	73.56
286.52	89.56
286.751	75.56
286.982	82.56
287.213	81.56
287.444	77.56
287.675	81.56
287.906	100.56
288.138	86.56
288.369	81.56
288.6	83.56
288.831	94.56
289.062	80.56
289.293	88.56
289.524	89.56
289.755	72.56
289.986	103.56
290.217	94.56
290.448	80.56
290.679	87.56
290.91	95.56
291.141	95.56
291.371	83.56
291.602	83.56
291.833	86.56
292.064	72.56
292.295	96.56
292.526	89.56
292.757	100.56
292.987	76.56
293.218	93.56
293.449	84.56
293.68	92.56
293.91	82.56
294.141	99.56
294.372	81.56
294.603	86.56
294.833	94.56
295.064	90.56
295.295	90.56
295.525	96.56
295.756	108.56
295.987	107.56
296.217	118.56
296.448	99.56
296.679	96.56
296.909	88.56
297.14	79.56
297.37	77.56
297.601	89.56
297.831	84.56
298.062	88.56
298.292	97.56
298.523	95.56
298.753	90.56
298.984	79.56
299.214	95.56
299.445	84.56
299.675	104.56
299.905	106.56
300.136	77.56
300.366	84.56
300.597	72.56
300.827	86.56
301.057	98.56
301.288	114.56
301.518	87.56
301.748	81.56
301.979	108.56
302.209	86.56
302.439	80.56
302.669	85.56
302.9	95.56
303.13	101.56
303.36	107.56
303.59	99.56
303.82	82.56
304.051	77.56
304.281	94.56
304.511	98.56
304.741	79.56
304.971	109.56
305.201	87.56
305.431	92.56
305.661	94.56
305.891	93.56
306.121	95.56
306.352	90.56
306.582	91.56
306.812	94.56
307.042	99.56
307.272	100.56
307.502	93.56
307.731	81.56
307.961	101.56
308.191	96.56
308.421	92.56
308.651	94.56
308.881	86.56
309.111	95.56
309.341	87.56
309.571	95.56
309.8	85.56
310.03	98.56
310.26	87.56
310.49	99.56
310.72	90.56
310.949	95.56
311.179	88.56
311.409	99.56
311.639	86.56
311.868	104.56
312.098	83.56
312.328	92.56
312.557	92.56
312.787	89.56
313.017	96.56
313.246	99.56
313.476	84.56
313.706	91.56
313.935	100.56
314.165	105.56
314.394	86.56
314.624	88.56
314.853	91.56
315.083	92.56
315.312	84.56
315.542	93.56
315.771	87.56
316.001	89.56
316.23	93.56
316.46	100.56
316.689	100.56
316.919	89.56
317.148	98.56
317.377	104.56
317.607	95.56
317.836	85.56
318.065	76.56
318.295	82.56
318.524	91.56
318.753	91.56
318.983	92.56
319.212	96.56
319.441	114.56
319.67	96.56
319.9	84.56
320.129	99.56
320.358	92.56
320.587	100.56
320.816	96.56
321.046	121.56
321.275	101.56
321.504	87.56
321.733	87.56
321.962	81.56
322.191	89.56
322.42	110.56
322.649	87.56
322.878	107.56
323.108	104.56
323.337	116.56
323.566	126.56
323.795	132.56
324.024	178.56
324.253	321.56
324.482	657.56
324.71	1342.56
324.939	1711.56
325.168	650.56
325.397	206.56
325.626	126.56
325.855	113.56
326.084	123.56
326.313	118.56
326.542	145.56
326.77	186.56
326.999	388.56
327.228	749.56
327.457	1334.56
327.686	1074.56
327.914	294.56
328.143	169.56
328.372	134.56
328.6	120.56
328.829	116.56
329.058	119.56
329.287	108.56
329.515	113.56
329.744	94.56
329.972	106.56
330.201	79.56
330.43	103.56
330.658	118.56
330.887	124.56
331.115	107.56
331.344	90.56
331.572	108.56
331.801	101.56
332.03	101.56
332.258	75.56
332.486	91.56
332.715	87.56
332.943	82.56
333.172	94.56
333.4	90.56
333.629	96.56
333.857	101.56
334.085	94.56
334.314	89.56
334.542	87.56
334.771	97.56
334.999	98.56
335.227	80.56
335.455	115.56
335.684	96.56
335.912	90.56
336.14	86.56
336.369	103.56
336.597	78.56
336.825	79.56
337.053	102.56
337.281	83.56
337.51	81.56
337.738	90.56
337.966	91.56
338.194	95.56
338.422	95.56
338.65	98.56
338.878	95.56
339.106	90.56
339.334	95.56
339.562	81.56
339.79	87.56
340.018	84.56
340.246	94.56
340.474	96.56
340.702	94.56
340.93	89.56
341.158	85.56
341.386	101.56
341.614	90.56
341.842	85.56
342.07	87.56
342.298	88.56
342.526	98.56
342.754	96.56
342.981	95.56
343.209	91.56
343.437	90.56
343.665	91.56
343.893	91.56
344.12	83.56
344.348	89.56
344.576	99.56
344.804	93.56
345.031	101.56
345.259	92.56
345.487	82.56
345.714	91.56
345.942	96.56
346.17	94.56
346.397	90.56
346.625	83.56
346.853	97.56
347.08	98.56
347.308	95.56
347.535	90.56
347.763	91.56
347.99	91.56
348.218	103.56
348.445	104.56
348.673	94.56
348.9	105.56
349.128	88.56
349.355	82.56
349.583	82.56
349.81	89.56
350.037	76.56
350.265	92.56
350.492	95.56
350.72	92.56
350.947	92.56
351.174	101.56
351.402	102.56
351.629	97.56
351.856	97.56
352.083	86.56
352.311	96.56
352.538	99.56
352.765	97.56
352.992	113.56
353.22	105.56
353.447	114.56
353.674	104.56
353.901	82.56
354.128	86.56
354.355	91.56
354.583	92.56
354.81	98.56
355.037	95.56
355.264	98.56
355.491	94.56
355.718	68.56
355.945	94.56
356.172	81.56
356.399	105.56
356.626	106.56
356.853	110.56
357.08	84.56
357.307	91.56
357.534	81.56
357.761	84.56
357.988	95.56
358.215	86.56
358.441	92.56
358.668	91.56
358.895	97.56
359.122	89.56
359.349	88.56
359.576	92.56
359.802	101.56
360.029	100.56
360.256	92.56
360.483	96.56
360.709	89.56
360.936	91.56
361.163	90.56
361.39	89.56
361.616	91.56
361.843	91.56
362.07	97.56
362.296	83.56
362.523	87.56
362.749	95.56
362.976	99.56
363.203	95.56
363.429	86.56
363.656	96.56
363.882	88.56
364.109	84.56
364.335	96.56
364.562	97.56
364.788	95.56
365.015	97.56
365.241	98.56
365.468	101.56
365.694	91.56
365.92	100.56
366.147	80.56
366.373	89.56
366.599	100.56
366.826	81.56
367.052	88.56
367.278	100.56
367.505	102.56
367.731	79.56
367.957	99.56
368.184	91.56
368.41	106.56
368.636	95.56
368.862	95.56
369.089	102.56
369.315	71.56
369.541	89.56
369.767	84.56
369.993	87.56
370.219	92.56
370.445	97.56
370.672	74.56
370.898	86.56
371.124	88.56
371.35	87.56
371.576	83.56
371.802	81.56
372.028	85.56
372.254	91.56
372.48	84.56
372.706	79.56
372.932	74.56
373.158	77.56
373.384	87.56
373.61	91.56
373.835	95.56
374.061	94.56
374.287	85.56
374.513	85.56
374.739	89.56
374.965	90.56
375.191	87.56
375.416	78.56
375.642	92.56
375.868	89.56
376.094	84.56
376.319	93.56
376.545	95.56
376.771	79.56
376.997	86.56
377.222	96.56
377.448	87.56
377.674	88.56
377.899	95.56
378.125	99.56
378.35	95.56
378.576	99.56
378.802	91.56
379.027	87.56
379.253	96.56
379.478	92.56
379.704	90.56
379.929	92.56
380.155	89.56
380.38	96.56
380.606	97.56
380.831	114.56
381.057	88.56
381.282	82.56
381.507	81.56
381.733	99.56
381.958	76.56
382.184	85.56
382.409	96.56
382.634	114.56
382.86	87.56
383.085	105.56
383.31	112.56
383.535	103.56
383.761	108.56
383.986	103.56
384.211	110.56
384.436	90.56
384.662	108.56
384.887	96.56
385.112	101.56
385.337	100.56
385.562	102.56
385.787	116.56
386.013	112.56
386.238	122.56
386.463	99.56
386.688	107.56
386.913	86.56
387.138	112.56
387.363	92.56
387.588	103.56
387.813	106.56
388.038	96.56
388.263	107.56
388.488	110.56
388.713	90.56
388.938	95.56
389.163	83.56
389.387	103.56
389.612	108.56
389.837	96.56
390.062	101.56
390.287	88.56
390.512	80.56
390.736	90.56
390.961	95.56
391.186	93.56
391.411	98.56
391.636	86.56
391.86	91.56
392.085	90.56
392.31	95.56
392.534	76.56
392.759	86.56
392.984	88.56
393.208	116.56
393.433	116.56
393.658	117.56
393.882	92.56
394.107	86.56
394.331	93.56
394.556	82.56
394.78	83.56
395.005	91.56
395.229	83.56
395.454	86.56
395.678	91.56
395.903	91.56
396.127	81.56
396.352	97.56
396.576	85.56
396.801	85.56
397.025	99.56
397.249	94.56
397.474	92.56
397.698	92.56
397.922	96.56
398.147	82.56
398.371	78.56
398.595	82.56
398.82	75.56
399.044	87.56
399.268	71.56
399.492	80.56
399.717	92.56
399.941	101.56
400.165	101.56
400.389	89.56
400.613	76.56
400.837	74.56
401.062	88.56
401.286	75.56
401.51	90.56
401.734	88.56
401.958	104.56
402.182	110.56
402.406	140.56
402.63	104.56
402.854	94.56
403.078	78.56
403.302	111.56
403.526	79.56
403.75	90.56
403.974	87.56
404.198	74.56
404.422	87.56
404.645	92.56
404.869	100.56
405.093	94.56
405.317	93.56
405.541	89.56
405.765	112.56
405.988	111.56
406.212	154.56
406.436	181.56
406.66	126.56
406.883	85.56
407.107	84.56
407.331	95.56
407.555	83.56
407.778	89.56
408.002	91.56
408.226	92.56
408.449	78.56
408.673	86.56
408.896	87.56
409.12	101.56
409.344	83.56
409.567	90.56
409.791	109.56
410.014	81.56
410.238	98.56
410.461	96.56
410.685	98.56
410.908	111.56
411.132	98.56
411.355	86.56
411.578	87.56
411.802	88.56
412.025	85.56
412.249	78.56
412.472	91.56
412.695	82.56
412.919	83.56
413.142	87.56
413.365	84.56
413.589	91.56
413.812	77.56
414.035	91.56
414.258	91.56
414.482	86.56
414.705	99.56
414.928	98.56
415.151	82.56
415.374	100.56
415.597	92.56
415.821	87.56
416.044	93.56
416.267	93.56
416.49	76.56
416.713	79.56
416.936	86.56
417.159	90.56
417.382	96.56
417.605	99.56
417.828	96.56
418.051	95.56
418.274	94.56
418.497	81.56
418.72	99.56
418.943	82.56
419.166	86.56
419.389	84.56
419.611	92.56
419.834	94.56
420.057	92.56
420.28	79.56
420.503	82.56
420.726	88.56
420.948	84.56
421.171	97.56
421.394	82.56
421.617	92.56
421.839	95.56
422.062	89.56
422.285	86.56
422.507	99.56
422.73	114.56
422.953	91.56
423.175	91.56
423.398	79.56
423.621	86.56
423.843	90.56
424.066	81.56
424.288	73.56
424.511	110.56
424.733	87.56
424.956	86.56
425.178	99.56
425.401	111.56
425.623	92.56
425.846	88.56
426.068	104.56
426.291	92.56
426.513	89.56
426.735	94.56
426.958	93.56
427.18	102.56
427.402	119.56
427.625	123.56
427.847	111.56
428.069	102.56
428.292	84.56
428.514	82.56
428.736	78.56
428.958	81.56
429.181	90.56
429.403	80.56
429.625	89.56
429.847	101.56
430.069	92.56
430.292	87.56
430.514	77.56
430.736	92.56
430.958	89.56
431.18	87.56
431.402	78.56
431.624	81.56
431.846	64.56
432.068	91.56
432.29	87.56
432.512	84.56
432.734	86.56
432.956	102.56
433.178	91.56
433.4	97.56
433.622	84.56
433.844	101.56
434.066	88.56
434.287	92.56
434.509	87.56
434.731	75.56
434.953	94.56
435.175	86.56
435.397	87.56
435.618	95.56
435.84	102.56
436.062	114.56
436.284	118.56
436.505	95.56
436.727	100.56
436.949	90.56
437.17	94.56
437.392	77.56
437.614	87.56
437.835	98.56
438.057	113.56
438.278	100.56
438.5	97.56
438.721	111.56
438.943	103.56
439.165	89.56
439.386	90.56
439.608	81.56
439.829	96.56
440.05	111.56
440.272	126.56
440.493	99.56
440.715	89.56
440.936	86.56
441.158	97.56
441.379	78.56
441.6	67.56
441.822	84.56
442.043	86.56
442.264	97.56
442.486	94.56
442.707	82.56
442.928	100.56
443.149	113.56
443.371	117.56
443.592	103.56
443.813	95.56
444.034	96.56
444.255	94.56
444.476	95.56
444.698	85.56
444.919	90.56
445.14	118.56
445.361	107.56
445.582	97.56
445.803	133.56
446.024	139.56
446.245	114.56
446.466	98.56
446.687	89.56
446.908	93.56
447.129	97.56
447.35	84.56
447.571	107.56
447.792	88.56
448.013	90.56
448.234	101.56
448.455	101.56
448.675	123.56
448.896	115.56
449.117	90.56
449.338	98.56
449.559	116.56
449.779	112.56
450	89.56
450.221	95.56
450.442	92.56
450.662	83.56
450.883	106.56
451.104	95.56
451.324	100.56
451.545	82.56
451.766	87.56
451.986	97.56
452.207	98.56
452.428	80.56
452.648	92.56
452.869	112.56
453.089	91.56
453.31	100.56
453.53	101.56
453.751	86.56
453.971	98.56
454.192	100.56
454.412	91.56
454.633	76.56
454.853	92.56
455.073	78.56
455.294	84.56
455.514	88.56
455.734	79.56
455.955	90.56
456.175	93.56
456.395	92.56
456.616	79.56
456.836	88.56
457.056	94.56
457.276	79.56
457.497	91.56
457.717	87.56
457.937	86.56
458.157	93.56
458.377	98.56
458.598	114.56
458.818	142.56
459.038	136.56
459.258	107.56
459.478	100.56
459.698	83.56
459.918	90.56
460.138	71.56
460.358	89.56
460.578	76.56
460.798	81.56
461.018	74.56
461.238	88.56
461.458	103.56
461.678	86.56
461.898	76.56
462.118	73.56
462.338	105.56
462.558	90.56
462.777	76.56
462.997	87.56
463.217	80.56
463.437	80.56
463.657	85.56
463.876	84.56
464.096	85.56
464.316	82.56
464.536	79.56
464.755	93.56
464.975	97.56
465.195	134.56
465.414	138.56
465.634	99.56
465.854	88.56
466.073	86.56
466.293	81.56
466.512	97.56
466.732	83.56
466.951	97.56
467.171	102.56
467.391	97.56
467.61	104.56
467.829	94.56
468.049	80.56
468.268	98.56
468.488	83.56
468.707	89.56
468.927	78.56
469.146	83.56
469.365	95.56
469.585	96.56
469.804	88.56
470.023	90.56
470.243	91.56
470.462	89.56
470.681	113.56
470.901	78.56
471.12	98.56
471.339	95.56
471.558	75.56
471.777	90.56
471.997	80.56
472.216	100.56
472.435	86.56
472.654	86.56
472.873	92.56
473.092	72.56
473.311	89.56
473.53	108.56
473.749	84.56
473.968	91.56
474.187	110.56
474.406	102.56
474.625	70.56
474.844	83.56
475.063	82.56
475.282	91.56
475.501	83.56
475.72	97.56
475.939	77.56
476.158	82.56
476.377	80.56
476.596	92.56
476.814	90.56
477.033	95.56
477.252	63.56
477.471	82.56
477.69	100.56
477.908	87.56
478.127	90.56
478.346	86.56
478.564	92.56
478.783	96.56
479.002	101.56
479.22	91.56
479.439	89.56
479.658	85.56
479.876	90.56
480.095	84.56
480.313	88.56
480.532	86.56
480.751	90.56
480.969	81.56
481.188	101.56
481.406	92.56
481.624	93.56
481.843	87.56
482.061	80.56
482.28	91.56
482.498	79.56
482.717	76.56
482.935	92.56
483.153	88.56
483.372	93.56
483.59	95.56
483.808	70.56
484.027	77.56
484.245	86.56
484.463	82.56
484.681	105.56
484.9	95.56
485.118	81.56
485.336	83.56
485.554	86.56
485.772	101.56
485.99	105.56
486.209	107.56
486.427	81.56
486.645	105.56
486.863	110.56
487.081	99.56
487.299	96.56
487.517	90.56
487.735	88.56
487.953	90.56
488.171	97.56
488.389	93.56
488.607	99.56
488.825	92.56
489.043	86.56
489.261	81.56
489.479	78.56
489.696	84.56
489.914	84.56
490.132	87.56
490.35	85.56
490.568	83.56
490.786	64.56
491.003	82.56
491.221	84.56
491.439	88.56
491.657	103.56
491.874	108.56
492.092	89.56
492.31	96.56
492.527	91.56
492.745	95.56
492.963	82.56
493.18	88.56
493.398	87.56
493.615	89.56
493.833	85.56
494.05	89.56
494.268	81.56
494.485	82.56
494.703	80.56
494.92	100.56
495.138	89.56
495.355	78.56
495.573	95.56
495.79	107.56
496.008	89.56
496.225	80.56
496.442	82.56
496.66	89.56
496.877	92.56
497.094	82.56
497.312	78.56
497.529	86.56
497.746	100.56
497.963	81.56
498.181	88.56
498.398	90.56
498.615	92.56
498.832	99.56
499.049	96.56
499.267	103.56
499.484	95.56
499.701	89.56
499.918	97.56
500.135	79.56
500.352	87.56
500.569	85.56
500.786	90.56
501.003	98.56
501.22	100.56
501.437	81.56
501.654	84.56
501.871	94.56
502.088	91.56
502.305	89.56
502.522	89.56
502.739	80.56
502.956	79.56
503.172	76.56
503.389	104.56
503.606	94.56
503.823	91.56
504.04	82.56
504.256	86.56
504.473	84.56
504.69	96.56
504.907	84.56
505.123	89.56
505.34	86.56
505.557	96.56
505.773	82.56
505.99	86.56
506.207	86.56
506.423	90.56
506.64	104.56
506.856	93.56
507.073	96.56
507.289	89.56
507.506	89.56
507.722	94.56
507.939	90.56
508.155	86.56
508.372	82.56
508.588	81.56
508.805	90.56
509.021	99.56
509.238	99.56
509.454	91.56
509.67	92.56
509.887	104.56
510.103	129.56
510.319	178.56
510.536	616.56
510.752	1860.56
510.968	549.56
511.184	155.56
511.401	107.56
511.617	95.56
511.833	105.56
512.049	86.56
512.265	85.56
512.481	80.56
512.698	100.56
512.914	90.56
513.13	106.56
513.346	79.56
513.562	89.56
513.778	92.56
513.994	92.56
514.21	92.56
514.426	122.56
514.642	112.56
514.858	108.56
515.074	143.56
515.29	351.56
515.506	1139.56
515.721	441.56
515.937	146.56
516.153	112.56
516.369	92.56
516.585	83.56
