Data from Uncirc_2002_H10_HRD10591_00098.txt Node
Date: Wed Jan 03 10:40:00 EST 2024
User: Yrep
Spectrometer: HR+D1059
Trigger mode: 1
Integration Time (sec): 1.000000E-1
Scans to average: 1
Electric dark correction enabled: true
Nonlinearity correction enabled: false
Boxcar width: 0
XAxis mode: Wavelengths
Number of Pixels in Spectrum: 2048
>>>>>Begin Spectral Data<<<<<
223.165	-17.44
223.4	-17.44
223.635	-17.44
223.869	-17.44
224.104	-25.44
224.338	-22.44
224.573	-15.44
224.808	-5.44
225.042	-5.44
225.277	-16.44
225.511	-12.44
225.746	-3.44
225.98	16.56
226.215	5.56
226.449	18.56
226.683	28.56
226.918	37.56
227.152	34.56
227.387	37.56
227.621	40.56
227.856	34.56
228.09	45.56
228.324	52.56
228.559	61.56
228.793	53.56
229.027	64.56
229.262	72.56
229.496	73.56
229.73	64.56
229.964	80.56
230.199	71.56
230.433	75.56
230.667	77.56
230.901	63.56
231.136	79.56
231.37	71.56
231.604	80.56
231.838	75.56
232.072	87.56
232.306	82.56
232.541	69.56
232.775	71.56
233.009	73.56
233.243	84.56
233.477	78.56
233.711	78.56
233.945	85.56
234.179	82.56
234.413	83.56
234.647	95.56
234.881	84.56
235.115	91.56
235.349	59.56
235.583	81.56
235.817	74.56
236.051	74.56
236.285	67.56
236.519	81.56
236.753	77.56
236.987	94.56
237.221	71.56
237.455	72.56
237.689	73.56
237.922	81.56
238.156	74.56
238.39	78.56
238.624	73.56
238.858	65.56
239.091	84.56
239.325	79.56
239.559	88.56
239.793	80.56
240.027	78.56
240.26	81.56
240.494	74.56
240.728	90.56
240.961	79.56
241.195	70.56
241.429	66.56
241.662	70.56
241.896	80.56
242.13	69.56
242.363	78.56
242.597	76.56
242.83	78.56
243.064	72.56
243.298	63.56
243.531	89.56
243.765	76.56
243.998	81.56
244.232	87.56
244.465	90.56
244.699	78.56
244.932	81.56
245.166	75.56
245.399	66.56
245.633	75.56
245.866	80.56
246.099	76.56
246.333	77.56
246.566	70.56
246.8	71.56
247.033	80.56
247.266	76.56
247.5	69.56
247.733	75.56
247.966	78.56
248.2	69.56
248.433	59.56
248.666	92.56
248.899	87.56
249.133	84.56
249.366	85.56
249.599	95.56
249.832	84.56
250.066	78.56
250.299	77.56
250.532	76.56
250.765	96.56
250.998	90.56
251.231	83.56
251.465	82.56
251.698	86.56
251.931	59.56
252.164	80.56
252.397	63.56
252.63	71.56
252.863	73.56
253.096	88.56
253.329	77.56
253.562	79.56
253.795	83.56
254.028	90.56
254.261	76.56
254.494	78.56
254.727	91.56
254.96	81.56
255.193	67.56
255.426	76.56
255.659	84.56
255.892	85.56
256.124	79.56
256.357	96.56
256.59	81.56
256.823	76.56
257.056	79.56
257.289	80.56
257.521	82.56
257.754	94.56
257.987	80.56
258.22	74.56
258.452	87.56
258.685	67.56
258.918	80.56
259.151	80.56
259.383	68.56
259.616	72.56
259.849	84.56
260.081	83.56
260.314	90.56
260.547	81.56
260.779	75.56
261.012	82.56
261.244	86.56
261.477	98.56
261.71	93.56
261.942	112.56
262.175	121.56
262.407	87.56
262.64	88.56
262.872	80.56
263.105	80.56
263.337	88.56
263.57	87.56
263.802	76.56
264.035	90.56
264.267	80.56
264.499	81.56
264.732	87.56
264.964	95.56
265.197	87.56
265.429	94.56
265.661	98.56
265.894	85.56
266.126	86.56
266.358	82.56
266.591	74.56
266.823	85.56
267.055	96.56
267.287	92.56
267.52	99.56
267.752	87.56
267.984	79.56
268.216	96.56
268.448	92.56
268.681	77.56
268.913	81.56
269.145	97.56
269.377	79.56
269.609	89.56
269.841	82.56
270.073	74.56
270.306	75.56
270.538	74.56
270.77	75.56
271.002	82.56
271.234	78.56
271.466	75.56
271.698	84.56
271.93	97.56
272.162	84.56
272.394	87.56
272.626	82.56
272.858	89.56
273.09	82.56
273.322	76.56
273.553	82.56
273.785	80.56
274.017	80.56
274.249	87.56
274.481	90.56
274.713	94.56
274.945	71.56
275.176	72.56
275.408	89.56
275.64	95.56
275.872	80.56
276.104	96.56
276.335	95.56
276.567	104.56
276.799	112.56
277.031	99.56
277.262	95.56
277.494	90.56
277.726	105.56
277.957	94.56
278.189	85.56
278.421	73.56
278.652	70.56
278.884	93.56
279.115	93.56
279.347	88.56
279.579	74.56
279.81	90.56
280.042	91.56
280.273	83.56
280.505	97.56
280.736	92.56
280.968	82.56
281.199	84.56
281.431	91.56
281.662	97.56
281.894	97.56
282.125	77.56
282.356	110.56
282.588	115.56
282.819	101.56
283.051	98.56
283.282	87.56
283.513	86.56
283.745	86.56
283.976	89.56
284.207	82.56
284.439	83.56
284.67	76.56
284.901	87.56
285.132	95.56
285.364	79.56
285.595	94.56
285.826	86.56
286.057	94.56
286.288	89.56
286.52	97.56
286.751	89.56
286.982	86.56
287.213	82.56
287.444	77.56
287.675	82.56
287.906	88.56
288.138	85.56
288.369	82.56
288.6	84.56
288.831	84.56
289.062	93.56
289.293	71.56
289.524	80.56
289.755	86.56
289.986	90.56
290.217	84.56
290.448	108.56
290.679	85.56
290.91	89.56
291.141	91.56
291.371	91.56
291.602	93.56
291.833	82.56
292.064	93.56
292.295	79.56
292.526	102.56
292.757	96.56
292.987	97.56
293.218	94.56
293.449	76.56
293.68	81.56
293.91	80.56
294.141	82.56
294.372	92.56
294.603	89.56
294.833	84.56
295.064	86.56
295.295	83.56
295.525	95.56
295.756	96.56
295.987	111.56
296.217	117.56
296.448	108.56
296.679	98.56
296.909	82.56
297.14	67.56
297.37	97.56
297.601	91.56
297.831	86.56
298.062	90.56
298.292	84.56
298.523	93.56
298.753	76.56
298.984	81.56
299.214	100.56
299.445	88.56
299.675	95.56
299.905	88.56
300.136	86.56
300.366	84.56
300.597	90.56
300.827	91.56
301.057	86.56
301.288	94.56
301.518	103.56
301.748	98.56
301.979	91.56
302.209	94.56
302.439	102.56
302.669	82.56
302.9	94.56
303.13	74.56
303.36	83.56
303.59	94.56
303.82	100.56
304.051	82.56
304.281	84.56
304.511	86.56
304.741	95.56
304.971	78.56
305.201	92.56
305.431	84.56
305.661	91.56
305.891	101.56
306.121	96.56
306.352	92.56
306.582	102.56
306.812	84.56
307.042	102.56
307.272	91.56
307.502	91.56
307.731	90.56
307.961	84.56
308.191	75.56
308.421	87.56
308.651	84.56
308.881	92.56
309.111	93.56
309.341	98.56
309.571	87.56
309.8	89.56
310.03	100.56
310.26	82.56
310.49	101.56
310.72	106.56
310.949	97.56
311.179	95.56
311.409	116.56
311.639	98.56
311.868	95.56
312.098	85.56
312.328	88.56
312.557	92.56
312.787	89.56
313.017	97.56
313.246	94.56
313.476	95.56
313.706	97.56
313.935	101.56
314.165	90.56
314.394	92.56
314.624	75.56
314.853	83.56
315.083	83.56
315.312	78.56
315.542	91.56
315.771	86.56
316.001	84.56
316.23	86.56
316.46	88.56
316.689	91.56
316.919	97.56
317.148	92.56
317.377	106.56
317.607	91.56
317.836	103.56
318.065	86.56
318.295	81.56
318.524	88.56
318.753	89.56
318.983	85.56
319.212	99.56
319.441	110.56
319.67	113.56
319.9	91.56
320.129	90.56
320.358	93.56
320.587	95.56
320.816	84.56
321.046	87.56
321.275	103.56
321.504	97.56
321.733	95.56
321.962	95.56
322.191	109.56
322.42	107.56
322.649	111.56
322.878	123.56
323.108	106.56
323.337	120.56
323.566	111.56
323.795	143.56
324.024	171.56
324.253	334.56
324.482	692.56
324.71	1339.56
324.939	1747.56
325.168	665.56
325.397	226.56
325.626	130.56
325.855	113.56
326.084	121.56
326.313	115.56
326.542	141.56
326.77	192.56
326.999	388.56
327.228	790.56
327.457	1406.56
327.686	1121.56
327.914	299.56
328.143	170.56
328.372	126.56
328.6	99.56
328.829	115.56
329.058	121.56
329.287	110.56
329.515	120.56
329.744	100.56
329.972	99.56
330.201	88.56
330.43	100.56
330.658	109.56
330.887	126.56
331.115	114.56
331.344	99.56
331.572	96.56
331.801	83.56
332.03	96.56
332.258	101.56
332.486	110.56
332.715	87.56
332.943	107.56
333.172	104.56
333.4	98.56
333.629	102.56
333.857	100.56
334.085	100.56
334.314	89.56
334.542	107.56
334.771	106.56
334.999	88.56
335.227	100.56
335.455	101.56
335.684	88.56
335.912	103.56
336.14	99.56
336.369	94.56
336.597	98.56
336.825	100.56
337.053	88.56
337.281	110.56
337.51	91.56
337.738	88.56
337.966	96.56
338.194	92.56
338.422	98.56
338.65	82.56
338.878	88.56
339.106	82.56
339.334	82.56
339.562	88.56
339.79	96.56
340.018	93.56
340.246	94.56
340.474	82.56
340.702	89.56
340.93	94.56
341.158	94.56
341.386	102.56
341.614	97.56
341.842	87.56
342.07	87.56
342.298	84.56
342.526	77.56
342.754	82.56
342.981	84.56
343.209	82.56
343.437	93.56
343.665	91.56
343.893	86.56
344.12	99.56
344.348	98.56
344.576	85.56
344.804	90.56
345.031	89.56
345.259	97.56
345.487	79.56
345.714	87.56
345.942	98.56
346.17	89.56
346.397	89.56
346.625	83.56
346.853	100.56
347.08	92.56
347.308	78.56
347.535	82.56
347.763	101.56
347.99	82.56
348.218	103.56
348.445	92.56
348.673	103.56
348.9	95.56
349.128	94.56
349.355	83.56
349.583	91.56
349.81	92.56
350.037	89.56
350.265	79.56
350.492	102.56
350.72	87.56
350.947	116.56
351.174	96.56
351.402	101.56
351.629	88.56
351.856	86.56
352.083	95.56
352.311	94.56
352.538	92.56
352.765	102.56
352.992	100.56
353.22	107.56
353.447	105.56
353.674	96.56
353.901	96.56
354.128	93.56
354.355	96.56
354.583	96.56
354.81	97.56
355.037	91.56
355.264	94.56
355.491	98.56
355.718	86.56
355.945	95.56
356.172	88.56
356.399	91.56
356.626	87.56
356.853	90.56
357.08	93.56
357.307	92.56
357.534	101.56
357.761	91.56
357.988	107.56
358.215	89.56
358.441	76.56
358.668	94.56
358.895	91.56
359.122	82.56
359.349	92.56
359.576	91.56
359.802	82.56
360.029	96.56
360.256	118.56
360.483	99.56
360.709	90.56
360.936	83.56
361.163	104.56
361.39	96.56
361.616	103.56
361.843	91.56
362.07	99.56
362.296	97.56
362.523	91.56
362.749	86.56
362.976	87.56
363.203	99.56
363.429	87.56
363.656	101.56
363.882	85.56
364.109	85.56
364.335	90.56
364.562	88.56
364.788	83.56
365.015	96.56
365.241	91.56
365.468	98.56
365.694	108.56
365.92	90.56
366.147	85.56
366.373	81.56
366.599	91.56
366.826	86.56
367.052	95.56
367.278	86.56
367.505	94.56
367.731	84.56
367.957	79.56
368.184	86.56
368.41	101.56
368.636	104.56
368.862	108.56
369.089	100.56
369.315	100.56
369.541	84.56
369.767	90.56
369.993	111.56
370.219	93.56
370.445	96.56
370.672	86.56
370.898	85.56
371.124	89.56
371.35	92.56
371.576	94.56
371.802	69.56
372.028	93.56
372.254	69.56
372.48	89.56
372.706	87.56
372.932	76.56
373.158	80.56
373.384	82.56
373.61	96.56
373.835	92.56
374.061	86.56
374.287	87.56
374.513	82.56
374.739	95.56
374.965	89.56
375.191	90.56
375.416	95.56
375.642	89.56
375.868	81.56
376.094	73.56
376.319	88.56
376.545	91.56
376.771	87.56
376.997	91.56
377.222	89.56
377.448	83.56
377.674	73.56
377.899	88.56
378.125	100.56
378.35	84.56
378.576	75.56
378.802	73.56
379.027	99.56
379.253	91.56
379.478	89.56
379.704	95.56
379.929	81.56
380.155	90.56
380.38	98.56
380.606	91.56
380.831	85.56
381.057	93.56
381.282	84.56
381.507	78.56
381.733	87.56
381.958	87.56
382.184	98.56
382.409	102.56
382.634	87.56
382.86	98.56
383.085	97.56
383.31	97.56
383.535	98.56
383.761	85.56
383.986	86.56
384.211	84.56
384.436	89.56
384.662	92.56
384.887	110.56
385.112	103.56
385.337	104.56
385.562	94.56
385.787	98.56
386.013	100.56
386.238	113.56
386.463	112.56
386.688	101.56
386.913	118.56
387.138	109.56
387.363	89.56
387.588	88.56
387.813	84.56
388.038	90.56
388.263	92.56
388.488	85.56
388.713	100.56
388.938	91.56
389.163	95.56
389.387	91.56
389.612	107.56
389.837	104.56
390.062	107.56
390.287	94.56
390.512	110.56
390.736	89.56
390.961	94.56
391.186	110.56
391.411	94.56
391.636	101.56
391.86	85.56
392.085	83.56
392.31	90.56
392.534	96.56
392.759	88.56
392.984	89.56
393.208	84.56
393.433	103.56
393.658	75.56
393.882	99.56
394.107	95.56
394.331	81.56
394.556	89.56
394.78	90.56
395.005	92.56
395.229	91.56
395.454	77.56
395.678	81.56
395.903	99.56
396.127	100.56
396.352	86.56
396.576	88.56
396.801	88.56
397.025	88.56
397.249	95.56
397.474	85.56
397.698	91.56
397.922	83.56
398.147	93.56
398.371	81.56
398.595	105.56
398.82	70.56
399.044	91.56
399.268	86.56
399.492	97.56
399.717	86.56
399.941	95.56
400.165	100.56
400.389	97.56
400.613	84.56
400.837	91.56
401.062	85.56
401.286	101.56
401.51	98.56
401.734	87.56
401.958	94.56
402.182	141.56
402.406	162.56
402.63	122.56
402.854	94.56
403.078	83.56
403.302	72.56
403.526	96.56
403.75	84.56
403.974	90.56
404.198	88.56
404.422	91.56
404.645	71.56
404.869	88.56
405.093	94.56
405.317	80.56
405.541	90.56
405.765	87.56
405.988	122.56
406.212	160.56
406.436	199.56
406.66	118.56
406.883	96.56
407.107	80.56
407.331	86.56
407.555	97.56
407.778	74.56
408.002	91.56
408.226	84.56
408.449	98.56
408.673	86.56
408.896	103.56
409.12	91.56
409.344	87.56
409.567	91.56
409.791	82.56
410.014	103.56
410.238	91.56
410.461	91.56
410.685	75.56
410.908	87.56
411.132	108.56
411.355	99.56
411.578	86.56
411.802	93.56
412.025	100.56
412.249	85.56
412.472	90.56
412.695	81.56
412.919	79.56
413.142	81.56
413.365	87.56
413.589	84.56
413.812	97.56
414.035	88.56
414.258	90.56
414.482	90.56
414.705	79.56
414.928	101.56
415.151	106.56
415.374	79.56
415.597	81.56
415.821	86.56
416.044	91.56
416.267	92.56
416.49	84.56
416.713	83.56
416.936	84.56
417.159	95.56
417.382	91.56
417.605	75.56
417.828	101.56
418.051	90.56
418.274	84.56
418.497	76.56
418.72	78.56
418.943	89.56
419.166	97.56
419.389	80.56
419.611	92.56
419.834	89.56
420.057	81.56
420.28	81.56
420.503	90.56
420.726	108.56
420.948	99.56
421.171	96.56
421.394	92.56
421.617	87.56
421.839	96.56
422.062	94.56
422.285	83.56
422.507	102.56
422.73	110.56
422.953	94.56
423.175	92.56
423.398	95.56
423.621	99.56
423.843	91.56
424.066	91.56
424.288	101.56
424.511	100.56
424.733	92.56
424.956	106.56
425.178	99.56
425.401	90.56
425.623	88.56
425.846	89.56
426.068	98.56
426.291	85.56
426.513	97.56
426.735	103.56
426.958	91.56
427.18	98.56
427.402	130.56
427.625	150.56
427.847	120.56
428.069	117.56
428.292	95.56
428.514	94.56
428.736	102.56
428.958	90.56
429.181	84.56
429.403	82.56
429.625	84.56
429.847	83.56
430.069	99.56
430.292	95.56
430.514	69.56
430.736	94.56
430.958	88.56
431.18	85.56
431.402	80.56
431.624	93.56
431.846	87.56
432.068	78.56
432.29	76.56
432.512	95.56
432.734	84.56
432.956	85.56
433.178	99.56
433.4	104.56
433.622	96.56
433.844	90.56
434.066	85.56
434.287	93.56
434.509	86.56
434.731	91.56
434.953	76.56
435.175	92.56
435.397	84.56
435.618	111.56
435.84	103.56
436.062	111.56
436.284	117.56
436.505	93.56
436.727	97.56
436.949	94.56
437.17	85.56
437.392	82.56
437.614	82.56
437.835	105.56
438.057	115.56
438.278	110.56
438.5	104.56
438.721	117.56
438.943	110.56
439.165	98.56
439.386	89.56
439.608	94.56
439.829	99.56
440.05	114.56
440.272	139.56
440.493	95.56
440.715	87.56
440.936	90.56
441.158	92.56
441.379	88.56
441.6	83.56
441.822	88.56
442.043	101.56
442.264	92.56
442.486	85.56
442.707	80.56
442.928	116.56
443.149	112.56
443.371	117.56
443.592	106.56
443.813	105.56
444.034	98.56
444.255	96.56
444.476	96.56
444.698	91.56
444.919	94.56
445.14	134.56
445.361	111.56
445.582	92.56
445.803	122.56
446.024	132.56
446.245	129.56
446.466	112.56
446.687	95.56
446.908	83.56
447.129	81.56
447.35	85.56
447.571	104.56
447.792	89.56
448.013	94.56
448.234	110.56
448.455	106.56
448.675	93.56
448.896	119.56
449.117	96.56
449.338	87.56
449.559	112.56
449.779	138.56
450	96.56
450.221	104.56
450.442	83.56
450.662	89.56
450.883	92.56
451.104	103.56
451.324	86.56
451.545	75.56
451.766	90.56
451.986	69.56
452.207	80.56
452.428	105.56
452.648	102.56
452.869	116.56
453.089	116.56
453.31	111.56
453.53	94.56
453.751	79.56
453.971	104.56
454.192	104.56
454.412	96.56
454.633	91.56
454.853	91.56
455.073	92.56
455.294	94.56
455.514	89.56
455.734	100.56
455.955	86.56
456.175	74.56
456.395	83.56
456.616	91.56
456.836	80.56
457.056	77.56
457.276	82.56
457.497	82.56
457.717	75.56
457.937	79.56
458.157	81.56
458.377	89.56
458.598	106.56
458.818	135.56
459.038	136.56
459.258	112.56
459.478	92.56
459.698	88.56
459.918	93.56
460.138	81.56
460.358	75.56
460.578	85.56
460.798	84.56
461.018	89.56
461.238	92.56
461.458	88.56
461.678	84.56
461.898	79.56
462.118	87.56
462.338	81.56
462.558	94.56
462.777	69.56
462.997	81.56
463.217	86.56
463.437	72.56
463.657	68.56
463.876	97.56
464.096	91.56
464.316	83.56
464.536	92.56
464.755	89.56
464.975	113.56
465.195	158.56
465.414	156.56
465.634	98.56
465.854	88.56
466.073	94.56
466.293	76.56
466.512	83.56
466.732	95.56
466.951	67.56
467.171	92.56
467.391	81.56
467.61	103.56
467.829	96.56
468.049	93.56
468.268	81.56
468.488	79.56
468.707	86.56
468.927	76.56
469.146	73.56
469.365	87.56
469.585	89.56
469.804	103.56
470.023	102.56
470.243	95.56
470.462	90.56
470.681	105.56
470.901	81.56
471.12	95.56
471.339	106.56
471.558	96.56
471.777	84.56
471.997	96.56
472.216	99.56
472.435	99.56
472.654	112.56
472.873	78.56
473.092	104.56
473.311	76.56
473.53	88.56
473.749	102.56
473.968	88.56
474.187	102.56
474.406	88.56
474.625	98.56
474.844	94.56
475.063	80.56
475.282	89.56
475.501	84.56
475.72	92.56
475.939	95.56
476.158	101.56
476.377	88.56
476.596	81.56
476.814	86.56
477.033	92.56
477.252	97.56
477.471	88.56
477.69	79.56
477.908	94.56
478.127	90.56
478.346	86.56
478.564	91.56
478.783	94.56
479.002	94.56
479.22	79.56
479.439	95.56
479.658	107.56
479.876	90.56
480.095	73.56
480.313	91.56
480.532	105.56
480.751	78.56
480.969	84.56
481.188	99.56
481.406	102.56
481.624	79.56
481.843	74.56
482.061	96.56
482.28	92.56
482.498	81.56
482.717	95.56
482.935	80.56
483.153	87.56
483.372	88.56
483.59	103.56
483.808	78.56
484.027	100.56
484.245	104.56
484.463	105.56
484.681	108.56
484.9	89.56
485.118	95.56
485.336	90.56
485.554	102.56
485.772	102.56
485.99	94.56
486.209	88.56
486.427	113.56
486.645	113.56
486.863	122.56
487.081	94.56
487.299	99.56
487.517	92.56
487.735	97.56
487.953	96.56
488.171	88.56
488.389	97.56
488.607	102.56
488.825	96.56
489.043	95.56
489.261	90.56
489.479	85.56
489.696	79.56
489.914	94.56
490.132	85.56
490.35	95.56
490.568	95.56
490.786	97.56
491.003	86.56
491.221	88.56
491.439	93.56
491.657	84.56
491.874	86.56
492.092	90.56
492.31	91.56
492.527	90.56
492.745	94.56
492.963	87.56
493.18	87.56
493.398	97.56
493.615	91.56
493.833	108.56
494.05	89.56
494.268	99.56
494.485	95.56
494.703	90.56
494.92	79.56
495.138	80.56
495.355	85.56
495.573	90.56
495.79	84.56
496.008	97.56
496.225	104.56
496.442	75.56
496.66	108.56
496.877	91.56
497.094	84.56
497.312	99.56
497.529	79.56
497.746	82.56
497.963	92.56
498.181	84.56
498.398	77.56
498.615	106.56
498.832	110.56
499.049	90.56
499.267	89.56
499.484	87.56
499.701	96.56
499.918	106.56
500.135	80.56
500.352	78.56
500.569	92.56
500.786	94.56
501.003	114.56
501.22	87.56
501.437	97.56
501.654	72.56
501.871	108.56
502.088	105.56
502.305	95.56
502.522	96.56
502.739	83.56
502.956	79.56
503.172	97.56
503.389	88.56
503.606	90.56
503.823	101.56
504.04	90.56
504.256	91.56
504.473	84.56
504.69	87.56
504.907	91.56
505.123	85.56
505.34	94.56
505.557	96.56
505.773	86.56
505.99	103.56
506.207	83.56
506.423	93.56
506.64	84.56
506.856	86.56
507.073	96.56
507.289	107.56
507.506	95.56
507.722	110.56
507.939	107.56
508.155	101.56
508.372	96.56
508.588	96.56
508.805	102.56
509.021	95.56
509.238	86.56
509.454	105.56
509.67	100.56
509.887	106.56
510.103	109.56
510.319	196.56
510.536	671.56
510.752	2057.56
510.968	590.56
511.184	164.56
511.401	116.56
511.617	95.56
511.833	80.56
512.049	101.56
512.265	88.56
512.481	87.56
512.698	101.56
512.914	86.56
513.13	94.56
513.346	97.56
513.562	97.56
513.778	101.56
513.994	90.56
514.21	114.56
514.426	115.56
514.642	124.56
514.858	123.56
515.074	144.56
515.29	385.56
515.506	1218.56
515.721	468.56
515.937	133.56
516.153	86.56
