Data from Uncirc_2002_H10_HRD10591_00011.txt Node
Date: Wed Jan 03 10:39:43 EST 2024
User: Yrep
Spectrometer: HR+D1059
Trigger mode: 1
Integration Time (sec): 1.000000E-1
Scans to average: 1
Electric dark correction enabled: true
Nonlinearity correction enabled: false
Boxcar width: 0
XAxis mode: Wavelengths
Number of Pixels in Spectrum: 2048
>>>>>Begin Spectral Data<<<<<
223.165	-6.69
223.4	-6.69
223.635	-6.69
223.869	-4.69
224.104	-10.69
224.338	-11.69
224.573	-16.69
224.808	-25.69
225.042	-17.69
225.277	-6.69
225.511	-2.69
225.746	1.31
225.98	2.31
226.215	13.31
226.449	11.31
226.683	15.31
226.918	29.31
227.152	30.31
227.387	25.31
227.621	35.31
227.856	41.31
228.09	50.31
228.324	49.31
228.559	41.31
228.793	39.31
229.027	61.31
229.262	65.31
229.496	58.31
229.73	76.31
229.964	74.31
230.199	76.31
230.433	77.31
230.667	71.31
230.901	90.31
231.136	65.31
231.37	90.31
231.604	68.31
231.838	84.31
232.072	86.31
232.306	85.31
232.541	72.31
232.775	75.31
233.009	79.31
233.243	79.31
233.477	79.31
233.711	61.31
233.945	76.31
234.179	78.31
234.413	81.31
234.647	84.31
234.881	77.31
235.115	71.31
235.349	76.31
235.583	77.31
235.817	85.31
236.051	70.31
236.285	74.31
236.519	78.31
236.753	78.31
236.987	59.31
237.221	66.31
237.455	66.31
237.689	69.31
237.922	70.31
238.156	78.31
238.39	73.31
238.624	77.31
238.858	70.31
239.091	71.31
239.325	71.31
239.559	78.31
239.793	75.31
240.027	85.31
240.26	88.31
240.494	89.31
240.728	72.31
240.961	66.31
241.195	66.31
241.429	66.31
241.662	55.31
241.896	74.31
242.13	73.31
242.363	73.31
242.597	78.31
242.83	75.31
243.064	83.31
243.298	91.31
243.531	71.31
243.765	69.31
243.998	75.31
244.232	72.31
244.465	78.31
244.699	79.31
244.932	69.31
245.166	80.31
245.399	69.31
245.633	62.31
245.866	73.31
246.099	83.31
246.333	77.31
246.566	72.31
246.8	77.31
247.033	61.31
247.266	67.31
247.5	68.31
247.733	79.31
247.966	71.31
248.2	76.31
248.433	64.31
248.666	85.31
248.899	54.31
249.133	79.31
249.366	89.31
249.599	84.31
249.832	67.31
250.066	71.31
250.299	79.31
250.532	78.31
250.765	83.31
250.998	77.31
251.231	66.31
251.465	64.31
251.698	66.31
251.931	76.31
252.164	71.31
252.397	68.31
252.63	79.31
252.863	67.31
253.096	79.31
253.329	65.31
253.562	84.31
253.795	92.31
254.028	81.31
254.261	78.31
254.494	77.31
254.727	85.31
254.96	60.31
255.193	81.31
255.426	76.31
255.659	89.31
255.892	63.31
256.124	70.31
256.357	83.31
256.59	69.31
256.823	59.31
257.056	64.31
257.289	67.31
257.521	78.31
257.754	84.31
257.987	71.31
258.22	69.31
258.452	71.31
258.685	77.31
258.918	75.31
259.151	71.31
259.383	69.31
259.616	90.31
259.849	75.31
260.081	82.31
260.314	87.31
260.547	72.31
260.779	71.31
261.012	67.31
261.244	77.31
261.477	70.31
261.71	83.31
261.942	102.31
262.175	97.31
262.407	81.31
262.64	69.31
262.872	73.31
263.105	78.31
263.337	85.31
263.57	75.31
263.802	78.31
264.035	65.31
264.267	83.31
264.499	67.31
264.732	84.31
264.964	76.31
265.197	85.31
265.429	80.31
265.661	81.31
265.894	66.31
266.126	78.31
266.358	87.31
266.591	79.31
266.823	80.31
267.055	90.31
267.287	75.31
267.52	67.31
267.752	69.31
267.984	79.31
268.216	79.31
268.448	76.31
268.681	82.31
268.913	77.31
269.145	71.31
269.377	83.31
269.609	69.31
269.841	70.31
270.073	94.31
270.306	87.31
270.538	90.31
270.77	91.31
271.002	83.31
271.234	87.31
271.466	71.31
271.698	75.31
271.93	77.31
272.162	61.31
272.394	78.31
272.626	74.31
272.858	74.31
273.09	72.31
273.322	74.31
273.553	83.31
273.785	84.31
274.017	75.31
274.249	81.31
274.481	86.31
274.713	72.31
274.945	86.31
275.176	80.31
275.408	62.31
275.64	72.31
275.872	81.31
276.104	71.31
276.335	78.31
276.567	93.31
276.799	92.31
277.031	80.31
277.262	71.31
277.494	77.31
277.726	89.31
277.957	70.31
278.189	77.31
278.421	75.31
278.652	82.31
278.884	66.31
279.115	67.31
279.347	85.31
279.579	73.31
279.81	82.31
280.042	83.31
280.273	76.31
280.505	78.31
280.736	82.31
280.968	82.31
281.199	83.31
281.431	87.31
281.662	96.31
281.894	93.31
282.125	91.31
282.356	85.31
282.588	114.31
282.819	94.31
283.051	68.31
283.282	68.31
283.513	86.31
283.745	70.31
283.976	79.31
284.207	73.31
284.439	82.31
284.67	73.31
284.901	92.31
285.132	77.31
285.364	78.31
285.595	80.31
285.826	70.31
286.057	84.31
286.288	79.31
286.52	93.31
286.751	84.31
286.982	86.31
287.213	82.31
287.444	70.31
287.675	88.31
287.906	73.31
288.138	83.31
288.369	87.31
288.6	90.31
288.831	80.31
289.062	89.31
289.293	85.31
289.524	78.31
289.755	83.31
289.986	74.31
290.217	85.31
290.448	74.31
290.679	77.31
290.91	77.31
291.141	78.31
291.371	84.31
291.602	87.31
291.833	92.31
292.064	88.31
292.295	83.31
292.526	74.31
292.757	80.31
292.987	93.31
293.218	84.31
293.449	80.31
293.68	77.31
293.91	78.31
294.141	74.31
294.372	91.31
294.603	81.31
294.833	77.31
295.064	78.31
295.295	86.31
295.525	81.31
295.756	78.31
295.987	123.31
296.217	102.31
296.448	97.31
296.679	89.31
296.909	86.31
297.14	106.31
297.37	87.31
297.601	78.31
297.831	69.31
298.062	74.31
298.292	77.31
298.523	83.31
298.753	80.31
298.984	95.31
299.214	83.31
299.445	70.31
299.675	86.31
299.905	82.31
300.136	71.31
300.366	82.31
300.597	85.31
300.827	90.31
301.057	95.31
301.288	88.31
301.518	71.31
301.748	87.31
301.979	81.31
302.209	86.31
302.439	70.31
302.669	79.31
302.9	81.31
303.13	85.31
303.36	84.31
303.59	93.31
303.82	88.31
304.051	73.31
304.281	91.31
304.511	73.31
304.741	84.31
304.971	86.31
305.201	93.31
305.431	98.31
305.661	89.31
305.891	86.31
306.121	86.31
306.352	91.31
306.582	84.31
306.812	80.31
307.042	74.31
307.272	91.31
307.502	94.31
307.731	76.31
307.961	75.31
308.191	93.31
308.421	92.31
308.651	89.31
308.881	97.31
309.111	71.31
309.341	81.31
309.571	86.31
309.8	87.31
310.03	94.31
310.26	91.31
310.49	85.31
310.72	101.31
310.949	90.31
311.179	76.31
311.409	86.31
311.639	78.31
311.868	92.31
312.098	89.31
312.328	84.31
312.557	84.31
312.787	111.31
313.017	87.31
313.246	89.31
313.476	70.31
313.706	86.31
313.935	81.31
314.165	81.31
314.394	94.31
314.624	77.31
314.853	86.31
315.083	83.31
315.312	78.31
315.542	98.31
315.771	86.31
316.001	90.31
316.23	87.31
316.46	83.31
316.689	78.31
316.919	88.31
317.148	93.31
317.377	87.31
317.607	87.31
317.836	71.31
318.065	72.31
318.295	80.31
318.524	86.31
318.753	91.31
318.983	93.31
319.212	107.31
319.441	95.31
319.67	91.31
319.9	87.31
320.129	80.31
320.358	86.31
320.587	78.31
320.816	85.31
321.046	76.31
321.275	92.31
321.504	95.31
321.733	99.31
321.962	99.31
322.191	90.31
322.42	94.31
322.649	106.31
322.878	97.31
323.108	117.31
323.337	101.31
323.566	124.31
323.795	119.31
324.024	165.31
324.253	305.31
324.482	638.31
324.71	1279.31
324.939	1613.31
325.168	608.31
325.397	191.31
325.626	116.31
325.855	115.31
326.084	110.31
326.313	118.31
326.542	132.31
326.77	183.31
326.999	354.31
327.228	728.31
327.457	1249.31
327.686	1021.31
327.914	290.31
328.143	155.31
328.372	115.31
328.6	117.31
328.829	91.31
329.058	111.31
329.287	96.31
329.515	78.31
329.744	100.31
329.972	90.31
330.201	99.31
330.43	83.31
330.658	116.31
330.887	118.31
331.115	104.31
331.344	91.31
331.572	72.31
331.801	79.31
332.03	86.31
332.258	94.31
332.486	98.31
332.715	91.31
332.943	90.31
333.172	81.31
333.4	84.31
333.629	92.31
333.857	102.31
334.085	85.31
334.314	91.31
334.542	91.31
334.771	78.31
334.999	74.31
335.227	76.31
335.455	88.31
335.684	82.31
335.912	92.31
336.14	84.31
336.369	95.31
336.597	87.31
336.825	82.31
337.053	93.31
337.281	88.31
337.51	86.31
337.738	87.31
337.966	74.31
338.194	80.31
338.422	92.31
338.65	90.31
338.878	80.31
339.106	85.31
339.334	81.31
339.562	86.31
339.79	87.31
340.018	87.31
340.246	81.31
340.474	90.31
340.702	93.31
340.93	80.31
341.158	92.31
341.386	90.31
341.614	93.31
341.842	81.31
342.07	89.31
342.298	81.31
342.526	91.31
342.754	93.31
342.981	88.31
343.209	82.31
343.437	95.31
343.665	87.31
343.893	96.31
344.12	96.31
344.348	83.31
344.576	80.31
344.804	92.31
345.031	88.31
345.259	90.31
345.487	86.31
345.714	76.31
345.942	83.31
346.17	93.31
346.397	97.31
346.625	94.31
346.853	87.31
347.08	81.31
347.308	85.31
347.535	85.31
347.763	74.31
347.99	98.31
348.218	100.31
348.445	92.31
348.673	86.31
348.9	74.31
349.128	85.31
349.355	79.31
349.583	84.31
349.81	94.31
350.037	87.31
350.265	68.31
350.492	109.31
350.72	95.31
350.947	96.31
351.174	93.31
351.402	97.31
351.629	99.31
351.856	94.31
352.083	86.31
352.311	94.31
352.538	93.31
352.765	87.31
352.992	105.31
353.22	95.31
353.447	94.31
353.674	102.31
353.901	98.31
354.128	99.31
354.355	87.31
354.583	84.31
354.81	98.31
355.037	89.31
355.264	91.31
355.491	80.31
355.718	91.31
355.945	103.31
356.172	95.31
356.399	94.31
356.626	77.31
356.853	75.31
357.08	82.31
357.307	84.31
357.534	95.31
357.761	109.31
357.988	101.31
358.215	85.31
358.441	82.31
358.668	87.31
358.895	79.31
359.122	90.31
359.349	92.31
359.576	77.31
359.802	101.31
360.029	101.31
360.256	94.31
360.483	90.31
360.709	80.31
360.936	90.31
361.163	89.31
361.39	103.31
361.616	88.31
361.843	79.31
362.07	88.31
362.296	86.31
362.523	79.31
362.749	91.31
362.976	89.31
363.203	98.31
363.429	83.31
363.656	81.31
363.882	81.31
364.109	85.31
364.335	95.31
364.562	74.31
364.788	85.31
365.015	87.31
365.241	97.31
365.468	114.31
365.694	86.31
365.92	94.31
366.147	95.31
366.373	80.31
366.599	71.31
366.826	74.31
367.052	89.31
367.278	91.31
367.505	87.31
367.731	86.31
367.957	90.31
368.184	87.31
368.41	91.31
368.636	116.31
368.862	103.31
369.089	90.31
369.315	78.31
369.541	88.31
369.767	94.31
369.993	91.31
370.219	87.31
370.445	98.31
370.672	89.31
370.898	86.31
371.124	87.31
371.35	82.31
371.576	75.31
371.802	91.31
372.028	86.31
372.254	84.31
372.48	66.31
372.706	91.31
372.932	87.31
373.158	79.31
373.384	74.31
373.61	90.31
373.835	99.31
374.061	83.31
374.287	82.31
374.513	80.31
374.739	75.31
374.965	78.31
375.191	82.31
375.416	101.31
375.642	93.31
375.868	92.31
376.094	76.31
376.319	76.31
376.545	71.31
376.771	84.31
376.997	95.31
377.222	89.31
377.448	83.31
377.674	86.31
377.899	82.31
378.125	87.31
378.35	90.31
378.576	82.31
378.802	80.31
379.027	82.31
379.253	86.31
379.478	101.31
379.704	89.31
379.929	98.31
380.155	85.31
380.38	99.31
380.606	101.31
380.831	83.31
381.057	84.31
381.282	95.31
381.507	89.31
381.733	84.31
381.958	91.31
382.184	83.31
382.409	101.31
382.634	108.31
382.86	94.31
383.085	101.31
383.31	101.31
383.535	103.31
383.761	95.31
383.986	93.31
384.211	98.31
384.436	98.31
384.662	91.31
384.887	84.31
385.112	86.31
385.337	96.31
385.562	98.31
385.787	90.31
386.013	101.31
386.238	113.31
386.463	92.31
386.688	98.31
386.913	100.31
387.138	81.31
387.363	105.31
387.588	91.31
387.813	85.31
388.038	101.31
388.263	107.31
388.488	100.31
388.713	96.31
388.938	79.31
389.163	89.31
389.387	85.31
389.612	102.31
389.837	77.31
390.062	92.31
390.287	84.31
390.512	97.31
390.736	73.31
390.961	89.31
391.186	86.31
391.411	85.31
391.636	94.31
391.86	87.31
392.085	72.31
392.31	78.31
392.534	68.31
392.759	77.31
392.984	91.31
393.208	110.31
393.433	116.31
393.658	111.31
393.882	85.31
394.107	74.31
394.331	89.31
394.556	87.31
394.78	81.31
395.005	94.31
395.229	79.31
395.454	77.31
395.678	82.31
395.903	94.31
396.127	96.31
396.352	73.31
396.576	85.31
396.801	109.31
397.025	105.31
397.249	85.31
397.474	77.31
397.698	73.31
397.922	75.31
398.147	72.31
398.371	91.31
398.595	83.31
398.82	84.31
399.044	70.31
399.268	85.31
399.492	82.31
399.717	66.31
399.941	77.31
400.165	85.31
400.389	78.31
400.613	72.31
400.837	83.31
401.062	95.31
401.286	89.31
401.51	89.31
401.734	77.31
401.958	89.31
402.182	91.31
402.406	117.31
402.63	101.31
402.854	90.31
403.078	82.31
403.302	81.31
403.526	93.31
403.75	80.31
403.974	79.31
404.198	83.31
404.422	96.31
404.645	93.31
404.869	90.31
405.093	88.31
405.317	85.31
405.541	81.31
405.765	82.31
405.988	99.31
406.212	144.31
406.436	185.31
406.66	133.31
406.883	90.31
407.107	87.31
407.331	83.31
407.555	85.31
407.778	77.31
408.002	81.31
408.226	77.31
408.449	87.31
408.673	83.31
408.896	79.31
409.12	92.31
409.344	79.31
409.567	87.31
409.791	77.31
410.014	80.31
410.238	78.31
410.461	74.31
410.685	95.31
410.908	81.31
411.132	90.31
411.355	91.31
411.578	78.31
411.802	65.31
412.025	74.31
412.249	78.31
412.472	75.31
412.695	82.31
412.919	90.31
413.142	82.31
413.365	86.31
413.589	86.31
413.812	83.31
414.035	101.31
414.258	88.31
414.482	71.31
414.705	87.31
414.928	93.31
415.151	84.31
415.374	81.31
415.597	82.31
415.821	80.31
416.044	83.31
416.267	92.31
416.49	80.31
416.713	83.31
416.936	79.31
417.159	91.31
417.382	79.31
417.605	81.31
417.828	78.31
418.051	91.31
418.274	88.31
418.497	73.31
418.72	72.31
418.943	69.31
419.166	87.31
419.389	86.31
419.611	89.31
419.834	79.31
420.057	90.31
420.28	95.31
420.503	82.31
420.726	88.31
420.948	91.31
421.171	85.31
421.394	97.31
421.617	93.31
421.839	81.31
422.062	82.31
422.285	93.31
422.507	85.31
422.73	110.31
422.953	99.31
423.175	75.31
423.398	79.31
423.621	86.31
423.843	86.31
424.066	82.31
424.288	84.31
424.511	91.31
424.733	90.31
424.956	90.31
425.178	84.31
425.401	94.31
425.623	97.31
425.846	91.31
426.068	92.31
426.291	95.31
426.513	89.31
426.735	86.31
426.958	85.31
427.18	96.31
427.402	118.31
427.625	129.31
427.847	108.31
428.069	101.31
428.292	97.31
428.514	87.31
428.736	103.31
428.958	76.31
429.181	85.31
429.403	91.31
429.625	87.31
429.847	84.31
430.069	97.31
430.292	87.31
430.514	84.31
430.736	92.31
430.958	78.31
431.18	74.31
431.402	80.31
431.624	86.31
431.846	91.31
432.068	71.31
432.29	87.31
432.512	95.31
432.734	91.31
432.956	82.31
433.178	78.31
433.4	80.31
433.622	81.31
433.844	79.31
434.066	83.31
434.287	94.31
434.509	77.31
434.731	108.31
434.953	71.31
435.175	75.31
435.397	74.31
435.618	74.31
435.84	96.31
436.062	115.31
436.284	93.31
436.505	87.31
436.727	87.31
436.949	86.31
437.17	92.31
437.392	77.31
437.614	92.31
437.835	94.31
438.057	118.31
438.278	91.31
438.5	83.31
438.721	127.31
438.943	105.31
439.165	77.31
439.386	85.31
439.608	92.31
439.829	90.31
440.05	111.31
440.272	116.31
440.493	74.31
440.715	83.31
440.936	90.31
441.158	83.31
441.379	91.31
441.6	93.31
441.822	86.31
442.043	97.31
442.264	85.31
442.486	89.31
442.707	82.31
442.928	104.31
443.149	99.31
443.371	101.31
443.592	101.31
443.813	98.31
444.034	96.31
444.255	84.31
444.476	66.31
444.698	83.31
444.919	85.31
445.14	119.31
445.361	103.31
445.582	110.31
445.803	119.31
446.024	121.31
446.245	113.31
446.466	100.31
446.687	72.31
446.908	74.31
447.129	87.31
447.35	87.31
447.571	86.31
447.792	82.31
448.013	86.31
448.234	92.31
448.455	79.31
448.675	98.31
448.896	109.31
449.117	76.31
449.338	98.31
449.559	117.31
449.779	115.31
450	87.31
450.221	95.31
450.442	81.31
450.662	84.31
450.883	92.31
451.104	97.31
451.324	90.31
451.545	85.31
451.766	80.31
451.986	69.31
452.207	84.31
452.428	81.31
452.648	103.31
452.869	101.31
453.089	110.31
453.31	101.31
453.53	85.31
453.751	90.31
453.971	92.31
454.192	113.31
454.412	91.31
454.633	84.31
454.853	91.31
455.073	79.31
455.294	79.31
455.514	89.31
455.734	87.31
455.955	74.31
456.175	73.31
456.395	70.31
456.616	77.31
456.836	93.31
457.056	83.31
457.276	89.31
457.497	89.31
457.717	79.31
457.937	78.31
458.157	81.31
458.377	79.31
458.598	94.31
458.818	122.31
459.038	145.31
459.258	96.31
459.478	88.31
459.698	81.31
459.918	83.31
460.138	69.31
460.358	89.31
460.578	85.31
460.798	99.31
461.018	99.31
461.238	81.31
461.458	86.31
461.678	74.31
461.898	82.31
462.118	82.31
462.338	76.31
462.558	87.31
462.777	87.31
462.997	81.31
463.217	77.31
463.437	80.31
463.657	89.31
463.876	73.31
464.096	79.31
464.316	94.31
464.536	95.31
464.755	82.31
464.975	93.31
465.195	133.31
465.414	131.31
465.634	91.31
465.854	81.31
466.073	81.31
466.293	75.31
466.512	78.31
466.732	91.31
466.951	71.31
467.171	86.31
467.391	77.31
467.61	90.31
467.829	79.31
468.049	89.31
468.268	82.31
468.488	79.31
468.707	73.31
468.927	80.31
469.146	87.31
469.365	86.31
469.585	85.31
469.804	90.31
470.023	77.31
470.243	82.31
470.462	93.31
470.681	92.31
470.901	94.31
471.12	91.31
471.339	81.31
471.558	85.31
471.777	73.31
471.997	78.31
472.216	85.31
472.435	88.31
472.654	85.31
472.873	81.31
473.092	82.31
473.311	78.31
473.53	80.31
473.749	82.31
473.968	80.31
474.187	99.31
474.406	91.31
474.625	80.31
474.844	92.31
475.063	69.31
475.282	81.31
475.501	83.31
475.72	84.31
475.939	80.31
476.158	76.31
476.377	86.31
476.596	84.31
476.814	87.31
477.033	88.31
477.252	78.31
477.471	81.31
477.69	87.31
477.908	83.31
478.127	82.31
478.346	95.31
478.564	86.31
478.783	75.31
479.002	82.31
479.22	84.31
479.439	78.31
479.658	90.31
479.876	84.31
480.095	77.31
480.313	90.31
480.532	86.31
480.751	79.31
480.969	87.31
481.188	82.31
481.406	94.31
481.624	73.31
481.843	91.31
482.061	73.31
482.28	93.31
482.498	82.31
482.717	78.31
482.935	91.31
483.153	92.31
483.372	86.31
483.59	94.31
483.808	87.31
484.027	81.31
484.245	83.31
484.463	78.31
484.681	90.31
484.9	85.31
485.118	103.31
485.336	79.31
485.554	86.31
485.772	109.31
485.99	94.31
486.209	94.31
486.427	91.31
486.645	96.31
486.863	95.31
487.081	95.31
487.299	85.31
487.517	83.31
487.735	87.31
487.953	79.31
488.171	75.31
488.389	92.31
488.607	80.31
488.825	96.31
489.043	86.31
489.261	79.31
489.479	89.31
489.696	89.31
489.914	97.31
490.132	92.31
490.35	90.31
490.568	75.31
490.786	79.31
491.003	93.31
491.221	76.31
491.439	87.31
491.657	86.31
491.874	80.31
492.092	81.31
492.31	96.31
492.527	91.31
492.745	67.31
492.963	73.31
493.18	82.31
493.398	90.31
493.615	103.31
493.833	105.31
494.05	79.31
494.268	103.31
494.485	98.31
494.703	85.31
494.92	99.31
495.138	84.31
495.355	87.31
495.573	85.31
495.79	82.31
496.008	100.31
496.225	86.31
496.442	97.31
496.66	76.31
496.877	83.31
497.094	81.31
497.312	79.31
497.529	94.31
497.746	82.31
497.963	84.31
498.181	86.31
498.398	90.31
498.615	102.31
498.832	88.31
499.049	84.31
499.267	81.31
499.484	84.31
499.701	79.31
499.918	83.31
500.135	80.31
500.352	81.31
500.569	91.31
500.786	87.31
501.003	73.31
501.22	80.31
501.437	110.31
501.654	99.31
501.871	92.31
502.088	76.31
502.305	75.31
502.522	82.31
502.739	78.31
502.956	77.31
503.172	79.31
503.389	86.31
503.606	79.31
503.823	88.31
504.04	82.31
504.256	95.31
504.473	81.31
504.69	75.31
504.907	82.31
505.123	91.31
505.34	95.31
505.557	82.31
505.773	90.31
505.99	93.31
506.207	94.31
506.423	73.31
506.64	88.31
506.856	78.31
507.073	90.31
507.289	77.31
507.506	95.31
507.722	82.31
507.939	89.31
508.155	92.31
508.372	94.31
508.588	88.31
508.805	84.31
509.021	81.31
509.238	72.31
509.454	83.31
509.67	101.31
509.887	89.31
510.103	126.31
510.319	185.31
510.536	592.31
510.752	1710.31
510.968	498.31
511.184	151.31
511.401	107.31
511.617	98.31
511.833	90.31
512.049	79.31
512.265	79.31
512.481	84.31
512.698	79.31
512.914	82.31
513.13	94.31
513.346	92.31
513.562	99.31
513.778	83.31
513.994	80.31
514.21	100.31
514.426	97.31
514.642	110.31
514.858	103.31
515.074	143.31
515.29	324.31
515.506	1024.31
515.721	397.31
515.937	124.31
516.153	100.31
516.369	87.31
516.585	81.31
516.801	92.31
517.016	86.31
517.232	89.31
517.448	89.31
517.664	94.31
517.879	91.31
518.095	94.31
