Data from Uncirc_2002_H10_HRD10591_00067.txt Node
Date: Wed Jan 03 10:39:54 EST 2024
User: Yrep
Spectrometer: HR+D1059
Trigger mode: 1
Integration Time (sec): 1.000000E-1
Scans to average: 1
Electric dark correction enabled: true
Nonlinearity correction enabled: false
Boxcar width: 0
XAxis mode: Wavelengths
Number of Pixels in Spectrum: 2048
>>>>>Begin Spectral Data<<<<<
223.165	-16
223.4	-16
223.635	-16
223.869	-20
224.104	-9
224.338	-24
224.573	-15
224.808	-5
225.042	-15
225.277	-7
225.511	1
225.746	3
225.98	4
226.215	13
226.449	15
226.683	5
226.918	31
227.152	39
227.387	40
227.621	47
227.856	53
228.09	39
228.324	37
228.559	43
228.793	59
229.027	64
229.262	74
229.496	79
229.73	86
229.964	89
230.199	80
230.433	77
230.667	83
230.901	79
231.136	78
231.37	75
231.604	94
231.838	77
232.072	91
232.306	80
232.541	79
232.775	76
233.009	82
233.243	76
233.477	83
233.711	77
233.945	79
234.179	80
234.413	89
234.647	86
234.881	80
235.115	82
235.349	91
235.583	99
235.817	79
236.051	69
236.285	83
236.519	71
236.753	66
236.987	74
237.221	83
237.455	89
237.689	90
237.922	74
238.156	82
238.39	76
238.624	54
238.858	79
239.091	75
239.325	80
239.559	74
239.793	75
240.027	79
240.26	85
240.494	70
240.728	76
240.961	74
241.195	86
241.429	68
241.662	75
241.896	74
242.13	80
242.363	67
242.597	73
242.83	80
243.064	81
243.298	79
243.531	72
243.765	74
243.998	67
244.232	66
244.465	73
244.699	84
244.932	84
245.166	78
245.399	71
245.633	72
245.866	81
246.099	77
246.333	72
246.566	76
246.8	71
247.033	87
247.266	68
247.5	65
247.733	91
247.966	65
248.2	73
248.433	74
248.666	71
248.899	92
249.133	95
249.366	94
249.599	88
249.832	82
250.066	89
250.299	91
250.532	86
250.765	83
250.998	87
251.231	74
251.465	78
251.698	75
251.931	75
252.164	83
252.397	80
252.63	89
252.863	72
253.096	63
253.329	88
253.562	85
253.795	80
254.028	88
254.261	89
254.494	86
254.727	85
254.96	92
255.193	78
255.426	69
255.659	83
255.892	79
256.124	82
256.357	76
256.59	93
256.823	78
257.056	79
257.289	81
257.521	72
257.754	71
257.987	79
258.22	78
258.452	81
258.685	77
258.918	77
259.151	85
259.383	85
259.616	82
259.849	93
260.081	82
260.314	85
260.547	87
260.779	95
261.012	71
261.244	86
261.477	87
261.71	96
261.942	110
262.175	104
262.407	85
262.64	83
262.872	82
263.105	74
263.337	89
263.57	79
263.802	91
264.035	101
264.267	95
264.499	87
264.732	96
264.964	77
265.197	60
265.429	66
265.661	81
265.894	71
266.126	81
266.358	70
266.591	81
266.823	85
267.055	74
267.287	79
267.52	83
267.752	81
267.984	83
268.216	88
268.448	73
268.681	90
268.913	89
269.145	84
269.377	82
269.609	86
269.841	77
270.073	81
270.306	90
270.538	83
270.77	73
271.002	85
271.234	95
271.466	73
271.698	87
271.93	94
272.162	81
272.394	89
272.626	76
272.858	83
273.09	94
273.322	91
273.553	86
273.785	85
274.017	76
274.249	80
274.481	89
274.713	78
274.945	100
275.176	91
275.408	86
275.64	75
275.872	81
276.104	95
276.335	92
276.567	81
276.799	96
277.031	91
277.262	85
277.494	95
277.726	77
277.957	83
278.189	90
278.421	83
278.652	86
278.884	96
279.115	82
279.347	79
279.579	79
279.81	78
280.042	86
280.273	85
280.505	81
280.736	89
280.968	93
281.199	77
281.431	95
281.662	87
281.894	92
282.125	99
282.356	113
282.588	114
282.819	102
283.051	96
283.282	72
283.513	87
283.745	85
283.976	78
284.207	89
284.439	81
284.67	86
284.901	76
285.132	73
285.364	90
285.595	79
285.826	86
286.057	90
286.288	82
286.52	96
286.751	77
286.982	89
287.213	93
287.444	95
287.675	87
287.906	83
288.138	90
288.369	95
288.6	88
288.831	88
289.062	86
289.293	84
289.524	86
289.755	76
289.986	87
290.217	85
290.448	88
290.679	100
290.91	92
291.141	86
291.371	80
291.602	85
291.833	84
292.064	77
292.295	95
292.526	77
292.757	72
292.987	81
293.218	91
293.449	85
293.68	85
293.91	95
294.141	97
294.372	90
294.603	100
294.833	98
295.064	91
295.295	95
295.525	78
295.756	88
295.987	118
296.217	120
296.448	111
296.679	91
296.909	90
297.14	99
297.37	90
297.601	87
297.831	90
298.062	89
298.292	97
298.523	91
298.753	83
298.984	79
299.214	89
299.445	90
299.675	90
299.905	95
300.136	85
300.366	87
300.597	91
300.827	88
301.057	105
301.288	98
301.518	99
301.748	92
301.979	106
302.209	86
302.439	101
302.669	79
302.9	82
303.13	80
303.36	83
303.59	94
303.82	91
304.051	98
304.281	93
304.511	90
304.741	97
304.971	79
305.201	91
305.431	88
305.661	95
305.891	87
306.121	90
306.352	90
306.582	109
306.812	98
307.042	91
307.272	95
307.502	89
307.731	93
307.961	99
308.191	83
308.421	88
308.651	95
308.881	91
309.111	87
309.341	95
309.571	99
309.8	99
310.03	105
310.26	89
310.49	97
310.72	104
310.949	112
311.179	82
311.409	98
311.639	91
311.868	81
312.098	95
312.328	97
312.557	104
312.787	104
313.017	97
313.246	93
313.476	90
313.706	91
313.935	104
314.165	86
314.394	101
314.624	89
314.853	88
315.083	86
315.312	97
315.542	84
315.771	97
316.001	89
316.23	88
316.46	74
316.689	83
316.919	95
317.148	107
317.377	79
317.607	91
317.836	91
318.065	90
318.295	86
318.524	95
318.753	83
318.983	87
319.212	93
319.441	100
319.67	110
319.9	77
320.129	84
320.358	105
320.587	91
320.816	98
321.046	103
321.275	96
321.504	101
321.733	96
321.962	88
322.191	103
322.42	110
322.649	106
322.878	106
323.108	95
323.337	115
323.566	135
323.795	150
324.024	180
324.253	344
324.482	680
324.71	1393
324.939	1813
325.168	669
325.397	213
325.626	136
325.855	118
326.084	114
326.313	114
326.542	145
326.77	217
326.999	377
327.228	786
327.457	1363
327.686	1083
327.914	316
328.143	166
328.372	127
328.6	105
328.829	110
329.058	115
329.287	107
329.515	114
329.744	104
329.972	91
330.201	111
330.43	104
330.658	107
330.887	118
331.115	127
331.344	98
331.572	100
331.801	102
332.03	100
332.258	80
332.486	87
332.715	92
332.943	91
333.172	98
333.4	80
333.629	104
333.857	96
334.085	99
334.314	84
334.542	103
334.771	98
334.999	91
335.227	82
335.455	92
335.684	99
335.912	89
336.14	104
336.369	109
336.597	101
336.825	96
337.053	85
337.281	89
337.51	91
337.738	97
337.966	76
338.194	81
338.422	104
338.65	94
338.878	86
339.106	82
339.334	74
339.562	104
339.79	95
340.018	95
340.246	81
340.474	93
340.702	109
340.93	73
341.158	89
341.386	89
341.614	95
341.842	83
342.07	93
342.298	95
342.526	74
342.754	86
342.981	84
343.209	95
343.437	90
343.665	95
343.893	87
344.12	95
344.348	97
344.576	85
344.804	80
345.031	91
345.259	91
345.487	91
345.714	82
345.942	83
346.17	93
346.397	90
346.625	94
346.853	95
347.08	82
347.308	88
347.535	89
347.763	84
347.99	105
348.218	105
348.445	99
348.673	95
348.9	88
349.128	79
349.355	85
349.583	90
349.81	88
350.037	90
350.265	91
350.492	98
350.72	99
350.947	71
351.174	103
351.402	97
351.629	99
351.856	90
352.083	104
352.311	97
352.538	91
352.765	117
352.992	108
353.22	100
353.447	95
353.674	105
353.901	94
354.128	84
354.355	93
354.583	96
354.81	98
355.037	87
355.264	110
355.491	91
355.718	90
355.945	103
356.172	86
356.399	91
356.626	105
356.853	96
357.08	93
357.307	96
357.534	87
357.761	95
357.988	93
358.215	86
358.441	92
358.668	82
358.895	96
359.122	103
359.349	92
359.576	89
359.802	102
360.029	108
360.256	103
360.483	90
360.709	96
360.936	93
361.163	74
361.39	87
361.616	84
361.843	80
362.07	85
362.296	89
362.523	86
362.749	92
362.976	77
363.203	100
363.429	74
363.656	93
363.882	96
364.109	79
364.335	82
364.562	112
364.788	93
365.015	85
365.241	95
365.468	96
365.694	96
365.92	97
366.147	90
366.373	98
366.599	87
366.826	82
367.052	83
367.278	90
367.505	86
367.731	95
367.957	90
368.184	105
368.41	103
368.636	103
368.862	101
369.089	104
369.315	85
369.541	79
369.767	88
369.993	74
370.219	89
370.445	78
370.672	86
370.898	94
371.124	80
371.35	94
371.576	69
371.802	80
372.028	82
372.254	90
372.48	88
372.706	100
372.932	71
373.158	80
373.384	95
373.61	77
373.835	93
374.061	91
374.287	90
374.513	86
374.739	97
374.965	85
375.191	97
375.416	69
375.642	100
375.868	89
376.094	81
376.319	93
376.545	84
376.771	90
376.997	96
377.222	98
377.448	95
377.674	90
377.899	85
378.125	88
378.35	94
378.576	69
378.802	65
379.027	90
379.253	88
379.478	89
379.704	89
379.929	86
380.155	89
380.38	94
380.606	97
380.831	86
381.057	105
381.282	92
381.507	84
381.733	112
381.958	86
382.184	90
382.409	100
382.634	103
382.86	98
383.085	102
383.31	97
383.535	98
383.761	93
383.986	88
384.211	110
384.436	90
384.662	96
384.887	97
385.112	96
385.337	96
385.562	95
385.787	106
386.013	113
386.238	93
386.463	113
386.688	109
386.913	95
387.138	109
387.363	88
387.588	87
387.813	103
388.038	103
388.263	86
388.488	97
388.713	97
388.938	82
389.163	97
389.387	92
389.612	90
389.837	92
390.062	101
390.287	83
390.512	82
390.736	101
390.961	81
391.186	89
391.411	98
391.636	103
391.86	83
392.085	83
392.31	71
392.534	73
392.759	85
392.984	82
393.208	88
393.433	84
393.658	89
393.882	93
394.107	90
394.331	91
394.556	85
394.78	81
395.005	85
395.229	74
395.454	77
395.678	69
395.903	90
396.127	89
396.352	93
396.576	86
396.801	92
397.025	83
397.249	94
397.474	95
397.698	79
397.922	90
398.147	78
398.371	90
398.595	82
398.82	82
399.044	74
399.268	75
399.492	79
399.717	91
399.941	79
400.165	92
400.389	78
400.613	88
400.837	93
401.062	95
401.286	84
401.51	88
401.734	87
401.958	107
402.182	117
402.406	149
402.63	114
402.854	86
403.078	108
403.302	86
403.526	96
403.75	93
403.974	96
404.198	73
404.422	81
404.645	83
404.869	96
405.093	88
405.317	85
405.541	103
405.765	87
405.988	98
406.212	145
406.436	177
406.66	129
406.883	101
407.107	89
407.331	90
407.555	93
407.778	94
408.002	89
408.226	83
408.449	83
408.673	86
408.896	86
409.12	96
409.344	102
409.567	79
409.791	105
410.014	85
410.238	90
410.461	82
410.685	82
410.908	90
411.132	100
411.355	100
411.578	89
411.802	74
412.025	81
412.249	84
412.472	93
412.695	83
412.919	93
413.142	83
413.365	84
413.589	81
413.812	94
414.035	74
414.258	85
414.482	83
414.705	88
414.928	92
415.151	100
415.374	85
415.597	90
415.821	92
416.044	74
416.267	98
416.49	79
416.713	82
416.936	81
417.159	68
417.382	81
417.605	90
417.828	73
418.051	82
418.274	88
418.497	94
418.72	94
418.943	81
419.166	85
419.389	90
419.611	71
419.834	81
420.057	80
420.28	78
420.503	87
420.726	99
420.948	71
421.171	80
421.394	85
421.617	76
421.839	94
422.062	92
422.285	94
422.507	89
422.73	106
422.953	95
423.175	71
423.398	97
423.621	78
423.843	94
424.066	88
424.288	96
424.511	89
424.733	89
424.956	99
425.178	90
425.401	97
425.623	93
425.846	91
426.068	101
426.291	101
426.513	91
426.735	89
426.958	102
427.18	84
427.402	119
427.625	144
427.847	105
428.069	98
428.292	94
428.514	97
428.736	99
428.958	89
429.181	90
429.403	81
429.625	79
429.847	92
430.069	96
430.292	107
430.514	82
430.736	83
430.958	90
431.18	96
431.402	85
431.624	73
431.846	94
432.068	90
432.29	85
432.512	73
432.734	82
432.956	95
433.178	105
433.4	94
433.622	94
433.844	78
434.066	88
434.287	101
434.509	90
434.731	98
434.953	96
435.175	82
435.397	72
435.618	92
435.84	90
436.062	107
436.284	98
436.505	89
436.727	78
436.949	88
437.17	93
437.392	95
437.614	77
437.835	104
438.057	117
438.278	99
438.5	92
438.721	98
438.943	100
439.165	85
439.386	97
439.608	96
439.829	95
440.05	91
440.272	117
440.493	87
440.715	83
440.936	93
441.158	93
441.379	80
441.6	93
441.822	89
442.043	90
442.264	91
442.486	75
442.707	89
442.928	92
443.149	112
443.371	109
443.592	96
443.813	114
444.034	88
444.255	89
444.476	93
444.698	77
444.919	83
445.14	130
445.361	118
445.582	103
445.803	127
446.024	119
446.245	117
446.466	93
446.687	87
446.908	82
447.129	82
447.35	74
447.571	82
447.792	95
448.013	95
448.234	93
448.455	91
448.675	111
448.896	106
449.117	87
449.338	100
449.559	102
449.779	118
450	87
450.221	83
450.442	88
450.662	90
450.883	101
451.104	106
451.324	88
451.545	71
451.766	91
451.986	83
452.207	90
452.428	91
452.648	95
452.869	104
453.089	112
453.31	97
453.53	94
453.751	97
453.971	94
454.192	96
454.412	95
454.633	91
454.853	102
455.073	89
455.294	87
455.514	95
455.734	101
455.955	82
456.175	93
456.395	81
456.616	96
456.836	84
457.056	83
457.276	80
457.497	84
457.717	96
457.937	88
458.157	78
458.377	99
458.598	101
458.818	124
459.038	136
459.258	115
459.478	71
459.698	98
459.918	96
460.138	87
460.358	87
460.578	98
460.798	93
461.018	84
461.238	95
461.458	80
461.678	84
461.898	90
462.118	86
462.338	98
462.558	97
462.777	77
462.997	83
463.217	82
463.437	66
463.657	71
463.876	78
464.096	82
464.316	79
464.536	76
464.755	79
464.975	96
465.195	141
465.414	125
465.634	92
465.854	85
466.073	95
466.293	77
466.512	97
466.732	90
466.951	82
467.171	90
467.391	98
467.61	93
467.829	85
468.049	92
468.268	85
468.488	103
468.707	101
468.927	81
469.146	96
469.365	82
469.585	89
469.804	87
470.023	101
470.243	85
470.462	85
470.681	96
470.901	100
471.12	77
471.339	89
471.558	97
471.777	85
471.997	80
472.216	81
472.435	90
472.654	90
472.873	92
473.092	81
473.311	98
473.53	81
473.749	92
473.968	92
474.187	107
474.406	86
474.625	100
474.844	93
475.063	92
475.282	90
475.501	74
475.72	81
475.939	91
476.158	91
476.377	100
476.596	83
476.814	95
477.033	90
477.252	88
477.471	87
477.69	85
477.908	93
478.127	90
478.346	83
478.564	81
478.783	95
479.002	90
479.22	87
479.439	86
479.658	91
479.876	90
480.095	93
480.313	91
480.532	83
480.751	83
480.969	99
481.188	104
481.406	102
481.624	89
481.843	81
482.061	97
482.28	96
482.498	78
482.717	98
482.935	90
483.153	73
483.372	108
483.59	94
483.808	99
484.027	106
484.245	87
484.463	98
484.681	85
484.9	93
485.118	91
485.336	96
485.554	87
485.772	99
485.99	114
486.209	103
486.427	95
486.645	121
486.863	106
487.081	97
487.299	97
487.517	90
487.735	96
487.953	90
488.171	89
488.389	80
488.607	90
488.825	87
489.043	98
489.261	87
489.479	99
489.696	90
489.914	98
490.132	99
490.35	85
490.568	96
490.786	88
491.003	79
491.221	91
491.439	101
491.657	95
491.874	79
492.092	103
492.31	86
492.527	71
492.745	75
492.963	96
493.18	90
493.398	103
493.615	96
493.833	92
494.05	89
494.268	90
494.485	83
494.703	88
494.92	102
495.138	87
495.355	87
495.573	96
495.79	102
496.008	90
496.225	96
496.442	100
496.66	99
496.877	110
497.094	97
497.312	83
497.529	96
497.746	79
497.963	107
498.181	97
498.398	86
498.615	105
498.832	98
499.049	98
499.267	102
499.484	90
499.701	78
499.918	89
500.135	81
500.352	95
500.569	82
500.786	91
501.003	91
501.22	90
501.437	102
501.654	96
501.871	98
502.088	99
502.305	102
502.522	100
502.739	102
502.956	91
503.172	105
503.389	100
503.606	86
503.823	91
504.04	92
504.256	88
504.473	83
504.69	92
504.907	79
505.123	90
505.34	75
505.557	76
505.773	106
505.99	96
506.207	99
506.423	112
506.64	94
506.856	82
507.073	83
507.289	85
507.506	73
507.722	110
507.939	111
508.155	101
508.372	90
508.588	86
508.805	91
509.021	110
509.238	103
509.454	98
509.67	108
509.887	90
510.103	116
510.319	190
510.536	661
510.752	2016
510.968	581
511.184	141
511.401	99
511.617	95
511.833	97
512.049	73
512.265	95
512.481	100
512.698	99
512.914	91
513.13	86
513.346	85
513.562	98
513.778	88
513.994	96
514.21	88
514.426	99
514.642	143
514.858	104
515.074	150
515.29	381
515.506	1180
515.721	455
515.937	133
516.153	98
516.369	100
516.585	85
516.801	91
517.016	93
517.232	90
517.448	90
517.664	83
517.879	102
518.095	103
518.311	103
518.527	99
518.742	85
518.958	98
519.173	105
519.389	101
519.605	112
519.82	99
520.036	100
520.251	109
520.467	106
520.682	107
520.898	95
521.113	109
521.329	121
521.544	183
521.76	458
521.975	1976
522.19	1205
522.406	274
522.621	101
522.836	78
523.052	102
523.267	99
523.482	109
523.698	99
523.913	112
524.128	90
524.343	86
524.559	85
524.774	90
524.989	88
525.204	99
525.419	94
525.634	80
525.849	88
526.064	86
526.28	85
526.495	77
526.71	102
526.925	88
527.14	99
527.355	101
527.57	90
527.785	83
527.999	96
528.214	99
528.429	104
528.644	106
528.859	90
529.074	90
529.289	110
529.503	165
529.718	91
529.933	95
530.148	98
530.363	84
530.577	91
530.792	85
531.007	100
531.221	100
531.436	78
531.651	103
531.865	91
532.08	82
532.295	101
532.509	99
532.724	84
532.938	86
533.153	122
533.367	90
533.582	104
533.796	99
534.011	87
534.225	99
534.44	70
534.654	87
534.868	109
535.083	74
535.297	97
535.511	107
535.726	102
535.94	89
536.154	89
536.369	100
536.583	87
536.797	94
537.011	89
537.225	86
537.44	78
537.654	82
537.868	96
538.082	97
538.296	81
538.51	84
538.724	89
538.938	90
539.153	94
539.367	95
539.581	97
539.795	85
540.009	80
540.222	100
540.436	99
540.65	69
540.864	109
541.078	93
541.292	71
541.506	96
541.72	95
541.934	96
542.147	96
542.361	90
542.575	91
542.789	99
543.002	78
543.216	94
543.43	105
543.644	93
543.857	89
544.071	87
544.285	98
544.498	79
544.712	101
544.925	95
545.139	58
545.352	96
545.566	77
545.779	95
545.993	86
546.206	73
546.42	81
546.633	92
546.847	100
547.06	87
547.274	92
547.487	105
547.7	91
547.914	87
548.127	85
548.34	80
548.554	97
548.767	106
548.98	87
549.193	90
549.407	92
549.62	105
549.833	79
550.046	87
550.259	102
550.473	88
550.686	78
550.899	89
551.112	80
551.325	83
551.538	76
551.751	95
551.964	76
552.177	82
552.39	88
552.603	72
552.816	93
553.029	70
553.242	98
553.455	92
553.667	98
553.88	97
554.093	82
554.306	82
554.519	90
554.732	99
554.944	94
555.157	89
555.37	86
555.583	88
555.795	98
556.008	92
556.221	101
556.433	98
556.646	88
556.859	98
557.071	92
557.284	88
557.496	85
557.709	96
557.921	102
558.134	81
558.346	91
558.559	86
558.771	81
558.984	85
559.196	86
559.409	90
559.621	90
559.833	101
560.046	87
560.258	102
560.47	102
560.683	84
560.895	83
561.107	80
561.32	86
561.532	98
561.744	87
561.956	90
562.168	80
562.381	98
562.593	96
562.805	95
563.017	101
563.229	84
563.441	90
563.653	95
563.865	81
564.077	93
564.289	86
564.501	95
564.713	73
564.925	94
565.137	103
565.349	99
565.561	77
565.773	82
565.985	97
566.197	83
566.408	101
566.62	83
566.832	104
567.044	99
567.255	91
567.467	91
567.679	89
567.891	93
568.102	86
568.314	79
568.526	70
568.737	92
568.949	85
569.161	83
569.372	84
569.584	90
569.795	95
570.007	114
570.218	221
570.43	138
570.641	99
570.853	86
571.064	99
571.276	70
571.487	102
571.698	84
571.91	84
572.121	90
572.333	89
572.544	82
572.755	77
572.966	84
573.178	89
573.389	85
573.6	85
573.811	78
574.023	87
574.234	86
574.445	84
574.656	85
574.867	100
575.078	89
575.289	95
575.501	77
575.712	90
575.923	89
576.134	83
576.345	79
576.556	86
576.767	90
576.978	107
577.188	113
577.399	101
577.61	97
577.821	111
578.032	106
578.243	249
578.454	663
578.665	207
578.875	104
579.086	79
579.297	97
579.508	97
579.718	88
579.929	83
580.14	98
580.35	94
580.561	93
580.772	85
580.982	84
581.193	99
581.403	99
581.614	88
581.825	81
582.035	87
582.246	99
582.456	90
582.667	83
582.877	89
583.087	79
583.298	90
583.508	91
583.719	89
583.929	83
584.139	86
584.35	86
584.56	79
584.77	89
584.981	90
585.191	85
585.401	79
585.611	81
