Data from Uncirc_2002_H10_HRD10591_00038.txt Node
Date: Wed Jan 03 10:39:48 EST 2024
User: Yrep
Spectrometer: HR+D1059
Trigger mode: 1
Integration Time (sec): 1.000000E-1
Scans to average: 1
Electric dark correction enabled: true
Nonlinearity correction enabled: false
Boxcar width: 0
XAxis mode: Wavelengths
Number of Pixels in Spectrum: 2048
>>>>>Begin Spectral Data<<<<<
223.165	-23.5
223.4	-23.5
223.635	-23.5
223.869	-19.5
224.104	-8.5
224.338	-19.5
224.573	-8.5
224.808	-2.5
225.042	-3.5
225.277	-5.5
225.511	8.5
225.746	-1.5
225.98	-5.5
226.215	5.5
226.449	22.5
226.683	16.5
226.918	14.5
227.152	30.5
227.387	38.5
227.621	45.5
227.856	36.5
228.09	43.5
228.324	39.5
228.559	47.5
228.793	45.5
229.027	69.5
229.262	61.5
229.496	66.5
229.73	82.5
229.964	88.5
230.199	74.5
230.433	88.5
230.667	75.5
230.901	73.5
231.136	70.5
231.37	65.5
231.604	81.5
231.838	74.5
232.072	70.5
232.306	88.5
232.541	68.5
232.775	91.5
233.009	89.5
233.243	67.5
233.477	66.5
233.711	88.5
233.945	91.5
234.179	88.5
234.413	87.5
234.647	88.5
234.881	80.5
235.115	68.5
235.349	89.5
235.583	89.5
235.817	84.5
236.051	73.5
236.285	90.5
236.519	73.5
236.753	82.5
236.987	89.5
237.221	83.5
237.455	84.5
237.689	77.5
237.922	69.5
238.156	85.5
238.39	83.5
238.624	91.5
238.858	71.5
239.091	82.5
239.325	83.5
239.559	98.5
239.793	84.5
240.027	79.5
240.26	70.5
240.494	72.5
240.728	79.5
240.961	64.5
241.195	74.5
241.429	71.5
241.662	72.5
241.896	75.5
242.13	84.5
242.363	68.5
242.597	81.5
242.83	84.5
243.064	81.5
243.298	85.5
243.531	75.5
243.765	71.5
243.998	80.5
244.232	86.5
244.465	91.5
244.699	100.5
244.932	81.5
245.166	82.5
245.399	91.5
245.633	73.5
245.866	64.5
246.099	79.5
246.333	71.5
246.566	65.5
246.8	74.5
247.033	84.5
247.266	83.5
247.5	82.5
247.733	73.5
247.966	84.5
248.2	89.5
248.433	73.5
248.666	65.5
248.899	71.5
249.133	90.5
249.366	81.5
249.599	103.5
249.832	83.5
250.066	88.5
250.299	89.5
250.532	79.5
250.765	90.5
250.998	81.5
251.231	78.5
251.465	73.5
251.698	71.5
251.931	87.5
252.164	84.5
252.397	101.5
252.63	69.5
252.863	68.5
253.096	85.5
253.329	89.5
253.562	75.5
253.795	82.5
254.028	83.5
254.261	80.5
254.494	77.5
254.727	67.5
254.96	92.5
255.193	86.5
255.426	76.5
255.659	98.5
255.892	82.5
256.124	97.5
256.357	79.5
256.59	90.5
256.823	68.5
257.056	72.5
257.289	60.5
257.521	82.5
257.754	74.5
257.987	74.5
258.22	90.5
258.452	76.5
258.685	75.5
258.918	75.5
259.151	79.5
259.383	80.5
259.616	81.5
259.849	87.5
260.081	77.5
260.314	72.5
260.547	95.5
260.779	89.5
261.012	69.5
261.244	82.5
261.477	86.5
261.71	93.5
261.942	114.5
262.175	111.5
262.407	98.5
262.64	86.5
262.872	83.5
263.105	71.5
263.337	83.5
263.57	77.5
263.802	81.5
264.035	91.5
264.267	78.5
264.499	72.5
264.732	103.5
264.964	96.5
265.197	89.5
265.429	88.5
265.661	87.5
265.894	73.5
266.126	90.5
266.358	85.5
266.591	83.5
266.823	84.5
267.055	91.5
267.287	87.5
267.52	85.5
267.752	87.5
267.984	69.5
268.216	73.5
268.448	96.5
268.681	80.5
268.913	80.5
269.145	68.5
269.377	95.5
269.609	71.5
269.841	70.5
270.073	72.5
270.306	93.5
270.538	89.5
270.77	88.5
271.002	92.5
271.234	103.5
271.466	87.5
271.698	81.5
271.93	102.5
272.162	88.5
272.394	94.5
272.626	97.5
272.858	86.5
273.09	73.5
273.322	81.5
273.553	83.5
273.785	86.5
274.017	92.5
274.249	99.5
274.481	75.5
274.713	81.5
274.945	102.5
275.176	73.5
275.408	96.5
275.64	94.5
275.872	87.5
276.104	93.5
276.335	90.5
276.567	86.5
276.799	90.5
277.031	86.5
277.262	88.5
277.494	93.5
277.726	83.5
277.957	80.5
278.189	83.5
278.421	96.5
278.652	90.5
278.884	83.5
279.115	81.5
279.347	92.5
279.579	82.5
279.81	82.5
280.042	89.5
280.273	88.5
280.505	74.5
280.736	91.5
280.968	82.5
281.199	94.5
281.431	75.5
281.662	76.5
281.894	84.5
282.125	100.5
282.356	105.5
282.588	119.5
282.819	104.5
283.051	76.5
283.282	83.5
283.513	90.5
283.745	79.5
283.976	88.5
284.207	93.5
284.439	90.5
284.67	83.5
284.901	83.5
285.132	100.5
285.364	73.5
285.595	91.5
285.826	80.5
286.057	89.5
286.288	84.5
286.52	99.5
286.751	80.5
286.982	90.5
287.213	88.5
287.444	84.5
287.675	74.5
287.906	81.5
288.138	96.5
288.369	111.5
288.6	91.5
288.831	97.5
289.062	76.5
289.293	78.5
289.524	88.5
289.755	84.5
289.986	75.5
290.217	91.5
290.448	91.5
290.679	98.5
290.91	76.5
291.141	96.5
291.371	88.5
291.602	69.5
291.833	82.5
292.064	82.5
292.295	93.5
292.526	91.5
292.757	85.5
292.987	85.5
293.218	94.5
293.449	82.5
293.68	70.5
293.91	93.5
294.141	87.5
294.372	82.5
294.603	73.5
294.833	89.5
295.064	91.5
295.295	89.5
295.525	80.5
295.756	104.5
295.987	109.5
296.217	126.5
296.448	111.5
296.679	98.5
296.909	73.5
297.14	68.5
297.37	92.5
297.601	77.5
297.831	88.5
298.062	87.5
298.292	80.5
298.523	89.5
298.753	97.5
298.984	101.5
299.214	82.5
299.445	86.5
299.675	86.5
299.905	98.5
300.136	93.5
300.366	81.5
300.597	85.5
300.827	93.5
301.057	106.5
301.288	83.5
301.518	90.5
301.748	74.5
301.979	96.5
302.209	83.5
302.439	92.5
302.669	69.5
302.9	76.5
303.13	94.5
303.36	85.5
303.59	103.5
303.82	116.5
304.051	85.5
304.281	97.5
304.511	86.5
304.741	83.5
304.971	80.5
305.201	91.5
305.431	95.5
305.661	82.5
305.891	90.5
306.121	104.5
306.352	100.5
306.582	91.5
306.812	86.5
307.042	79.5
307.272	82.5
307.502	101.5
307.731	89.5
307.961	80.5
308.191	90.5
308.421	83.5
308.651	97.5
308.881	93.5
309.111	93.5
309.341	79.5
309.571	80.5
309.8	83.5
310.03	104.5
310.26	100.5
310.49	99.5
310.72	111.5
310.949	98.5
311.179	114.5
311.409	102.5
311.639	87.5
311.868	99.5
312.098	89.5
312.328	103.5
312.557	99.5
312.787	93.5
313.017	97.5
313.246	93.5
313.476	89.5
313.706	92.5
313.935	80.5
314.165	93.5
314.394	113.5
314.624	95.5
314.853	106.5
315.083	88.5
315.312	83.5
315.542	81.5
315.771	89.5
316.001	79.5
316.23	94.5
316.46	103.5
316.689	103.5
316.919	96.5
317.148	87.5
317.377	100.5
317.607	93.5
317.836	96.5
318.065	82.5
318.295	89.5
318.524	98.5
318.753	92.5
318.983	90.5
319.212	97.5
319.441	95.5
319.67	104.5
319.9	93.5
320.129	92.5
320.358	88.5
320.587	103.5
320.816	106.5
321.046	98.5
321.275	94.5
321.504	104.5
321.733	84.5
321.962	92.5
322.191	104.5
322.42	100.5
322.649	102.5
322.878	114.5
323.108	111.5
323.337	117.5
323.566	121.5
323.795	131.5
324.024	191.5
324.253	346.5
324.482	735.5
324.71	1490.5
324.939	1935.5
325.168	702.5
325.397	219.5
325.626	123.5
325.855	139.5
326.084	118.5
326.313	141.5
326.542	145.5
326.77	214.5
326.999	414.5
327.228	811.5
327.457	1476.5
327.686	1172.5
327.914	315.5
328.143	162.5
328.372	145.5
328.6	118.5
328.829	108.5
329.058	118.5
329.287	102.5
329.515	101.5
329.744	98.5
329.972	94.5
330.201	105.5
330.43	120.5
330.658	111.5
330.887	130.5
331.115	119.5
331.344	97.5
331.572	106.5
331.801	97.5
332.03	100.5
332.258	89.5
332.486	81.5
332.715	90.5
332.943	95.5
333.172	108.5
333.4	102.5
333.629	122.5
333.857	105.5
334.085	97.5
334.314	97.5
334.542	91.5
334.771	100.5
334.999	79.5
335.227	101.5
335.455	89.5
335.684	100.5
335.912	115.5
336.14	101.5
336.369	93.5
336.597	105.5
336.825	105.5
337.053	76.5
337.281	91.5
337.51	83.5
337.738	92.5
337.966	93.5
338.194	102.5
338.422	88.5
338.65	89.5
338.878	85.5
339.106	64.5
339.334	81.5
339.562	96.5
339.79	96.5
340.018	87.5
340.246	99.5
340.474	98.5
340.702	104.5
340.93	98.5
341.158	91.5
341.386	107.5
341.614	96.5
341.842	93.5
342.07	99.5
342.298	95.5
342.526	93.5
342.754	90.5
342.981	86.5
343.209	89.5
343.437	101.5
343.665	83.5
343.893	99.5
344.12	98.5
344.348	91.5
344.576	103.5
344.804	86.5
345.031	90.5
345.259	93.5
345.487	97.5
345.714	97.5
345.942	90.5
346.17	96.5
346.397	103.5
346.625	78.5
346.853	91.5
347.08	94.5
347.308	75.5
347.535	72.5
347.763	107.5
347.99	93.5
348.218	107.5
348.445	105.5
348.673	105.5
348.9	97.5
349.128	84.5
349.355	95.5
349.583	92.5
349.81	105.5
350.037	99.5
350.265	84.5
350.492	77.5
350.72	88.5
350.947	108.5
351.174	113.5
351.402	101.5
351.629	100.5
351.856	103.5
352.083	106.5
352.311	103.5
352.538	117.5
352.765	108.5
352.992	112.5
353.22	110.5
353.447	104.5
353.674	88.5
353.901	111.5
354.128	99.5
354.355	102.5
354.583	88.5
354.81	107.5
355.037	95.5
355.264	98.5
355.491	96.5
355.718	81.5
355.945	87.5
356.172	114.5
356.399	88.5
356.626	84.5
356.853	96.5
357.08	85.5
357.307	84.5
357.534	85.5
357.761	115.5
357.988	92.5
358.215	96.5
358.441	90.5
358.668	99.5
358.895	93.5
359.122	87.5
359.349	87.5
359.576	75.5
359.802	101.5
360.029	103.5
360.256	105.5
360.483	85.5
360.709	81.5
360.936	93.5
361.163	87.5
361.39	93.5
361.616	98.5
361.843	93.5
362.07	97.5
362.296	87.5
362.523	83.5
362.749	75.5
362.976	67.5
363.203	88.5
363.429	89.5
363.656	80.5
363.882	85.5
364.109	85.5
364.335	88.5
364.562	78.5
364.788	85.5
365.015	81.5
365.241	110.5
365.468	107.5
365.694	104.5
365.92	89.5
366.147	93.5
366.373	100.5
366.599	82.5
366.826	86.5
367.052	91.5
367.278	91.5
367.505	81.5
367.731	108.5
367.957	83.5
368.184	75.5
368.41	101.5
368.636	109.5
368.862	104.5
369.089	108.5
369.315	91.5
369.541	93.5
369.767	99.5
369.993	93.5
370.219	90.5
370.445	86.5
370.672	88.5
370.898	83.5
371.124	90.5
371.35	87.5
371.576	95.5
371.802	90.5
372.028	89.5
372.254	83.5
372.48	87.5
372.706	86.5
372.932	72.5
373.158	92.5
373.384	95.5
373.61	84.5
373.835	82.5
374.061	83.5
374.287	84.5
374.513	74.5
374.739	99.5
374.965	103.5
375.191	94.5
375.416	93.5
375.642	103.5
375.868	102.5
376.094	107.5
376.319	91.5
376.545	88.5
376.771	93.5
376.997	89.5
377.222	96.5
377.448	101.5
377.674	83.5
377.899	86.5
378.125	88.5
378.35	96.5
378.576	66.5
378.802	97.5
379.027	93.5
379.253	86.5
379.478	81.5
379.704	89.5
379.929	81.5
380.155	78.5
380.38	101.5
380.606	94.5
380.831	93.5
381.057	98.5
381.282	87.5
381.507	89.5
381.733	105.5
381.958	94.5
382.184	95.5
382.409	91.5
382.634	103.5
382.86	93.5
383.085	104.5
383.31	108.5
383.535	106.5
383.761	98.5
383.986	103.5
384.211	99.5
384.436	103.5
384.662	100.5
384.887	87.5
385.112	99.5
385.337	89.5
385.562	116.5
385.787	105.5
386.013	92.5
386.238	112.5
386.463	107.5
386.688	109.5
386.913	104.5
387.138	121.5
387.363	93.5
387.588	92.5
387.813	97.5
388.038	94.5
388.263	93.5
388.488	88.5
388.713	105.5
388.938	92.5
389.163	93.5
389.387	107.5
389.612	88.5
389.837	94.5
390.062	86.5
390.287	90.5
390.512	96.5
390.736	106.5
390.961	94.5
391.186	76.5
391.411	93.5
391.636	97.5
391.86	97.5
392.085	78.5
392.31	85.5
392.534	92.5
392.759	86.5
392.984	80.5
393.208	93.5
393.433	127.5
393.658	103.5
393.882	82.5
394.107	80.5
394.331	93.5
394.556	73.5
394.78	89.5
395.005	92.5
395.229	88.5
395.454	84.5
395.678	81.5
395.903	83.5
396.127	92.5
396.352	82.5
396.576	87.5
396.801	107.5
397.025	88.5
397.249	90.5
397.474	105.5
397.698	86.5
397.922	73.5
398.147	83.5
398.371	85.5
398.595	78.5
398.82	84.5
399.044	87.5
399.268	100.5
399.492	90.5
399.717	96.5
399.941	75.5
400.165	105.5
400.389	93.5
400.613	93.5
400.837	88.5
401.062	102.5
401.286	83.5
401.51	99.5
401.734	95.5
401.958	105.5
402.182	115.5
402.406	139.5
402.63	106.5
402.854	87.5
403.078	88.5
403.302	76.5
403.526	89.5
403.75	101.5
403.974	98.5
404.198	88.5
404.422	97.5
404.645	79.5
404.869	93.5
405.093	78.5
405.317	99.5
405.541	103.5
405.765	88.5
405.988	104.5
406.212	163.5
406.436	199.5
406.66	143.5
406.883	98.5
407.107	96.5
407.331	102.5
407.555	103.5
407.778	97.5
408.002	84.5
408.226	87.5
408.449	103.5
408.673	88.5
408.896	99.5
409.12	93.5
409.344	89.5
409.567	78.5
409.791	100.5
410.014	99.5
410.238	87.5
410.461	78.5
410.685	96.5
410.908	91.5
411.132	100.5
411.355	91.5
411.578	88.5
411.802	85.5
412.025	78.5
412.249	82.5
412.472	92.5
412.695	86.5
412.919	87.5
413.142	89.5
413.365	89.5
413.589	90.5
413.812	81.5
414.035	105.5
414.258	87.5
414.482	95.5
414.705	96.5
414.928	88.5
415.151	84.5
415.374	91.5
415.597	85.5
415.821	99.5
416.044	79.5
416.267	85.5
416.49	100.5
416.713	87.5
416.936	92.5
417.159	98.5
417.382	86.5
417.605	106.5
417.828	93.5
418.051	92.5
418.274	106.5
418.497	83.5
418.72	88.5
418.943	88.5
419.166	74.5
419.389	93.5
419.611	84.5
419.834	87.5
420.057	87.5
420.28	77.5
420.503	92.5
420.726	88.5
420.948	97.5
421.171	108.5
421.394	93.5
421.617	99.5
421.839	88.5
422.062	97.5
422.285	91.5
422.507	102.5
422.73	112.5
422.953	98.5
423.175	83.5
423.398	89.5
423.621	97.5
423.843	88.5
424.066	96.5
424.288	95.5
424.511	94.5
424.733	99.5
424.956	88.5
425.178	105.5
425.401	109.5
425.623	105.5
425.846	74.5
426.068	99.5
426.291	104.5
426.513	91.5
426.735	94.5
426.958	90.5
427.18	94.5
427.402	125.5
427.625	154.5
427.847	103.5
428.069	116.5
428.292	87.5
428.514	80.5
428.736	83.5
428.958	93.5
429.181	82.5
429.403	87.5
429.625	90.5
429.847	81.5
430.069	103.5
430.292	93.5
430.514	99.5
430.736	92.5
430.958	88.5
431.18	76.5
431.402	83.5
431.624	86.5
431.846	96.5
432.068	90.5
432.29	86.5
432.512	95.5
432.734	89.5
432.956	91.5
433.178	106.5
433.4	101.5
433.622	87.5
433.844	76.5
434.066	97.5
434.287	97.5
434.509	87.5
434.731	100.5
434.953	90.5
435.175	93.5
435.397	87.5
435.618	90.5
435.84	115.5
436.062	123.5
436.284	91.5
436.505	98.5
436.727	100.5
436.949	98.5
437.17	92.5
437.392	87.5
437.614	98.5
437.835	103.5
438.057	107.5
438.278	100.5
438.5	94.5
438.721	114.5
438.943	104.5
439.165	92.5
439.386	97.5
439.608	93.5
439.829	94.5
440.05	115.5
440.272	125.5
440.493	104.5
440.715	76.5
440.936	88.5
441.158	92.5
441.379	104.5
441.6	87.5
441.822	96.5
442.043	97.5
442.264	99.5
442.486	101.5
442.707	111.5
442.928	100.5
443.149	133.5
443.371	133.5
443.592	95.5
443.813	104.5
444.034	117.5
444.255	116.5
444.476	91.5
444.698	90.5
444.919	85.5
445.14	127.5
445.361	130.5
445.582	107.5
445.803	120.5
446.024	121.5
446.245	138.5
446.466	100.5
446.687	92.5
446.908	87.5
447.129	91.5
447.35	88.5
447.571	91.5
447.792	93.5
448.013	92.5
448.234	113.5
448.455	92.5
448.675	107.5
448.896	115.5
449.117	92.5
449.338	101.5
449.559	128.5
449.779	130.5
450	90.5
450.221	94.5
450.442	98.5
450.662	88.5
450.883	104.5
451.104	121.5
451.324	98.5
451.545	95.5
451.766	93.5
451.986	86.5
452.207	109.5
452.428	94.5
452.648	103.5
452.869	97.5
453.089	124.5
453.31	108.5
453.53	102.5
453.751	89.5
453.971	95.5
454.192	92.5
454.412	90.5
454.633	96.5
454.853	92.5
455.073	83.5
455.294	95.5
455.514	104.5
455.734	75.5
455.955	89.5
456.175	94.5
456.395	93.5
456.616	91.5
456.836	80.5
457.056	91.5
457.276	79.5
457.497	90.5
457.717	69.5
457.937	97.5
458.157	93.5
458.377	97.5
458.598	103.5
458.818	137.5
459.038	139.5
459.258	106.5
459.478	104.5
459.698	71.5
459.918	81.5
460.138	69.5
460.358	96.5
460.578	95.5
460.798	93.5
461.018	92.5
461.238	83.5
461.458	81.5
461.678	100.5
461.898	97.5
462.118	96.5
462.338	89.5
462.558	82.5
462.777	77.5
462.997	97.5
463.217	87.5
463.437	95.5
463.657	82.5
463.876	82.5
464.096	90.5
464.316	103.5
464.536	102.5
464.755	93.5
464.975	90.5
465.195	143.5
465.414	145.5
465.634	104.5
465.854	74.5
466.073	95.5
466.293	92.5
466.512	66.5
466.732	104.5
466.951	98.5
467.171	96.5
467.391	85.5
467.61	106.5
467.829	95.5
468.049	87.5
468.268	89.5
468.488	89.5
468.707	95.5
468.927	83.5
469.146	87.5
469.365	78.5
469.585	84.5
469.804	85.5
470.023	91.5
470.243	89.5
470.462	90.5
470.681	100.5
470.901	89.5
471.12	96.5
471.339	78.5
471.558	82.5
471.777	86.5
471.997	81.5
472.216	94.5
472.435	100.5
472.654	94.5
472.873	94.5
473.092	85.5
473.311	95.5
473.53	85.5
473.749	92.5
473.968	88.5
474.187	115.5
474.406	85.5
474.625	83.5
474.844	89.5
475.063	87.5
475.282	82.5
475.501	86.5
475.72	88.5
475.939	78.5
476.158	87.5
476.377	101.5
476.596	83.5
476.814	83.5
477.033	98.5
477.252	76.5
477.471	91.5
477.69	95.5
477.908	82.5
478.127	85.5
478.346	92.5
478.564	85.5
478.783	102.5
479.002	95.5
479.22	83.5
479.439	103.5
479.658	93.5
479.876	77.5
480.095	97.5
480.313	97.5
480.532	97.5
480.751	93.5
480.969	100.5
481.188	122.5
481.406	102.5
481.624	87.5
481.843	98.5
482.061	92.5
482.28	85.5
482.498	90.5
482.717	81.5
482.935	77.5
483.153	107.5
483.372	95.5
483.59	91.5
483.808	107.5
484.027	80.5
484.245	92.5
484.463	95.5
484.681	95.5
484.9	85.5
485.118	85.5
485.336	89.5
485.554	86.5
485.772	96.5
485.99	95.5
486.209	89.5
486.427	93.5
486.645	113.5
486.863	101.5
487.081	109.5
487.299	102.5
487.517	104.5
487.735	95.5
487.953	94.5
488.171	93.5
488.389	94.5
488.607	99.5
488.825	88.5
489.043	84.5
489.261	76.5
489.479	95.5
489.696	99.5
489.914	83.5
490.132	91.5
490.35	88.5
490.568	96.5
490.786	86.5
491.003	80.5
491.221	86.5
491.439	84.5
491.657	91.5
491.874	103.5
492.092	81.5
492.31	86.5
492.527	97.5
492.745	80.5
492.963	84.5
493.18	90.5
493.398	100.5
493.615	91.5
493.833	91.5
494.05	99.5
494.268	111.5
494.485	93.5
494.703	84.5
494.92	103.5
495.138	97.5
495.355	86.5
495.573	105.5
495.79	95.5
496.008	80.5
496.225	93.5
496.442	98.5
496.66	103.5
496.877	80.5
497.094	88.5
497.312	84.5
497.529	85.5
497.746	104.5
497.963	92.5
498.181	92.5
498.398	92.5
498.615	103.5
498.832	105.5
499.049	98.5
499.267	93.5
499.484	92.5
499.701	81.5
499.918	89.5
500.135	97.5
500.352	98.5
500.569	92.5
500.786	89.5
501.003	73.5
501.22	80.5
501.437	100.5
501.654	100.5
501.871	100.5
502.088	103.5
502.305	90.5
502.522	86.5
502.739	90.5
502.956	106.5
503.172	88.5
503.389	95.5
503.606	101.5
503.823	96.5
504.04	105.5
504.256	90.5
504.473	79.5
504.69	93.5
504.907	89.5
505.123	77.5
505.34	90.5
505.557	85.5
505.773	84.5
505.99	85.5
506.207	98.5
506.423	90.5
506.64	91.5
506.856	95.5
507.073	89.5
507.289	87.5
507.506	97.5
507.722	112.5
507.939	111.5
508.155	107.5
508.372	89.5
508.588	90.5
508.805	99.5
509.021	97.5
509.238	108.5
509.454	96.5
509.67	98.5
509.887	114.5
510.103	131.5
510.319	202.5
510.536	675.5
510.752	2155.5
510.968	602.5
511.184	159.5
511.401	113.5
511.617	100.5
511.833	88.5
512.049	72.5
512.265	91.5
512.481	99.5
512.698	92.5
512.914	99.5
513.13	100.5
513.346	99.5
513.562	96.5
513.778	107.5
513.994	94.5
514.21	93.5
514.426	101.5
514.642	131.5
514.858	115.5
515.074	154.5
515.29	400.5
515.506	1262.5
515.721	464.5
515.937	150.5
516.153	105.5
516.369	93.5
516.585	101.5
516.801	104.5
517.016	111.5
517.232	94.5
517.448	87.5
517.664	79.5
517.879	79.5
518.095	85.5
518.311	95.5
518.527	86.5
518.742	79.5
518.958	95.5
519.173	91.5
519.389	99.5
519.605	101.5
519.82	98.5
520.036	104.5
520.251	101.5
520.467	111.5
520.682	104.5
520.898	104.5
521.113	100.5
521.329	138.5
521.544	191.5
521.76	471.5
521.975	2039.5
522.19	1272.5
522.406	273.5
522.621	117.5
522.836	111.5
523.052	90.5
523.267	91.5
523.482	104.5
523.698	89.5
523.913	125.5
524.128	90.5
524.343	101.5
524.559	94.5
524.774	104.5
524.989	85.5
525.204	101.5
525.419	90.5
525.634	91.5
525.849	97.5
526.064	91.5
526.28	80.5
526.495	83.5
526.71	102.5
526.925	91.5
527.14	86.5
527.355	81.5
527.57	84.5
527.785	95.5
527.999	83.5
528.214	83.5
528.429	88.5
528.644	89.5
528.859	82.5
529.074	90.5
529.289	120.5
529.503	166.5
529.718	105.5
529.933	91.5
530.148	100.5
530.363	92.5
530.577	84.5
530.792	96.5
531.007	98.5
531.221	86.5
531.436	71.5
531.651	89.5
531.865	82.5
532.08	99.5
532.295	83.5
532.509	88.5
532.724	100.5
532.938	100.5
533.153	87.5
533.367	85.5
533.582	97.5
533.796	90.5
534.011	98.5
534.225	82.5
534.44	98.5
534.654	99.5
534.868	85.5
535.083	87.5
535.297	93.5
