Data from Uncirc_2002_H10_HRD10591_00010.txt Node
Date: Wed Jan 03 10:39:43 EST 2024
User: Yrep
Spectrometer: HR+D1059
Trigger mode: 1
Integration Time (sec): 1.000000E-1
Scans to average: 1
Electric dark correction enabled: true
Nonlinearity correction enabled: false
Boxcar width: 0
XAxis mode: Wavelengths
Number of Pixels in Spectrum: 2048
>>>>>Begin Spectral Data<<<<<
223.165	-18.12
223.4	-18.12
223.635	-18.12
223.869	-19.12
224.104	-30.12
224.338	-19.12
224.573	-18.12
224.808	-8.12
225.042	-8.12
225.277	-4.12
225.511	-3.12
225.746	-6.12
225.98	5.88
226.215	19.88
226.449	24.88
226.683	19.88
226.918	22.88
227.152	40.88
227.387	43.88
227.621	43.88
227.856	59.88
228.09	47.88
228.324	51.88
228.559	64.88
228.793	53.88
229.027	79.88
229.262	66.88
229.496	71.88
229.73	87.88
229.964	93.88
230.199	77.88
230.433	74.88
230.667	79.88
230.901	67.88
231.136	76.88
231.37	83.88
231.604	95.88
231.838	95.88
232.072	73.88
232.306	76.88
232.541	77.88
232.775	81.88
233.009	69.88
233.243	85.88
233.477	85.88
233.711	67.88
233.945	78.88
234.179	89.88
234.413	79.88
234.647	92.88
234.881	77.88
235.115	83.88
235.349	90.88
235.583	80.88
235.817	88.88
236.051	87.88
236.285	82.88
236.519	74.88
236.753	76.88
236.987	86.88
237.221	81.88
237.455	81.88
237.689	78.88
237.922	72.88
238.156	67.88
238.39	81.88
238.624	71.88
238.858	74.88
239.091	62.88
239.325	68.88
239.559	79.88
239.793	82.88
240.027	87.88
240.26	80.88
240.494	65.88
240.728	60.88
240.961	71.88
241.195	85.88
241.429	70.88
241.662	67.88
241.896	86.88
242.13	70.88
242.363	81.88
242.597	88.88
242.83	83.88
243.064	84.88
243.298	89.88
243.531	67.88
243.765	78.88
243.998	85.88
244.232	78.88
244.465	86.88
244.699	72.88
244.932	68.88
245.166	82.88
245.399	86.88
245.633	81.88
245.866	71.88
246.099	71.88
246.333	81.88
246.566	68.88
246.8	76.88
247.033	80.88
247.266	67.88
247.5	69.88
247.733	83.88
247.966	83.88
248.2	77.88
248.433	79.88
248.666	73.88
248.899	72.88
249.133	88.88
249.366	85.88
249.599	109.88
249.832	86.88
250.066	95.88
250.299	67.88
250.532	74.88
250.765	85.88
250.998	66.88
251.231	76.88
251.465	73.88
251.698	61.88
251.931	76.88
252.164	81.88
252.397	80.88
252.63	75.88
252.863	76.88
253.096	86.88
253.329	85.88
253.562	97.88
253.795	80.88
254.028	85.88
254.261	70.88
254.494	81.88
254.727	91.88
254.96	73.88
255.193	77.88
255.426	92.88
255.659	85.88
255.892	83.88
256.124	87.88
256.357	83.88
256.59	66.88
256.823	88.88
257.056	79.88
257.289	66.88
257.521	69.88
257.754	96.88
257.987	79.88
258.22	93.88
258.452	83.88
258.685	97.88
258.918	83.88
259.151	83.88
259.383	92.88
259.616	69.88
259.849	79.88
260.081	94.88
260.314	77.88
260.547	75.88
260.779	80.88
261.012	92.88
261.244	88.88
261.477	88.88
261.71	102.88
261.942	103.88
262.175	112.88
262.407	77.88
262.64	92.88
262.872	84.88
263.105	71.88
263.337	89.88
263.57	85.88
263.802	93.88
264.035	85.88
264.267	98.88
264.499	82.88
264.732	91.88
264.964	87.88
265.197	80.88
265.429	79.88
265.661	88.88
265.894	74.88
266.126	84.88
266.358	89.88
266.591	93.88
266.823	82.88
267.055	83.88
267.287	73.88
267.52	99.88
267.752	77.88
267.984	82.88
268.216	82.88
268.448	96.88
268.681	77.88
268.913	78.88
269.145	79.88
269.377	82.88
269.609	84.88
269.841	81.88
270.073	89.88
270.306	61.88
270.538	88.88
270.77	77.88
271.002	77.88
271.234	77.88
271.466	81.88
271.698	73.88
271.93	86.88
272.162	92.88
272.394	102.88
272.626	91.88
272.858	79.88
273.09	92.88
273.322	87.88
273.553	97.88
273.785	92.88
274.017	89.88
274.249	85.88
274.481	87.88
274.713	93.88
274.945	87.88
275.176	80.88
275.408	100.88
275.64	88.88
275.872	99.88
276.104	86.88
276.335	89.88
276.567	87.88
276.799	104.88
277.031	103.88
277.262	97.88
277.494	84.88
277.726	90.88
277.957	75.88
278.189	78.88
278.421	87.88
278.652	77.88
278.884	87.88
279.115	91.88
279.347	81.88
279.579	83.88
279.81	91.88
280.042	69.88
280.273	73.88
280.505	84.88
280.736	89.88
280.968	84.88
281.199	89.88
281.431	82.88
281.662	71.88
281.894	104.88
282.125	95.88
282.356	115.88
282.588	117.88
282.819	102.88
283.051	76.88
283.282	88.88
283.513	93.88
283.745	90.88
283.976	91.88
284.207	98.88
284.439	67.88
284.67	97.88
284.901	83.88
285.132	86.88
285.364	96.88
285.595	98.88
285.826	81.88
286.057	99.88
286.288	83.88
286.52	90.88
286.751	80.88
286.982	87.88
287.213	80.88
287.444	81.88
287.675	80.88
287.906	100.88
288.138	97.88
288.369	88.88
288.6	87.88
288.831	84.88
289.062	89.88
289.293	89.88
289.524	75.88
289.755	89.88
289.986	80.88
290.217	95.88
290.448	83.88
290.679	88.88
290.91	94.88
291.141	86.88
291.371	95.88
291.602	86.88
291.833	92.88
292.064	91.88
292.295	84.88
292.526	90.88
292.757	95.88
292.987	81.88
293.218	78.88
293.449	90.88
293.68	97.88
293.91	83.88
294.141	93.88
294.372	87.88
294.603	89.88
294.833	97.88
295.064	97.88
295.295	94.88
295.525	93.88
295.756	83.88
295.987	106.88
296.217	120.88
296.448	122.88
296.679	100.88
296.909	82.88
297.14	87.88
297.37	86.88
297.601	90.88
297.831	80.88
298.062	90.88
298.292	65.88
298.523	91.88
298.753	92.88
298.984	87.88
299.214	93.88
299.445	97.88
299.675	75.88
299.905	92.88
300.136	87.88
300.366	88.88
300.597	89.88
300.827	82.88
301.057	103.88
301.288	97.88
301.518	91.88
301.748	88.88
301.979	101.88
302.209	93.88
302.439	95.88
302.669	93.88
302.9	70.88
303.13	80.88
303.36	90.88
303.59	101.88
303.82	99.88
304.051	93.88
304.281	84.88
304.511	108.88
304.741	96.88
304.971	82.88
305.201	75.88
305.431	105.88
305.661	73.88
305.891	93.88
306.121	86.88
306.352	106.88
306.582	92.88
306.812	92.88
307.042	89.88
307.272	95.88
307.502	96.88
307.731	98.88
307.961	82.88
308.191	79.88
308.421	95.88
308.651	85.88
308.881	81.88
309.111	80.88
309.341	95.88
309.571	88.88
309.8	109.88
310.03	85.88
310.26	96.88
310.49	103.88
310.72	89.88
310.949	90.88
311.179	71.88
311.409	92.88
311.639	97.88
311.868	101.88
312.098	83.88
312.328	99.88
312.557	96.88
312.787	91.88
313.017	92.88
313.246	90.88
313.476	94.88
313.706	96.88
313.935	100.88
314.165	100.88
314.394	92.88
314.624	100.88
314.853	83.88
315.083	97.88
315.312	86.88
315.542	84.88
315.771	99.88
316.001	94.88
316.23	86.88
316.46	88.88
316.689	91.88
316.919	74.88
317.148	77.88
317.377	89.88
317.607	106.88
317.836	98.88
318.065	90.88
318.295	89.88
318.524	92.88
318.753	75.88
318.983	83.88
319.212	101.88
319.441	109.88
319.67	99.88
319.9	87.88
320.129	101.88
320.358	79.88
320.587	97.88
320.816	91.88
321.046	73.88
321.275	105.88
321.504	99.88
321.733	88.88
321.962	103.88
322.191	106.88
322.42	108.88
322.649	93.88
322.878	103.88
323.108	120.88
323.337	125.88
323.566	125.88
323.795	138.88
324.024	189.88
324.253	332.88
324.482	747.88
324.71	1492.88
324.939	1963.88
325.168	708.88
325.397	245.88
325.626	150.88
325.855	117.88
326.084	118.88
326.313	132.88
326.542	145.88
326.77	221.88
326.999	419.88
327.228	833.88
327.457	1516.88
327.686	1157.88
327.914	325.88
328.143	178.88
328.372	128.88
328.6	116.88
328.829	114.88
329.058	122.88
329.287	114.88
329.515	102.88
329.744	106.88
329.972	89.88
330.201	93.88
330.43	119.88
330.658	99.88
330.887	120.88
331.115	107.88
331.344	99.88
331.572	93.88
331.801	119.88
332.03	100.88
332.258	96.88
332.486	89.88
332.715	98.88
332.943	73.88
333.172	78.88
333.4	99.88
333.629	109.88
333.857	103.88
334.085	95.88
334.314	108.88
334.542	98.88
334.771	100.88
334.999	84.88
335.227	92.88
335.455	86.88
335.684	97.88
335.912	101.88
336.14	85.88
336.369	81.88
336.597	76.88
336.825	103.88
337.053	97.88
337.281	73.88
337.51	86.88
337.738	95.88
337.966	93.88
338.194	101.88
338.422	84.88
338.65	104.88
338.878	88.88
339.106	84.88
339.334	82.88
339.562	95.88
339.79	104.88
340.018	90.88
340.246	84.88
340.474	78.88
340.702	85.88
340.93	83.88
341.158	92.88
341.386	117.88
341.614	95.88
341.842	93.88
342.07	84.88
342.298	90.88
342.526	93.88
342.754	92.88
342.981	89.88
343.209	78.88
343.437	95.88
343.665	87.88
343.893	97.88
344.12	111.88
344.348	78.88
344.576	90.88
344.804	104.88
345.031	95.88
345.259	86.88
345.487	94.88
345.714	86.88
345.942	101.88
346.17	93.88
346.397	96.88
346.625	88.88
346.853	89.88
347.08	86.88
347.308	88.88
347.535	97.88
347.763	102.88
347.99	88.88
348.218	98.88
348.445	95.88
348.673	112.88
348.9	95.88
349.128	88.88
349.355	82.88
349.583	106.88
349.81	103.88
350.037	103.88
350.265	88.88
350.492	97.88
350.72	100.88
350.947	107.88
351.174	105.88
351.402	93.88
351.629	95.88
351.856	91.88
352.083	112.88
352.311	112.88
352.538	119.88
352.765	108.88
352.992	122.88
353.22	103.88
353.447	105.88
353.674	101.88
353.901	85.88
354.128	109.88
354.355	106.88
354.583	93.88
354.81	103.88
355.037	105.88
355.264	96.88
355.491	103.88
355.718	74.88
355.945	99.88
356.172	106.88
356.399	106.88
356.626	98.88
356.853	81.88
357.08	87.88
357.307	83.88
357.534	89.88
357.761	106.88
357.988	88.88
358.215	106.88
358.441	89.88
358.668	86.88
358.895	92.88
359.122	91.88
359.349	72.88
359.576	100.88
359.802	97.88
360.029	114.88
360.256	109.88
360.483	101.88
360.709	91.88
360.936	86.88
361.163	95.88
361.39	100.88
361.616	79.88
361.843	98.88
362.07	95.88
362.296	90.88
362.523	91.88
362.749	83.88
362.976	103.88
363.203	99.88
363.429	89.88
363.656	94.88
363.882	90.88
364.109	92.88
364.335	86.88
364.562	82.88
364.788	90.88
365.015	91.88
365.241	105.88
365.468	92.88
365.694	72.88
365.92	97.88
366.147	94.88
366.373	82.88
366.599	104.88
366.826	80.88
367.052	77.88
367.278	96.88
367.505	93.88
367.731	89.88
367.957	92.88
368.184	100.88
368.41	85.88
368.636	108.88
368.862	108.88
369.089	102.88
369.315	95.88
369.541	81.88
369.767	88.88
369.993	103.88
370.219	92.88
370.445	98.88
370.672	82.88
370.898	99.88
371.124	80.88
371.35	88.88
371.576	76.88
371.802	96.88
372.028	99.88
372.254	106.88
372.48	84.88
372.706	87.88
372.932	81.88
373.158	111.88
373.384	91.88
373.61	95.88
373.835	81.88
374.061	96.88
374.287	90.88
374.513	81.88
374.739	85.88
374.965	86.88
375.191	81.88
375.416	85.88
375.642	99.88
375.868	101.88
376.094	79.88
376.319	99.88
376.545	99.88
376.771	99.88
376.997	84.88
377.222	93.88
377.448	89.88
377.674	87.88
377.899	95.88
378.125	90.88
378.35	100.88
378.576	99.88
378.802	103.88
379.027	97.88
379.253	96.88
379.478	84.88
379.704	91.88
379.929	82.88
380.155	77.88
380.38	92.88
380.606	96.88
380.831	99.88
381.057	98.88
381.282	92.88
381.507	104.88
381.733	88.88
381.958	87.88
382.184	92.88
382.409	93.88
382.634	92.88
382.86	105.88
383.085	92.88
383.31	107.88
383.535	101.88
383.761	94.88
383.986	93.88
384.211	99.88
384.436	90.88
384.662	105.88
384.887	92.88
385.112	109.88
385.337	106.88
385.562	93.88
385.787	105.88
386.013	107.88
386.238	93.88
386.463	99.88
386.688	112.88
386.913	94.88
387.138	107.88
387.363	113.88
387.588	110.88
387.813	106.88
388.038	114.88
388.263	121.88
388.488	116.88
388.713	85.88
388.938	100.88
389.163	91.88
389.387	109.88
389.612	101.88
389.837	115.88
390.062	100.88
390.287	92.88
390.512	89.88
390.736	90.88
390.961	89.88
391.186	95.88
391.411	98.88
391.636	94.88
391.86	84.88
392.085	89.88
392.31	85.88
392.534	73.88
392.759	75.88
392.984	96.88
393.208	94.88
393.433	145.88
393.658	106.88
393.882	86.88
394.107	92.88
394.331	88.88
394.556	88.88
394.78	85.88
395.005	91.88
395.229	102.88
395.454	103.88
395.678	93.88
395.903	86.88
396.127	100.88
396.352	81.88
396.576	84.88
396.801	98.88
397.025	112.88
397.249	100.88
397.474	86.88
397.698	83.88
397.922	92.88
398.147	85.88
398.371	85.88
398.595	92.88
398.82	82.88
399.044	92.88
399.268	109.88
399.492	82.88
399.717	95.88
399.941	85.88
400.165	105.88
400.389	79.88
400.613	83.88
400.837	92.88
401.062	82.88
401.286	91.88
401.51	95.88
401.734	79.88
401.958	89.88
402.182	128.88
402.406	122.88
402.63	118.88
402.854	98.88
403.078	83.88
403.302	97.88
403.526	78.88
403.75	87.88
403.974	88.88
404.198	91.88
404.422	96.88
404.645	100.88
404.869	99.88
405.093	83.88
405.317	93.88
405.541	100.88
405.765	88.88
405.988	103.88
406.212	151.88
406.436	201.88
406.66	147.88
406.883	92.88
407.107	91.88
407.331	87.88
407.555	106.88
407.778	94.88
408.002	93.88
408.226	81.88
408.449	101.88
408.673	100.88
408.896	99.88
409.12	99.88
409.344	95.88
409.567	76.88
409.791	80.88
410.014	97.88
410.238	100.88
410.461	89.88
410.685	97.88
410.908	106.88
411.132	113.88
411.355	108.88
411.578	86.88
411.802	87.88
412.025	94.88
412.249	91.88
412.472	70.88
412.695	105.88
412.919	96.88
413.142	81.88
413.365	90.88
413.589	100.88
413.812	97.88
414.035	94.88
414.258	92.88
414.482	89.88
414.705	98.88
414.928	83.88
415.151	82.88
415.374	104.88
415.597	79.88
415.821	92.88
416.044	85.88
416.267	92.88
416.49	82.88
416.713	84.88
416.936	85.88
417.159	84.88
417.382	88.88
417.605	86.88
417.828	91.88
418.051	89.88
418.274	100.88
418.497	93.88
418.72	99.88
418.943	96.88
419.166	82.88
419.389	97.88
419.611	97.88
419.834	90.88
420.057	104.88
420.28	85.88
420.503	87.88
420.726	88.88
420.948	103.88
421.171	91.88
421.394	82.88
421.617	81.88
421.839	88.88
422.062	92.88
422.285	95.88
422.507	131.88
422.73	95.88
422.953	111.88
423.175	94.88
423.398	88.88
423.621	97.88
423.843	83.88
424.066	91.88
424.288	88.88
424.511	96.88
424.733	98.88
424.956	109.88
425.178	100.88
425.401	85.88
425.623	99.88
425.846	97.88
426.068	83.88
426.291	83.88
426.513	90.88
426.735	99.88
426.958	91.88
427.18	91.88
427.402	124.88
427.625	146.88
427.847	110.88
428.069	97.88
428.292	93.88
428.514	90.88
428.736	59.88
428.958	98.88
429.181	80.88
429.403	83.88
429.625	74.88
429.847	90.88
430.069	92.88
430.292	86.88
430.514	95.88
430.736	95.88
430.958	89.88
431.18	69.88
431.402	78.88
431.624	92.88
431.846	93.88
432.068	84.88
432.29	80.88
432.512	86.88
432.734	89.88
432.956	84.88
433.178	99.88
433.4	81.88
433.622	97.88
433.844	92.88
434.066	88.88
434.287	98.88
434.509	90.88
434.731	84.88
434.953	77.88
435.175	92.88
435.397	91.88
435.618	90.88
435.84	110.88
436.062	107.88
436.284	120.88
436.505	105.88
436.727	96.88
436.949	107.88
437.17	92.88
437.392	93.88
437.614	102.88
437.835	111.88
438.057	114.88
438.278	92.88
438.5	104.88
438.721	118.88
438.943	121.88
439.165	93.88
439.386	80.88
439.608	96.88
439.829	81.88
440.05	121.88
440.272	130.88
440.493	97.88
440.715	93.88
440.936	91.88
441.158	75.88
441.379	88.88
441.6	89.88
441.822	92.88
442.043	106.88
442.264	96.88
442.486	99.88
442.707	89.88
442.928	106.88
443.149	119.88
443.371	122.88
443.592	102.88
443.813	118.88
444.034	107.88
444.255	98.88
444.476	85.88
444.698	79.88
444.919	88.88
445.14	124.88
445.361	123.88
445.582	121.88
445.803	139.88
446.024	114.88
446.245	120.88
446.466	93.88
446.687	85.88
446.908	90.88
447.129	97.88
447.35	84.88
447.571	79.88
447.792	96.88
448.013	86.88
448.234	110.88
448.455	85.88
448.675	107.88
448.896	113.88
449.117	94.88
449.338	112.88
449.559	127.88
449.779	128.88
450	91.88
450.221	87.88
450.442	90.88
450.662	103.88
450.883	106.88
451.104	81.88
451.324	95.88
451.545	95.88
451.766	72.88
451.986	100.88
452.207	86.88
452.428	100.88
452.648	100.88
452.869	98.88
453.089	107.88
453.31	118.88
453.53	98.88
453.751	89.88
453.971	105.88
454.192	98.88
454.412	90.88
454.633	76.88
454.853	81.88
455.073	95.88
455.294	98.88
455.514	100.88
455.734	96.88
455.955	90.88
456.175	89.88
456.395	83.88
456.616	81.88
456.836	86.88
457.056	83.88
457.276	79.88
457.497	91.88
457.717	96.88
457.937	107.88
458.157	81.88
458.377	84.88
458.598	104.88
458.818	146.88
459.038	137.88
459.258	108.88
459.478	89.88
459.698	96.88
459.918	83.88
460.138	80.88
460.358	88.88
460.578	76.88
460.798	91.88
461.018	81.88
461.238	99.88
461.458	98.88
461.678	66.88
461.898	87.88
462.118	90.88
462.338	91.88
462.558	78.88
462.777	77.88
462.997	84.88
463.217	102.88
463.437	89.88
463.657	84.88
463.876	89.88
464.096	96.88
464.316	89.88
464.536	95.88
464.755	100.88
464.975	116.88
465.195	153.88
465.414	135.88
465.634	103.88
465.854	91.88
466.073	88.88
466.293	86.88
466.512	76.88
466.732	76.88
466.951	89.88
467.171	93.88
467.391	91.88
467.61	87.88
467.829	93.88
468.049	72.88
468.268	85.88
468.488	89.88
468.707	90.88
468.927	90.88
469.146	95.88
469.365	95.88
469.585	91.88
469.804	95.88
470.023	95.88
470.243	101.88
470.462	92.88
470.681	105.88
470.901	92.88
471.12	84.88
471.339	93.88
471.558	92.88
471.777	83.88
471.997	76.88
472.216	100.88
472.435	95.88
472.654	80.88
472.873	78.88
473.092	74.88
473.311	83.88
473.53	96.88
473.749	95.88
473.968	97.88
474.187	97.88
474.406	101.88
474.625	89.88
474.844	100.88
475.063	93.88
475.282	86.88
475.501	84.88
475.72	81.88
475.939	80.88
476.158	87.88
476.377	81.88
476.596	84.88
476.814	93.88
477.033	91.88
477.252	87.88
477.471	103.88
477.69	79.88
477.908	85.88
478.127	92.88
478.346	89.88
478.564	80.88
478.783	95.88
479.002	92.88
479.22	92.88
479.439	85.88
479.658	103.88
479.876	87.88
480.095	82.88
480.313	104.88
480.532	92.88
480.751	95.88
480.969	92.88
481.188	103.88
481.406	112.88
481.624	79.88
481.843	102.88
482.061	99.88
482.28	83.88
482.498	89.88
482.717	84.88
482.935	94.88
483.153	88.88
483.372	98.88
483.59	92.88
483.808	80.88
484.027	97.88
484.245	98.88
484.463	103.88
484.681	91.88
484.9	90.88
485.118	97.88
485.336	92.88
485.554	102.88
485.772	105.88
485.99	103.88
486.209	103.88
486.427	106.88
486.645	117.88
486.863	111.88
487.081	107.88
487.299	99.88
487.517	99.88
487.735	104.88
487.953	83.88
488.171	101.88
488.389	93.88
488.607	90.88
488.825	102.88
489.043	106.88
489.261	92.88
489.479	72.88
489.696	86.88
489.914	99.88
490.132	94.88
490.35	87.88
490.568	90.88
490.786	88.88
491.003	93.88
491.221	96.88
491.439	90.88
491.657	80.88
491.874	86.88
492.092	94.88
492.31	97.88
492.527	90.88
492.745	87.88
492.963	84.88
493.18	75.88
493.398	96.88
493.615	88.88
493.833	91.88
494.05	88.88
494.268	91.88
494.485	92.88
494.703	93.88
494.92	88.88
495.138	96.88
495.355	88.88
495.573	90.88
495.79	83.88
496.008	104.88
496.225	95.88
496.442	91.88
496.66	76.88
496.877	83.88
497.094	92.88
497.312	84.88
497.529	107.88
497.746	89.88
497.963	104.88
498.181	99.88
498.398	104.88
498.615	107.88
498.832	95.88
499.049	105.88
499.267	96.88
499.484	92.88
499.701	91.88
499.918	96.88
500.135	88.88
500.352	90.88
500.569	97.88
500.786	92.88
501.003	93.88
501.22	91.88
501.437	102.88
501.654	91.88
501.871	108.88
502.088	84.88
502.305	95.88
502.522	94.88
502.739	88.88
502.956	83.88
503.172	95.88
503.389	107.88
503.606	95.88
503.823	93.88
504.04	92.88
504.256	88.88
504.473	93.88
504.69	92.88
504.907	97.88
505.123	75.88
505.34	92.88
505.557	98.88
505.773	76.88
505.99	80.88
506.207	99.88
506.423	91.88
506.64	77.88
506.856	97.88
507.073	74.88
507.289	93.88
507.506	101.88
507.722	109.88
507.939	107.88
508.155	87.88
508.372	91.88
508.588	83.88
508.805	81.88
509.021	102.88
509.238	97.88
509.454	91.88
509.67	109.88
509.887	109.88
510.103	124.88
510.319	197.88
510.536	649.88
510.752	1991.88
510.968	547.88
511.184	157.88
511.401	106.88
511.617	82.88
511.833	96.88
512.049	85.88
512.265	100.88
512.481	88.88
512.698	82.88
512.914	85.88
513.13	93.88
513.346	82.88
513.562	98.88
513.778	87.88
513.994	94.88
514.21	104.88
514.426	115.88
514.642	116.88
514.858	116.88
515.074	164.88
515.29	397.88
515.506	1223.88
515.721	445.88
