Data from Uncirc_2002_H10_HRD10591_00042.txt Node
Date: Wed Jan 03 10:39:49 EST 2024
User: Yrep
Spectrometer: HR+D1059
Trigger mode: 1
Integration Time (sec): 1.000000E-1
Scans to average: 1
Electric dark correction enabled: true
Nonlinearity correction enabled: false
Boxcar width: 0
XAxis mode: Wavelengths
Number of Pixels in Spectrum: 2048
>>>>>Begin Spectral Data<<<<<
223.165	-22.12
223.4	-22.12
223.635	-22.12
223.869	-20.12
224.104	-16.12
224.338	-22.12
224.573	-14.12
224.808	-2.12
225.042	-3.12
225.277	-2.12
225.511	2.88
225.746	-0.12
225.98	1.88
226.215	7.88
226.449	15.88
226.683	15.88
226.918	33.88
227.152	23.88
227.387	45.88
227.621	42.88
227.856	55.88
228.09	48.88
228.324	48.88
228.559	63.88
228.793	59.88
229.027	65.88
229.262	65.88
229.496	73.88
229.73	82.88
229.964	74.88
230.199	67.88
230.433	63.88
230.667	80.88
230.901	86.88
231.136	85.88
231.37	77.88
231.604	86.88
231.838	84.88
232.072	75.88
232.306	79.88
232.541	84.88
232.775	90.88
233.009	90.88
233.243	78.88
233.477	80.88
233.711	80.88
233.945	71.88
234.179	76.88
234.413	84.88
234.647	71.88
234.881	93.88
235.115	89.88
235.349	87.88
235.583	74.88
235.817	80.88
236.051	72.88
236.285	70.88
236.519	78.88
236.753	75.88
236.987	87.88
237.221	83.88
237.455	82.88
237.689	93.88
237.922	93.88
238.156	74.88
238.39	90.88
238.624	78.88
238.858	68.88
239.091	77.88
239.325	83.88
239.559	81.88
239.793	81.88
240.027	64.88
240.26	83.88
240.494	79.88
240.728	77.88
240.961	80.88
241.195	87.88
241.429	60.88
241.662	85.88
241.896	69.88
242.13	75.88
242.363	79.88
242.597	81.88
242.83	77.88
243.064	79.88
243.298	76.88
243.531	75.88
243.765	92.88
243.998	78.88
244.232	85.88
244.465	92.88
244.699	76.88
244.932	71.88
245.166	77.88
245.399	76.88
245.633	81.88
245.866	74.88
246.099	90.88
246.333	80.88
246.566	73.88
246.8	79.88
247.033	84.88
247.266	75.88
247.5	96.88
247.733	77.88
247.966	59.88
248.2	79.88
248.433	84.88
248.666	88.88
248.899	71.88
249.133	96.88
249.366	97.88
249.599	107.88
249.832	83.88
250.066	85.88
250.299	75.88
250.532	80.88
250.765	89.88
250.998	79.88
251.231	81.88
251.465	79.88
251.698	82.88
251.931	80.88
252.164	84.88
252.397	79.88
252.63	70.88
252.863	87.88
253.096	91.88
253.329	84.88
253.562	83.88
253.795	68.88
254.028	84.88
254.261	80.88
254.494	73.88
254.727	67.88
254.96	100.88
255.193	89.88
255.426	81.88
255.659	82.88
255.892	92.88
256.124	79.88
256.357	85.88
256.59	93.88
256.823	85.88
257.056	76.88
257.289	95.88
257.521	82.88
257.754	79.88
257.987	86.88
258.22	80.88
258.452	80.88
258.685	68.88
258.918	95.88
259.151	88.88
259.383	86.88
259.616	93.88
259.849	98.88
260.081	79.88
260.314	81.88
260.547	91.88
260.779	93.88
261.012	88.88
261.244	76.88
261.477	88.88
261.71	90.88
261.942	93.88
262.175	106.88
262.407	85.88
262.64	76.88
262.872	86.88
263.105	81.88
263.337	76.88
263.57	83.88
263.802	92.88
264.035	87.88
264.267	81.88
264.499	74.88
264.732	89.88
264.964	87.88
265.197	85.88
265.429	77.88
265.661	86.88
265.894	81.88
266.126	90.88
266.358	91.88
266.591	90.88
266.823	95.88
267.055	85.88
267.287	92.88
267.52	87.88
267.752	80.88
267.984	96.88
268.216	70.88
268.448	68.88
268.681	89.88
268.913	92.88
269.145	87.88
269.377	106.88
269.609	96.88
269.841	77.88
270.073	92.88
270.306	77.88
270.538	81.88
270.77	80.88
271.002	90.88
271.234	90.88
271.466	80.88
271.698	98.88
271.93	91.88
272.162	87.88
272.394	96.88
272.626	75.88
272.858	76.88
273.09	90.88
273.322	92.88
273.553	83.88
273.785	92.88
274.017	72.88
274.249	91.88
274.481	89.88
274.713	76.88
274.945	86.88
275.176	96.88
275.408	81.88
275.64	77.88
275.872	80.88
276.104	93.88
276.335	99.88
276.567	100.88
276.799	94.88
277.031	98.88
277.262	104.88
277.494	88.88
277.726	97.88
277.957	93.88
278.189	83.88
278.421	81.88
278.652	88.88
278.884	85.88
279.115	85.88
279.347	95.88
279.579	77.88
279.81	87.88
280.042	97.88
280.273	95.88
280.505	77.88
280.736	90.88
280.968	92.88
281.199	99.88
281.431	92.88
281.662	87.88
281.894	97.88
282.125	99.88
282.356	104.88
282.588	114.88
282.819	86.88
283.051	96.88
283.282	97.88
283.513	89.88
283.745	86.88
283.976	80.88
284.207	80.88
284.439	98.88
284.67	99.88
284.901	82.88
285.132	95.88
285.364	90.88
285.595	91.88
285.826	92.88
286.057	91.88
286.288	85.88
286.52	97.88
286.751	89.88
286.982	93.88
287.213	84.88
287.444	103.88
287.675	84.88
287.906	91.88
288.138	104.88
288.369	95.88
288.6	81.88
288.831	86.88
289.062	97.88
289.293	90.88
289.524	93.88
289.755	90.88
289.986	74.88
290.217	92.88
290.448	82.88
290.679	90.88
290.91	97.88
291.141	84.88
291.371	101.88
291.602	102.88
291.833	83.88
292.064	91.88
292.295	77.88
292.526	83.88
292.757	95.88
292.987	83.88
293.218	93.88
293.449	85.88
293.68	88.88
293.91	76.88
294.141	74.88
294.372	83.88
294.603	106.88
294.833	92.88
295.064	67.88
295.295	74.88
295.525	91.88
295.756	103.88
295.987	104.88
296.217	139.88
296.448	110.88
296.679	80.88
296.909	92.88
297.14	87.88
297.37	85.88
297.601	88.88
297.831	100.88
298.062	92.88
298.292	78.88
298.523	95.88
298.753	90.88
298.984	88.88
299.214	97.88
299.445	96.88
299.675	92.88
299.905	93.88
300.136	90.88
300.366	97.88
300.597	84.88
300.827	94.88
301.057	96.88
301.288	97.88
301.518	86.88
301.748	94.88
301.979	96.88
302.209	110.88
302.439	98.88
302.669	90.88
302.9	87.88
303.13	79.88
303.36	93.88
303.59	105.88
303.82	113.88
304.051	111.88
304.281	104.88
304.511	90.88
304.741	95.88
304.971	97.88
305.201	91.88
305.431	102.88
305.661	83.88
305.891	91.88
306.121	99.88
306.352	87.88
306.582	98.88
306.812	97.88
307.042	94.88
307.272	88.88
307.502	104.88
307.731	97.88
307.961	93.88
308.191	98.88
308.421	87.88
308.651	79.88
308.881	80.88
309.111	91.88
309.341	100.88
309.571	95.88
309.8	104.88
310.03	93.88
310.26	86.88
310.49	106.88
310.72	103.88
310.949	92.88
311.179	98.88
311.409	84.88
311.639	95.88
311.868	91.88
312.098	109.88
312.328	100.88
312.557	107.88
312.787	89.88
313.017	106.88
313.246	90.88
313.476	96.88
313.706	100.88
313.935	102.88
314.165	100.88
314.394	95.88
314.624	85.88
314.853	101.88
315.083	85.88
315.312	98.88
315.542	87.88
315.771	97.88
316.001	95.88
316.23	90.88
316.46	86.88
316.689	84.88
316.919	91.88
317.148	93.88
317.377	89.88
317.607	85.88
317.836	90.88
318.065	86.88
318.295	89.88
318.524	89.88
318.753	86.88
318.983	97.88
319.212	108.88
319.441	105.88
319.67	99.88
319.9	95.88
320.129	84.88
320.358	95.88
320.587	82.88
320.816	94.88
321.046	100.88
321.275	101.88
321.504	95.88
321.733	103.88
321.962	111.88
322.191	92.88
322.42	93.88
322.649	108.88
322.878	116.88
323.108	107.88
323.337	97.88
323.566	124.88
323.795	140.88
324.024	186.88
324.253	333.88
324.482	731.88
324.71	1413.88
324.939	1807.88
325.168	689.88
325.397	228.88
325.626	148.88
325.855	143.88
326.084	120.88
326.313	120.88
326.542	140.88
326.77	217.88
326.999	419.88
327.228	789.88
327.457	1459.88
327.686	1139.88
327.914	337.88
328.143	180.88
328.372	131.88
328.6	119.88
328.829	121.88
329.058	114.88
329.287	117.88
329.515	109.88
329.744	101.88
329.972	90.88
330.201	86.88
330.43	103.88
330.658	94.88
330.887	120.88
331.115	103.88
331.344	105.88
331.572	105.88
331.801	97.88
332.03	91.88
332.258	102.88
332.486	85.88
332.715	106.88
332.943	92.88
333.172	82.88
333.4	92.88
333.629	109.88
333.857	103.88
334.085	95.88
334.314	97.88
334.542	98.88
334.771	100.88
334.999	96.88
335.227	104.88
335.455	73.88
335.684	101.88
335.912	94.88
336.14	88.88
336.369	100.88
336.597	97.88
336.825	101.88
337.053	89.88
337.281	83.88
337.51	88.88
337.738	97.88
337.966	82.88
338.194	90.88
338.422	104.88
338.65	110.88
338.878	82.88
339.106	110.88
339.334	84.88
339.562	90.88
339.79	98.88
340.018	99.88
340.246	89.88
340.474	104.88
340.702	97.88
340.93	96.88
341.158	81.88
341.386	101.88
341.614	96.88
341.842	91.88
342.07	90.88
342.298	85.88
342.526	87.88
342.754	92.88
342.981	84.88
343.209	100.88
343.437	105.88
343.665	87.88
343.893	85.88
344.12	97.88
344.348	85.88
344.576	90.88
344.804	81.88
345.031	86.88
345.259	93.88
345.487	111.88
345.714	76.88
345.942	86.88
346.17	88.88
346.397	88.88
346.625	86.88
346.853	96.88
347.08	91.88
347.308	99.88
347.535	107.88
347.763	102.88
347.99	106.88
348.218	93.88
348.445	106.88
348.673	90.88
348.9	89.88
349.128	97.88
349.355	100.88
349.583	82.88
349.81	108.88
350.037	98.88
350.265	94.88
350.492	77.88
350.72	101.88
350.947	95.88
351.174	96.88
351.402	107.88
351.629	104.88
351.856	98.88
352.083	101.88
352.311	107.88
352.538	108.88
352.765	102.88
352.992	110.88
353.22	113.88
353.447	110.88
353.674	97.88
353.901	101.88
354.128	85.88
354.355	92.88
354.583	90.88
354.81	102.88
355.037	100.88
355.264	98.88
355.491	98.88
355.718	97.88
355.945	108.88
356.172	96.88
356.399	93.88
356.626	95.88
356.853	95.88
357.08	105.88
357.307	84.88
357.534	85.88
357.761	93.88
357.988	85.88
358.215	97.88
358.441	100.88
358.668	88.88
358.895	90.88
359.122	92.88
359.349	85.88
359.576	99.88
359.802	94.88
360.029	123.88
360.256	105.88
360.483	96.88
360.709	85.88
360.936	88.88
361.163	94.88
361.39	90.88
361.616	93.88
361.843	97.88
362.07	96.88
362.296	94.88
362.523	104.88
362.749	97.88
362.976	86.88
363.203	99.88
363.429	92.88
363.656	98.88
363.882	83.88
364.109	93.88
364.335	85.88
364.562	96.88
364.788	80.88
365.015	96.88
365.241	93.88
365.468	109.88
365.694	102.88
365.92	83.88
366.147	94.88
366.373	90.88
366.599	97.88
366.826	82.88
367.052	87.88
367.278	83.88
367.505	100.88
367.731	90.88
367.957	82.88
368.184	84.88
368.41	94.88
368.636	116.88
368.862	107.88
369.089	100.88
369.315	92.88
369.541	90.88
369.767	87.88
369.993	91.88
370.219	100.88
370.445	84.88
370.672	85.88
370.898	79.88
371.124	93.88
371.35	79.88
371.576	93.88
371.802	78.88
372.028	83.88
372.254	96.88
372.48	96.88
372.706	80.88
372.932	96.88
373.158	93.88
373.384	92.88
373.61	93.88
373.835	103.88
374.061	76.88
374.287	83.88
374.513	76.88
374.739	91.88
374.965	90.88
375.191	99.88
375.416	93.88
375.642	88.88
375.868	100.88
376.094	100.88
376.319	106.88
376.545	95.88
376.771	88.88
376.997	83.88
377.222	97.88
377.448	97.88
377.674	91.88
377.899	75.88
378.125	92.88
378.35	88.88
378.576	89.88
378.802	99.88
379.027	98.88
379.253	86.88
379.478	85.88
379.704	90.88
379.929	85.88
380.155	97.88
380.38	103.88
380.606	89.88
380.831	88.88
381.057	85.88
381.282	88.88
381.507	106.88
381.733	90.88
381.958	90.88
382.184	93.88
382.409	99.88
382.634	96.88
382.86	104.88
383.085	113.88
383.31	103.88
383.535	87.88
383.761	100.88
383.986	105.88
384.211	95.88
384.436	92.88
384.662	91.88
384.887	91.88
385.112	96.88
385.337	110.88
385.562	107.88
385.787	90.88
386.013	108.88
386.238	106.88
386.463	99.88
386.688	103.88
386.913	96.88
387.138	83.88
387.363	92.88
387.588	95.88
387.813	98.88
388.038	105.88
388.263	111.88
388.488	117.88
388.713	105.88
388.938	113.88
389.163	90.88
389.387	103.88
389.612	98.88
389.837	90.88
390.062	84.88
390.287	88.88
390.512	92.88
390.736	94.88
390.961	99.88
391.186	101.88
391.411	81.88
391.636	90.88
391.86	88.88
392.085	99.88
392.31	87.88
392.534	90.88
392.759	89.88
392.984	84.88
393.208	102.88
393.433	114.88
393.658	97.88
393.882	90.88
394.107	95.88
394.331	87.88
394.556	74.88
394.78	99.88
395.005	88.88
395.229	91.88
395.454	89.88
395.678	88.88
395.903	87.88
396.127	91.88
396.352	98.88
396.576	94.88
396.801	94.88
397.025	82.88
397.249	99.88
397.474	97.88
397.698	85.88
397.922	86.88
398.147	87.88
398.371	83.88
398.595	74.88
398.82	84.88
399.044	93.88
399.268	88.88
399.492	83.88
399.717	102.88
399.941	93.88
400.165	93.88
400.389	92.88
400.613	93.88
400.837	98.88
401.062	92.88
401.286	88.88
401.51	92.88
401.734	98.88
401.958	99.88
402.182	122.88
402.406	143.88
402.63	111.88
402.854	100.88
403.078	105.88
403.302	77.88
403.526	88.88
403.75	97.88
403.974	97.88
404.198	100.88
404.422	91.88
404.645	98.88
404.869	84.88
405.093	73.88
405.317	106.88
405.541	92.88
405.765	83.88
405.988	97.88
406.212	155.88
406.436	186.88
406.66	131.88
406.883	101.88
407.107	95.88
407.331	91.88
407.555	91.88
407.778	105.88
408.002	100.88
408.226	85.88
408.449	95.88
408.673	89.88
408.896	95.88
409.12	106.88
409.344	106.88
409.567	92.88
409.791	95.88
410.014	101.88
410.238	109.88
410.461	78.88
410.685	83.88
410.908	97.88
411.132	110.88
411.355	97.88
411.578	89.88
411.802	99.88
412.025	85.88
412.249	83.88
412.472	90.88
412.695	82.88
412.919	97.88
413.142	91.88
413.365	96.88
413.589	102.88
413.812	88.88
414.035	83.88
414.258	88.88
414.482	92.88
414.705	80.88
414.928	89.88
415.151	85.88
415.374	99.88
415.597	96.88
415.821	88.88
416.044	69.88
416.267	81.88
416.49	91.88
416.713	87.88
416.936	103.88
417.159	87.88
417.382	91.88
417.605	90.88
417.828	106.88
418.051	93.88
418.274	76.88
418.497	79.88
418.72	80.88
418.943	93.88
419.166	93.88
419.389	95.88
419.611	87.88
419.834	99.88
420.057	89.88
420.28	91.88
420.503	98.88
420.726	82.88
420.948	79.88
421.171	96.88
421.394	95.88
421.617	88.88
421.839	92.88
422.062	79.88
422.285	96.88
422.507	93.88
422.73	96.88
422.953	99.88
423.175	101.88
423.398	96.88
423.621	92.88
423.843	84.88
424.066	80.88
424.288	85.88
424.511	96.88
424.733	104.88
424.956	93.88
425.178	98.88
425.401	99.88
425.623	96.88
425.846	97.88
426.068	86.88
426.291	80.88
426.513	101.88
426.735	91.88
426.958	93.88
427.18	97.88
427.402	120.88
427.625	154.88
427.847	109.88
428.069	111.88
428.292	90.88
428.514	87.88
428.736	84.88
428.958	89.88
429.181	81.88
429.403	101.88
429.625	84.88
429.847	88.88
430.069	80.88
430.292	81.88
430.514	80.88
430.736	91.88
430.958	98.88
431.18	88.88
431.402	80.88
431.624	74.88
431.846	72.88
432.068	82.88
432.29	78.88
432.512	98.88
432.734	87.88
432.956	93.88
433.178	96.88
433.4	107.88
433.622	94.88
433.844	84.88
434.066	86.88
434.287	100.88
434.509	90.88
434.731	85.88
434.953	87.88
435.175	93.88
435.397	93.88
435.618	101.88
435.84	92.88
436.062	118.88
436.284	114.88
436.505	85.88
436.727	107.88
436.949	79.88
437.17	74.88
437.392	88.88
437.614	81.88
437.835	101.88
438.057	119.88
438.278	110.88
438.5	107.88
438.721	99.88
438.943	100.88
439.165	94.88
439.386	91.88
439.608	97.88
439.829	90.88
440.05	103.88
440.272	144.88
440.493	97.88
440.715	98.88
440.936	85.88
441.158	89.88
441.379	94.88
441.6	103.88
441.822	95.88
442.043	100.88
442.264	97.88
442.486	81.88
442.707	96.88
442.928	105.88
443.149	115.88
443.371	129.88
443.592	97.88
443.813	86.88
444.034	95.88
444.255	88.88
444.476	96.88
444.698	85.88
444.919	83.88
445.14	123.88
445.361	118.88
445.582	115.88
445.803	117.88
446.024	112.88
446.245	130.88
446.466	112.88
446.687	93.88
446.908	98.88
447.129	77.88
447.35	87.88
447.571	83.88
447.792	81.88
448.013	86.88
448.234	91.88
448.455	101.88
448.675	100.88
448.896	107.88
449.117	94.88
449.338	103.88
449.559	134.88
449.779	130.88
450	83.88
450.221	85.88
450.442	86.88
450.662	90.88
450.883	105.88
451.104	111.88
451.324	89.88
451.545	94.88
451.766	84.88
451.986	100.88
452.207	79.88
452.428	86.88
452.648	89.88
452.869	105.88
453.089	124.88
453.31	106.88
453.53	88.88
453.751	95.88
453.971	100.88
454.192	109.88
454.412	93.88
454.633	83.88
454.853	89.88
455.073	89.88
455.294	88.88
455.514	96.88
455.734	79.88
455.955	103.88
456.175	89.88
456.395	91.88
456.616	73.88
456.836	88.88
457.056	73.88
457.276	76.88
457.497	90.88
457.717	73.88
457.937	91.88
458.157	78.88
458.377	91.88
458.598	97.88
458.818	137.88
459.038	136.88
459.258	107.88
459.478	87.88
459.698	96.88
459.918	84.88
460.138	91.88
460.358	87.88
460.578	80.88
460.798	87.88
461.018	86.88
461.238	76.88
461.458	87.88
461.678	87.88
461.898	92.88
462.118	78.88
462.338	88.88
462.558	95.88
462.777	96.88
462.997	68.88
463.217	87.88
463.437	84.88
463.657	97.88
463.876	90.88
464.096	84.88
464.316	88.88
464.536	87.88
464.755	83.88
464.975	101.88
465.195	150.88
465.414	153.88
465.634	109.88
465.854	93.88
466.073	92.88
466.293	97.88
466.512	97.88
466.732	76.88
466.951	81.88
467.171	85.88
467.391	89.88
467.61	87.88
467.829	92.88
468.049	83.88
468.268	90.88
468.488	96.88
468.707	94.88
468.927	94.88
469.146	82.88
469.365	87.88
469.585	81.88
469.804	99.88
470.023	75.88
470.243	81.88
470.462	98.88
470.681	99.88
470.901	87.88
471.12	88.88
471.339	99.88
471.558	90.88
471.777	85.88
471.997	97.88
472.216	86.88
472.435	104.88
472.654	80.88
472.873	86.88
473.092	78.88
473.311	79.88
473.53	93.88
473.749	105.88
473.968	92.88
474.187	108.88
474.406	82.88
474.625	95.88
474.844	96.88
475.063	90.88
475.282	83.88
475.501	88.88
475.72	100.88
475.939	87.88
476.158	90.88
476.377	82.88
476.596	93.88
476.814	91.88
477.033	84.88
477.252	107.88
477.471	97.88
477.69	86.88
477.908	105.88
478.127	102.88
478.346	87.88
478.564	98.88
478.783	98.88
479.002	91.88
479.22	101.88
479.439	95.88
479.658	107.88
479.876	101.88
480.095	92.88
480.313	93.88
480.532	99.88
480.751	84.88
480.969	78.88
481.188	117.88
481.406	97.88
481.624	103.88
481.843	93.88
482.061	99.88
482.28	87.88
482.498	85.88
482.717	83.88
482.935	79.88
483.153	97.88
483.372	88.88
483.59	80.88
483.808	92.88
484.027	80.88
484.245	93.88
484.463	101.88
484.681	99.88
484.9	91.88
485.118	85.88
485.336	86.88
485.554	81.88
485.772	93.88
485.99	98.88
486.209	104.88
486.427	104.88
486.645	106.88
486.863	116.88
487.081	94.88
487.299	88.88
487.517	88.88
487.735	86.88
487.953	96.88
488.171	84.88
488.389	92.88
488.607	82.88
488.825	91.88
489.043	93.88
489.261	98.88
489.479	84.88
489.696	86.88
489.914	96.88
490.132	93.88
490.35	106.88
490.568	92.88
490.786	90.88
491.003	89.88
491.221	88.88
491.439	87.88
491.657	85.88
491.874	89.88
492.092	98.88
492.31	88.88
492.527	86.88
492.745	88.88
492.963	88.88
493.18	90.88
493.398	92.88
493.615	118.88
493.833	82.88
494.05	82.88
494.268	85.88
494.485	89.88
494.703	75.88
494.92	100.88
495.138	80.88
495.355	89.88
495.573	75.88
495.79	94.88
496.008	91.88
496.225	83.88
496.442	79.88
496.66	90.88
496.877	89.88
497.094	89.88
497.312	95.88
497.529	79.88
497.746	86.88
497.963	91.88
498.181	80.88
498.398	93.88
498.615	101.88
498.832	109.88
499.049	75.88
499.267	80.88
499.484	92.88
499.701	83.88
499.918	83.88
500.135	96.88
500.352	96.88
500.569	84.88
500.786	103.88
501.003	90.88
501.22	90.88
501.437	85.88
501.654	87.88
501.871	101.88
502.088	86.88
502.305	91.88
502.522	98.88
502.739	88.88
502.956	90.88
503.172	93.88
503.389	110.88
503.606	111.88
503.823	99.88
504.04	108.88
504.256	80.88
504.473	77.88
504.69	96.88
504.907	97.88
505.123	89.88
505.34	96.88
505.557	96.88
505.773	102.88
505.99	106.88
506.207	83.88
506.423	95.88
506.64	91.88
506.856	92.88
507.073	90.88
507.289	69.88
507.506	95.88
507.722	111.88
507.939	103.88
508.155	81.88
508.372	111.88
508.588	97.88
508.805	83.88
509.021	93.88
509.238	97.88
509.454	106.88
509.67	92.88
509.887	108.88
510.103	113.88
510.319	178.88
510.536	679.88
510.752	2033.88
510.968	583.88
511.184	147.88
511.401	90.88
511.617	90.88
511.833	87.88
512.049	97.88
512.265	87.88
512.481	104.88
512.698	101.88
512.914	100.88
513.13	100.88
513.346	100.88
513.562	91.88
513.778	83.88
513.994	99.88
514.21	99.88
514.426	118.88
514.642	108.88
514.858	127.88
515.074	153.88
515.29	378.88
515.506	1219.88
515.721	452.88
515.937	142.88
516.153	99.88
