Data from Uncirc_2002_H10_HRD10591_00055.txt Node
Date: Wed Jan 03 10:39:52 EST 2024
User: Yrep
Spectrometer: HR+D1059
Trigger mode: 1
Integration Time (sec): 1.000000E-1
Scans to average: 1
Electric dark correction enabled: true
Nonlinearity correction enabled: false
Boxcar width: 0
XAxis mode: Wavelengths
Number of Pixels in Spectrum: 2048
>>>>>Begin Spectral Data<<<<<
223.165	-21.19
223.4	-21.19
223.635	-21.19
223.869	-20.19
224.104	-25.19
224.338	-26.19
224.573	-23.19
224.808	-13.19
225.042	-3.19
225.277	-15.19
225.511	0.81
225.746	1.81
225.98	9.81
226.215	21.81
226.449	22.81
226.683	16.81
226.918	29.81
227.152	43.81
227.387	44.81
227.621	40.81
227.856	26.81
228.09	51.81
228.324	51.81
228.559	65.81
228.793	57.81
229.027	61.81
229.262	55.81
229.496	76.81
229.73	91.81
229.964	81.81
230.199	86.81
230.433	76.81
230.667	80.81
230.901	71.81
231.136	80.81
231.37	84.81
231.604	82.81
231.838	82.81
232.072	100.81
232.306	93.81
232.541	87.81
232.775	65.81
233.009	75.81
233.243	86.81
233.477	79.81
233.711	84.81
233.945	89.81
234.179	78.81
234.413	85.81
234.647	65.81
234.881	84.81
235.115	74.81
235.349	84.81
235.583	83.81
235.817	85.81
236.051	86.81
236.285	83.81
236.519	76.81
236.753	96.81
236.987	84.81
237.221	77.81
237.455	72.81
237.689	76.81
237.922	68.81
238.156	69.81
238.39	91.81
238.624	77.81
238.858	76.81
239.091	100.81
239.325	86.81
239.559	77.81
239.793	77.81
240.027	78.81
240.26	88.81
240.494	80.81
240.728	73.81
240.961	87.81
241.195	83.81
241.429	83.81
241.662	84.81
241.896	89.81
242.13	79.81
242.363	76.81
242.597	78.81
242.83	71.81
243.064	81.81
243.298	91.81
243.531	75.81
243.765	73.81
243.998	76.81
244.232	78.81
244.465	79.81
244.699	69.81
244.932	71.81
245.166	71.81
245.399	84.81
245.633	84.81
245.866	79.81
246.099	81.81
246.333	95.81
246.566	71.81
246.8	89.81
247.033	86.81
247.266	75.81
247.5	77.81
247.733	95.81
247.966	93.81
248.2	87.81
248.433	99.81
248.666	84.81
248.899	96.81
249.133	87.81
249.366	92.81
249.599	98.81
249.832	92.81
250.066	91.81
250.299	83.81
250.532	83.81
250.765	81.81
250.998	83.81
251.231	81.81
251.465	89.81
251.698	87.81
251.931	75.81
252.164	84.81
252.397	82.81
252.63	98.81
252.863	103.81
253.096	76.81
253.329	74.81
253.562	71.81
253.795	84.81
254.028	75.81
254.261	92.81
254.494	84.81
254.727	92.81
254.96	58.81
255.193	79.81
255.426	67.81
255.659	78.81
255.892	91.81
256.124	69.81
256.357	79.81
256.59	79.81
256.823	88.81
257.056	85.81
257.289	75.81
257.521	88.81
257.754	85.81
257.987	81.81
258.22	86.81
258.452	83.81
258.685	85.81
258.918	88.81
259.151	75.81
259.383	72.81
259.616	89.81
259.849	100.81
260.081	65.81
260.314	75.81
260.547	81.81
260.779	85.81
261.012	72.81
261.244	81.81
261.477	74.81
261.71	98.81
261.942	99.81
262.175	111.81
262.407	98.81
262.64	82.81
262.872	77.81
263.105	87.81
263.337	85.81
263.57	83.81
263.802	84.81
264.035	79.81
264.267	85.81
264.499	84.81
264.732	88.81
264.964	75.81
265.197	82.81
265.429	94.81
265.661	80.81
265.894	84.81
266.126	78.81
266.358	91.81
266.591	85.81
266.823	93.81
267.055	86.81
267.287	93.81
267.52	82.81
267.752	60.81
267.984	93.81
268.216	90.81
268.448	83.81
268.681	88.81
268.913	96.81
269.145	88.81
269.377	69.81
269.609	83.81
269.841	80.81
270.073	88.81
270.306	84.81
270.538	83.81
270.77	85.81
271.002	81.81
271.234	96.81
271.466	82.81
271.698	67.81
271.93	91.81
272.162	89.81
272.394	84.81
272.626	99.81
272.858	98.81
273.09	94.81
273.322	83.81
273.553	88.81
273.785	81.81
274.017	97.81
274.249	82.81
274.481	73.81
274.713	80.81
274.945	94.81
275.176	97.81
275.408	79.81
275.64	93.81
275.872	88.81
276.104	97.81
276.335	73.81
276.567	101.81
276.799	94.81
277.031	81.81
277.262	95.81
277.494	87.81
277.726	93.81
277.957	110.81
278.189	96.81
278.421	96.81
278.652	84.81
278.884	85.81
279.115	85.81
279.347	74.81
279.579	77.81
279.81	78.81
280.042	79.81
280.273	80.81
280.505	80.81
280.736	87.81
280.968	95.81
281.199	94.81
281.431	85.81
281.662	91.81
281.894	86.81
282.125	95.81
282.356	111.81
282.588	124.81
282.819	102.81
283.051	103.81
283.282	81.81
283.513	89.81
283.745	89.81
283.976	90.81
284.207	92.81
284.439	88.81
284.67	91.81
284.901	88.81
285.132	65.81
285.364	83.81
285.595	103.81
285.826	86.81
286.057	101.81
286.288	75.81
286.52	85.81
286.751	81.81
286.982	88.81
287.213	97.81
287.444	93.81
287.675	96.81
287.906	92.81
288.138	79.81
288.369	92.81
288.6	94.81
288.831	104.81
289.062	87.81
289.293	79.81
289.524	84.81
289.755	81.81
289.986	87.81
290.217	83.81
290.448	78.81
290.679	85.81
290.91	90.81
291.141	88.81
291.371	85.81
291.602	83.81
291.833	98.81
292.064	86.81
292.295	90.81
292.526	86.81
292.757	96.81
292.987	91.81
293.218	78.81
293.449	92.81
293.68	79.81
293.91	98.81
294.141	91.81
294.372	81.81
294.603	84.81
294.833	85.81
295.064	96.81
295.295	94.81
295.525	107.81
295.756	104.81
295.987	111.81
296.217	141.81
296.448	118.81
296.679	83.81
296.909	91.81
297.14	88.81
297.37	89.81
297.601	98.81
297.831	87.81
298.062	91.81
298.292	96.81
298.523	92.81
298.753	79.81
298.984	83.81
299.214	89.81
299.445	71.81
299.675	88.81
299.905	93.81
300.136	93.81
300.366	88.81
300.597	97.81
300.827	90.81
301.057	86.81
301.288	107.81
301.518	90.81
301.748	93.81
301.979	113.81
302.209	87.81
302.439	101.81
302.669	81.81
302.9	92.81
303.13	81.81
303.36	95.81
303.59	127.81
303.82	109.81
304.051	99.81
304.281	91.81
304.511	105.81
304.741	92.81
304.971	96.81
305.201	87.81
305.431	85.81
305.661	79.81
305.891	91.81
306.121	89.81
306.352	92.81
306.582	106.81
306.812	108.81
307.042	88.81
307.272	86.81
307.502	71.81
307.731	91.81
307.961	93.81
308.191	87.81
308.421	99.81
308.651	93.81
308.881	89.81
309.111	85.81
309.341	96.81
309.571	91.81
309.8	85.81
310.03	87.81
310.26	89.81
310.49	84.81
310.72	87.81
310.949	108.81
311.179	112.81
311.409	101.81
311.639	80.81
311.868	90.81
312.098	80.81
312.328	90.81
312.557	108.81
312.787	110.81
313.017	99.81
313.246	94.81
313.476	90.81
313.706	106.81
313.935	92.81
314.165	95.81
314.394	96.81
314.624	80.81
314.853	109.81
315.083	88.81
315.312	96.81
315.542	83.81
315.771	79.81
316.001	92.81
316.23	97.81
316.46	85.81
316.689	76.81
316.919	96.81
317.148	94.81
317.377	87.81
317.607	83.81
317.836	89.81
318.065	98.81
318.295	84.81
318.524	83.81
318.753	85.81
318.983	87.81
319.212	91.81
319.441	110.81
319.67	102.81
319.9	93.81
320.129	97.81
320.358	93.81
320.587	99.81
320.816	103.81
321.046	91.81
321.275	100.81
321.504	90.81
321.733	90.81
321.962	101.81
322.191	96.81
322.42	103.81
322.649	112.81
322.878	113.81
323.108	107.81
323.337	119.81
323.566	128.81
323.795	143.81
324.024	194.81
324.253	341.81
324.482	675.81
324.71	1361.81
324.939	1768.81
325.168	675.81
325.397	215.81
325.626	134.81
325.855	127.81
326.084	106.81
326.313	115.81
326.542	147.81
326.77	207.81
326.999	396.81
327.228	764.81
327.457	1382.81
327.686	1095.81
327.914	324.81
328.143	168.81
328.372	135.81
328.6	127.81
328.829	120.81
329.058	124.81
329.287	119.81
329.515	106.81
329.744	107.81
329.972	111.81
330.201	113.81
330.43	107.81
330.658	104.81
330.887	123.81
331.115	112.81
331.344	93.81
331.572	116.81
331.801	105.81
332.03	95.81
332.258	95.81
332.486	104.81
332.715	86.81
332.943	93.81
333.172	90.81
333.4	109.81
333.629	99.81
333.857	111.81
334.085	99.81
334.314	89.81
334.542	106.81
334.771	107.81
334.999	99.81
335.227	105.81
335.455	99.81
335.684	82.81
335.912	97.81
336.14	83.81
336.369	93.81
336.597	103.81
336.825	100.81
337.053	82.81
337.281	91.81
337.51	102.81
337.738	90.81
337.966	94.81
338.194	85.81
338.422	90.81
338.65	75.81
338.878	89.81
339.106	92.81
339.334	86.81
339.562	103.81
339.79	76.81
340.018	86.81
340.246	93.81
340.474	88.81
340.702	99.81
340.93	93.81
341.158	100.81
341.386	88.81
341.614	95.81
341.842	81.81
342.07	85.81
342.298	83.81
342.526	71.81
342.754	89.81
342.981	89.81
343.209	89.81
343.437	100.81
343.665	72.81
343.893	87.81
344.12	92.81
344.348	102.81
344.576	85.81
344.804	92.81
345.031	109.81
345.259	100.81
345.487	93.81
345.714	96.81
345.942	100.81
346.17	97.81
346.397	116.81
346.625	92.81
346.853	92.81
347.08	88.81
347.308	98.81
347.535	92.81
347.763	93.81
347.99	103.81
348.218	94.81
348.445	111.81
348.673	107.81
348.9	101.81
349.128	97.81
349.355	83.81
349.583	97.81
349.81	92.81
350.037	97.81
350.265	101.81
350.492	90.81
350.72	93.81
350.947	96.81
351.174	113.81
351.402	109.81
351.629	89.81
351.856	99.81
352.083	101.81
352.311	107.81
352.538	113.81
352.765	97.81
352.992	100.81
353.22	101.81
353.447	106.81
353.674	98.81
353.901	102.81
354.128	98.81
354.355	97.81
354.583	92.81
354.81	95.81
355.037	95.81
355.264	83.81
355.491	88.81
355.718	100.81
355.945	82.81
356.172	100.81
356.399	95.81
356.626	96.81
356.853	109.81
357.08	97.81
357.307	113.81
357.534	102.81
357.761	103.81
357.988	97.81
358.215	96.81
358.441	89.81
358.668	90.81
358.895	96.81
359.122	84.81
359.349	76.81
359.576	83.81
359.802	88.81
360.029	111.81
360.256	108.81
360.483	95.81
360.709	99.81
360.936	97.81
361.163	96.81
361.39	99.81
361.616	106.81
361.843	97.81
362.07	108.81
362.296	94.81
362.523	95.81
362.749	80.81
362.976	95.81
363.203	100.81
363.429	82.81
363.656	100.81
363.882	85.81
364.109	92.81
364.335	96.81
364.562	84.81
364.788	86.81
365.015	100.81
365.241	94.81
365.468	102.81
365.694	89.81
365.92	101.81
366.147	86.81
366.373	86.81
366.599	92.81
366.826	88.81
367.052	91.81
367.278	89.81
367.505	91.81
367.731	73.81
367.957	89.81
368.184	79.81
368.41	98.81
368.636	107.81
368.862	115.81
369.089	114.81
369.315	101.81
369.541	75.81
369.767	80.81
369.993	90.81
370.219	82.81
370.445	81.81
370.672	82.81
370.898	98.81
371.124	91.81
371.35	96.81
371.576	80.81
371.802	82.81
372.028	83.81
372.254	84.81
372.48	84.81
372.706	102.81
372.932	75.81
373.158	94.81
373.384	92.81
373.61	92.81
373.835	100.81
374.061	90.81
374.287	97.81
374.513	104.81
374.739	98.81
374.965	95.81
375.191	114.81
375.416	96.81
375.642	92.81
375.868	92.81
376.094	81.81
376.319	88.81
376.545	97.81
376.771	97.81
376.997	117.81
377.222	89.81
377.448	91.81
377.674	82.81
377.899	103.81
378.125	83.81
378.35	77.81
378.576	64.81
378.802	84.81
379.027	90.81
379.253	84.81
379.478	84.81
379.704	86.81
379.929	87.81
380.155	82.81
380.38	85.81
380.606	104.81
380.831	106.81
381.057	106.81
381.282	93.81
381.507	93.81
381.733	102.81
381.958	96.81
382.184	94.81
382.409	102.81
382.634	94.81
382.86	90.81
383.085	112.81
383.31	111.81
383.535	113.81
383.761	112.81
383.986	97.81
384.211	87.81
384.436	107.81
384.662	97.81
384.887	102.81
385.112	105.81
385.337	105.81
385.562	94.81
385.787	99.81
386.013	106.81
386.238	101.81
386.463	120.81
386.688	113.81
386.913	102.81
387.138	97.81
387.363	116.81
387.588	89.81
387.813	103.81
388.038	91.81
388.263	112.81
388.488	112.81
388.713	97.81
388.938	91.81
389.163	103.81
389.387	107.81
389.612	89.81
389.837	96.81
390.062	100.81
390.287	92.81
390.512	83.81
390.736	97.81
390.961	99.81
391.186	91.81
391.411	91.81
391.636	84.81
391.86	92.81
392.085	99.81
392.31	86.81
392.534	85.81
392.759	91.81
392.984	94.81
393.208	105.81
393.433	88.81
393.658	93.81
393.882	67.81
394.107	101.81
394.331	103.81
394.556	84.81
394.78	107.81
395.005	94.81
395.229	85.81
395.454	92.81
395.678	88.81
395.903	97.81
396.127	98.81
396.352	89.81
396.576	81.81
396.801	97.81
397.025	93.81
397.249	88.81
397.474	97.81
397.698	91.81
397.922	87.81
398.147	96.81
398.371	87.81
398.595	100.81
398.82	92.81
399.044	85.81
399.268	85.81
399.492	78.81
399.717	95.81
399.941	82.81
400.165	78.81
400.389	77.81
400.613	85.81
400.837	100.81
401.062	99.81
401.286	96.81
401.51	95.81
401.734	80.81
401.958	93.81
402.182	105.81
402.406	149.81
402.63	120.81
402.854	99.81
403.078	94.81
403.302	85.81
403.526	76.81
403.75	98.81
403.974	109.81
404.198	90.81
404.422	89.81
404.645	102.81
404.869	94.81
405.093	88.81
405.317	99.81
405.541	99.81
405.765	101.81
405.988	101.81
406.212	158.81
406.436	200.81
406.66	134.81
406.883	105.81
407.107	98.81
407.331	81.81
407.555	89.81
407.778	83.81
408.002	91.81
408.226	93.81
408.449	92.81
408.673	91.81
408.896	100.81
409.12	80.81
409.344	98.81
409.567	93.81
409.791	97.81
410.014	98.81
410.238	83.81
410.461	88.81
410.685	89.81
410.908	111.81
411.132	95.81
411.355	100.81
411.578	97.81
411.802	75.81
412.025	101.81
412.249	87.81
412.472	83.81
412.695	85.81
412.919	92.81
413.142	87.81
413.365	99.81
413.589	85.81
413.812	76.81
414.035	92.81
414.258	90.81
414.482	101.81
414.705	88.81
414.928	93.81
415.151	86.81
415.374	95.81
415.597	77.81
415.821	89.81
416.044	80.81
416.267	84.81
416.49	96.81
416.713	86.81
416.936	82.81
417.159	85.81
417.382	87.81
417.605	91.81
417.828	97.81
418.051	88.81
418.274	85.81
418.497	94.81
418.72	80.81
418.943	96.81
419.166	92.81
419.389	104.81
419.611	88.81
419.834	92.81
420.057	80.81
420.28	91.81
420.503	93.81
420.726	92.81
420.948	87.81
421.171	84.81
421.394	103.81
421.617	88.81
421.839	81.81
422.062	92.81
422.285	91.81
422.507	84.81
422.73	97.81
422.953	88.81
423.175	97.81
423.398	85.81
423.621	82.81
423.843	99.81
424.066	88.81
424.288	93.81
424.511	90.81
424.733	87.81
424.956	104.81
425.178	92.81
425.401	105.81
425.623	89.81
425.846	90.81
426.068	88.81
426.291	102.81
426.513	99.81
426.735	107.81
426.958	94.81
427.18	96.81
427.402	124.81
427.625	139.81
427.847	120.81
428.069	117.81
428.292	106.81
428.514	88.81
428.736	83.81
428.958	96.81
429.181	82.81
429.403	86.81
429.625	91.81
429.847	99.81
430.069	93.81
430.292	99.81
430.514	97.81
430.736	92.81
430.958	88.81
431.18	64.81
431.402	86.81
431.624	98.81
431.846	89.81
432.068	85.81
432.29	91.81
432.512	96.81
432.734	90.81
432.956	89.81
433.178	98.81
433.4	92.81
433.622	102.81
433.844	87.81
434.066	105.81
434.287	90.81
434.509	80.81
434.731	96.81
434.953	83.81
435.175	85.81
435.397	89.81
435.618	91.81
435.84	107.81
436.062	104.81
436.284	111.81
436.505	106.81
436.727	92.81
436.949	88.81
437.17	90.81
437.392	101.81
437.614	100.81
437.835	107.81
438.057	109.81
438.278	95.81
438.5	105.81
438.721	119.81
438.943	103.81
439.165	83.81
439.386	101.81
439.608	104.81
439.829	98.81
440.05	113.81
440.272	122.81
440.493	85.81
440.715	93.81
440.936	85.81
441.158	82.81
441.379	88.81
441.6	85.81
441.822	92.81
442.043	86.81
442.264	88.81
442.486	103.81
442.707	97.81
442.928	113.81
443.149	117.81
443.371	121.81
443.592	99.81
443.813	108.81
444.034	98.81
444.255	95.81
444.476	94.81
444.698	69.81
444.919	87.81
445.14	132.81
445.361	120.81
445.582	111.81
445.803	122.81
446.024	124.81
446.245	111.81
446.466	117.81
446.687	94.81
446.908	83.81
447.129	78.81
447.35	94.81
447.571	97.81
447.792	101.81
448.013	100.81
448.234	103.81
448.455	98.81
448.675	96.81
448.896	108.81
449.117	86.81
449.338	102.81
449.559	118.81
449.779	121.81
450	107.81
450.221	87.81
450.442	79.81
450.662	78.81
450.883	94.81
451.104	95.81
451.324	85.81
451.545	103.81
451.766	86.81
451.986	93.81
452.207	83.81
452.428	79.81
452.648	103.81
452.869	97.81
453.089	115.81
453.31	117.81
453.53	90.81
453.751	92.81
453.971	103.81
454.192	110.81
454.412	96.81
454.633	96.81
454.853	77.81
455.073	88.81
455.294	87.81
455.514	89.81
455.734	82.81
455.955	83.81
456.175	95.81
456.395	84.81
456.616	80.81
456.836	96.81
457.056	94.81
457.276	84.81
457.497	87.81
457.717	73.81
457.937	90.81
458.157	82.81
458.377	93.81
458.598	105.81
458.818	138.81
459.038	145.81
459.258	114.81
459.478	87.81
459.698	98.81
459.918	89.81
460.138	82.81
460.358	95.81
460.578	80.81
460.798	84.81
461.018	79.81
461.238	93.81
461.458	90.81
461.678	82.81
461.898	84.81
462.118	80.81
462.338	95.81
462.558	84.81
462.777	95.81
462.997	81.81
463.217	96.81
463.437	87.81
463.657	92.81
463.876	102.81
464.096	85.81
464.316	89.81
464.536	90.81
464.755	97.81
464.975	111.81
465.195	137.81
465.414	150.81
465.634	98.81
465.854	102.81
466.073	99.81
466.293	91.81
466.512	79.81
466.732	89.81
466.951	86.81
467.171	90.81
467.391	85.81
467.61	99.81
467.829	103.81
468.049	81.81
468.268	78.81
468.488	73.81
468.707	89.81
468.927	81.81
469.146	101.81
469.365	100.81
469.585	84.81
469.804	90.81
470.023	81.81
470.243	90.81
470.462	89.81
470.681	100.81
470.901	96.81
471.12	90.81
471.339	89.81
471.558	88.81
471.777	87.81
471.997	75.81
472.216	100.81
472.435	103.81
472.654	96.81
472.873	81.81
473.092	92.81
473.311	90.81
473.53	84.81
473.749	82.81
473.968	96.81
474.187	101.81
474.406	82.81
474.625	95.81
474.844	90.81
475.063	91.81
475.282	91.81
475.501	76.81
475.72	88.81
475.939	89.81
476.158	86.81
476.377	82.81
476.596	104.81
476.814	103.81
477.033	84.81
477.252	96.81
477.471	72.81
477.69	78.81
477.908	85.81
478.127	85.81
478.346	94.81
478.564	90.81
478.783	94.81
479.002	91.81
479.22	93.81
479.439	94.81
479.658	92.81
479.876	82.81
480.095	88.81
480.313	98.81
480.532	96.81
480.751	106.81
480.969	88.81
481.188	110.81
481.406	94.81
481.624	89.81
481.843	81.81
482.061	103.81
482.28	98.81
482.498	99.81
482.717	88.81
482.935	96.81
483.153	89.81
483.372	85.81
483.59	101.81
483.808	96.81
484.027	70.81
484.245	85.81
484.463	96.81
484.681	92.81
484.9	89.81
485.118	95.81
485.336	99.81
485.554	102.81
485.772	91.81
485.99	92.81
486.209	91.81
486.427	101.81
486.645	113.81
486.863	113.81
487.081	112.81
487.299	98.81
487.517	96.81
487.735	83.81
487.953	88.81
488.171	84.81
488.389	92.81
488.607	97.81
488.825	84.81
489.043	82.81
489.261	92.81
489.479	101.81
489.696	92.81
489.914	105.81
490.132	78.81
490.35	99.81
490.568	84.81
490.786	86.81
491.003	89.81
491.221	99.81
491.439	91.81
491.657	96.81
491.874	93.81
492.092	85.81
492.31	85.81
492.527	77.81
492.745	86.81
492.963	93.81
493.18	97.81
493.398	99.81
493.615	104.81
493.833	90.81
494.05	108.81
494.268	90.81
494.485	93.81
494.703	96.81
494.92	97.81
495.138	84.81
495.355	93.81
495.573	90.81
495.79	96.81
496.008	91.81
496.225	91.81
496.442	98.81
496.66	92.81
496.877	105.81
497.094	109.81
497.312	88.81
497.529	91.81
497.746	79.81
497.963	90.81
498.181	90.81
498.398	89.81
498.615	103.81
498.832	84.81
499.049	84.81
499.267	89.81
499.484	81.81
499.701	84.81
499.918	85.81
500.135	94.81
500.352	86.81
500.569	91.81
500.786	89.81
501.003	100.81
501.22	80.81
501.437	90.81
501.654	97.81
501.871	105.81
502.088	90.81
502.305	101.81
502.522	97.81
502.739	92.81
502.956	94.81
503.172	89.81
503.389	89.81
503.606	107.81
503.823	101.81
504.04	101.81
504.256	90.81
504.473	89.81
504.69	92.81
504.907	106.81
505.123	92.81
505.34	92.81
505.557	91.81
505.773	99.81
505.99	109.81
506.207	94.81
506.423	87.81
506.64	92.81
506.856	92.81
507.073	75.81
507.289	79.81
507.506	89.81
507.722	98.81
507.939	105.81
508.155	98.81
508.372	93.81
508.588	94.81
508.805	83.81
509.021	99.81
509.238	113.81
509.454	100.81
509.67	91.81
509.887	115.81
510.103	120.81
510.319	204.81
510.536	697.81
510.752	2092.81
510.968	595.81
511.184	153.81
511.401	105.81
511.617	98.81
511.833	98.81
512.049	85.81
512.265	101.81
512.481	94.81
512.698	99.81
512.914	102.81
513.13	112.81
513.346	99.81
513.562	104.81
513.778	79.81
513.994	99.81
514.21	103.81
514.426	122.81
514.642	131.81
514.858	122.81
515.074	151.81
515.29	370.81
515.506	1217.81
515.721	455.81
