Data from Uncirc_2002_H10_HRD10591_00024.txt Node
Date: Wed Jan 03 10:39:45 EST 2024
User: Yrep
Spectrometer: HR+D1059
Trigger mode: 1
Integration Time (sec): 1.000000E-1
Scans to average: 1
Electric dark correction enabled: true
Nonlinearity correction enabled: false
Boxcar width: 0
XAxis mode: Wavelengths
Number of Pixels in Spectrum: 2048
>>>>>Begin Spectral Data<<<<<
223.165	-30.19
223.4	-30.19
223.635	-30.19
223.869	-26.19
224.104	-18.19
224.338	-13.19
224.573	-16.19
224.808	-10.19
225.042	-8.19
225.277	-7.19
225.511	-1.19
225.746	4.81
225.98	7.81
226.215	18.81
226.449	24.81
226.683	17.81
226.918	27.81
227.152	28.81
227.387	44.81
227.621	40.81
227.856	50.81
228.09	38.81
228.324	59.81
228.559	51.81
228.793	166.81
229.027	439.81
229.262	509.81
229.496	584.81
229.73	794.81
229.964	815.81
230.199	517.81
230.433	455.81
230.667	454.81
230.901	429.81
231.136	405.81
231.37	439.81
231.604	440.81
231.838	430.81
232.072	448.81
232.306	435.81
232.541	428.81
232.775	456.81
233.009	448.81
233.243	459.81
233.477	463.81
233.711	486.81
233.945	494.81
234.179	488.81
234.413	485.81
234.647	489.81
234.881	518.81
235.115	527.81
235.349	529.81
235.583	544.81
235.817	570.81
236.051	603.81
236.285	578.81
236.519	598.81
236.753	681.81
236.987	887.81
237.221	1363.81
237.455	1522.81
237.689	872.81
237.922	732.81
238.156	689.81
238.39	681.81
238.624	635.81
238.858	644.81
239.091	642.81
239.325	642.81
239.559	644.81
239.793	698.81
240.027	747.81
240.26	879.81
240.494	973.81
240.728	954.81
240.961	863.81
241.195	816.81
241.429	798.81
241.662	749.81
241.896	746.81
242.13	743.81
242.363	749.81
242.597	760.81
242.83	791.81
243.064	808.81
243.298	816.81
243.531	807.81
243.765	820.81
243.998	810.81
244.232	821.81
244.465	857.81
244.699	863.81
244.932	886.81
245.166	880.81
245.399	861.81
245.633	858.81
245.866	910.81
246.099	927.81
246.333	915.81
246.566	915.81
246.8	934.81
247.033	992.81
247.266	1032.81
247.5	1084.81
247.733	1133.81
247.966	1129.81
248.2	1096.81
248.433	1111.81
248.666	1190.81
248.899	1276.81
249.133	1388.81
249.366	1393.81
249.599	1270.81
249.832	1172.81
250.066	1196.81
250.299	1221.81
250.532	1295.81
250.765	1477.81
250.998	1691.81
251.231	1619.81
251.465	1451.81
251.698	1351.81
251.931	1357.81
252.164	1344.81
252.397	1365.81
252.63	1431.81
252.863	1540.81
253.096	1643.81
253.329	1699.81
253.562	1620.81
253.795	1543.81
254.028	1491.81
254.261	1593.81
254.494	1814.81
254.727	2119.81
254.96	2233.81
255.193	1920.81
255.426	1700.81
255.659	1599.81
255.892	1573.81
256.124	1532.81
256.357	1505.81
256.59	1480.81
256.823	1444.81
257.056	1456.81
257.289	1460.81
257.521	1511.81
257.754	1506.81
257.987	1469.81
258.22	1461.81
258.452	1492.81
258.685	1511.81
258.918	1572.81
259.151	1594.81
259.383	1647.81
259.616	1640.81
259.849	1766.81
260.081	1887.81
260.314	2091.81
260.547	1982.81
260.779	1815.81
261.012	1748.81
261.244	1695.81
261.477	1657.81
261.71	1671.81
261.942	1703.81
262.175	1731.81
262.407	1632.81
262.64	1599.81
262.872	1591.81
263.105	1580.81
263.337	1618.81
263.57	1615.81
263.802	1644.81
264.035	1607.81
264.267	1622.81
264.499	1640.81
264.732	1635.81
264.964	1641.81
265.197	1665.81
265.429	1674.81
265.661	1679.81
265.894	1712.81
266.126	1709.81
266.358	1697.81
266.591	1712.81
266.823	1793.81
267.055	1844.81
267.287	1839.81
267.52	1810.81
267.752	1816.81
267.984	1862.81
268.216	1836.81
268.448	1897.81
268.681	1951.81
268.913	2100.81
269.145	2274.81
269.377	2341.81
269.609	2288.81
269.841	2255.81
270.073	2346.81
270.306	2606.81
270.538	2765.81
270.77	2638.81
271.002	2467.81
271.234	2402.81
271.466	2619.81
271.698	2737.81
271.93	2660.81
272.162	2751.81
272.394	2631.81
272.626	2516.81
272.858	2335.81
273.09	2273.81
273.322	2259.81
273.553	2193.81
273.785	2201.81
274.017	2230.81
274.249	2226.81
274.481	2241.81
274.713	2262.81
274.945	2269.81
275.176	2231.81
275.408	2249.81
275.64	2205.81
275.872	2211.81
276.104	2267.81
276.335	2255.81
276.567	2329.81
276.799	2548.81
277.031	2753.81
277.262	2854.81
277.494	2776.81
277.726	2533.81
277.957	2447.81
278.189	2406.81
278.421	2329.81
278.652	2315.81
278.884	2361.81
279.115	2334.81
279.347	2349.81
279.579	2333.81
279.81	2312.81
280.042	2359.81
280.273	2340.81
280.505	2326.81
280.736	2366.81
280.968	2371.81
281.199	2382.81
281.431	2393.81
281.662	2451.81
281.894	2436.81
282.125	2522.81
282.356	2655.81
282.588	2763.81
282.819	2591.81
283.051	2521.81
283.282	2478.81
283.513	2517.81
283.745	2562.81
283.976	2595.81
284.207	2582.81
284.439	2580.81
284.67	2548.81
284.901	2543.81
285.132	2568.81
285.364	2555.81
285.595	2560.81
285.826	2598.81
286.057	2603.81
286.288	2573.81
286.52	2646.81
286.751	2659.81
286.982	2672.81
287.213	2695.81
287.444	2713.81
287.675	2833.81
287.906	2836.81
288.138	2924.81
288.369	2916.81
288.6	2868.81
288.831	2829.81
289.062	2771.81
289.293	2764.81
289.524	2729.81
289.755	2753.81
289.986	2784.81
290.217	2765.81
290.448	2774.81
290.679	2773.81
290.91	2758.81
291.141	2731.81
291.371	2806.81
291.602	2821.81
291.833	2781.81
292.064	2735.81
292.295	2824.81
292.526	2796.81
292.757	2774.81
292.987	2774.81
293.218	2744.81
293.449	2829.81
293.68	2791.81
293.91	2837.81
294.141	2797.81
294.372	2832.81
294.603	2891.81
294.833	2862.81
295.064	2816.81
295.295	2862.81
295.525	2825.81
295.756	2876.81
295.987	3004.81
296.217	3184.81
296.448	3101.81
296.679	2967.81
296.909	2943.81
297.14	2919.81
297.37	2965.81
297.601	3023.81
297.831	3033.81
298.062	2981.81
298.292	3020.81
298.523	3087.81
298.753	3138.81
298.984	3076.81
299.214	3032.81
299.445	3056.81
299.675	3051.81
299.905	3128.81
300.136	3069.81
300.366	3144.81
300.597	3095.81
300.827	3224.81
301.057	3337.81
301.288	3363.81
301.518	3304.81
301.748	3257.81
301.979	3350.81
302.209	3320.81
302.439	3314.81
302.669	3267.81
302.9	3310.81
303.13	3268.81
303.36	3322.81
303.59	3315.81
303.82	3395.81
304.051	3307.81
304.281	3271.81
304.511	3264.81
304.741	3234.81
304.971	3248.81
305.201	3277.81
305.431	3229.81
305.661	3261.81
305.891	3221.81
306.121	3188.81
306.352	3281.81
306.582	3256.81
306.812	3230.81
307.042	3258.81
307.272	3250.81
307.502	3252.81
307.731	3241.81
307.961	3231.81
308.191	3220.81
308.421	3206.81
308.651	3291.81
308.881	3275.81
309.111	3319.81
309.341	3302.81
309.571	3426.81
309.8	3452.81
310.03	3554.81
310.26	3549.81
310.49	3561.81
310.72	3652.81
310.949	3703.81
311.179	3726.81
311.409	3636.81
311.639	3589.81
311.868	3605.81
312.098	3738.81
312.328	3686.81
312.557	3842.81
312.787	3971.81
313.017	3821.81
313.246	3754.81
313.476	3665.81
313.706	3812.81
313.935	3851.81
314.165	3905.81
314.394	3864.81
314.624	3809.81
314.853	3779.81
315.083	3747.81
315.312	3650.81
315.542	3698.81
315.771	3656.81
316.001	3659.81
316.23	3668.81
316.46	3631.81
316.689	3710.81
316.919	3702.81
317.148	3766.81
317.377	3780.81
317.607	3724.81
317.836	3670.81
318.065	3641.81
318.295	3634.81
318.524	3615.81
318.753	3643.81
318.983	3665.81
319.212	3644.81
319.441	3705.81
319.67	3780.81
319.9	3638.81
320.129	3663.81
320.358	3655.81
320.587	3787.81
320.816	3821.81
321.046	3822.81
321.275	3791.81
321.504	3797.81
321.733	3790.81
321.962	3945.81
322.191	4015.81
322.42	4033.81
322.649	4119.81
322.878	4170.81
323.108	4281.81
323.337	4459.81
323.566	4703.81
323.795	4989.81
324.024	5570.81
324.253	7357.81
324.482	10825.81
324.71	15264.81
324.939	15609.81
325.168	13096.81
325.397	6480.81
325.626	5203.81
325.855	4795.81
326.084	4717.81
326.313	4720.81
326.542	4875.81
326.77	5399.81
326.999	6991.81
327.228	10220.81
327.457	14342.81
327.686	13556.81
327.914	7295.81
328.143	5775.81
328.372	5357.81
328.6	5189.81
328.829	5146.81
329.058	5243.81
329.287	5273.81
329.515	4889.81
329.744	4814.81
329.972	4734.81
330.201	4839.81
330.43	5132.81
330.658	5337.81
330.887	5666.81
331.115	5304.81
331.344	4965.81
331.572	4851.81
331.801	4975.81
332.03	4939.81
332.258	4895.81
332.486	4853.81
332.715	4994.81
332.943	5074.81
333.172	5295.81
333.4	5463.81
333.629	5399.81
333.857	5583.81
334.085	5451.81
334.314	5392.81
334.542	5370.81
334.771	5367.81
334.999	5217.81
335.227	5172.81
335.455	5084.81
335.684	5073.81
335.912	4910.81
336.14	4883.81
336.369	4862.81
336.597	4985.81
336.825	4956.81
337.053	4833.81
337.281	4695.81
337.51	4720.81
337.738	4697.81
337.966	4659.81
338.194	4657.81
338.422	4606.81
338.65	4470.81
338.878	4508.81
339.106	4489.81
339.334	4521.81
339.562	4396.81
339.79	4332.81
340.018	4389.81
340.246	4330.81
340.474	4460.81
340.702	4432.81
340.93	4333.81
341.158	4381.81
341.386	4412.81
341.614	4465.81
341.842	4330.81
342.07	4311.81
342.298	4223.81
342.526	4277.81
342.754	4266.81
342.981	4304.81
343.209	4357.81
343.437	4582.81
343.665	4884.81
343.893	5202.81
344.12	5167.81
344.348	5001.81
344.576	4761.81
344.804	4681.81
345.031	4695.81
345.259	4563.81
345.487	4445.81
345.714	4364.81
345.942	4282.81
346.17	4266.81
346.397	4194.81
346.625	4172.81
346.853	4179.81
347.08	4135.81
347.308	4195.81
347.535	4271.81
347.763	4337.81
347.99	4283.81
348.218	4275.81
348.445	4316.81
348.673	4262.81
348.9	4150.81
349.128	4114.81
349.355	4079.81
349.583	4071.81
349.81	4054.81
350.037	4064.81
350.265	4033.81
350.492	4109.81
350.72	4089.81
350.947	4085.81
351.174	4187.81
351.402	4211.81
351.629	4114.81
351.856	4157.81
352.083	4190.81
352.311	4256.81
352.538	4176.81
352.765	4180.81
352.992	4136.81
353.22	4036.81
353.447	4123.81
353.674	4019.81
353.901	3959.81
354.128	3937.81
354.355	3962.81
354.583	3963.81
354.81	3980.81
355.037	3975.81
355.264	3917.81
355.491	3938.81
355.718	3866.81
355.945	3947.81
356.172	3923.81
356.399	3947.81
356.626	3968.81
356.853	3966.81
357.08	3881.81
357.307	3908.81
357.534	3879.81
357.761	3889.81
357.988	3978.81
358.215	3922.81
358.441	3937.81
358.668	3971.81
358.895	4008.81
359.122	4000.81
359.349	4144.81
359.576	4276.81
359.802	4417.81
360.029	4589.81
360.256	4587.81
360.483	4353.81
360.709	4147.81
360.936	4133.81
361.163	4244.81
361.39	4272.81
361.616	4253.81
361.843	4201.81
362.07	4193.81
362.296	4178.81
362.523	4145.81
362.749	4140.81
362.976	4072.81
363.203	4086.81
363.429	4013.81
363.656	4064.81
363.882	3995.81
364.109	4016.81
364.335	3975.81
364.562	4007.81
364.788	4059.81
365.015	4009.81
365.241	3951.81
365.468	4074.81
365.694	4114.81
365.92	4148.81
366.147	4014.81
366.373	4039.81
366.599	4009.81
366.826	4015.81
367.052	4006.81
367.278	4021.81
367.505	4009.81
367.731	4080.81
367.957	4108.81
368.184	4059.81
368.41	4147.81
368.636	4186.81
368.862	4260.81
369.089	4159.81
369.315	4107.81
369.541	4103.81
369.767	4159.81
369.993	4129.81
370.219	4172.81
370.445	4177.81
370.672	4205.81
370.898	4198.81
371.124	4275.81
371.35	4331.81
371.576	4274.81
371.802	4286.81
372.028	4249.81
372.254	4277.81
372.48	4333.81
372.706	4424.81
372.932	4435.81
373.158	4350.81
373.384	4393.81
373.61	4368.81
373.835	4298.81
374.061	4380.81
374.287	4435.81
374.513	4431.81
374.739	4558.81
374.965	4716.81
375.191	4729.81
375.416	4624.81
375.642	4544.81
375.868	4529.81
376.094	4444.81
376.319	4334.81
376.545	4405.81
376.771	4360.81
376.997	4326.81
377.222	4374.81
377.448	4292.81
377.674	4302.81
377.899	4293.81
378.125	4293.81
378.35	4259.81
378.576	4189.81
378.802	4295.81
379.027	4309.81
379.253	4235.81
379.478	4270.81
379.704	4293.81
379.929	4254.81
380.155	4335.81
380.38	4265.81
380.606	4284.81
380.831	4289.81
381.057	4337.81
381.282	4295.81
381.507	4359.81
381.733	4397.81
381.958	4397.81
382.184	4421.81
382.409	4526.81
382.634	4513.81
382.86	4547.81
383.085	4615.81
383.31	4712.81
383.535	4691.81
383.761	4718.81
383.986	4825.81
384.211	4973.81
384.436	5021.81
384.662	5059.81
384.887	5122.81
385.112	5196.81
385.337	5198.81
385.562	5238.81
385.787	5197.81
386.013	5327.81
386.238	5359.81
386.463	5257.81
386.688	5292.81
386.913	5173.81
387.138	5144.81
387.363	5111.81
387.588	5125.81
387.813	5079.81
388.038	5082.81
388.263	5220.81
388.488	5206.81
388.713	5147.81
388.938	5179.81
389.163	5165.81
389.387	5101.81
389.612	5057.81
389.837	5016.81
390.062	5042.81
390.287	5011.81
390.512	5057.81
390.736	5133.81
390.961	5253.81
391.186	5331.81
391.411	5496.81
391.636	5577.81
391.86	5720.81
392.085	5790.81
392.31	5643.81
392.534	5570.81
392.759	5519.81
392.984	5411.81
393.208	5401.81
393.433	5460.81
393.658	5382.81
393.882	5307.81
394.107	5345.81
394.331	5392.81
394.556	5468.81
394.78	5417.81
395.005	5459.81
395.229	5507.81
395.454	5674.81
395.678	5825.81
395.903	5771.81
396.127	5816.81
396.352	5643.81
396.576	5458.81
396.801	5488.81
397.025	5572.81
397.249	5571.81
397.474	5778.81
397.698	5832.81
397.922	5977.81
398.147	6000.81
398.371	6040.81
398.595	6205.81
398.82	6502.81
399.044	7121.81
399.268	7941.81
399.492	8973.81
399.717	9565.81
399.941	9343.81
400.165	8665.81
400.389	8195.81
400.613	7237.81
400.837	6758.81
401.062	6656.81
401.286	6516.81
401.51	6446.81
401.734	6498.81
401.958	6678.81
402.182	6699.81
402.406	6766.81
402.63	6870.81
402.854	6993.81
403.078	7069.81
403.302	7289.81
403.526	7293.81
403.75	7389.81
403.974	7462.81
404.198	7351.81
404.422	7486.81
404.645	7367.81
404.869	7231.81
405.093	7450.81
405.317	7518.81
405.541	7673.81
405.765	7257.81
405.988	7255.81
406.212	7366.81
406.436	7583.81
406.66	7691.81
406.883	7730.81
407.107	8316.81
407.331	8792.81
407.555	9311.81
407.778	9001.81
408.002	8199.81
408.226	7837.81
408.449	7728.81
408.673	7636.81
408.896	7806.81
409.12	7932.81
409.344	7551.81
409.567	7183.81
409.791	7172.81
410.014	7054.81
410.238	6903.81
410.461	6955.81
410.685	7109.81
410.908	7032.81
411.132	7300.81
411.355	7385.81
411.578	6942.81
411.802	6755.81
412.025	6764.81
412.249	6808.81
412.472	6767.81
412.695	6724.81
412.919	6480.81
413.142	6502.81
413.365	6335.81
413.589	6495.81
413.812	6343.81
414.035	6319.81
414.258	6291.81
414.482	6406.81
414.705	6408.81
414.928	6316.81
415.151	6342.81
415.374	6353.81
415.597	6258.81
415.821	6212.81
416.044	6233.81
416.267	6219.81
416.49	6219.81
416.713	6176.81
416.936	6278.81
417.159	6313.81
417.382	6391.81
417.605	6238.81
417.828	6518.81
418.051	6634.81
418.274	6521.81
418.497	6392.81
418.72	6555.81
418.943	6453.81
419.166	6901.81
419.389	7231.81
419.611	7096.81
419.834	6901.81
420.057	6773.81
420.28	6566.81
420.503	6323.81
420.726	6426.81
420.948	6676.81
421.171	7048.81
421.394	7038.81
421.617	6598.81
421.839	6443.81
422.062	6545.81
422.285	6838.81
422.507	7379.81
422.73	7936.81
422.953	7315.81
423.175	6977.81
423.398	6964.81
423.621	7007.81
423.843	7257.81
424.066	7167.81
424.288	7147.81
424.511	7331.81
424.733	7743.81
424.956	8299.81
425.178	7716.81
425.401	7945.81
425.623	7693.81
425.846	6783.81
426.068	6651.81
426.291	6593.81
426.513	6571.81
426.735	6697.81
426.958	7184.81
427.18	7917.81
427.402	9082.81
427.625	9087.81
427.847	7557.81
428.069	6755.81
428.292	6345.81
428.514	6093.81
428.736	5895.81
428.958	5993.81
429.181	5789.81
429.403	5876.81
429.625	6019.81
429.847	6305.81
430.069	6823.81
430.292	6435.81
430.514	5759.81
430.736	5877.81
430.958	5774.81
431.18	5675.81
431.402	5620.81
431.624	5621.81
431.846	5730.81
432.068	5747.81
432.29	5868.81
432.512	5708.81
432.734	5903.81
432.956	5756.81
433.178	5835.81
433.4	5828.81
433.622	5695.81
433.844	5748.81
434.066	5765.81
434.287	5870.81
434.509	6105.81
434.731	6251.81
434.953	6503.81
435.175	6655.81
435.397	6760.81
435.618	6660.81
435.84	6924.81
436.062	7867.81
436.284	7757.81
436.505	6619.81
436.727	6288.81
436.949	5951.81
437.17	5839.81
437.392	5733.81
437.614	5917.81
437.835	6319.81
438.057	7333.81
438.278	8037.81
438.5	7935.81
438.721	8740.81
438.943	7699.81
439.165	6357.81
439.386	6254.81
439.608	6239.81
439.829	6348.81
440.05	6692.81
440.272	7117.81
440.493	6514.81
440.715	6129.81
440.936	6133.81
441.158	6188.81
441.379	6305.81
441.6	6592.81
441.822	6839.81
442.043	7276.81
442.264	8101.81
442.486	7804.81
442.707	6878.81
442.928	6792.81
443.149	6986.81
443.371	7223.81
443.592	7705.81
443.813	8727.81
444.034	8674.81
444.255	7528.81
444.476	7351.81
444.698	7470.81
444.919	7571.81
445.14	7391.81
445.361	7294.81
445.582	7449.81
445.803	8013.81
446.024	8624.81
446.245	8391.81
446.466	7436.81
446.687	6503.81
446.908	6116.81
447.129	5869.81
447.35	5697.81
447.571	5684.81
447.792	5561.81
448.013	5644.81
448.234	5955.81
448.455	6563.81
448.675	7779.81
448.896	8176.81
449.117	6783.81
449.338	6929.81
449.559	8253.81
449.779	8529.81
450	6500.81
450.221	5772.81
450.442	5562.81
450.662	5411.81
450.883	5528.81
451.104	5618.81
451.324	5504.81
451.545	5320.81
451.766	5150.81
451.986	5047.81
452.207	5037.81
452.428	5041.81
452.648	5030.81
452.869	5100.81
453.089	5176.81
453.31	5283.81
453.53	5061.81
453.751	5038.81
453.971	5085.81
454.192	5106.81
454.412	5040.81
454.633	4976.81
454.853	4888.81
455.073	4965.81
455.294	5396.81
455.514	5916.81
455.734	5363.81
455.955	4793.81
456.175	4696.81
456.395	4701.81
456.616	4598.81
456.836	4659.81
457.056	4660.81
457.276	4560.81
457.497	4751.81
457.717	4748.81
457.937	4889.81
458.157	4832.81
458.377	4974.81
458.598	5325.81
458.818	5967.81
459.038	6730.81
459.258	6692.81
459.478	5900.81
459.698	5767.81
459.918	5912.81
460.138	6093.81
460.358	6299.81
460.578	6280.81
460.798	6421.81
461.018	6372.81
461.238	6237.81
461.458	6259.81
461.678	6195.81
461.898	6332.81
462.118	6419.81
462.338	6761.81
462.558	6834.81
462.777	7071.81
462.997	7704.81
463.217	8119.81
463.437	7955.81
463.657	7307.81
463.876	7040.81
464.096	7180.81
464.316	7188.81
464.536	7155.81
464.755	6954.81
464.975	6850.81
465.195	7047.81
465.414	7071.81
465.634	6220.81
465.854	5854.81
466.073	5586.81
466.293	5521.81
466.512	5320.81
466.732	5221.81
466.951	5300.81
467.171	5283.81
467.391	5296.81
467.61	5336.81
467.829	5280.81
468.049	5245.81
468.268	5062.81
468.488	4999.81
468.707	4974.81
468.927	4976.81
469.146	4971.81
469.365	5072.81
469.585	5103.81
469.804	5239.81
470.023	5431.81
470.243	5407.81
470.462	5508.81
470.681	5567.81
470.901	5568.81
471.12	5365.81
471.339	5280.81
471.558	5316.81
471.777	5210.81
471.997	5105.81
472.216	5033.81
472.435	5015.81
472.654	4971.81
472.873	4847.81
473.092	4997.81
473.311	4917.81
473.53	5027.81
473.749	5135.81
473.968	5716.81
474.187	6723.81
474.406	6258.81
474.625	5248.81
474.844	5047.81
475.063	5025.81
475.282	4987.81
475.501	5118.81
475.72	5111.81
475.939	5157.81
476.158	5132.81
476.377	5231.81
476.596	5204.81
476.814	5332.81
477.033	5428.81
477.252	5486.81
477.471	5494.81
477.69	5609.81
477.908	5803.81
478.127	5871.81
478.346	5889.81
478.564	6101.81
478.783	6179.81
479.002	6352.81
479.22	6386.81
479.439	6363.81
479.658	6557.81
479.876	6590.81
480.095	6771.81
480.313	7162.81
480.532	7046.81
480.751	6834.81
480.969	6807.81
481.188	6749.81
481.406	6361.81
481.624	6251.81
481.843	6079.81
482.061	5972.81
482.28	5826.81
482.498	5892.81
482.717	5819.81
482.935	5816.81
483.153	5830.81
483.372	5760.81
483.59	5813.81
483.808	5812.81
484.027	5799.81
484.245	5988.81
484.463	5918.81
484.681	5982.81
484.9	6017.81
485.118	6067.81
485.336	6192.81
485.554	6211.81
485.772	6268.81
485.99	6331.81
486.209	6307.81
486.427	6258.81
486.645	6371.81
486.863	6455.81
487.081	6361.81
487.299	6395.81
487.517	6328.81
487.735	6237.81
487.953	6254.81
