Data from Uncirc_2002_H10_HRD10591_00075.txt Node
Date: Wed Jan 03 10:39:56 EST 2024
User: Yrep
Spectrometer: HR+D1059
Trigger mode: 1
Integration Time (sec): 1.000000E-1
Scans to average: 1
Electric dark correction enabled: true
Nonlinearity correction enabled: false
Boxcar width: 0
XAxis mode: Wavelengths
Number of Pixels in Spectrum: 2048
>>>>>Begin Spectral Data<<<<<
223.165	-16.56
223.4	-16.56
223.635	-16.56
223.869	-5.56
224.104	-25.56
224.338	-23.56
224.573	-30.56
224.808	0.44
225.042	-9.56
225.277	-2.56
225.511	-0.56
225.746	-2.56
225.98	3.44
226.215	10.44
226.449	16.44
226.683	26.44
226.918	25.44
227.152	34.44
227.387	25.44
227.621	39.44
227.856	50.44
228.09	56.44
228.324	54.44
228.559	45.44
228.793	59.44
229.027	65.44
229.262	57.44
229.496	64.44
229.73	79.44
229.964	75.44
230.199	76.44
230.433	64.44
230.667	80.44
230.901	67.44
231.136	82.44
231.37	69.44
231.604	79.44
231.838	82.44
232.072	90.44
232.306	86.44
232.541	64.44
232.775	77.44
233.009	83.44
233.243	78.44
233.477	82.44
233.711	95.44
233.945	73.44
234.179	82.44
234.413	77.44
234.647	74.44
234.881	89.44
235.115	88.44
235.349	82.44
235.583	83.44
235.817	83.44
236.051	71.44
236.285	68.44
236.519	77.44
236.753	84.44
236.987	79.44
237.221	85.44
237.455	81.44
237.689	81.44
237.922	76.44
238.156	90.44
238.39	81.44
238.624	77.44
238.858	69.44
239.091	85.44
239.325	75.44
239.559	72.44
239.793	80.44
240.027	83.44
240.26	71.44
240.494	87.44
240.728	74.44
240.961	82.44
241.195	66.44
241.429	83.44
241.662	78.44
241.896	74.44
242.13	74.44
242.363	76.44
242.597	71.44
242.83	78.44
243.064	67.44
243.298	72.44
243.531	87.44
243.765	84.44
243.998	75.44
244.232	76.44
244.465	85.44
244.699	83.44
244.932	83.44
245.166	57.44
245.399	68.44
245.633	71.44
245.866	76.44
246.099	79.44
246.333	93.44
246.566	86.44
246.8	66.44
247.033	80.44
247.266	77.44
247.5	94.44
247.733	81.44
247.966	84.44
248.2	66.44
248.433	87.44
248.666	68.44
248.899	74.44
249.133	90.44
249.366	88.44
249.599	100.44
249.832	80.44
250.066	80.44
250.299	78.44
250.532	84.44
250.765	70.44
250.998	82.44
251.231	81.44
251.465	73.44
251.698	85.44
251.931	88.44
252.164	83.44
252.397	84.44
252.63	95.44
252.863	73.44
253.096	70.44
253.329	79.44
253.562	79.44
253.795	87.44
254.028	88.44
254.261	76.44
254.494	82.44
254.727	89.44
254.96	71.44
255.193	73.44
255.426	67.44
255.659	69.44
255.892	79.44
256.124	74.44
256.357	70.44
256.59	79.44
256.823	74.44
257.056	75.44
257.289	77.44
257.521	61.44
257.754	70.44
257.987	69.44
258.22	91.44
258.452	81.44
258.685	89.44
258.918	85.44
259.151	84.44
259.383	61.44
259.616	88.44
259.849	86.44
260.081	84.44
260.314	79.44
260.547	79.44
260.779	78.44
261.012	66.44
261.244	77.44
261.477	89.44
261.71	94.44
261.942	109.44
262.175	84.44
262.407	87.44
262.64	83.44
262.872	81.44
263.105	78.44
263.337	79.44
263.57	83.44
263.802	103.44
264.035	94.44
264.267	100.44
264.499	83.44
264.732	79.44
264.964	84.44
265.197	78.44
265.429	91.44
265.661	87.44
265.894	80.44
266.126	81.44
266.358	95.44
266.591	82.44
266.823	79.44
267.055	86.44
267.287	87.44
267.52	82.44
267.752	91.44
267.984	79.44
268.216	76.44
268.448	83.44
268.681	82.44
268.913	80.44
269.145	88.44
269.377	73.44
269.609	83.44
269.841	84.44
270.073	85.44
270.306	70.44
270.538	81.44
270.77	73.44
271.002	84.44
271.234	87.44
271.466	89.44
271.698	83.44
271.93	101.44
272.162	84.44
272.394	91.44
272.626	88.44
272.858	91.44
273.09	77.44
273.322	88.44
273.553	103.44
273.785	81.44
274.017	82.44
274.249	82.44
274.481	83.44
274.713	71.44
274.945	85.44
275.176	77.44
275.408	82.44
275.64	90.44
275.872	69.44
276.104	92.44
276.335	93.44
276.567	107.44
276.799	109.44
277.031	98.44
277.262	91.44
277.494	69.44
277.726	69.44
277.957	88.44
278.189	97.44
278.421	97.44
278.652	86.44
278.884	90.44
279.115	86.44
279.347	82.44
279.579	97.44
279.81	92.44
280.042	97.44
280.273	86.44
280.505	79.44
280.736	73.44
280.968	91.44
281.199	81.44
281.431	65.44
281.662	73.44
281.894	74.44
282.125	88.44
282.356	106.44
282.588	126.44
282.819	87.44
283.051	100.44
283.282	86.44
283.513	94.44
283.745	84.44
283.976	71.44
284.207	91.44
284.439	86.44
284.67	91.44
284.901	96.44
285.132	89.44
285.364	105.44
285.595	77.44
285.826	95.44
286.057	83.44
286.288	78.44
286.52	96.44
286.751	72.44
286.982	92.44
287.213	91.44
287.444	89.44
287.675	83.44
287.906	92.44
288.138	86.44
288.369	97.44
288.6	87.44
288.831	95.44
289.062	84.44
289.293	97.44
289.524	89.44
289.755	98.44
289.986	72.44
290.217	91.44
290.448	93.44
290.679	106.44
290.91	100.44
291.141	98.44
291.371	94.44
291.602	91.44
291.833	89.44
292.064	78.44
292.295	85.44
292.526	66.44
292.757	100.44
292.987	92.44
293.218	90.44
293.449	87.44
293.68	91.44
293.91	84.44
294.141	93.44
294.372	83.44
294.603	98.44
294.833	95.44
295.064	97.44
295.295	86.44
295.525	79.44
295.756	98.44
295.987	113.44
296.217	135.44
296.448	130.44
296.679	97.44
296.909	82.44
297.14	96.44
297.37	84.44
297.601	77.44
297.831	89.44
298.062	100.44
298.292	81.44
298.523	87.44
298.753	75.44
298.984	85.44
299.214	84.44
299.445	98.44
299.675	82.44
299.905	88.44
300.136	86.44
300.366	87.44
300.597	86.44
300.827	77.44
301.057	95.44
301.288	118.44
301.518	95.44
301.748	86.44
301.979	91.44
302.209	94.44
302.439	85.44
302.669	95.44
302.9	93.44
303.13	87.44
303.36	99.44
303.59	86.44
303.82	101.44
304.051	83.44
304.281	91.44
304.511	94.44
304.741	105.44
304.971	82.44
305.201	87.44
305.431	76.44
305.661	89.44
305.891	90.44
306.121	94.44
306.352	97.44
306.582	113.44
306.812	91.44
307.042	97.44
307.272	95.44
307.502	81.44
307.731	86.44
307.961	104.44
308.191	92.44
308.421	79.44
308.651	95.44
308.881	87.44
309.111	86.44
309.341	89.44
309.571	94.44
309.8	105.44
310.03	108.44
310.26	92.44
310.49	102.44
310.72	97.44
310.949	95.44
311.179	83.44
311.409	90.44
311.639	101.44
311.868	72.44
312.098	89.44
312.328	92.44
312.557	90.44
312.787	94.44
313.017	95.44
313.246	84.44
313.476	81.44
313.706	86.44
313.935	94.44
314.165	107.44
314.394	93.44
314.624	106.44
314.853	89.44
315.083	83.44
315.312	91.44
315.542	86.44
315.771	104.44
316.001	81.44
316.23	88.44
316.46	92.44
316.689	83.44
316.919	99.44
317.148	97.44
317.377	92.44
317.607	90.44
317.836	82.44
318.065	102.44
318.295	82.44
318.524	79.44
318.753	84.44
318.983	88.44
319.212	89.44
319.441	101.44
319.67	94.44
319.9	90.44
320.129	87.44
320.358	91.44
320.587	98.44
320.816	88.44
321.046	89.44
321.275	98.44
321.504	97.44
321.733	99.44
321.962	106.44
322.191	97.44
322.42	100.44
322.649	97.44
322.878	112.44
323.108	119.44
323.337	105.44
323.566	111.44
323.795	139.44
324.024	192.44
324.253	355.44
324.482	734.44
324.71	1425.44
324.939	1842.44
325.168	683.44
325.397	219.44
325.626	147.44
325.855	142.44
326.084	128.44
326.313	113.44
326.542	140.44
326.77	213.44
326.999	393.44
327.228	831.44
327.457	1434.44
327.686	1152.44
327.914	319.44
328.143	191.44
328.372	139.44
328.6	112.44
328.829	107.44
329.058	109.44
329.287	133.44
329.515	109.44
329.744	100.44
329.972	93.44
330.201	106.44
330.43	113.44
330.658	110.44
330.887	121.44
331.115	107.44
331.344	98.44
331.572	99.44
331.801	87.44
332.03	99.44
332.258	93.44
332.486	103.44
332.715	96.44
332.943	97.44
333.172	87.44
333.4	89.44
333.629	95.44
333.857	99.44
334.085	100.44
334.314	96.44
334.542	102.44
334.771	102.44
334.999	101.44
335.227	106.44
335.455	94.44
335.684	99.44
335.912	89.44
336.14	91.44
336.369	82.44
336.597	91.44
336.825	97.44
337.053	103.44
337.281	98.44
337.51	81.44
337.738	106.44
337.966	101.44
338.194	102.44
338.422	101.44
338.65	100.44
338.878	87.44
339.106	85.44
339.334	81.44
339.562	86.44
339.79	74.44
340.018	85.44
340.246	88.44
340.474	84.44
340.702	96.44
340.93	86.44
341.158	97.44
341.386	99.44
341.614	102.44
341.842	90.44
342.07	77.44
342.298	86.44
342.526	89.44
342.754	96.44
342.981	83.44
343.209	85.44
343.437	99.44
343.665	92.44
343.893	101.44
344.12	83.44
344.348	81.44
344.576	87.44
344.804	82.44
345.031	112.44
345.259	87.44
345.487	96.44
345.714	101.44
345.942	76.44
346.17	89.44
346.397	101.44
346.625	100.44
346.853	89.44
347.08	101.44
347.308	93.44
347.535	84.44
347.763	100.44
347.99	99.44
348.218	102.44
348.445	110.44
348.673	96.44
348.9	87.44
349.128	103.44
349.355	77.44
349.583	95.44
349.81	98.44
350.037	83.44
350.265	102.44
350.492	102.44
350.72	98.44
350.947	80.44
351.174	120.44
351.402	111.44
351.629	91.44
351.856	105.44
352.083	104.44
352.311	113.44
352.538	110.44
352.765	110.44
352.992	104.44
353.22	103.44
353.447	101.44
353.674	108.44
353.901	99.44
354.128	91.44
354.355	88.44
354.583	93.44
354.81	86.44
355.037	95.44
355.264	92.44
355.491	105.44
355.718	99.44
355.945	89.44
356.172	108.44
356.399	98.44
356.626	93.44
356.853	81.44
357.08	81.44
357.307	96.44
357.534	90.44
357.761	98.44
357.988	82.44
358.215	84.44
358.441	93.44
358.668	92.44
358.895	78.44
359.122	81.44
359.349	91.44
359.576	81.44
359.802	89.44
360.029	105.44
360.256	98.44
360.483	101.44
360.709	80.44
360.936	87.44
361.163	89.44
361.39	85.44
361.616	91.44
361.843	102.44
362.07	90.44
362.296	101.44
362.523	79.44
362.749	83.44
362.976	74.44
363.203	99.44
363.429	88.44
363.656	84.44
363.882	89.44
364.109	94.44
364.335	82.44
364.562	87.44
364.788	85.44
365.015	91.44
365.241	106.44
365.468	97.44
365.694	114.44
365.92	89.44
366.147	98.44
366.373	80.44
366.599	82.44
366.826	53.44
367.052	81.44
367.278	93.44
367.505	83.44
367.731	105.44
367.957	87.44
368.184	92.44
368.41	90.44
368.636	97.44
368.862	112.44
369.089	92.44
369.315	82.44
369.541	86.44
369.767	91.44
369.993	90.44
370.219	95.44
370.445	82.44
370.672	89.44
370.898	89.44
371.124	86.44
371.35	93.44
371.576	90.44
371.802	99.44
372.028	97.44
372.254	79.44
372.48	90.44
372.706	80.44
372.932	83.44
373.158	91.44
373.384	110.44
373.61	85.44
373.835	85.44
374.061	95.44
374.287	82.44
374.513	90.44
374.739	103.44
374.965	77.44
375.191	85.44
375.416	94.44
375.642	86.44
375.868	78.44
376.094	97.44
376.319	97.44
376.545	85.44
376.771	81.44
376.997	85.44
377.222	88.44
377.448	90.44
377.674	96.44
377.899	75.44
378.125	81.44
378.35	80.44
378.576	85.44
378.802	85.44
379.027	89.44
379.253	97.44
379.478	98.44
379.704	94.44
379.929	104.44
380.155	103.44
380.38	93.44
380.606	86.44
380.831	86.44
381.057	90.44
381.282	95.44
381.507	94.44
381.733	100.44
381.958	99.44
382.184	88.44
382.409	97.44
382.634	104.44
382.86	98.44
383.085	112.44
383.31	97.44
383.535	110.44
383.761	105.44
383.986	102.44
384.211	106.44
384.436	89.44
384.662	101.44
384.887	102.44
385.112	112.44
385.337	94.44
385.562	106.44
385.787	100.44
386.013	106.44
386.238	92.44
386.463	91.44
386.688	100.44
386.913	105.44
387.138	90.44
387.363	100.44
387.588	108.44
387.813	100.44
388.038	103.44
388.263	106.44
388.488	102.44
388.713	95.44
388.938	88.44
389.163	82.44
389.387	100.44
389.612	93.44
389.837	97.44
390.062	80.44
390.287	88.44
390.512	75.44
390.736	81.44
390.961	100.44
391.186	97.44
391.411	92.44
391.636	95.44
391.86	89.44
392.085	85.44
392.31	77.44
392.534	82.44
392.759	84.44
392.984	89.44
393.208	72.44
393.433	97.44
393.658	81.44
393.882	74.44
394.107	84.44
394.331	91.44
394.556	84.44
394.78	85.44
395.005	98.44
395.229	75.44
395.454	95.44
395.678	101.44
395.903	86.44
396.127	90.44
396.352	105.44
396.576	81.44
396.801	95.44
397.025	81.44
397.249	87.44
397.474	97.44
397.698	73.44
397.922	90.44
398.147	93.44
398.371	98.44
398.595	63.44
398.82	88.44
399.044	81.44
399.268	75.44
399.492	69.44
399.717	81.44
399.941	72.44
400.165	91.44
400.389	78.44
400.613	83.44
400.837	89.44
401.062	102.44
401.286	75.44
401.51	80.44
401.734	88.44
401.958	101.44
402.182	124.44
402.406	135.44
402.63	102.44
402.854	102.44
403.078	90.44
403.302	99.44
403.526	80.44
403.75	81.44
403.974	72.44
404.198	89.44
404.422	89.44
404.645	82.44
404.869	87.44
405.093	94.44
405.317	105.44
405.541	88.44
405.765	110.44
405.988	111.44
406.212	154.44
406.436	207.44
406.66	122.44
406.883	102.44
407.107	105.44
407.331	100.44
407.555	86.44
407.778	102.44
408.002	99.44
408.226	82.44
408.449	91.44
408.673	77.44
408.896	88.44
409.12	101.44
409.344	103.44
409.567	89.44
409.791	97.44
410.014	104.44
410.238	90.44
410.461	100.44
410.685	105.44
410.908	97.44
411.132	108.44
411.355	103.44
411.578	85.44
411.802	87.44
412.025	76.44
412.249	75.44
412.472	85.44
412.695	81.44
412.919	91.44
413.142	95.44
413.365	88.44
413.589	85.44
413.812	90.44
414.035	89.44
414.258	80.44
414.482	89.44
414.705	81.44
414.928	94.44
415.151	99.44
415.374	79.44
415.597	96.44
415.821	80.44
416.044	91.44
416.267	95.44
416.49	84.44
416.713	85.44
416.936	90.44
417.159	82.44
417.382	90.44
417.605	92.44
417.828	93.44
418.051	87.44
418.274	85.44
418.497	81.44
418.72	73.44
418.943	80.44
419.166	80.44
419.389	96.44
419.611	78.44
419.834	93.44
420.057	101.44
420.28	96.44
420.503	81.44
420.726	78.44
420.948	76.44
421.171	88.44
421.394	80.44
421.617	82.44
421.839	84.44
422.062	93.44
422.285	101.44
422.507	98.44
422.73	107.44
422.953	82.44
423.175	78.44
423.398	90.44
423.621	82.44
423.843	87.44
424.066	94.44
424.288	97.44
424.511	79.44
424.733	97.44
424.956	111.44
425.178	94.44
425.401	84.44
425.623	87.44
425.846	88.44
426.068	97.44
426.291	89.44
426.513	86.44
426.735	83.44
426.958	104.44
427.18	90.44
427.402	118.44
427.625	138.44
427.847	120.44
428.069	102.44
428.292	80.44
428.514	76.44
428.736	94.44
428.958	75.44
429.181	96.44
429.403	82.44
429.625	87.44
429.847	103.44
430.069	94.44
430.292	96.44
430.514	92.44
430.736	94.44
430.958	96.44
431.18	83.44
431.402	89.44
431.624	85.44
431.846	71.44
432.068	88.44
432.29	86.44
432.512	84.44
432.734	87.44
432.956	89.44
433.178	83.44
433.4	85.44
433.622	76.44
433.844	92.44
434.066	94.44
434.287	89.44
434.509	97.44
434.731	84.44
434.953	84.44
435.175	84.44
435.397	96.44
435.618	90.44
435.84	93.44
436.062	101.44
436.284	103.44
436.505	100.44
436.727	91.44
436.949	78.44
437.17	82.44
437.392	100.44
437.614	89.44
437.835	87.44
438.057	108.44
438.278	109.44
438.5	94.44
438.721	114.44
438.943	103.44
439.165	84.44
439.386	103.44
439.608	100.44
439.829	86.44
440.05	106.44
440.272	125.44
440.493	97.44
440.715	82.44
440.936	91.44
441.158	101.44
441.379	88.44
441.6	89.44
441.822	89.44
442.043	88.44
442.264	85.44
442.486	96.44
442.707	95.44
442.928	91.44
443.149	118.44
443.371	99.44
443.592	107.44
443.813	96.44
444.034	116.44
444.255	95.44
444.476	91.44
444.698	80.44
444.919	99.44
445.14	147.44
445.361	115.44
445.582	105.44
445.803	111.44
446.024	121.44
446.245	107.44
446.466	102.44
446.687	94.44
446.908	85.44
447.129	101.44
447.35	91.44
447.571	80.44
447.792	91.44
448.013	101.44
448.234	93.44
448.455	89.44
448.675	103.44
448.896	105.44
449.117	90.44
449.338	104.44
449.559	118.44
449.779	126.44
450	85.44
450.221	64.44
450.442	90.44
450.662	75.44
450.883	97.44
451.104	97.44
451.324	84.44
451.545	86.44
451.766	81.44
451.986	80.44
452.207	90.44
452.428	83.44
452.648	96.44
452.869	111.44
453.089	99.44
453.31	108.44
453.53	82.44
453.751	94.44
453.971	104.44
454.192	109.44
454.412	86.44
454.633	77.44
454.853	82.44
455.073	82.44
455.294	87.44
455.514	86.44
455.734	91.44
455.955	74.44
456.175	75.44
456.395	86.44
456.616	84.44
456.836	80.44
457.056	81.44
457.276	88.44
457.497	94.44
457.717	66.44
457.937	86.44
458.157	90.44
458.377	88.44
458.598	103.44
458.818	121.44
459.038	141.44
459.258	115.44
459.478	93.44
459.698	80.44
459.918	74.44
460.138	89.44
460.358	88.44
460.578	73.44
460.798	90.44
461.018	93.44
461.238	82.44
461.458	76.44
461.678	88.44
461.898	84.44
462.118	101.44
462.338	82.44
462.558	81.44
462.777	79.44
462.997	77.44
463.217	80.44
463.437	94.44
463.657	72.44
463.876	93.44
464.096	79.44
464.316	103.44
464.536	77.44
464.755	85.44
464.975	87.44
465.195	151.44
465.414	155.44
465.634	105.44
465.854	82.44
466.073	93.44
466.293	94.44
466.512	85.44
466.732	99.44
466.951	83.44
467.171	69.44
467.391	95.44
467.61	103.44
467.829	87.44
468.049	87.44
468.268	96.44
468.488	90.44
468.707	96.44
468.927	86.44
469.146	73.44
469.365	88.44
469.585	84.44
469.804	96.44
470.023	76.44
470.243	87.44
470.462	94.44
470.681	103.44
470.901	82.44
471.12	82.44
471.339	82.44
471.558	75.44
471.777	85.44
471.997	81.44
472.216	86.44
472.435	94.44
472.654	93.44
472.873	80.44
473.092	65.44
473.311	91.44
473.53	82.44
473.749	89.44
473.968	87.44
474.187	102.44
474.406	87.44
474.625	77.44
474.844	85.44
475.063	89.44
475.282	92.44
475.501	65.44
475.72	85.44
475.939	80.44
476.158	90.44
476.377	84.44
476.596	79.44
476.814	86.44
477.033	75.44
477.252	80.44
477.471	77.44
477.69	89.44
477.908	87.44
478.127	80.44
478.346	88.44
478.564	93.44
478.783	87.44
479.002	79.44
479.22	82.44
479.439	96.44
479.658	94.44
479.876	90.44
480.095	102.44
480.313	86.44
480.532	88.44
480.751	88.44
480.969	83.44
481.188	95.44
481.406	105.44
481.624	77.44
481.843	87.44
482.061	95.44
482.28	83.44
482.498	88.44
482.717	89.44
482.935	91.44
483.153	85.44
483.372	91.44
483.59	93.44
483.808	79.44
484.027	96.44
484.245	102.44
484.463	97.44
484.681	97.44
484.9	89.44
485.118	95.44
485.336	86.44
485.554	90.44
485.772	85.44
485.99	107.44
486.209	84.44
486.427	106.44
486.645	102.44
486.863	100.44
487.081	97.44
487.299	99.44
487.517	104.44
487.735	100.44
487.953	83.44
488.171	84.44
488.389	86.44
488.607	93.44
488.825	82.44
489.043	78.44
489.261	109.44
489.479	98.44
489.696	76.44
489.914	92.44
490.132	90.44
490.35	85.44
490.568	79.44
490.786	86.44
491.003	98.44
491.221	88.44
491.439	84.44
491.657	79.44
491.874	85.44
492.092	78.44
492.31	95.44
492.527	85.44
492.745	81.44
492.963	93.44
493.18	89.44
493.398	81.44
493.615	87.44
493.833	93.44
494.05	88.44
494.268	75.44
494.485	86.44
494.703	99.44
494.92	94.44
495.138	90.44
495.355	77.44
495.573	89.44
495.79	86.44
496.008	100.44
496.225	81.44
496.442	100.44
496.66	96.44
496.877	89.44
497.094	86.44
497.312	87.44
497.529	100.44
497.746	85.44
497.963	75.44
498.181	93.44
498.398	92.44
498.615	104.44
498.832	97.44
499.049	98.44
499.267	90.44
499.484	78.44
499.701	93.44
499.918	97.44
500.135	82.44
500.352	106.44
500.569	94.44
500.786	96.44
501.003	88.44
501.22	79.44
501.437	82.44
501.654	84.44
501.871	108.44
502.088	89.44
502.305	85.44
502.522	87.44
502.739	83.44
502.956	80.44
503.172	98.44
503.389	90.44
503.606	103.44
503.823	85.44
504.04	96.44
504.256	95.44
504.473	82.44
504.69	81.44
504.907	92.44
505.123	80.44
505.34	96.44
505.557	88.44
505.773	87.44
505.99	83.44
506.207	79.44
506.423	85.44
506.64	93.44
506.856	99.44
507.073	93.44
507.289	100.44
507.506	91.44
507.722	102.44
507.939	104.44
508.155	89.44
508.372	84.44
508.588	91.44
508.805	102.44
509.021	86.44
509.238	101.44
509.454	97.44
509.67	97.44
509.887	96.44
510.103	127.44
510.319	189.44
510.536	634.44
510.752	2136.44
510.968	597.44
511.184	155.44
511.401	105.44
511.617	94.44
511.833	95.44
512.049	84.44
512.265	80.44
512.481	96.44
512.698	93.44
512.914	91.44
513.13	99.44
513.346	93.44
513.562	88.44
513.778	97.44
513.994	106.44
514.21	86.44
514.426	109.44
514.642	124.44
514.858	111.44
515.074	138.44
515.29	391.44
515.506	1217.44
515.721	453.44
515.937	150.44
516.153	89.44
516.369	88.44
