Data from Uncirc_2002_H10_HRD10591_00016.txt Node
Date: Wed Jan 03 10:39:44 EST 2024
User: Yrep
Spectrometer: HR+D1059
Trigger mode: 1
Integration Time (sec): 1.000000E-1
Scans to average: 1
Electric dark correction enabled: true
Nonlinearity correction enabled: false
Boxcar width: 0
XAxis mode: Wavelengths
Number of Pixels in Spectrum: 2048
>>>>>Begin Spectral Data<<<<<
223.165	-28.94
223.4	-28.94
223.635	-28.94
223.869	-20.94
224.104	-13.94
224.338	-28.94
224.573	-10.94
224.808	-15.94
225.042	-7.94
225.277	1.06
225.511	-8.94
225.746	-3.94
225.98	9.06
226.215	8.06
226.449	28.06
226.683	16.06
226.918	38.06
227.152	40.06
227.387	43.06
227.621	35.06
227.856	49.06
228.09	51.06
228.324	59.06
228.559	48.06
228.793	166.06
229.027	436.06
229.262	495.06
229.496	591.06
229.73	752.06
229.964	762.06
230.199	521.06
230.433	448.06
230.667	438.06
230.901	453.06
231.136	413.06
231.37	432.06
231.604	419.06
231.838	438.06
232.072	446.06
232.306	438.06
232.541	450.06
232.775	461.06
233.009	442.06
233.243	460.06
233.477	469.06
233.711	473.06
233.945	486.06
234.179	499.06
234.413	489.06
234.647	488.06
234.881	490.06
235.115	515.06
235.349	518.06
235.583	536.06
235.817	579.06
236.051	614.06
236.285	584.06
236.519	604.06
236.753	687.06
236.987	871.06
237.221	1310.06
237.455	1426.06
237.689	843.06
237.922	704.06
238.156	679.06
238.39	640.06
238.624	627.06
238.858	616.06
239.091	632.06
239.325	645.06
239.559	654.06
239.793	681.06
240.027	722.06
240.26	870.06
240.494	879.06
240.728	918.06
240.961	838.06
241.195	777.06
241.429	766.06
241.662	763.06
241.896	754.06
242.13	752.06
242.363	748.06
242.597	772.06
242.83	788.06
243.064	823.06
243.298	806.06
243.531	754.06
243.765	800.06
243.998	810.06
244.232	841.06
244.465	859.06
244.699	865.06
244.932	881.06
245.166	850.06
245.399	872.06
245.633	876.06
245.866	879.06
246.099	891.06
246.333	919.06
246.566	937.06
246.8	940.06
247.033	980.06
247.266	1008.06
247.5	1054.06
247.733	1152.06
247.966	1109.06
248.2	1099.06
248.433	1102.06
248.666	1132.06
248.899	1284.06
249.133	1404.06
249.366	1351.06
249.599	1267.06
249.832	1144.06
250.066	1183.06
250.299	1202.06
250.532	1282.06
250.765	1426.06
250.998	1652.06
251.231	1602.06
251.465	1456.06
251.698	1338.06
251.931	1345.06
252.164	1335.06
252.397	1402.06
252.63	1400.06
252.863	1473.06
253.096	1607.06
253.329	1674.06
253.562	1610.06
253.795	1486.06
254.028	1480.06
254.261	1518.06
254.494	1735.06
254.727	2035.06
254.96	2131.06
255.193	1866.06
255.426	1677.06
255.659	1567.06
255.892	1506.06
256.124	1506.06
256.357	1486.06
256.59	1440.06
256.823	1433.06
257.056	1406.06
257.289	1467.06
257.521	1483.06
257.754	1456.06
257.987	1471.06
258.22	1469.06
258.452	1490.06
258.685	1512.06
258.918	1518.06
259.151	1552.06
259.383	1623.06
259.616	1626.06
259.849	1726.06
260.081	1860.06
260.314	2002.06
260.547	1942.06
260.779	1777.06
261.012	1680.06
261.244	1640.06
261.477	1621.06
261.71	1624.06
261.942	1685.06
262.175	1686.06
262.407	1682.06
262.64	1606.06
262.872	1584.06
263.105	1579.06
263.337	1588.06
263.57	1592.06
263.802	1612.06
264.035	1626.06
264.267	1630.06
264.499	1613.06
264.732	1656.06
264.964	1640.06
265.197	1639.06
265.429	1675.06
265.661	1679.06
265.894	1683.06
266.126	1697.06
266.358	1709.06
266.591	1714.06
266.823	1846.06
267.055	1820.06
267.287	1828.06
267.52	1779.06
267.752	1778.06
267.984	1770.06
268.216	1820.06
268.448	1867.06
268.681	1932.06
268.913	2086.06
269.145	2230.06
269.377	2296.06
269.609	2213.06
269.841	2192.06
270.073	2249.06
270.306	2572.06
270.538	2702.06
270.77	2569.06
271.002	2402.06
271.234	2374.06
271.466	2510.06
271.698	2676.06
271.93	2654.06
272.162	2641.06
272.394	2558.06
272.626	2425.06
272.858	2287.06
273.09	2260.06
273.322	2207.06
273.553	2158.06
273.785	2193.06
274.017	2170.06
274.249	2221.06
274.481	2244.06
274.713	2215.06
274.945	2248.06
275.176	2188.06
275.408	2229.06
275.64	2213.06
275.872	2222.06
276.104	2227.06
276.335	2261.06
276.567	2302.06
276.799	2461.06
277.031	2663.06
277.262	2790.06
277.494	2656.06
277.726	2531.06
277.957	2440.06
278.189	2366.06
278.421	2275.06
278.652	2297.06
278.884	2345.06
279.115	2290.06
279.347	2340.06
279.579	2356.06
279.81	2333.06
280.042	2280.06
280.273	2302.06
280.505	2361.06
280.736	2336.06
280.968	2346.06
281.199	2374.06
281.431	2392.06
281.662	2410.06
281.894	2430.06
282.125	2474.06
282.356	2646.06
282.588	2714.06
282.819	2574.06
283.051	2497.06
283.282	2454.06
283.513	2561.06
283.745	2568.06
283.976	2568.06
284.207	2626.06
284.439	2564.06
284.67	2554.06
284.901	2564.06
285.132	2550.06
285.364	2611.06
285.595	2580.06
285.826	2579.06
286.057	2655.06
286.288	2596.06
286.52	2625.06
286.751	2610.06
286.982	2647.06
287.213	2663.06
287.444	2686.06
287.675	2726.06
287.906	2806.06
288.138	2897.06
288.369	2884.06
288.6	2830.06
288.831	2814.06
289.062	2801.06
289.293	2782.06
289.524	2768.06
289.755	2758.06
289.986	2771.06
290.217	2728.06
290.448	2763.06
290.679	2741.06
290.91	2764.06
291.141	2740.06
291.371	2731.06
291.602	2794.06
291.833	2760.06
292.064	2745.06
292.295	2797.06
292.526	2833.06
292.757	2790.06
292.987	2758.06
293.218	2792.06
293.449	2840.06
293.68	2825.06
293.91	2808.06
294.141	2737.06
294.372	2782.06
294.603	2847.06
294.833	2825.06
295.064	2800.06
295.295	2844.06
295.525	2841.06
295.756	2883.06
295.987	2964.06
296.217	3126.06
296.448	3026.06
296.679	2914.06
296.909	2890.06
297.14	2929.06
297.37	2954.06
297.601	3015.06
297.831	2974.06
298.062	3008.06
298.292	3030.06
298.523	3072.06
298.753	3086.06
298.984	3043.06
299.214	3057.06
299.445	3101.06
299.675	3044.06
299.905	3119.06
300.136	3100.06
300.366	3130.06
300.597	3159.06
300.827	3231.06
301.057	3259.06
301.288	3329.06
301.518	3252.06
301.748	3284.06
301.979	3323.06
302.209	3302.06
302.439	3307.06
302.669	3294.06
302.9	3233.06
303.13	3222.06
303.36	3283.06
303.59	3247.06
303.82	3326.06
304.051	3330.06
304.281	3274.06
304.511	3203.06
304.741	3244.06
304.971	3220.06
305.201	3293.06
305.431	3235.06
305.661	3281.06
305.891	3176.06
306.121	3212.06
306.352	3285.06
306.582	3248.06
306.812	3191.06
307.042	3225.06
307.272	3207.06
307.502	3175.06
307.731	3251.06
307.961	3230.06
308.191	3234.06
308.421	3170.06
308.651	3235.06
308.881	3226.06
309.111	3338.06
309.341	3368.06
309.571	3418.06
309.8	3461.06
310.03	3483.06
310.26	3489.06
310.49	3488.06
310.72	3637.06
310.949	3694.06
311.179	3658.06
311.409	3602.06
311.639	3549.06
311.868	3556.06
312.098	3597.06
312.328	3707.06
312.557	3859.06
312.787	3934.06
313.017	3779.06
313.246	3728.06
313.476	3670.06
313.706	3708.06
313.935	3803.06
314.165	3858.06
314.394	3899.06
314.624	3868.06
314.853	3766.06
315.083	3705.06
315.312	3682.06
315.542	3638.06
315.771	3672.06
316.001	3615.06
316.23	3625.06
316.46	3646.06
316.689	3677.06
316.919	3724.06
317.148	3721.06
317.377	3687.06
317.607	3672.06
317.836	3611.06
318.065	3635.06
318.295	3584.06
318.524	3626.06
318.753	3598.06
318.983	3632.06
319.212	3659.06
319.441	3666.06
319.67	3690.06
319.9	3611.06
320.129	3624.06
320.358	3621.06
320.587	3672.06
320.816	3719.06
321.046	3752.06
321.275	3740.06
321.504	3814.06
321.733	3795.06
321.962	3819.06
322.191	3928.06
322.42	3984.06
322.649	4055.06
322.878	4111.06
323.108	4199.06
323.337	4339.06
323.566	4533.06
323.795	4890.06
324.024	5350.06
324.253	6824.06
324.482	10227.06
324.71	14639.06
324.939	15612.06
325.168	12047.06
325.397	6273.06
325.626	5175.06
325.855	4714.06
326.084	4611.06
326.313	4618.06
326.542	4743.06
326.77	5330.06
326.999	6606.06
327.228	9536.06
327.457	13706.06
327.686	13040.06
327.914	7021.06
328.143	5598.06
328.372	5195.06
328.6	5091.06
328.829	5130.06
329.058	5195.06
329.287	5165.06
329.515	4814.06
329.744	4659.06
329.972	4614.06
330.201	4786.06
330.43	4926.06
330.658	5226.06
330.887	5541.06
331.115	5193.06
331.344	4840.06
331.572	4773.06
331.801	4899.06
332.03	4855.06
332.258	4831.06
332.486	4840.06
332.715	4920.06
332.943	5166.06
333.172	5221.06
333.4	5376.06
333.629	5396.06
333.857	5487.06
334.085	5402.06
334.314	5387.06
334.542	5317.06
334.771	5267.06
334.999	5217.06
335.227	5096.06
335.455	5133.06
335.684	4972.06
335.912	4961.06
336.14	4900.06
336.369	4886.06
336.597	4939.06
336.825	4907.06
337.053	4754.06
337.281	4675.06
337.51	4719.06
337.738	4644.06
337.966	4644.06
338.194	4585.06
338.422	4557.06
338.65	4526.06
338.878	4452.06
339.106	4462.06
339.334	4427.06
339.562	4447.06
339.79	4322.06
340.018	4358.06
340.246	4370.06
340.474	4388.06
340.702	4356.06
340.93	4304.06
341.158	4364.06
341.386	4345.06
341.614	4458.06
341.842	4291.06
342.07	4263.06
342.298	4247.06
342.526	4298.06
342.754	4214.06
342.981	4330.06
343.209	4400.06
343.437	4559.06
343.665	4886.06
343.893	5176.06
344.12	5124.06
344.348	4913.06
344.576	4683.06
344.804	4686.06
345.031	4540.06
345.259	4496.06
345.487	4379.06
345.714	4329.06
345.942	4147.06
346.17	4172.06
346.397	4134.06
346.625	4184.06
346.853	4157.06
347.08	4133.06
347.308	4183.06
347.535	4246.06
347.763	4269.06
347.99	4261.06
348.218	4303.06
348.445	4235.06
348.673	4195.06
348.9	4199.06
349.128	4072.06
349.355	3990.06
349.583	4015.06
349.81	4073.06
350.037	3982.06
350.265	4022.06
350.492	4037.06
350.72	3980.06
350.947	4101.06
351.174	4112.06
351.402	4172.06
351.629	4088.06
351.856	4084.06
352.083	4131.06
352.311	4241.06
352.538	4186.06
352.765	4210.06
352.992	4075.06
353.22	4110.06
353.447	4002.06
353.674	3959.06
353.901	3918.06
354.128	3950.06
354.355	3915.06
354.583	3918.06
354.81	3888.06
355.037	3989.06
355.264	3897.06
355.491	3905.06
355.718	3871.06
355.945	3903.06
356.172	3914.06
356.399	3888.06
356.626	3917.06
356.853	3902.06
357.08	3943.06
357.307	3925.06
357.534	3885.06
357.761	3915.06
357.988	3935.06
358.215	3946.06
358.441	3902.06
358.668	3986.06
358.895	3990.06
359.122	3994.06
359.349	4088.06
359.576	4186.06
359.802	4400.06
360.029	4531.06
360.256	4423.06
360.483	4384.06
360.709	4189.06
360.936	4190.06
361.163	4214.06
361.39	4187.06
361.616	4137.06
361.843	4122.06
362.07	4153.06
362.296	4138.06
362.523	4143.06
362.749	4175.06
362.976	4033.06
363.203	4019.06
363.429	4025.06
363.656	4013.06
363.882	4023.06
364.109	4017.06
364.335	3962.06
364.562	3983.06
364.788	3997.06
365.015	4051.06
365.241	3991.06
365.468	4056.06
365.694	4042.06
365.92	4056.06
366.147	3997.06
366.373	4029.06
366.599	4019.06
366.826	3910.06
367.052	4010.06
367.278	3915.06
367.505	3959.06
367.731	4087.06
367.957	4015.06
368.184	4040.06
368.41	4128.06
368.636	4242.06
368.862	4243.06
369.089	4109.06
369.315	4063.06
369.541	4089.06
369.767	4098.06
369.993	4123.06
370.219	4116.06
370.445	4123.06
370.672	4180.06
370.898	4121.06
371.124	4189.06
371.35	4249.06
371.576	4306.06
371.802	4283.06
372.028	4254.06
372.254	4300.06
372.48	4329.06
372.706	4366.06
372.932	4424.06
373.158	4378.06
373.384	4293.06
373.61	4350.06
373.835	4318.06
374.061	4305.06
374.287	4465.06
374.513	4500.06
374.739	4598.06
374.965	4707.06
375.191	4728.06
375.416	4570.06
375.642	4427.06
375.868	4482.06
376.094	4400.06
376.319	4347.06
376.545	4380.06
376.771	4304.06
376.997	4303.06
377.222	4321.06
377.448	4248.06
377.674	4275.06
377.899	4240.06
378.125	4269.06
378.35	4268.06
378.576	4235.06
378.802	4212.06
379.027	4206.06
379.253	4294.06
379.478	4241.06
379.704	4195.06
379.929	4264.06
380.155	4303.06
380.38	4242.06
380.606	4326.06
380.831	4264.06
381.057	4241.06
381.282	4311.06
381.507	4403.06
381.733	4459.06
381.958	4399.06
382.184	4471.06
382.409	4504.06
382.634	4517.06
382.86	4555.06
383.085	4627.06
383.31	4680.06
383.535	4721.06
383.761	4812.06
383.986	4857.06
384.211	4922.06
384.436	5024.06
384.662	5108.06
384.887	5209.06
385.112	5139.06
385.337	5151.06
385.562	5158.06
385.787	5202.06
386.013	5238.06
386.238	5349.06
386.463	5290.06
386.688	5220.06
386.913	5120.06
387.138	5118.06
387.363	5170.06
387.588	5134.06
387.813	5144.06
388.038	5085.06
388.263	5154.06
388.488	5177.06
388.713	5193.06
388.938	5160.06
389.163	5111.06
389.387	5057.06
389.612	5026.06
389.837	5050.06
390.062	5001.06
390.287	5048.06
390.512	5045.06
390.736	5127.06
390.961	5264.06
391.186	5294.06
391.411	5468.06
391.636	5586.06
391.86	5767.06
392.085	5788.06
392.31	5707.06
392.534	5574.06
392.759	5603.06
392.984	5365.06
393.208	5431.06
393.433	5475.06
393.658	5386.06
393.882	5305.06
394.107	5390.06
394.331	5426.06
394.556	5454.06
394.78	5516.06
395.005	5488.06
395.229	5608.06
395.454	5750.06
395.678	5820.06
395.903	5828.06
396.127	5776.06
396.352	5702.06
396.576	5518.06
396.801	5499.06
397.025	5553.06
397.249	5667.06
397.474	5840.06
397.698	5739.06
397.922	5917.06
398.147	6026.06
398.371	6081.06
398.595	6264.06
398.82	6614.06
399.044	7026.06
399.268	7915.06
399.492	8953.06
399.717	9576.06
399.941	9351.06
400.165	8636.06
400.389	7963.06
400.613	7194.06
400.837	6830.06
401.062	6524.06
401.286	6574.06
401.51	6472.06
401.734	6362.06
401.958	6573.06
402.182	6741.06
402.406	6714.06
402.63	6853.06
402.854	6919.06
403.078	7036.06
403.302	7126.06
403.526	7302.06
403.75	7374.06
403.974	7427.06
404.198	7355.06
404.422	7429.06
404.645	7414.06
404.869	7299.06
405.093	7345.06
405.317	7488.06
405.541	7515.06
405.765	7257.06
405.988	7205.06
406.212	7330.06
406.436	7520.06
406.66	7628.06
406.883	7709.06
407.107	8244.06
407.331	8796.06
407.555	9245.06
407.778	8945.06
408.002	8222.06
408.226	7859.06
408.449	7787.06
408.673	7619.06
408.896	7699.06
409.12	7887.06
409.344	7575.06
409.567	7121.06
409.791	7123.06
410.014	7071.06
410.238	6925.06
410.461	6897.06
410.685	6987.06
410.908	7029.06
411.132	7271.06
411.355	7284.06
411.578	6907.06
411.802	6680.06
412.025	6703.06
412.249	6745.06
412.472	6854.06
412.695	6728.06
412.919	6555.06
413.142	6446.06
413.365	6430.06
413.589	6458.06
413.812	6262.06
414.035	6233.06
414.258	6345.06
414.482	6389.06
414.705	6383.06
414.928	6371.06
415.151	6393.06
415.374	6372.06
415.597	6264.06
415.821	6150.06
416.044	6230.06
416.267	6244.06
416.49	6192.06
416.713	6190.06
416.936	6239.06
417.159	6278.06
417.382	6383.06
417.605	6338.06
417.828	6478.06
418.051	6632.06
418.274	6495.06
418.497	6360.06
418.72	6502.06
418.943	6416.06
419.166	6856.06
419.389	7320.06
419.611	7091.06
419.834	6945.06
420.057	6836.06
420.28	6529.06
420.503	6292.06
420.726	6403.06
420.948	6567.06
421.171	6976.06
421.394	7015.06
421.617	6512.06
421.839	6477.06
422.062	6650.06
422.285	6749.06
422.507	7358.06
422.73	7873.06
422.953	7305.06
423.175	6920.06
423.398	6917.06
423.621	6911.06
423.843	7180.06
424.066	7119.06
424.288	7099.06
424.511	7310.06
424.733	7667.06
424.956	8130.06
425.178	7577.06
425.401	7834.06
425.623	7613.06
425.846	6776.06
426.068	6654.06
426.291	6529.06
426.513	6471.06
426.735	6623.06
426.958	6998.06
427.18	7728.06
427.402	8855.06
427.625	8831.06
427.847	7500.06
428.069	6648.06
428.292	6281.06
428.514	6034.06
428.736	5894.06
428.958	5902.06
429.181	5772.06
429.403	5783.06
429.625	5956.06
429.847	6218.06
430.069	6766.06
430.292	6251.06
430.514	5833.06
430.736	5773.06
430.958	5682.06
431.18	5611.06
431.402	5649.06
431.624	5616.06
431.846	5646.06
432.068	5710.06
432.29	5775.06
432.512	5650.06
432.734	5854.06
432.956	5729.06
433.178	5817.06
433.4	5825.06
433.622	5734.06
433.844	5699.06
434.066	5669.06
434.287	5842.06
434.509	6075.06
434.731	6318.06
434.953	6393.06
435.175	6572.06
435.397	6623.06
435.618	6597.06
435.84	6927.06
436.062	7678.06
436.284	7680.06
436.505	6474.06
436.727	6198.06
436.949	5960.06
437.17	5796.06
437.392	5702.06
437.614	5950.06
437.835	6285.06
438.057	7173.06
438.278	7880.06
438.5	7687.06
438.721	8514.06
438.943	7471.06
439.165	6349.06
439.386	6168.06
439.608	6291.06
439.829	6317.06
440.05	6611.06
440.272	6939.06
440.493	6331.06
440.715	6075.06
440.936	6015.06
441.158	6130.06
441.379	6263.06
441.6	6545.06
441.822	6786.06
442.043	7144.06
442.264	7864.06
442.486	7605.06
442.707	6895.06
442.928	6666.06
443.149	6814.06
443.371	7049.06
443.592	7590.06
443.813	8587.06
444.034	8489.06
444.255	7406.06
444.476	7218.06
444.698	7506.06
444.919	7548.06
445.14	7365.06
445.361	7211.06
445.582	7238.06
445.803	7840.06
446.024	8454.06
446.245	8062.06
446.466	7334.06
446.687	6404.06
446.908	6130.06
447.129	5743.06
447.35	5644.06
447.571	5621.06
447.792	5511.06
448.013	5647.06
448.234	5853.06
448.455	6504.06
448.675	7569.06
448.896	8016.06
449.117	6625.06
449.338	6821.06
449.559	8141.06
449.779	8184.06
450	6413.06
450.221	5658.06
450.442	5487.06
450.662	5392.06
450.883	5497.06
451.104	5664.06
451.324	5396.06
451.545	5286.06
451.766	5204.06
451.986	5119.06
452.207	5044.06
452.428	4999.06
452.648	5038.06
452.869	4957.06
453.089	5103.06
453.31	5205.06
453.53	5041.06
453.751	4970.06
453.971	5032.06
454.192	5099.06
454.412	4914.06
454.633	4899.06
454.853	4870.06
455.073	4940.06
455.294	5307.06
455.514	5788.06
455.734	5228.06
455.955	4785.06
456.175	4720.06
456.395	4630.06
456.616	4665.06
456.836	4642.06
457.056	4632.06
457.276	4538.06
457.497	4727.06
457.717	4726.06
457.937	4759.06
458.157	4786.06
458.377	4925.06
458.598	5192.06
458.818	5900.06
459.038	6592.06
459.258	6615.06
459.478	5882.06
459.698	5776.06
459.918	5889.06
460.138	6082.06
460.358	6242.06
460.578	6329.06
460.798	6321.06
461.018	6349.06
461.238	6260.06
461.458	6191.06
461.678	6151.06
461.898	6342.06
462.118	6436.06
462.338	6761.06
462.558	6829.06
462.777	7074.06
462.997	7666.06
463.217	8139.06
463.437	7849.06
463.657	7382.06
463.876	7129.06
464.096	7093.06
464.316	7159.06
464.536	7156.06
464.755	6951.06
464.975	6924.06
465.195	6917.06
465.414	6917.06
465.634	6114.06
465.854	5870.06
466.073	5698.06
466.293	5421.06
466.512	5286.06
466.732	5218.06
466.951	5191.06
467.171	5201.06
467.391	5289.06
467.61	5352.06
467.829	5349.06
468.049	5257.06
468.268	5039.06
468.488	4984.06
468.707	4933.06
468.927	4975.06
469.146	4967.06
469.365	4948.06
469.585	5084.06
469.804	5216.06
470.023	5463.06
470.243	5386.06
470.462	5489.06
470.681	5589.06
470.901	5544.06
471.12	5393.06
471.339	5319.06
471.558	5275.06
471.777	5190.06
471.997	5071.06
472.216	4969.06
472.435	4985.06
472.654	4906.06
472.873	4963.06
473.092	4911.06
473.311	4940.06
473.53	4999.06
473.749	5098.06
473.968	5602.06
474.187	6521.06
474.406	6142.06
474.625	5295.06
474.844	5041.06
475.063	5024.06
475.282	5049.06
475.501	5065.06
475.72	5032.06
475.939	5133.06
476.158	5141.06
476.377	5269.06
476.596	5175.06
476.814	5317.06
477.033	5390.06
477.252	5409.06
477.471	5527.06
477.69	5641.06
477.908	5743.06
478.127	5887.06
478.346	5963.06
478.564	6108.06
478.783	6181.06
479.002	6273.06
479.22	6317.06
479.439	6394.06
479.658	6448.06
479.876	6556.06
480.095	6825.06
480.313	7110.06
480.532	7062.06
480.751	6899.06
480.969	6792.06
481.188	6671.06
481.406	6425.06
481.624	6235.06
481.843	6109.06
482.061	6006.06
482.28	5879.06
482.498	5840.06
482.717	5835.06
482.935	5839.06
483.153	5809.06
483.372	5793.06
483.59	5802.06
483.808	5854.06
484.027	5750.06
484.245	5859.06
484.463	5914.06
484.681	5940.06
484.9	6039.06
485.118	6146.06
485.336	6097.06
485.554	6186.06
485.772	6214.06
485.99	6207.06
486.209	6249.06
486.427	6284.06
486.645	6278.06
486.863	6340.06
487.081	6323.06
487.299	6388.06
487.517	6260.06
487.735	6186.06
487.953	6219.06
