Data from Uncirc_2002_H10_HRD10591_00092.txt Node
Date: Wed Jan 03 10:39:59 EST 2024
User: Yrep
Spectrometer: HR+D1059
Trigger mode: 1
Integration Time (sec): 1.000000E-1
Scans to average: 1
Electric dark correction enabled: true
Nonlinearity correction enabled: false
Boxcar width: 0
XAxis mode: Wavelengths
Number of Pixels in Spectrum: 2048
>>>>>Begin Spectral Data<<<<<
223.165	-18.25
223.4	-18.25
223.635	-18.25
223.869	-20.25
224.104	-12.25
224.338	-11.25
224.573	-13.25
224.808	-6.25
225.042	-7.25
225.277	-0.25
225.511	-14.25
225.746	-6.25
225.98	3.75
226.215	11.75
226.449	24.75
226.683	2.75
226.918	18.75
227.152	47.75
227.387	32.75
227.621	43.75
227.856	33.75
228.09	31.75
228.324	58.75
228.559	37.75
228.793	51.75
229.027	62.75
229.262	58.75
229.496	65.75
229.73	68.75
229.964	94.75
230.199	59.75
230.433	88.75
230.667	72.75
230.901	71.75
231.136	81.75
231.37	67.75
231.604	84.75
231.838	79.75
232.072	79.75
232.306	69.75
232.541	78.75
232.775	81.75
233.009	71.75
233.243	92.75
233.477	91.75
233.711	77.75
233.945	64.75
234.179	80.75
234.413	84.75
234.647	66.75
234.881	79.75
235.115	76.75
235.349	83.75
235.583	89.75
235.817	82.75
236.051	74.75
236.285	59.75
236.519	77.75
236.753	71.75
236.987	87.75
237.221	64.75
237.455	90.75
237.689	95.75
237.922	76.75
238.156	83.75
238.39	72.75
238.624	69.75
238.858	71.75
239.091	89.75
239.325	75.75
239.559	72.75
239.793	77.75
240.027	81.75
240.26	73.75
240.494	61.75
240.728	76.75
240.961	61.75
241.195	81.75
241.429	65.75
241.662	81.75
241.896	80.75
242.13	59.75
242.363	75.75
242.597	68.75
242.83	71.75
243.064	90.75
243.298	71.75
243.531	85.75
243.765	79.75
243.998	73.75
244.232	75.75
244.465	79.75
244.699	79.75
244.932	81.75
245.166	68.75
245.399	67.75
245.633	86.75
245.866	88.75
246.099	73.75
246.333	93.75
246.566	72.75
246.8	70.75
247.033	83.75
247.266	65.75
247.5	76.75
247.733	73.75
247.966	66.75
248.2	73.75
248.433	76.75
248.666	85.75
248.899	80.75
249.133	77.75
249.366	80.75
249.599	94.75
249.832	95.75
250.066	78.75
250.299	78.75
250.532	80.75
250.765	64.75
250.998	72.75
251.231	85.75
251.465	80.75
251.698	76.75
251.931	72.75
252.164	74.75
252.397	80.75
252.63	76.75
252.863	74.75
253.096	74.75
253.329	83.75
253.562	81.75
253.795	79.75
254.028	78.75
254.261	71.75
254.494	79.75
254.727	87.75
254.96	80.75
255.193	78.75
255.426	66.75
255.659	83.75
255.892	85.75
256.124	72.75
256.357	66.75
256.59	81.75
256.823	71.75
257.056	73.75
257.289	87.75
257.521	72.75
257.754	80.75
257.987	89.75
258.22	78.75
258.452	74.75
258.685	86.75
258.918	84.75
259.151	82.75
259.383	86.75
259.616	75.75
259.849	84.75
260.081	85.75
260.314	85.75
260.547	84.75
260.779	74.75
261.012	73.75
261.244	88.75
261.477	83.75
261.71	84.75
261.942	95.75
262.175	100.75
262.407	89.75
262.64	71.75
262.872	83.75
263.105	77.75
263.337	82.75
263.57	87.75
263.802	79.75
264.035	96.75
264.267	90.75
264.499	89.75
264.732	86.75
264.964	73.75
265.197	72.75
265.429	73.75
265.661	79.75
265.894	74.75
266.126	87.75
266.358	80.75
266.591	76.75
266.823	79.75
267.055	84.75
267.287	82.75
267.52	77.75
267.752	89.75
267.984	79.75
268.216	77.75
268.448	86.75
268.681	77.75
268.913	69.75
269.145	86.75
269.377	71.75
269.609	94.75
269.841	100.75
270.073	81.75
270.306	91.75
270.538	75.75
270.77	91.75
271.002	83.75
271.234	85.75
271.466	86.75
271.698	79.75
271.93	93.75
272.162	81.75
272.394	72.75
272.626	75.75
272.858	83.75
273.09	77.75
273.322	90.75
273.553	85.75
273.785	70.75
274.017	76.75
274.249	83.75
274.481	90.75
274.713	97.75
274.945	81.75
275.176	64.75
275.408	83.75
275.64	87.75
275.872	81.75
276.104	82.75
276.335	85.75
276.567	99.75
276.799	113.75
277.031	97.75
277.262	76.75
277.494	72.75
277.726	100.75
277.957	84.75
278.189	86.75
278.421	95.75
278.652	86.75
278.884	100.75
279.115	93.75
279.347	75.75
279.579	79.75
279.81	85.75
280.042	83.75
280.273	78.75
280.505	97.75
280.736	82.75
280.968	84.75
281.199	82.75
281.431	84.75
281.662	84.75
281.894	88.75
282.125	112.75
282.356	110.75
282.588	125.75
282.819	119.75
283.051	93.75
283.282	75.75
283.513	85.75
283.745	97.75
283.976	93.75
284.207	67.75
284.439	78.75
284.67	87.75
284.901	78.75
285.132	82.75
285.364	85.75
285.595	93.75
285.826	80.75
286.057	89.75
286.288	83.75
286.52	86.75
286.751	71.75
286.982	84.75
287.213	82.75
287.444	93.75
287.675	83.75
287.906	85.75
288.138	81.75
288.369	87.75
288.6	85.75
288.831	77.75
289.062	72.75
289.293	87.75
289.524	86.75
289.755	75.75
289.986	81.75
290.217	70.75
290.448	85.75
290.679	78.75
290.91	75.75
291.141	73.75
291.371	79.75
291.602	100.75
291.833	78.75
292.064	80.75
292.295	78.75
292.526	88.75
292.757	92.75
292.987	84.75
293.218	83.75
293.449	80.75
293.68	84.75
293.91	81.75
294.141	76.75
294.372	90.75
294.603	81.75
294.833	88.75
295.064	79.75
295.295	74.75
295.525	88.75
295.756	101.75
295.987	107.75
296.217	129.75
296.448	115.75
296.679	100.75
296.909	102.75
297.14	80.75
297.37	84.75
297.601	75.75
297.831	98.75
298.062	97.75
298.292	72.75
298.523	86.75
298.753	90.75
298.984	101.75
299.214	79.75
299.445	77.75
299.675	77.75
299.905	79.75
300.136	92.75
300.366	89.75
300.597	91.75
300.827	83.75
301.057	89.75
301.288	110.75
301.518	96.75
301.748	91.75
301.979	101.75
302.209	89.75
302.439	89.75
302.669	89.75
302.9	92.75
303.13	83.75
303.36	84.75
303.59	94.75
303.82	105.75
304.051	97.75
304.281	95.75
304.511	99.75
304.741	81.75
304.971	87.75
305.201	81.75
305.431	83.75
305.661	97.75
305.891	89.75
306.121	89.75
306.352	97.75
306.582	95.75
306.812	79.75
307.042	92.75
307.272	77.75
307.502	87.75
307.731	77.75
307.961	78.75
308.191	102.75
308.421	92.75
308.651	86.75
308.881	79.75
309.111	97.75
309.341	95.75
309.571	107.75
309.8	89.75
310.03	95.75
310.26	100.75
310.49	88.75
310.72	86.75
310.949	102.75
311.179	87.75
311.409	88.75
311.639	93.75
311.868	99.75
312.098	93.75
312.328	78.75
312.557	88.75
312.787	94.75
313.017	94.75
313.246	68.75
313.476	102.75
313.706	93.75
313.935	89.75
314.165	102.75
314.394	101.75
314.624	86.75
314.853	92.75
315.083	88.75
315.312	93.75
315.542	79.75
315.771	96.75
316.001	88.75
316.23	86.75
316.46	94.75
316.689	80.75
316.919	82.75
317.148	86.75
317.377	86.75
317.607	96.75
317.836	97.75
318.065	95.75
318.295	93.75
318.524	93.75
318.753	80.75
318.983	93.75
319.212	89.75
319.441	94.75
319.67	100.75
319.9	103.75
320.129	85.75
320.358	81.75
320.587	94.75
320.816	101.75
321.046	108.75
321.275	99.75
321.504	103.75
321.733	94.75
321.962	100.75
322.191	109.75
322.42	101.75
322.649	94.75
322.878	117.75
323.108	98.75
323.337	113.75
323.566	123.75
323.795	142.75
324.024	190.75
324.253	352.75
324.482	699.75
324.71	1451.75
324.939	1841.75
325.168	697.75
325.397	209.75
325.626	141.75
325.855	117.75
326.084	116.75
326.313	125.75
326.542	140.75
326.77	193.75
326.999	396.75
327.228	813.75
327.457	1451.75
327.686	1107.75
327.914	305.75
328.143	169.75
328.372	122.75
328.6	119.75
328.829	109.75
329.058	119.75
329.287	116.75
329.515	104.75
329.744	99.75
329.972	103.75
330.201	90.75
330.43	110.75
330.658	108.75
330.887	127.75
331.115	112.75
331.344	95.75
331.572	115.75
331.801	101.75
332.03	105.75
332.258	84.75
332.486	92.75
332.715	84.75
332.943	95.75
333.172	93.75
333.4	88.75
333.629	88.75
333.857	104.75
334.085	89.75
334.314	87.75
334.542	97.75
334.771	99.75
334.999	90.75
335.227	94.75
335.455	101.75
335.684	111.75
335.912	105.75
336.14	94.75
336.369	100.75
336.597	89.75
336.825	87.75
337.053	92.75
337.281	93.75
337.51	84.75
337.738	92.75
337.966	86.75
338.194	92.75
338.422	94.75
338.65	79.75
338.878	88.75
339.106	84.75
339.334	88.75
339.562	80.75
339.79	96.75
340.018	88.75
340.246	91.75
340.474	87.75
340.702	84.75
340.93	93.75
341.158	92.75
341.386	96.75
341.614	83.75
341.842	97.75
342.07	87.75
342.298	83.75
342.526	94.75
342.754	80.75
342.981	89.75
343.209	83.75
343.437	101.75
343.665	91.75
343.893	95.75
344.12	96.75
344.348	88.75
344.576	83.75
344.804	92.75
345.031	102.75
345.259	90.75
345.487	87.75
345.714	89.75
345.942	92.75
346.17	87.75
346.397	104.75
346.625	81.75
346.853	78.75
347.08	91.75
347.308	97.75
347.535	89.75
347.763	101.75
347.99	87.75
348.218	99.75
348.445	89.75
348.673	93.75
348.9	97.75
349.128	91.75
349.355	88.75
349.583	88.75
349.81	83.75
350.037	99.75
350.265	95.75
350.492	103.75
350.72	89.75
350.947	93.75
351.174	95.75
351.402	109.75
351.629	99.75
351.856	95.75
352.083	105.75
352.311	104.75
352.538	103.75
352.765	101.75
352.992	96.75
353.22	95.75
353.447	110.75
353.674	96.75
353.901	89.75
354.128	87.75
354.355	104.75
354.583	105.75
354.81	98.75
355.037	88.75
355.264	100.75
355.491	93.75
355.718	94.75
355.945	98.75
356.172	94.75
356.399	86.75
356.626	82.75
356.853	89.75
357.08	87.75
357.307	86.75
357.534	93.75
357.761	81.75
357.988	88.75
358.215	96.75
358.441	97.75
358.668	92.75
358.895	99.75
359.122	83.75
359.349	81.75
359.576	99.75
359.802	85.75
360.029	104.75
360.256	86.75
360.483	70.75
360.709	81.75
360.936	106.75
361.163	85.75
361.39	89.75
361.616	102.75
361.843	96.75
362.07	89.75
362.296	97.75
362.523	86.75
362.749	86.75
362.976	90.75
363.203	86.75
363.429	85.75
363.656	78.75
363.882	85.75
364.109	86.75
364.335	87.75
364.562	100.75
364.788	92.75
365.015	93.75
365.241	82.75
365.468	97.75
365.694	96.75
365.92	60.75
366.147	73.75
366.373	89.75
366.599	105.75
366.826	103.75
367.052	75.75
367.278	84.75
367.505	100.75
367.731	87.75
367.957	93.75
368.184	94.75
368.41	102.75
368.636	112.75
368.862	109.75
369.089	100.75
369.315	93.75
369.541	83.75
369.767	95.75
369.993	89.75
370.219	83.75
370.445	85.75
370.672	89.75
370.898	89.75
371.124	79.75
371.35	83.75
371.576	89.75
371.802	79.75
372.028	80.75
372.254	88.75
372.48	88.75
372.706	100.75
372.932	84.75
373.158	73.75
373.384	83.75
373.61	88.75
373.835	91.75
374.061	89.75
374.287	84.75
374.513	101.75
374.739	89.75
374.965	71.75
375.191	97.75
375.416	100.75
375.642	85.75
375.868	89.75
376.094	81.75
376.319	84.75
376.545	81.75
376.771	77.75
376.997	77.75
377.222	84.75
377.448	85.75
377.674	85.75
377.899	98.75
378.125	76.75
378.35	95.75
378.576	86.75
378.802	91.75
379.027	96.75
379.253	85.75
379.478	101.75
379.704	87.75
379.929	87.75
380.155	75.75
380.38	99.75
380.606	79.75
380.831	92.75
381.057	105.75
381.282	97.75
381.507	86.75
381.733	88.75
381.958	102.75
382.184	93.75
382.409	82.75
382.634	97.75
382.86	96.75
383.085	98.75
383.31	99.75
383.535	102.75
383.761	93.75
383.986	95.75
384.211	86.75
384.436	88.75
384.662	91.75
384.887	93.75
385.112	91.75
385.337	105.75
385.562	105.75
385.787	94.75
386.013	100.75
386.238	125.75
386.463	97.75
386.688	105.75
386.913	95.75
387.138	83.75
387.363	84.75
387.588	94.75
387.813	82.75
388.038	100.75
388.263	106.75
388.488	89.75
388.713	89.75
388.938	93.75
389.163	103.75
389.387	101.75
389.612	91.75
389.837	95.75
390.062	92.75
390.287	102.75
390.512	88.75
390.736	87.75
390.961	87.75
391.186	87.75
391.411	85.75
391.636	96.75
391.86	84.75
392.085	93.75
392.31	72.75
392.534	78.75
392.759	79.75
392.984	82.75
393.208	85.75
393.433	92.75
393.658	73.75
393.882	87.75
394.107	95.75
394.331	91.75
394.556	80.75
394.78	69.75
395.005	79.75
395.229	85.75
395.454	81.75
395.678	76.75
395.903	81.75
396.127	77.75
396.352	95.75
396.576	89.75
396.801	71.75
397.025	77.75
397.249	93.75
397.474	83.75
397.698	86.75
397.922	72.75
398.147	92.75
398.371	81.75
398.595	85.75
398.82	88.75
399.044	72.75
399.268	65.75
399.492	93.75
399.717	79.75
399.941	91.75
400.165	90.75
400.389	91.75
400.613	81.75
400.837	85.75
401.062	92.75
401.286	83.75
401.51	97.75
401.734	82.75
401.958	86.75
402.182	113.75
402.406	152.75
402.63	110.75
402.854	84.75
403.078	80.75
403.302	79.75
403.526	78.75
403.75	77.75
403.974	68.75
404.198	85.75
404.422	79.75
404.645	88.75
404.869	77.75
405.093	87.75
405.317	95.75
405.541	85.75
405.765	84.75
405.988	108.75
406.212	170.75
406.436	216.75
406.66	135.75
406.883	98.75
407.107	86.75
407.331	99.75
407.555	104.75
407.778	87.75
408.002	84.75
408.226	85.75
408.449	71.75
408.673	98.75
408.896	77.75
409.12	92.75
409.344	81.75
409.567	85.75
409.791	97.75
410.014	92.75
410.238	100.75
410.461	94.75
410.685	100.75
410.908	94.75
411.132	111.75
411.355	96.75
411.578	90.75
411.802	85.75
412.025	81.75
412.249	85.75
412.472	88.75
412.695	78.75
412.919	73.75
413.142	86.75
413.365	94.75
413.589	65.75
413.812	94.75
414.035	97.75
414.258	85.75
414.482	93.75
414.705	101.75
414.928	96.75
415.151	84.75
415.374	85.75
415.597	82.75
415.821	80.75
416.044	80.75
416.267	68.75
416.49	94.75
416.713	84.75
416.936	81.75
417.159	77.75
417.382	86.75
417.605	73.75
417.828	87.75
418.051	94.75
418.274	82.75
418.497	75.75
418.72	85.75
418.943	93.75
419.166	86.75
419.389	77.75
419.611	81.75
419.834	78.75
420.057	87.75
420.28	86.75
420.503	94.75
420.726	85.75
420.948	100.75
421.171	81.75
421.394	94.75
421.617	82.75
421.839	82.75
422.062	79.75
422.285	95.75
422.507	90.75
422.73	103.75
422.953	81.75
423.175	94.75
423.398	88.75
423.621	92.75
423.843	76.75
424.066	90.75
424.288	93.75
424.511	92.75
424.733	84.75
424.956	97.75
425.178	95.75
425.401	85.75
425.623	85.75
425.846	90.75
426.068	99.75
426.291	80.75
426.513	93.75
426.735	79.75
426.958	91.75
427.18	97.75
427.402	120.75
427.625	133.75
427.847	118.75
428.069	95.75
428.292	97.75
428.514	82.75
428.736	78.75
428.958	83.75
429.181	84.75
429.403	78.75
429.625	92.75
429.847	88.75
430.069	98.75
430.292	84.75
430.514	63.75
430.736	79.75
430.958	76.75
431.18	71.75
431.402	84.75
431.624	85.75
431.846	90.75
432.068	82.75
432.29	87.75
432.512	89.75
432.734	85.75
432.956	94.75
433.178	86.75
433.4	91.75
433.622	80.75
433.844	88.75
434.066	86.75
434.287	89.75
434.509	88.75
434.731	95.75
434.953	84.75
435.175	89.75
435.397	80.75
435.618	97.75
435.84	92.75
436.062	109.75
436.284	96.75
436.505	89.75
436.727	96.75
436.949	82.75
437.17	97.75
437.392	86.75
437.614	100.75
437.835	95.75
438.057	107.75
438.278	99.75
438.5	98.75
438.721	115.75
438.943	93.75
439.165	82.75
439.386	96.75
439.608	80.75
439.829	101.75
440.05	93.75
440.272	111.75
440.493	93.75
440.715	92.75
440.936	93.75
441.158	94.75
441.379	81.75
441.6	81.75
441.822	84.75
442.043	99.75
442.264	107.75
442.486	87.75
442.707	84.75
442.928	97.75
443.149	124.75
443.371	106.75
443.592	98.75
443.813	104.75
444.034	105.75
444.255	85.75
444.476	77.75
444.698	93.75
444.919	78.75
445.14	127.75
445.361	121.75
445.582	97.75
445.803	126.75
446.024	116.75
446.245	129.75
446.466	87.75
446.687	85.75
446.908	105.75
447.129	86.75
447.35	90.75
447.571	89.75
447.792	96.75
448.013	98.75
448.234	93.75
448.455	83.75
448.675	94.75
448.896	91.75
449.117	98.75
449.338	88.75
449.559	101.75
449.779	109.75
450	93.75
450.221	93.75
450.442	84.75
450.662	83.75
450.883	93.75
451.104	109.75
451.324	91.75
451.545	86.75
451.766	82.75
451.986	81.75
452.207	89.75
452.428	83.75
452.648	111.75
452.869	100.75
453.089	102.75
453.31	94.75
453.53	100.75
453.751	95.75
453.971	83.75
454.192	86.75
454.412	90.75
454.633	77.75
454.853	77.75
455.073	96.75
455.294	91.75
455.514	78.75
455.734	91.75
455.955	84.75
456.175	80.75
456.395	78.75
456.616	70.75
456.836	87.75
457.056	99.75
457.276	82.75
457.497	84.75
457.717	80.75
457.937	86.75
458.157	78.75
458.377	88.75
458.598	104.75
458.818	128.75
459.038	134.75
459.258	107.75
459.478	82.75
459.698	83.75
459.918	84.75
460.138	102.75
460.358	87.75
460.578	76.75
460.798	97.75
461.018	82.75
461.238	73.75
461.458	96.75
461.678	76.75
461.898	95.75
462.118	80.75
462.338	97.75
462.558	74.75
462.777	84.75
462.997	81.75
463.217	89.75
463.437	81.75
463.657	80.75
463.876	87.75
464.096	92.75
464.316	83.75
464.536	84.75
464.755	100.75
464.975	105.75
465.195	147.75
465.414	142.75
465.634	86.75
465.854	77.75
466.073	96.75
466.293	72.75
466.512	88.75
466.732	101.75
466.951	86.75
467.171	85.75
467.391	96.75
467.61	83.75
467.829	91.75
468.049	88.75
468.268	94.75
468.488	86.75
468.707	74.75
468.927	83.75
469.146	95.75
469.365	88.75
469.585	99.75
469.804	88.75
470.023	92.75
470.243	90.75
470.462	94.75
470.681	89.75
470.901	83.75
471.12	78.75
471.339	89.75
471.558	91.75
471.777	71.75
471.997	88.75
472.216	92.75
472.435	93.75
472.654	91.75
472.873	86.75
473.092	92.75
473.311	79.75
473.53	69.75
473.749	91.75
473.968	83.75
474.187	82.75
474.406	95.75
474.625	81.75
474.844	77.75
475.063	78.75
475.282	91.75
475.501	91.75
475.72	88.75
475.939	83.75
476.158	81.75
476.377	88.75
476.596	83.75
476.814	94.75
477.033	86.75
477.252	93.75
477.471	91.75
477.69	95.75
477.908	86.75
478.127	95.75
478.346	80.75
478.564	92.75
478.783	95.75
479.002	72.75
479.22	88.75
479.439	103.75
479.658	96.75
479.876	80.75
480.095	92.75
480.313	84.75
480.532	80.75
480.751	89.75
480.969	85.75
481.188	120.75
481.406	110.75
481.624	89.75
481.843	88.75
482.061	86.75
482.28	81.75
482.498	86.75
482.717	93.75
482.935	71.75
483.153	86.75
483.372	77.75
483.59	73.75
483.808	79.75
484.027	73.75
484.245	91.75
484.463	85.75
484.681	91.75
484.9	92.75
485.118	85.75
485.336	82.75
485.554	93.75
485.772	101.75
485.99	110.75
486.209	97.75
486.427	88.75
486.645	101.75
486.863	117.75
487.081	101.75
487.299	95.75
487.517	89.75
487.735	112.75
487.953	97.75
488.171	97.75
488.389	77.75
488.607	94.75
488.825	94.75
489.043	91.75
489.261	89.75
489.479	87.75
489.696	87.75
489.914	96.75
490.132	71.75
490.35	89.75
490.568	79.75
490.786	86.75
491.003	87.75
491.221	71.75
491.439	88.75
491.657	91.75
491.874	90.75
492.092	86.75
492.31	83.75
492.527	86.75
492.745	81.75
492.963	94.75
493.18	73.75
493.398	100.75
493.615	100.75
493.833	80.75
494.05	69.75
494.268	83.75
494.485	92.75
494.703	83.75
494.92	89.75
495.138	82.75
495.355	97.75
495.573	86.75
495.79	87.75
496.008	92.75
496.225	97.75
496.442	86.75
496.66	100.75
496.877	79.75
497.094	89.75
497.312	66.75
497.529	87.75
497.746	96.75
497.963	88.75
498.181	86.75
498.398	95.75
498.615	104.75
498.832	99.75
499.049	86.75
499.267	90.75
499.484	101.75
499.701	81.75
499.918	92.75
500.135	86.75
500.352	86.75
500.569	96.75
500.786	97.75
501.003	90.75
501.22	87.75
501.437	73.75
501.654	87.75
501.871	93.75
502.088	81.75
502.305	86.75
502.522	79.75
502.739	91.75
502.956	85.75
503.172	72.75
503.389	78.75
503.606	89.75
503.823	99.75
504.04	82.75
504.256	77.75
504.473	78.75
504.69	89.75
504.907	80.75
505.123	84.75
505.34	92.75
505.557	92.75
505.773	87.75
505.99	83.75
506.207	95.75
506.423	84.75
506.64	95.75
506.856	95.75
507.073	71.75
507.289	92.75
507.506	96.75
507.722	105.75
507.939	115.75
508.155	105.75
508.372	83.75
508.588	96.75
508.805	102.75
509.021	67.75
509.238	99.75
509.454	102.75
509.67	87.75
509.887	113.75
510.103	117.75
510.319	209.75
510.536	730.75
510.752	2217.75
510.968	619.75
511.184	157.75
511.401	100.75
511.617	107.75
511.833	86.75
512.049	99.75
512.265	87.75
512.481	94.75
512.698	82.75
512.914	93.75
513.13	98.75
513.346	91.75
513.562	82.75
513.778	81.75
513.994	95.75
514.21	93.75
514.426	87.75
514.642	129.75
514.858	116.75
515.074	142.75
515.29	403.75
515.506	1280.75
515.721	466.75
515.937	128.75
516.153	104.75
516.369	85.75
516.585	81.75
516.801	80.75
517.016	104.75
