Data from Uncirc_2002_H10_HRD10591_00070.txt Node
Date: Wed Jan 03 10:39:55 EST 2024
User: Yrep
Spectrometer: HR+D1059
Trigger mode: 1
Integration Time (sec): 1.000000E-1
Scans to average: 1
Electric dark correction enabled: true
Nonlinearity correction enabled: false
Boxcar width: 0
XAxis mode: Wavelengths
Number of Pixels in Spectrum: 2048
>>>>>Begin Spectral Data<<<<<
223.165	-28.19
223.4	-28.19
223.635	-28.19
223.869	-10.19
224.104	-31.19
224.338	-23.19
224.573	-39.19
224.808	-3.19
225.042	-21.19
225.277	4.81
225.511	17.81
225.746	12.81
225.98	8.81
226.215	18.81
226.449	5.81
226.683	20.81
226.918	23.81
227.152	42.81
227.387	41.81
227.621	41.81
227.856	33.81
228.09	49.81
228.324	66.81
228.559	58.81
228.793	66.81
229.027	48.81
229.262	64.81
229.496	60.81
229.73	84.81
229.964	72.81
230.199	63.81
230.433	71.81
230.667	77.81
230.901	62.81
231.136	70.81
231.37	85.81
231.604	67.81
231.838	84.81
232.072	72.81
232.306	80.81
232.541	88.81
232.775	76.81
233.009	75.81
233.243	81.81
233.477	83.81
233.711	77.81
233.945	88.81
234.179	90.81
234.413	82.81
234.647	71.81
234.881	79.81
235.115	80.81
235.349	71.81
235.583	72.81
235.817	77.81
236.051	77.81
236.285	77.81
236.519	73.81
236.753	79.81
236.987	85.81
237.221	77.81
237.455	88.81
237.689	68.81
237.922	95.81
238.156	80.81
238.39	85.81
238.624	80.81
238.858	58.81
239.091	74.81
239.325	77.81
239.559	72.81
239.793	75.81
240.027	91.81
240.26	70.81
240.494	84.81
240.728	79.81
240.961	68.81
241.195	72.81
241.429	78.81
241.662	71.81
241.896	75.81
242.13	69.81
242.363	76.81
242.597	77.81
242.83	66.81
243.064	85.81
243.298	68.81
243.531	77.81
243.765	79.81
243.998	68.81
244.232	78.81
244.465	85.81
244.699	73.81
244.932	81.81
245.166	77.81
245.399	81.81
245.633	91.81
245.866	95.81
246.099	73.81
246.333	73.81
246.566	71.81
246.8	66.81
247.033	76.81
247.266	86.81
247.5	77.81
247.733	76.81
247.966	79.81
248.2	74.81
248.433	77.81
248.666	83.81
248.899	70.81
249.133	75.81
249.366	75.81
249.599	91.81
249.832	86.81
250.066	72.81
250.299	79.81
250.532	78.81
250.765	80.81
250.998	69.81
251.231	82.81
251.465	65.81
251.698	89.81
251.931	74.81
252.164	78.81
252.397	82.81
252.63	76.81
252.863	84.81
253.096	70.81
253.329	93.81
253.562	86.81
253.795	76.81
254.028	80.81
254.261	68.81
254.494	77.81
254.727	68.81
254.96	85.81
255.193	75.81
255.426	75.81
255.659	91.81
255.892	82.81
256.124	90.81
256.357	86.81
256.59	81.81
256.823	80.81
257.056	70.81
257.289	81.81
257.521	68.81
257.754	94.81
257.987	76.81
258.22	80.81
258.452	77.81
258.685	77.81
258.918	83.81
259.151	67.81
259.383	80.81
259.616	84.81
259.849	85.81
260.081	79.81
260.314	78.81
260.547	72.81
260.779	90.81
261.012	78.81
261.244	96.81
261.477	92.81
261.71	86.81
261.942	97.81
262.175	101.81
262.407	74.81
262.64	83.81
262.872	84.81
263.105	68.81
263.337	93.81
263.57	77.81
263.802	87.81
264.035	97.81
264.267	89.81
264.499	76.81
264.732	78.81
264.964	94.81
265.197	71.81
265.429	73.81
265.661	77.81
265.894	84.81
266.126	76.81
266.358	86.81
266.591	77.81
266.823	78.81
267.055	94.81
267.287	80.81
267.52	70.81
267.752	68.81
267.984	93.81
268.216	94.81
268.448	86.81
268.681	77.81
268.913	92.81
269.145	82.81
269.377	74.81
269.609	74.81
269.841	76.81
270.073	85.81
270.306	78.81
270.538	77.81
270.77	85.81
271.002	67.81
271.234	75.81
271.466	103.81
271.698	75.81
271.93	89.81
272.162	70.81
272.394	74.81
272.626	74.81
272.858	83.81
273.09	88.81
273.322	80.81
273.553	78.81
273.785	85.81
274.017	86.81
274.249	85.81
274.481	79.81
274.713	85.81
274.945	100.81
275.176	85.81
275.408	86.81
275.64	82.81
275.872	87.81
276.104	87.81
276.335	82.81
276.567	96.81
276.799	98.81
277.031	85.81
277.262	73.81
277.494	79.81
277.726	78.81
277.957	79.81
278.189	89.81
278.421	89.81
278.652	80.81
278.884	73.81
279.115	70.81
279.347	87.81
279.579	79.81
279.81	89.81
280.042	79.81
280.273	89.81
280.505	95.81
280.736	87.81
280.968	79.81
281.199	89.81
281.431	69.81
281.662	70.81
281.894	89.81
282.125	94.81
282.356	120.81
282.588	113.81
282.819	94.81
283.051	85.81
283.282	93.81
283.513	73.81
283.745	86.81
283.976	69.81
284.207	82.81
284.439	92.81
284.67	93.81
284.901	87.81
285.132	86.81
285.364	87.81
285.595	86.81
285.826	77.81
286.057	94.81
286.288	87.81
286.52	85.81
286.751	81.81
286.982	97.81
287.213	84.81
287.444	108.81
287.675	90.81
287.906	82.81
288.138	95.81
288.369	92.81
288.6	101.81
288.831	80.81
289.062	89.81
289.293	82.81
289.524	92.81
289.755	94.81
289.986	80.81
290.217	86.81
290.448	81.81
290.679	99.81
290.91	86.81
291.141	87.81
291.371	79.81
291.602	77.81
291.833	81.81
292.064	90.81
292.295	91.81
292.526	79.81
292.757	96.81
292.987	81.81
293.218	93.81
293.449	79.81
293.68	94.81
293.91	76.81
294.141	105.81
294.372	90.81
294.603	83.81
294.833	96.81
295.064	80.81
295.295	83.81
295.525	93.81
295.756	104.81
295.987	117.81
296.217	132.81
296.448	115.81
296.679	94.81
296.909	82.81
297.14	78.81
297.37	96.81
297.601	92.81
297.831	92.81
298.062	88.81
298.292	87.81
298.523	77.81
298.753	91.81
298.984	77.81
299.214	72.81
299.445	91.81
299.675	79.81
299.905	97.81
300.136	89.81
300.366	80.81
300.597	82.81
300.827	86.81
301.057	106.81
301.288	92.81
301.518	90.81
301.748	69.81
301.979	103.81
302.209	95.81
302.439	73.81
302.669	92.81
302.9	80.81
303.13	105.81
303.36	102.81
303.59	109.81
303.82	96.81
304.051	86.81
304.281	95.81
304.511	86.81
304.741	98.81
304.971	93.81
305.201	94.81
305.431	78.81
305.661	86.81
305.891	86.81
306.121	88.81
306.352	91.81
306.582	96.81
306.812	96.81
307.042	85.81
307.272	92.81
307.502	78.81
307.731	95.81
307.961	100.81
308.191	93.81
308.421	93.81
308.651	89.81
308.881	96.81
309.111	84.81
309.341	94.81
309.571	97.81
309.8	98.81
310.03	93.81
310.26	97.81
310.49	93.81
310.72	87.81
310.949	105.81
311.179	78.81
311.409	82.81
311.639	85.81
311.868	79.81
312.098	74.81
312.328	101.81
312.557	95.81
312.787	100.81
313.017	101.81
313.246	89.81
313.476	94.81
313.706	77.81
313.935	96.81
314.165	102.81
314.394	96.81
314.624	92.81
314.853	85.81
315.083	92.81
315.312	79.81
315.542	79.81
315.771	82.81
316.001	91.81
316.23	92.81
316.46	81.81
316.689	93.81
316.919	85.81
317.148	96.81
317.377	81.81
317.607	95.81
317.836	86.81
318.065	100.81
318.295	84.81
318.524	96.81
318.753	83.81
318.983	88.81
319.212	89.81
319.441	100.81
319.67	106.81
319.9	101.81
320.129	88.81
320.358	100.81
320.587	92.81
320.816	98.81
321.046	84.81
321.275	89.81
321.504	92.81
321.733	90.81
321.962	85.81
322.191	99.81
322.42	99.81
322.649	100.81
322.878	108.81
323.108	111.81
323.337	117.81
323.566	116.81
323.795	133.81
324.024	176.81
324.253	359.81
324.482	679.81
324.71	1377.81
324.939	1774.81
325.168	634.81
325.397	194.81
325.626	132.81
325.855	128.81
326.084	116.81
326.313	112.81
326.542	148.81
326.77	200.81
326.999	381.81
327.228	782.81
327.457	1406.81
327.686	1113.81
327.914	318.81
328.143	166.81
328.372	145.81
328.6	121.81
328.829	113.81
329.058	115.81
329.287	101.81
329.515	89.81
329.744	107.81
329.972	97.81
330.201	91.81
330.43	118.81
330.658	115.81
330.887	111.81
331.115	103.81
331.344	89.81
331.572	93.81
331.801	88.81
332.03	94.81
332.258	81.81
332.486	84.81
332.715	86.81
332.943	89.81
333.172	94.81
333.4	96.81
333.629	105.81
333.857	89.81
334.085	90.81
334.314	107.81
334.542	105.81
334.771	92.81
334.999	95.81
335.227	86.81
335.455	87.81
335.684	86.81
335.912	93.81
336.14	93.81
336.369	87.81
336.597	99.81
336.825	98.81
337.053	87.81
337.281	74.81
337.51	90.81
337.738	84.81
337.966	92.81
338.194	87.81
338.422	98.81
338.65	84.81
338.878	97.81
339.106	86.81
339.334	98.81
339.562	89.81
339.79	95.81
340.018	97.81
340.246	79.81
340.474	74.81
340.702	86.81
340.93	89.81
341.158	100.81
341.386	80.81
341.614	96.81
341.842	87.81
342.07	85.81
342.298	97.81
342.526	96.81
342.754	92.81
342.981	82.81
343.209	83.81
343.437	94.81
343.665	84.81
343.893	93.81
344.12	107.81
344.348	84.81
344.576	84.81
344.804	82.81
345.031	93.81
345.259	91.81
345.487	82.81
345.714	98.81
345.942	80.81
346.17	82.81
346.397	95.81
346.625	98.81
346.853	98.81
347.08	83.81
347.308	92.81
347.535	94.81
347.763	96.81
347.99	85.81
348.218	88.81
348.445	108.81
348.673	96.81
348.9	96.81
349.128	92.81
349.355	83.81
349.583	94.81
349.81	86.81
350.037	103.81
350.265	102.81
350.492	88.81
350.72	88.81
350.947	102.81
351.174	118.81
351.402	123.81
351.629	94.81
351.856	105.81
352.083	106.81
352.311	94.81
352.538	92.81
352.765	109.81
352.992	115.81
353.22	110.81
353.447	86.81
353.674	103.81
353.901	105.81
354.128	98.81
354.355	89.81
354.583	90.81
354.81	96.81
355.037	101.81
355.264	99.81
355.491	99.81
355.718	83.81
355.945	93.81
356.172	104.81
356.399	102.81
356.626	85.81
356.853	97.81
357.08	93.81
357.307	92.81
357.534	102.81
357.761	97.81
357.988	88.81
358.215	101.81
358.441	98.81
358.668	80.81
358.895	87.81
359.122	88.81
359.349	81.81
359.576	86.81
359.802	81.81
360.029	108.81
360.256	90.81
360.483	85.81
360.709	86.81
360.936	78.81
361.163	87.81
361.39	93.81
361.616	90.81
361.843	87.81
362.07	84.81
362.296	102.81
362.523	78.81
362.749	89.81
362.976	82.81
363.203	93.81
363.429	84.81
363.656	78.81
363.882	96.81
364.109	82.81
364.335	87.81
364.562	100.81
364.788	92.81
365.015	90.81
365.241	92.81
365.468	116.81
365.694	102.81
365.92	93.81
366.147	90.81
366.373	98.81
366.599	107.81
366.826	82.81
367.052	89.81
367.278	95.81
367.505	95.81
367.731	90.81
367.957	87.81
368.184	85.81
368.41	90.81
368.636	104.81
368.862	111.81
369.089	105.81
369.315	88.81
369.541	85.81
369.767	103.81
369.993	88.81
370.219	95.81
370.445	63.81
370.672	96.81
370.898	101.81
371.124	72.81
371.35	90.81
371.576	91.81
371.802	92.81
372.028	90.81
372.254	91.81
372.48	91.81
372.706	89.81
372.932	72.81
373.158	98.81
373.384	80.81
373.61	101.81
373.835	80.81
374.061	77.81
374.287	85.81
374.513	74.81
374.739	79.81
374.965	82.81
375.191	89.81
375.416	77.81
375.642	78.81
375.868	87.81
376.094	93.81
376.319	67.81
376.545	95.81
376.771	88.81
376.997	98.81
377.222	100.81
377.448	88.81
377.674	86.81
377.899	88.81
378.125	82.81
378.35	87.81
378.576	98.81
378.802	87.81
379.027	91.81
379.253	84.81
379.478	91.81
379.704	91.81
379.929	84.81
380.155	92.81
380.38	108.81
380.606	100.81
380.831	89.81
381.057	90.81
381.282	92.81
381.507	91.81
381.733	79.81
381.958	88.81
382.184	97.81
382.409	87.81
382.634	91.81
382.86	89.81
383.085	98.81
383.31	91.81
383.535	93.81
383.761	85.81
383.986	89.81
384.211	89.81
384.436	90.81
384.662	98.81
384.887	101.81
385.112	100.81
385.337	105.81
385.562	96.81
385.787	97.81
386.013	102.81
386.238	100.81
386.463	93.81
386.688	95.81
386.913	93.81
387.138	101.81
387.363	89.81
387.588	93.81
387.813	95.81
388.038	99.81
388.263	94.81
388.488	89.81
388.713	86.81
388.938	92.81
389.163	98.81
389.387	88.81
389.612	115.81
389.837	93.81
390.062	85.81
390.287	104.81
390.512	93.81
390.736	81.81
390.961	88.81
391.186	89.81
391.411	102.81
391.636	81.81
391.86	80.81
392.085	77.81
392.31	84.81
392.534	81.81
392.759	89.81
392.984	81.81
393.208	72.81
393.433	98.81
393.658	86.81
393.882	87.81
394.107	81.81
394.331	84.81
394.556	77.81
394.78	91.81
395.005	99.81
395.229	87.81
395.454	99.81
395.678	83.81
395.903	87.81
396.127	97.81
396.352	94.81
396.576	91.81
396.801	88.81
397.025	86.81
397.249	80.81
397.474	85.81
397.698	86.81
397.922	93.81
398.147	83.81
398.371	75.81
398.595	87.81
398.82	79.81
399.044	90.81
399.268	94.81
399.492	83.81
399.717	99.81
399.941	94.81
400.165	88.81
400.389	94.81
400.613	82.81
400.837	86.81
401.062	96.81
401.286	96.81
401.51	82.81
401.734	85.81
401.958	80.81
402.182	109.81
402.406	151.81
402.63	110.81
402.854	89.81
403.078	81.81
403.302	64.81
403.526	91.81
403.75	71.81
403.974	83.81
404.198	87.81
404.422	88.81
404.645	93.81
404.869	88.81
405.093	86.81
405.317	85.81
405.541	90.81
405.765	94.81
405.988	119.81
406.212	153.81
406.436	183.81
406.66	120.81
406.883	82.81
407.107	97.81
407.331	98.81
407.555	99.81
407.778	87.81
408.002	81.81
408.226	77.81
408.449	83.81
408.673	87.81
408.896	73.81
409.12	98.81
409.344	82.81
409.567	86.81
409.791	87.81
410.014	78.81
410.238	81.81
410.461	102.81
410.685	89.81
410.908	81.81
411.132	103.81
411.355	85.81
411.578	95.81
411.802	93.81
412.025	77.81
412.249	85.81
412.472	89.81
412.695	99.81
412.919	85.81
413.142	81.81
413.365	85.81
413.589	74.81
413.812	94.81
414.035	82.81
414.258	85.81
414.482	90.81
414.705	80.81
414.928	76.81
415.151	82.81
415.374	87.81
415.597	84.81
415.821	89.81
416.044	89.81
416.267	79.81
416.49	87.81
416.713	87.81
416.936	81.81
417.159	77.81
417.382	78.81
417.605	66.81
417.828	84.81
418.051	98.81
418.274	97.81
418.497	84.81
418.72	88.81
418.943	84.81
419.166	86.81
419.389	87.81
419.611	86.81
419.834	95.81
420.057	90.81
420.28	74.81
420.503	72.81
420.726	77.81
420.948	93.81
421.171	91.81
421.394	87.81
421.617	82.81
421.839	86.81
422.062	85.81
422.285	86.81
422.507	97.81
422.73	96.81
422.953	90.81
423.175	94.81
423.398	73.81
423.621	101.81
423.843	77.81
424.066	98.81
424.288	100.81
424.511	91.81
424.733	86.81
424.956	94.81
425.178	81.81
425.401	101.81
425.623	96.81
425.846	85.81
426.068	92.81
426.291	80.81
426.513	96.81
426.735	86.81
426.958	90.81
427.18	105.81
427.402	116.81
427.625	135.81
427.847	110.81
428.069	103.81
428.292	84.81
428.514	61.81
428.736	88.81
428.958	84.81
429.181	93.81
429.403	82.81
429.625	91.81
429.847	92.81
430.069	87.81
430.292	96.81
430.514	82.81
430.736	90.81
430.958	91.81
431.18	82.81
431.402	99.81
431.624	86.81
431.846	99.81
432.068	77.81
432.29	87.81
432.512	85.81
432.734	77.81
432.956	78.81
433.178	104.81
433.4	94.81
433.622	91.81
433.844	94.81
434.066	100.81
434.287	90.81
434.509	85.81
434.731	79.81
434.953	82.81
435.175	81.81
435.397	82.81
435.618	86.81
435.84	91.81
436.062	114.81
436.284	107.81
436.505	89.81
436.727	88.81
436.949	76.81
437.17	94.81
437.392	87.81
437.614	80.81
437.835	97.81
438.057	100.81
438.278	87.81
438.5	86.81
438.721	110.81
438.943	93.81
439.165	81.81
439.386	78.81
439.608	102.81
439.829	124.81
440.05	129.81
440.272	129.81
440.493	89.81
440.715	92.81
440.936	76.81
441.158	82.81
441.379	83.81
441.6	91.81
441.822	100.81
442.043	89.81
442.264	89.81
442.486	103.81
442.707	98.81
442.928	98.81
443.149	126.81
443.371	105.81
443.592	111.81
443.813	97.81
444.034	96.81
444.255	80.81
444.476	86.81
444.698	93.81
444.919	93.81
445.14	137.81
445.361	119.81
445.582	93.81
445.803	111.81
446.024	110.81
446.245	105.81
446.466	85.81
446.687	102.81
446.908	93.81
447.129	91.81
447.35	73.81
447.571	85.81
447.792	82.81
448.013	70.81
448.234	98.81
448.455	88.81
448.675	106.81
448.896	112.81
449.117	94.81
449.338	103.81
449.559	112.81
449.779	121.81
450	94.81
450.221	88.81
450.442	83.81
450.662	88.81
450.883	104.81
451.104	94.81
451.324	84.81
451.545	86.81
451.766	99.81
451.986	90.81
452.207	94.81
452.428	95.81
452.648	90.81
452.869	92.81
453.089	106.81
453.31	113.81
453.53	83.81
453.751	82.81
453.971	100.81
454.192	121.81
454.412	88.81
454.633	100.81
454.853	90.81
455.073	81.81
455.294	104.81
455.514	87.81
455.734	81.81
455.955	78.81
456.175	76.81
456.395	81.81
456.616	89.81
456.836	85.81
457.056	77.81
457.276	86.81
457.497	81.81
457.717	95.81
457.937	86.81
458.157	83.81
458.377	95.81
458.598	94.81
458.818	130.81
459.038	126.81
459.258	90.81
459.478	95.81
459.698	82.81
459.918	69.81
460.138	78.81
460.358	96.81
460.578	92.81
460.798	78.81
461.018	79.81
461.238	90.81
461.458	87.81
461.678	88.81
461.898	81.81
462.118	81.81
462.338	88.81
462.558	80.81
462.777	96.81
462.997	84.81
463.217	77.81
463.437	95.81
463.657	91.81
463.876	90.81
464.096	84.81
464.316	87.81
464.536	95.81
464.755	98.81
464.975	95.81
465.195	136.81
465.414	126.81
465.634	95.81
465.854	94.81
466.073	84.81
466.293	89.81
466.512	82.81
466.732	76.81
466.951	78.81
467.171	78.81
467.391	99.81
467.61	102.81
467.829	84.81
468.049	82.81
468.268	93.81
468.488	80.81
468.707	95.81
468.927	89.81
469.146	63.81
469.365	82.81
469.585	89.81
469.804	89.81
470.023	105.81
470.243	90.81
470.462	84.81
470.681	103.81
470.901	87.81
471.12	68.81
471.339	87.81
471.558	73.81
471.777	92.81
471.997	87.81
472.216	98.81
472.435	103.81
472.654	80.81
472.873	88.81
473.092	78.81
473.311	92.81
473.53	77.81
473.749	78.81
473.968	88.81
474.187	93.81
474.406	79.81
474.625	84.81
474.844	88.81
475.063	106.81
475.282	77.81
475.501	83.81
475.72	84.81
475.939	69.81
476.158	86.81
476.377	86.81
476.596	77.81
476.814	80.81
477.033	80.81
477.252	98.81
477.471	90.81
477.69	83.81
477.908	90.81
478.127	105.81
478.346	93.81
478.564	78.81
478.783	85.81
479.002	86.81
479.22	90.81
479.439	98.81
479.658	100.81
479.876	96.81
480.095	79.81
480.313	98.81
480.532	87.81
480.751	87.81
480.969	108.81
481.188	87.81
481.406	96.81
481.624	98.81
481.843	89.81
482.061	84.81
482.28	80.81
482.498	72.81
482.717	84.81
482.935	96.81
483.153	100.81
483.372	83.81
483.59	82.81
483.808	84.81
484.027	88.81
484.245	82.81
484.463	88.81
484.681	79.81
484.9	84.81
485.118	91.81
485.336	87.81
485.554	99.81
485.772	97.81
485.99	109.81
486.209	105.81
486.427	111.81
486.645	118.81
486.863	101.81
487.081	93.81
487.299	103.81
487.517	96.81
487.735	86.81
487.953	90.81
488.171	84.81
488.389	94.81
488.607	107.81
488.825	99.81
489.043	79.81
489.261	97.81
489.479	97.81
489.696	94.81
489.914	84.81
490.132	76.81
490.35	84.81
490.568	90.81
490.786	87.81
491.003	92.81
491.221	92.81
491.439	90.81
491.657	88.81
491.874	82.81
492.092	93.81
492.31	83.81
492.527	81.81
492.745	100.81
492.963	100.81
493.18	92.81
493.398	81.81
493.615	94.81
493.833	83.81
494.05	86.81
494.268	88.81
494.485	93.81
494.703	80.81
494.92	85.81
495.138	89.81
495.355	96.81
495.573	86.81
495.79	80.81
496.008	86.81
496.225	90.81
496.442	86.81
496.66	104.81
496.877	92.81
497.094	90.81
497.312	89.81
497.529	90.81
497.746	84.81
497.963	85.81
498.181	92.81
498.398	97.81
498.615	111.81
498.832	83.81
499.049	72.81
499.267	87.81
499.484	98.81
499.701	84.81
499.918	84.81
500.135	95.81
500.352	92.81
500.569	86.81
500.786	90.81
501.003	100.81
501.22	89.81
501.437	87.81
501.654	90.81
501.871	95.81
502.088	93.81
502.305	94.81
502.522	88.81
502.739	95.81
502.956	84.81
503.172	82.81
503.389	93.81
503.606	88.81
503.823	95.81
504.04	104.81
504.256	83.81
504.473	104.81
504.69	92.81
504.907	96.81
505.123	85.81
505.34	90.81
505.557	77.81
505.773	82.81
505.99	85.81
506.207	90.81
506.423	71.81
506.64	84.81
506.856	89.81
507.073	91.81
507.289	83.81
507.506	80.81
507.722	110.81
507.939	89.81
508.155	100.81
508.372	92.81
508.588	84.81
508.805	85.81
509.021	101.81
509.238	96.81
509.454	88.81
509.67	82.81
509.887	104.81
510.103	122.81
510.319	207.81
510.536	670.81
510.752	2065.81
510.968	582.81
511.184	144.81
511.401	108.81
511.617	100.81
511.833	95.81
512.049	99.81
512.265	89.81
512.481	97.81
512.698	92.81
512.914	92.81
513.13	87.81
513.346	85.81
513.562	85.81
513.778	100.81
513.994	86.81
514.21	107.81
514.426	103.81
514.642	103.81
514.858	121.81
515.074	152.81
515.29	378.81
515.506	1196.81
515.721	437.81
515.937	146.81
516.153	96.81
516.369	89.81
516.585	86.81
516.801	86.81
517.016	91.81
