Data from Uncirc_2002_H10_HRD10591_00089.txt Node
Date: Wed Jan 03 10:39:59 EST 2024
User: Yrep
Spectrometer: HR+D1059
Trigger mode: 1
Integration Time (sec): 1.000000E-1
Scans to average: 1
Electric dark correction enabled: true
Nonlinearity correction enabled: false
Boxcar width: 0
XAxis mode: Wavelengths
Number of Pixels in Spectrum: 2048
>>>>>Begin Spectral Data<<<<<
223.165	-19.56
223.4	-19.56
223.635	-19.56
223.869	-25.56
224.104	-30.56
224.338	-14.56
224.573	-13.56
224.808	-8.56
225.042	-0.56
225.277	-11.56
225.511	2.44
225.746	7.44
225.98	16.44
226.215	16.44
226.449	17.44
226.683	12.44
226.918	23.44
227.152	28.44
227.387	38.44
227.621	20.44
227.856	63.44
228.09	27.44
228.324	48.44
228.559	55.44
228.793	59.44
229.027	47.44
229.262	64.44
229.496	67.44
229.73	88.44
229.964	72.44
230.199	65.44
230.433	73.44
230.667	94.44
230.901	68.44
231.136	84.44
231.37	79.44
231.604	82.44
231.838	72.44
232.072	77.44
232.306	78.44
232.541	72.44
232.775	79.44
233.009	89.44
233.243	73.44
233.477	91.44
233.711	82.44
233.945	75.44
234.179	62.44
234.413	74.44
234.647	81.44
234.881	80.44
235.115	76.44
235.349	75.44
235.583	80.44
235.817	90.44
236.051	75.44
236.285	71.44
236.519	79.44
236.753	67.44
236.987	73.44
237.221	71.44
237.455	83.44
237.689	71.44
237.922	69.44
238.156	78.44
238.39	77.44
238.624	79.44
238.858	79.44
239.091	85.44
239.325	84.44
239.559	82.44
239.793	71.44
240.027	71.44
240.26	72.44
240.494	89.44
240.728	76.44
240.961	63.44
241.195	66.44
241.429	84.44
241.662	71.44
241.896	75.44
242.13	84.44
242.363	69.44
242.597	73.44
242.83	66.44
243.064	72.44
243.298	78.44
243.531	62.44
243.765	68.44
243.998	77.44
244.232	70.44
244.465	86.44
244.699	68.44
244.932	76.44
245.166	71.44
245.399	81.44
245.633	70.44
245.866	86.44
246.099	66.44
246.333	73.44
246.566	65.44
246.8	75.44
247.033	77.44
247.266	81.44
247.5	72.44
247.733	68.44
247.966	70.44
248.2	91.44
248.433	61.44
248.666	63.44
248.899	73.44
249.133	86.44
249.366	100.44
249.599	87.44
249.832	85.44
250.066	71.44
250.299	71.44
250.532	71.44
250.765	75.44
250.998	71.44
251.231	83.44
251.465	74.44
251.698	63.44
251.931	66.44
252.164	84.44
252.397	85.44
252.63	77.44
252.863	83.44
253.096	76.44
253.329	74.44
253.562	83.44
253.795	67.44
254.028	76.44
254.261	69.44
254.494	78.44
254.727	66.44
254.96	78.44
255.193	90.44
255.426	87.44
255.659	89.44
255.892	77.44
256.124	83.44
256.357	73.44
256.59	77.44
256.823	81.44
257.056	91.44
257.289	68.44
257.521	73.44
257.754	85.44
257.987	77.44
258.22	75.44
258.452	82.44
258.685	74.44
258.918	75.44
259.151	80.44
259.383	74.44
259.616	67.44
259.849	88.44
260.081	71.44
260.314	82.44
260.547	84.44
260.779	82.44
261.012	81.44
261.244	86.44
261.477	73.44
261.71	86.44
261.942	99.44
262.175	107.44
262.407	88.44
262.64	79.44
262.872	85.44
263.105	81.44
263.337	81.44
263.57	89.44
263.802	83.44
264.035	78.44
264.267	89.44
264.499	71.44
264.732	76.44
264.964	79.44
265.197	68.44
265.429	78.44
265.661	85.44
265.894	80.44
266.126	83.44
266.358	99.44
266.591	86.44
266.823	71.44
267.055	87.44
267.287	76.44
267.52	97.44
267.752	86.44
267.984	91.44
268.216	88.44
268.448	87.44
268.681	85.44
268.913	69.44
269.145	83.44
269.377	79.44
269.609	80.44
269.841	88.44
270.073	84.44
270.306	76.44
270.538	80.44
270.77	75.44
271.002	61.44
271.234	83.44
271.466	71.44
271.698	73.44
271.93	67.44
272.162	89.44
272.394	93.44
272.626	83.44
272.858	81.44
273.09	75.44
273.322	76.44
273.553	82.44
273.785	72.44
274.017	74.44
274.249	89.44
274.481	94.44
274.713	72.44
274.945	97.44
275.176	85.44
275.408	77.44
275.64	80.44
275.872	74.44
276.104	78.44
276.335	100.44
276.567	97.44
276.799	87.44
277.031	93.44
277.262	81.44
277.494	87.44
277.726	83.44
277.957	77.44
278.189	78.44
278.421	81.44
278.652	82.44
278.884	73.44
279.115	69.44
279.347	80.44
279.579	85.44
279.81	85.44
280.042	85.44
280.273	70.44
280.505	75.44
280.736	81.44
280.968	84.44
281.199	87.44
281.431	89.44
281.662	103.44
281.894	77.44
282.125	99.44
282.356	108.44
282.588	119.44
282.819	104.44
283.051	77.44
283.282	84.44
283.513	92.44
283.745	90.44
283.976	94.44
284.207	95.44
284.439	91.44
284.67	84.44
284.901	89.44
285.132	80.44
285.364	83.44
285.595	86.44
285.826	84.44
286.057	81.44
286.288	86.44
286.52	89.44
286.751	80.44
286.982	88.44
287.213	78.44
287.444	91.44
287.675	80.44
287.906	96.44
288.138	86.44
288.369	92.44
288.6	79.44
288.831	89.44
289.062	86.44
289.293	89.44
289.524	89.44
289.755	91.44
289.986	78.44
290.217	80.44
290.448	84.44
290.679	87.44
290.91	75.44
291.141	76.44
291.371	78.44
291.602	103.44
291.833	83.44
292.064	73.44
292.295	92.44
292.526	83.44
292.757	90.44
292.987	70.44
293.218	64.44
293.449	75.44
293.68	86.44
293.91	77.44
294.141	81.44
294.372	86.44
294.603	89.44
294.833	78.44
295.064	83.44
295.295	91.44
295.525	81.44
295.756	92.44
295.987	109.44
296.217	114.44
296.448	113.44
296.679	80.44
296.909	85.44
297.14	77.44
297.37	96.44
297.601	80.44
297.831	83.44
298.062	96.44
298.292	89.44
298.523	80.44
298.753	84.44
298.984	88.44
299.214	79.44
299.445	95.44
299.675	98.44
299.905	77.44
300.136	83.44
300.366	87.44
300.597	80.44
300.827	87.44
301.057	88.44
301.288	87.44
301.518	87.44
301.748	95.44
301.979	95.44
302.209	82.44
302.439	89.44
302.669	96.44
302.9	75.44
303.13	89.44
303.36	93.44
303.59	101.44
303.82	100.44
304.051	91.44
304.281	89.44
304.511	88.44
304.741	85.44
304.971	76.44
305.201	94.44
305.431	88.44
305.661	101.44
305.891	93.44
306.121	96.44
306.352	90.44
306.582	106.44
306.812	95.44
307.042	103.44
307.272	95.44
307.502	97.44
307.731	82.44
307.961	77.44
308.191	74.44
308.421	85.44
308.651	95.44
308.881	93.44
309.111	99.44
309.341	95.44
309.571	92.44
309.8	98.44
310.03	88.44
310.26	94.44
310.49	82.44
310.72	86.44
310.949	77.44
311.179	103.44
311.409	94.44
311.639	92.44
311.868	77.44
312.098	96.44
312.328	106.44
312.557	91.44
312.787	95.44
313.017	102.44
313.246	94.44
313.476	78.44
313.706	86.44
313.935	91.44
314.165	99.44
314.394	94.44
314.624	87.44
314.853	90.44
315.083	82.44
315.312	113.44
315.542	83.44
315.771	100.44
316.001	89.44
316.23	96.44
316.46	86.44
316.689	81.44
316.919	71.44
317.148	88.44
317.377	101.44
317.607	93.44
317.836	88.44
318.065	93.44
318.295	80.44
318.524	82.44
318.753	81.44
318.983	88.44
319.212	94.44
319.441	102.44
319.67	90.44
319.9	96.44
320.129	89.44
320.358	90.44
320.587	91.44
320.816	88.44
321.046	87.44
321.275	89.44
321.504	98.44
321.733	97.44
321.962	104.44
322.191	98.44
322.42	98.44
322.649	96.44
322.878	104.44
323.108	111.44
323.337	113.44
323.566	131.44
323.795	132.44
324.024	192.44
324.253	317.44
324.482	681.44
324.71	1367.44
324.939	1816.44
325.168	689.44
325.397	191.44
325.626	141.44
325.855	110.44
326.084	105.44
326.313	116.44
326.542	143.44
326.77	204.44
326.999	396.44
327.228	790.44
327.457	1386.44
327.686	1089.44
327.914	319.44
328.143	175.44
328.372	129.44
328.6	107.44
328.829	107.44
329.058	113.44
329.287	105.44
329.515	112.44
329.744	83.44
329.972	90.44
330.201	102.44
330.43	95.44
330.658	109.44
330.887	111.44
331.115	111.44
331.344	86.44
331.572	85.44
331.801	80.44
332.03	93.44
332.258	100.44
332.486	96.44
332.715	99.44
332.943	98.44
333.172	111.44
333.4	84.44
333.629	96.44
333.857	104.44
334.085	97.44
334.314	81.44
334.542	97.44
334.771	87.44
334.999	89.44
335.227	97.44
335.455	90.44
335.684	97.44
335.912	113.44
336.14	97.44
336.369	73.44
336.597	89.44
336.825	94.44
337.053	83.44
337.281	97.44
337.51	86.44
337.738	83.44
337.966	70.44
338.194	82.44
338.422	81.44
338.65	71.44
338.878	86.44
339.106	72.44
339.334	83.44
339.562	99.44
339.79	97.44
340.018	91.44
340.246	86.44
340.474	95.44
340.702	93.44
340.93	87.44
341.158	93.44
341.386	93.44
341.614	92.44
341.842	97.44
342.07	85.44
342.298	89.44
342.526	88.44
342.754	88.44
342.981	87.44
343.209	84.44
343.437	89.44
343.665	86.44
343.893	97.44
344.12	89.44
344.348	84.44
344.576	93.44
344.804	89.44
345.031	99.44
345.259	92.44
345.487	99.44
345.714	97.44
345.942	77.44
346.17	73.44
346.397	88.44
346.625	94.44
346.853	96.44
347.08	93.44
347.308	89.44
347.535	88.44
347.763	92.44
347.99	95.44
348.218	102.44
348.445	82.44
348.673	103.44
348.9	96.44
349.128	102.44
349.355	95.44
349.583	97.44
349.81	99.44
350.037	89.44
350.265	84.44
350.492	91.44
350.72	91.44
350.947	96.44
351.174	107.44
351.402	92.44
351.629	102.44
351.856	100.44
352.083	102.44
352.311	103.44
352.538	96.44
352.765	104.44
352.992	109.44
353.22	135.44
353.447	95.44
353.674	106.44
353.901	97.44
354.128	88.44
354.355	105.44
354.583	90.44
354.81	104.44
355.037	95.44
355.264	87.44
355.491	86.44
355.718	102.44
355.945	95.44
356.172	88.44
356.399	80.44
356.626	78.44
356.853	84.44
357.08	87.44
357.307	80.44
357.534	91.44
357.761	92.44
357.988	102.44
358.215	95.44
358.441	79.44
358.668	88.44
358.895	84.44
359.122	85.44
359.349	92.44
359.576	90.44
359.802	95.44
360.029	95.44
360.256	89.44
360.483	96.44
360.709	82.44
360.936	94.44
361.163	83.44
361.39	81.44
361.616	82.44
361.843	77.44
362.07	98.44
362.296	84.44
362.523	81.44
362.749	85.44
362.976	86.44
363.203	99.44
363.429	79.44
363.656	83.44
363.882	84.44
364.109	80.44
364.335	89.44
364.562	95.44
364.788	93.44
365.015	88.44
365.241	99.44
365.468	99.44
365.694	92.44
365.92	83.44
366.147	90.44
366.373	90.44
366.599	94.44
366.826	84.44
367.052	86.44
367.278	75.44
367.505	86.44
367.731	84.44
367.957	95.44
368.184	94.44
368.41	86.44
368.636	112.44
368.862	111.44
369.089	91.44
369.315	89.44
369.541	97.44
369.767	76.44
369.993	83.44
370.219	82.44
370.445	82.44
370.672	84.44
370.898	94.44
371.124	90.44
371.35	82.44
371.576	86.44
371.802	86.44
372.028	81.44
372.254	86.44
372.48	84.44
372.706	89.44
372.932	75.44
373.158	85.44
373.384	95.44
373.61	97.44
373.835	85.44
374.061	87.44
374.287	85.44
374.513	90.44
374.739	88.44
374.965	91.44
375.191	93.44
375.416	97.44
375.642	83.44
375.868	74.44
376.094	93.44
376.319	77.44
376.545	80.44
376.771	89.44
376.997	83.44
377.222	82.44
377.448	70.44
377.674	87.44
377.899	95.44
378.125	78.44
378.35	92.44
378.576	87.44
378.802	85.44
379.027	97.44
379.253	92.44
379.478	105.44
379.704	98.44
379.929	93.44
380.155	68.44
380.38	95.44
380.606	96.44
380.831	100.44
381.057	83.44
381.282	90.44
381.507	89.44
381.733	96.44
381.958	95.44
382.184	91.44
382.409	103.44
382.634	94.44
382.86	93.44
383.085	97.44
383.31	100.44
383.535	92.44
383.761	96.44
383.986	79.44
384.211	83.44
384.436	90.44
384.662	101.44
384.887	103.44
385.112	94.44
385.337	101.44
385.562	94.44
385.787	95.44
386.013	95.44
386.238	87.44
386.463	95.44
386.688	94.44
386.913	98.44
387.138	90.44
387.363	101.44
387.588	96.44
387.813	89.44
388.038	96.44
388.263	100.44
388.488	97.44
388.713	86.44
388.938	75.44
389.163	88.44
389.387	75.44
389.612	86.44
389.837	82.44
390.062	88.44
390.287	93.44
390.512	86.44
390.736	81.44
390.961	87.44
391.186	85.44
391.411	104.44
391.636	92.44
391.86	81.44
392.085	79.44
392.31	64.44
392.534	85.44
392.759	75.44
392.984	88.44
393.208	81.44
393.433	90.44
393.658	90.44
393.882	87.44
394.107	87.44
394.331	82.44
394.556	86.44
394.78	85.44
395.005	89.44
395.229	83.44
395.454	84.44
395.678	84.44
395.903	99.44
396.127	80.44
396.352	89.44
396.576	89.44
396.801	93.44
397.025	81.44
397.249	84.44
397.474	83.44
397.698	102.44
397.922	87.44
398.147	81.44
398.371	85.44
398.595	84.44
398.82	79.44
399.044	97.44
399.268	73.44
399.492	84.44
399.717	105.44
399.941	89.44
400.165	92.44
400.389	85.44
400.613	76.44
400.837	78.44
401.062	89.44
401.286	84.44
401.51	87.44
401.734	90.44
401.958	102.44
402.182	113.44
402.406	137.44
402.63	108.44
402.854	89.44
403.078	75.44
403.302	95.44
403.526	81.44
403.75	85.44
403.974	95.44
404.198	84.44
404.422	76.44
404.645	84.44
404.869	87.44
405.093	89.44
405.317	83.44
405.541	93.44
405.765	82.44
405.988	107.44
406.212	148.44
406.436	204.44
406.66	137.44
406.883	91.44
407.107	84.44
407.331	89.44
407.555	105.44
407.778	88.44
408.002	88.44
408.226	95.44
408.449	86.44
408.673	96.44
408.896	97.44
409.12	87.44
409.344	92.44
409.567	81.44
409.791	83.44
410.014	103.44
410.238	83.44
410.461	93.44
410.685	88.44
410.908	94.44
411.132	89.44
411.355	102.44
411.578	79.44
411.802	92.44
412.025	93.44
412.249	79.44
412.472	83.44
412.695	76.44
412.919	88.44
413.142	101.44
413.365	84.44
413.589	83.44
413.812	99.44
414.035	83.44
414.258	96.44
414.482	93.44
414.705	86.44
414.928	89.44
415.151	83.44
415.374	81.44
415.597	86.44
415.821	84.44
416.044	80.44
416.267	83.44
416.49	93.44
416.713	94.44
416.936	87.44
417.159	88.44
417.382	97.44
417.605	104.44
417.828	88.44
418.051	93.44
418.274	78.44
418.497	87.44
418.72	68.44
418.943	65.44
419.166	79.44
419.389	90.44
419.611	75.44
419.834	96.44
420.057	71.44
420.28	81.44
420.503	94.44
420.726	69.44
420.948	98.44
421.171	80.44
421.394	86.44
421.617	82.44
421.839	80.44
422.062	97.44
422.285	86.44
422.507	94.44
422.73	90.44
422.953	88.44
423.175	73.44
423.398	85.44
423.621	93.44
423.843	88.44
424.066	84.44
424.288	77.44
424.511	81.44
424.733	77.44
424.956	88.44
425.178	94.44
425.401	102.44
425.623	90.44
425.846	93.44
426.068	91.44
426.291	86.44
426.513	90.44
426.735	85.44
426.958	89.44
427.18	93.44
427.402	115.44
427.625	148.44
427.847	104.44
428.069	105.44
428.292	107.44
428.514	83.44
428.736	90.44
428.958	89.44
429.181	93.44
429.403	87.44
429.625	74.44
429.847	100.44
430.069	89.44
430.292	79.44
430.514	80.44
430.736	83.44
430.958	94.44
431.18	75.44
431.402	78.44
431.624	75.44
431.846	81.44
432.068	84.44
432.29	79.44
432.512	87.44
432.734	83.44
432.956	73.44
433.178	82.44
433.4	97.44
433.622	81.44
433.844	88.44
434.066	83.44
434.287	101.44
434.509	95.44
434.731	85.44
434.953	76.44
435.175	73.44
435.397	93.44
435.618	94.44
435.84	93.44
436.062	99.44
436.284	108.44
436.505	89.44
436.727	96.44
436.949	72.44
437.17	91.44
437.392	89.44
437.614	85.44
437.835	95.44
438.057	110.44
438.278	102.44
438.5	87.44
438.721	93.44
438.943	97.44
439.165	97.44
439.386	85.44
439.608	79.44
439.829	80.44
440.05	112.44
440.272	127.44
440.493	96.44
440.715	87.44
440.936	84.44
441.158	86.44
441.379	89.44
441.6	97.44
441.822	94.44
442.043	89.44
442.264	93.44
442.486	89.44
442.707	84.44
442.928	86.44
443.149	108.44
443.371	128.44
443.592	105.44
443.813	95.44
444.034	92.44
444.255	88.44
444.476	81.44
444.698	89.44
444.919	85.44
445.14	110.44
445.361	122.44
445.582	117.44
445.803	124.44
446.024	119.44
446.245	124.44
446.466	107.44
446.687	80.44
446.908	79.44
447.129	83.44
447.35	87.44
447.571	80.44
447.792	88.44
448.013	87.44
448.234	85.44
448.455	110.44
448.675	100.44
448.896	107.44
449.117	95.44
449.338	112.44
449.559	116.44
449.779	116.44
450	86.44
450.221	77.44
450.442	84.44
450.662	99.44
450.883	86.44
451.104	98.44
451.324	85.44
451.545	80.44
451.766	87.44
451.986	94.44
452.207	86.44
452.428	82.44
452.648	89.44
452.869	100.44
453.089	110.44
453.31	106.44
453.53	89.44
453.751	84.44
453.971	88.44
454.192	94.44
454.412	66.44
454.633	84.44
454.853	90.44
455.073	85.44
455.294	102.44
455.514	87.44
455.734	102.44
455.955	68.44
456.175	71.44
456.395	75.44
456.616	81.44
456.836	87.44
457.056	72.44
457.276	83.44
457.497	87.44
457.717	73.44
457.937	106.44
458.157	89.44
458.377	96.44
458.598	119.44
458.818	131.44
459.038	144.44
459.258	109.44
459.478	96.44
459.698	89.44
459.918	66.44
460.138	76.44
460.358	83.44
460.578	81.44
460.798	85.44
461.018	78.44
461.238	76.44
461.458	76.44
461.678	88.44
461.898	94.44
462.118	85.44
462.338	79.44
462.558	78.44
462.777	77.44
462.997	80.44
463.217	69.44
463.437	81.44
463.657	93.44
463.876	85.44
464.096	75.44
464.316	94.44
464.536	96.44
464.755	92.44
464.975	103.44
465.195	134.44
465.414	140.44
465.634	102.44
465.854	82.44
466.073	81.44
466.293	99.44
466.512	88.44
466.732	75.44
466.951	84.44
467.171	81.44
467.391	80.44
467.61	101.44
467.829	89.44
468.049	81.44
468.268	96.44
468.488	71.44
468.707	87.44
468.927	77.44
469.146	90.44
469.365	81.44
469.585	89.44
469.804	83.44
470.023	101.44
470.243	89.44
470.462	99.44
470.681	102.44
470.901	82.44
471.12	98.44
471.339	94.44
471.558	85.44
471.777	96.44
471.997	83.44
472.216	77.44
472.435	98.44
472.654	92.44
472.873	101.44
473.092	88.44
473.311	90.44
473.53	80.44
473.749	90.44
473.968	92.44
474.187	103.44
474.406	81.44
474.625	78.44
474.844	68.44
475.063	79.44
475.282	81.44
475.501	84.44
475.72	91.44
475.939	83.44
476.158	73.44
476.377	100.44
476.596	83.44
476.814	86.44
477.033	93.44
477.252	86.44
477.471	75.44
477.69	95.44
477.908	88.44
478.127	82.44
478.346	86.44
478.564	94.44
478.783	86.44
479.002	88.44
479.22	86.44
479.439	97.44
479.658	88.44
479.876	90.44
480.095	71.44
480.313	79.44
480.532	72.44
480.751	96.44
480.969	82.44
481.188	116.44
481.406	100.44
481.624	86.44
481.843	76.44
482.061	77.44
482.28	85.44
482.498	70.44
482.717	87.44
482.935	93.44
483.153	100.44
483.372	97.44
483.59	88.44
483.808	83.44
484.027	86.44
484.245	83.44
484.463	92.44
484.681	94.44
484.9	79.44
485.118	82.44
485.336	80.44
485.554	78.44
485.772	100.44
485.99	105.44
486.209	110.44
486.427	95.44
486.645	94.44
486.863	98.44
487.081	106.44
487.299	95.44
487.517	90.44
487.735	89.44
487.953	86.44
488.171	76.44
488.389	101.44
488.607	95.44
488.825	77.44
489.043	95.44
489.261	82.44
489.479	97.44
489.696	90.44
489.914	82.44
490.132	84.44
490.35	78.44
490.568	88.44
490.786	86.44
491.003	84.44
491.221	93.44
491.439	89.44
491.657	85.44
491.874	98.44
492.092	76.44
492.31	99.44
492.527	93.44
492.745	83.44
492.963	84.44
493.18	84.44
493.398	90.44
493.615	89.44
493.833	106.44
494.05	86.44
494.268	90.44
494.485	79.44
494.703	95.44
494.92	80.44
495.138	95.44
495.355	102.44
495.573	92.44
495.79	79.44
496.008	88.44
496.225	92.44
496.442	95.44
496.66	103.44
496.877	79.44
497.094	92.44
497.312	68.44
497.529	77.44
497.746	68.44
497.963	85.44
498.181	84.44
498.398	89.44
498.615	84.44
498.832	87.44
499.049	100.44
499.267	83.44
499.484	80.44
499.701	88.44
499.918	86.44
500.135	95.44
500.352	80.44
500.569	96.44
500.786	87.44
501.003	97.44
501.22	92.44
501.437	76.44
501.654	92.44
501.871	89.44
502.088	79.44
502.305	100.44
502.522	74.44
502.739	93.44
502.956	85.44
503.172	70.44
503.389	92.44
503.606	105.44
503.823	88.44
504.04	70.44
504.256	89.44
504.473	101.44
504.69	100.44
504.907	85.44
505.123	90.44
505.34	80.44
505.557	91.44
505.773	81.44
505.99	85.44
506.207	92.44
506.423	87.44
506.64	91.44
506.856	91.44
507.073	82.44
507.289	88.44
507.506	97.44
507.722	106.44
507.939	105.44
508.155	83.44
508.372	86.44
508.588	81.44
508.805	91.44
509.021	105.44
509.238	101.44
509.454	101.44
509.67	103.44
509.887	115.44
510.103	125.44
510.319	185.44
510.536	657.44
510.752	2024.44
510.968	579.44
511.184	135.44
511.401	84.44
511.617	91.44
511.833	93.44
512.049	84.44
512.265	88.44
512.481	83.44
512.698	87.44
512.914	86.44
513.13	93.44
513.346	84.44
513.562	96.44
513.778	89.44
513.994	94.44
514.21	92.44
514.426	107.44
514.642	117.44
514.858	112.44
515.074	125.44
515.29	359.44
515.506	1195.44
515.721	446.44
515.937	129.44
516.153	111.44
516.369	90.44
516.585	91.44
516.801	96.44
517.016	96.44
517.232	98.44
