Data from Uncirc_2002_H10_HRD10591_00013.txt Node
Date: Wed Jan 03 10:39:43 EST 2024
User: Yrep
Spectrometer: HR+D1059
Trigger mode: 1
Integration Time (sec): 1.000000E-1
Scans to average: 1
Electric dark correction enabled: true
Nonlinearity correction enabled: false
Boxcar width: 0
XAxis mode: Wavelengths
Number of Pixels in Spectrum: 2048
>>>>>Begin Spectral Data<<<<<
223.165	-26.19
223.4	-26.19
223.635	-26.19
223.869	-29.19
224.104	-31.19
224.338	-26.19
224.573	-19.19
224.808	-16.19
225.042	11.81
225.277	-1.19
225.511	2.81
225.746	3.81
225.98	9.81
226.215	24.81
226.449	13.81
226.683	25.81
226.918	29.81
227.152	26.81
227.387	39.81
227.621	29.81
227.856	45.81
228.09	42.81
228.324	49.81
228.559	55.81
228.793	157.81
229.027	403.81
229.262	461.81
229.496	527.81
229.73	720.81
229.964	709.81
230.199	487.81
230.433	436.81
230.667	451.81
230.901	431.81
231.136	399.81
231.37	424.81
231.604	397.81
231.838	440.81
232.072	427.81
232.306	422.81
232.541	430.81
232.775	447.81
233.009	456.81
233.243	419.81
233.477	445.81
233.711	447.81
233.945	456.81
234.179	478.81
234.413	477.81
234.647	467.81
234.881	481.81
235.115	501.81
235.349	489.81
235.583	513.81
235.817	538.81
236.051	579.81
236.285	576.81
236.519	596.81
236.753	655.81
236.987	827.81
237.221	1235.81
237.455	1342.81
237.689	821.81
237.922	696.81
238.156	666.81
238.39	635.81
238.624	618.81
238.858	593.81
239.091	613.81
239.325	637.81
239.559	639.81
239.793	659.81
240.027	693.81
240.26	835.81
240.494	878.81
240.728	854.81
240.961	811.81
241.195	733.81
241.429	719.81
241.662	710.81
241.896	744.81
242.13	712.81
242.363	739.81
242.597	737.81
242.83	774.81
243.064	741.81
243.298	763.81
243.531	784.81
243.765	768.81
243.998	800.81
244.232	809.81
244.465	826.81
244.699	845.81
244.932	862.81
245.166	838.81
245.399	864.81
245.633	859.81
245.866	859.81
246.099	870.81
246.333	873.81
246.566	899.81
246.8	890.81
247.033	943.81
247.266	995.81
247.5	1033.81
247.733	1090.81
247.966	1101.81
248.2	1069.81
248.433	1079.81
248.666	1121.81
248.899	1225.81
249.133	1361.81
249.366	1284.81
249.599	1206.81
249.832	1112.81
250.066	1101.81
250.299	1173.81
250.532	1242.81
250.765	1401.81
250.998	1579.81
251.231	1514.81
251.465	1354.81
251.698	1330.81
251.931	1325.81
252.164	1302.81
252.397	1334.81
252.63	1365.81
252.863	1447.81
253.096	1552.81
253.329	1610.81
253.562	1523.81
253.795	1507.81
254.028	1471.81
254.261	1493.81
254.494	1691.81
254.727	1996.81
254.96	2075.81
255.193	1792.81
255.426	1627.81
255.659	1541.81
255.892	1483.81
256.124	1456.81
256.357	1447.81
256.59	1434.81
256.823	1403.81
257.056	1421.81
257.289	1424.81
257.521	1448.81
257.754	1457.81
257.987	1421.81
258.22	1457.81
258.452	1427.81
258.685	1460.81
258.918	1472.81
259.151	1514.81
259.383	1583.81
259.616	1617.81
259.849	1646.81
260.081	1753.81
260.314	1930.81
260.547	1847.81
260.779	1765.81
261.012	1703.81
261.244	1642.81
261.477	1563.81
261.71	1619.81
261.942	1625.81
262.175	1633.81
262.407	1608.81
262.64	1548.81
262.872	1529.81
263.105	1573.81
263.337	1540.81
263.57	1558.81
263.802	1589.81
264.035	1573.81
264.267	1618.81
264.499	1630.81
264.732	1615.81
264.964	1638.81
265.197	1612.81
265.429	1625.81
265.661	1659.81
265.894	1626.81
266.126	1648.81
266.358	1680.81
266.591	1661.81
266.823	1748.81
267.055	1775.81
267.287	1803.81
267.52	1754.81
267.752	1773.81
267.984	1769.81
268.216	1799.81
268.448	1810.81
268.681	1918.81
268.913	1965.81
269.145	2180.81
269.377	2208.81
269.609	2154.81
269.841	2160.81
270.073	2189.81
270.306	2453.81
270.538	2645.81
270.77	2503.81
271.002	2321.81
271.234	2273.81
271.466	2401.81
271.698	2529.81
271.93	2547.81
272.162	2522.81
272.394	2507.81
272.626	2369.81
272.858	2239.81
273.09	2149.81
273.322	2136.81
273.553	2117.81
273.785	2122.81
274.017	2163.81
274.249	2097.81
274.481	2150.81
274.713	2148.81
274.945	2173.81
275.176	2147.81
275.408	2139.81
275.64	2164.81
275.872	2132.81
276.104	2181.81
276.335	2236.81
276.567	2256.81
276.799	2369.81
277.031	2587.81
277.262	2660.81
277.494	2608.81
277.726	2431.81
277.957	2351.81
278.189	2319.81
278.421	2240.81
278.652	2274.81
278.884	2239.81
279.115	2215.81
279.347	2228.81
279.579	2256.81
279.81	2255.81
280.042	2250.81
280.273	2272.81
280.505	2330.81
280.736	2287.81
280.968	2271.81
281.199	2268.81
281.431	2345.81
281.662	2348.81
281.894	2352.81
282.125	2413.81
282.356	2512.81
282.588	2617.81
282.819	2522.81
283.051	2442.81
283.282	2417.81
283.513	2393.81
283.745	2489.81
283.976	2557.81
284.207	2557.81
284.439	2524.81
284.67	2488.81
284.901	2544.81
285.132	2480.81
285.364	2456.81
285.595	2489.81
285.826	2529.81
286.057	2543.81
286.288	2528.81
286.52	2510.81
286.751	2573.81
286.982	2564.81
287.213	2584.81
287.444	2654.81
287.675	2645.81
287.906	2756.81
288.138	2808.81
288.369	2840.81
288.6	2753.81
288.831	2749.81
289.062	2716.81
289.293	2675.81
289.524	2690.81
289.755	2691.81
289.986	2709.81
290.217	2735.81
290.448	2732.81
290.679	2664.81
290.91	2730.81
291.141	2695.81
291.371	2677.81
291.602	2747.81
291.833	2653.81
292.064	2749.81
292.295	2726.81
292.526	2711.81
292.757	2723.81
292.987	2716.81
293.218	2677.81
293.449	2709.81
293.68	2740.81
293.91	2726.81
294.141	2721.81
294.372	2723.81
294.603	2693.81
294.833	2741.81
295.064	2699.81
295.295	2779.81
295.525	2764.81
295.756	2772.81
295.987	2874.81
296.217	3018.81
296.448	2941.81
296.679	2823.81
296.909	2796.81
297.14	2857.81
297.37	2931.81
297.601	2904.81
297.831	2908.81
298.062	2887.81
298.292	2983.81
298.523	3007.81
298.753	3000.81
298.984	3005.81
299.214	2996.81
299.445	2983.81
299.675	2982.81
299.905	3051.81
300.136	3028.81
300.366	3005.81
300.597	3083.81
300.827	3174.81
301.057	3186.81
301.288	3317.81
301.518	3200.81
301.748	3151.81
301.979	3189.81
302.209	3290.81
302.439	3246.81
302.669	3187.81
302.9	3169.81
303.13	3193.81
303.36	3194.81
303.59	3297.81
303.82	3242.81
304.051	3213.81
304.281	3174.81
304.511	3145.81
304.741	3211.81
304.971	3166.81
305.201	3148.81
305.431	3160.81
305.661	3154.81
305.891	3095.81
306.121	3147.81
306.352	3198.81
306.582	3239.81
306.812	3105.81
307.042	3143.81
307.272	3173.81
307.502	3159.81
307.731	3098.81
307.961	3142.81
308.191	3137.81
308.421	3170.81
308.651	3163.81
308.881	3246.81
309.111	3217.81
309.341	3265.81
309.571	3361.81
309.8	3339.81
310.03	3411.81
310.26	3386.81
310.49	3405.81
310.72	3556.81
310.949	3520.81
311.179	3560.81
311.409	3495.81
311.639	3483.81
311.868	3509.81
312.098	3511.81
312.328	3595.81
312.557	3665.81
312.787	3782.81
313.017	3699.81
313.246	3597.81
313.476	3580.81
313.706	3599.81
313.935	3661.81
314.165	3724.81
314.394	3777.81
314.624	3640.81
314.853	3637.81
315.083	3674.81
315.312	3602.81
315.542	3568.81
315.771	3507.81
316.001	3474.81
316.23	3546.81
316.46	3510.81
316.689	3559.81
316.919	3665.81
317.148	3632.81
317.377	3648.81
317.607	3538.81
317.836	3542.81
318.065	3524.81
318.295	3498.81
318.524	3513.81
318.753	3519.81
318.983	3483.81
319.212	3532.81
319.441	3603.81
319.67	3577.81
319.9	3526.81
320.129	3605.81
320.358	3508.81
320.587	3605.81
320.816	3629.81
321.046	3662.81
321.275	3679.81
321.504	3605.81
321.733	3683.81
321.962	3763.81
322.191	3815.81
322.42	3866.81
322.649	3948.81
322.878	3997.81
323.108	4061.81
323.337	4271.81
323.566	4345.81
323.795	4643.81
324.024	5114.81
324.253	6605.81
324.482	9665.81
324.71	14292.81
324.939	15611.81
325.168	10959.81
325.397	6030.81
325.626	4957.81
325.855	4553.81
326.084	4550.81
326.313	4446.81
326.542	4608.81
326.77	5141.81
326.999	6390.81
327.228	9133.81
327.457	13320.81
327.686	12406.81
327.914	6770.81
328.143	5272.81
328.372	5025.81
328.6	4879.81
328.829	4849.81
329.058	4957.81
329.287	4889.81
329.515	4681.81
329.744	4528.81
329.972	4527.81
330.201	4625.81
330.43	4808.81
330.658	5044.81
330.887	5280.81
331.115	4993.81
331.344	4655.81
331.572	4611.81
331.801	4757.81
332.03	4739.81
332.258	4729.81
332.486	4758.81
332.715	4847.81
332.943	5002.81
333.172	5093.81
333.4	5320.81
333.629	5305.81
333.857	5411.81
334.085	5307.81
334.314	5244.81
334.542	5144.81
334.771	5163.81
334.999	5058.81
335.227	5032.81
335.455	4947.81
335.684	4849.81
335.912	4787.81
336.14	4708.81
336.369	4757.81
336.597	4808.81
336.825	4752.81
337.053	4691.81
337.281	4597.81
337.51	4501.81
337.738	4544.81
337.966	4456.81
338.194	4565.81
338.422	4404.81
338.65	4354.81
338.878	4430.81
339.106	4383.81
339.334	4344.81
339.562	4309.81
339.79	4154.81
340.018	4285.81
340.246	4171.81
340.474	4228.81
340.702	4266.81
340.93	4237.81
341.158	4238.81
341.386	4260.81
341.614	4225.81
341.842	4201.81
342.07	4103.81
342.298	4136.81
342.526	4110.81
342.754	4104.81
342.981	4163.81
343.209	4261.81
343.437	4483.81
343.665	4793.81
343.893	4994.81
344.12	5005.81
344.348	4829.81
344.576	4636.81
344.804	4472.81
345.031	4446.81
345.259	4373.81
345.487	4221.81
345.714	4174.81
345.942	4100.81
346.17	4083.81
346.397	4081.81
346.625	4060.81
346.853	4040.81
347.08	4033.81
347.308	4088.81
347.535	4104.81
347.763	4094.81
347.99	4108.81
348.218	4136.81
348.445	4148.81
348.673	4061.81
348.9	4035.81
349.128	3927.81
349.355	3962.81
349.583	3905.81
349.81	3956.81
350.037	3917.81
350.265	3901.81
350.492	3873.81
350.72	3885.81
350.947	3960.81
351.174	3992.81
351.402	4021.81
351.629	4027.81
351.856	4016.81
352.083	4058.81
352.311	4066.81
352.538	4073.81
352.765	3985.81
352.992	3985.81
353.22	3941.81
353.447	3914.81
353.674	3878.81
353.901	3817.81
354.128	3827.81
354.355	3861.81
354.583	3875.81
354.81	3834.81
355.037	3786.81
355.264	3819.81
355.491	3823.81
355.718	3849.81
355.945	3826.81
356.172	3809.81
356.399	3806.81
356.626	3813.81
356.853	3875.81
357.08	3776.81
357.307	3801.81
357.534	3853.81
357.761	3839.81
357.988	3885.81
358.215	3857.81
358.441	3858.81
358.668	3851.81
358.895	3908.81
359.122	3959.81
359.349	3989.81
359.576	4072.81
359.802	4198.81
360.029	4320.81
360.256	4352.81
360.483	4172.81
360.709	4041.81
360.936	4050.81
361.163	4057.81
361.39	4085.81
361.616	4096.81
361.843	4049.81
362.07	4044.81
362.296	4050.81
362.523	3990.81
362.749	4050.81
362.976	3957.81
363.203	3921.81
363.429	3909.81
363.656	3909.81
363.882	3929.81
364.109	3874.81
364.335	3881.81
364.562	3947.81
364.788	3857.81
365.015	3917.81
365.241	3888.81
365.468	3934.81
365.694	4003.81
365.92	3942.81
366.147	3899.81
366.373	3954.81
366.599	3891.81
366.826	3849.81
367.052	3902.81
367.278	3935.81
367.505	3862.81
367.731	3893.81
367.957	3903.81
368.184	3965.81
368.41	3991.81
368.636	4107.81
368.862	4121.81
369.089	4069.81
369.315	4072.81
369.541	3985.81
369.767	4040.81
369.993	4009.81
370.219	4058.81
370.445	4089.81
370.672	4079.81
370.898	4149.81
371.124	4218.81
371.35	4200.81
371.576	4176.81
371.802	4192.81
372.028	4168.81
372.254	4190.81
372.48	4237.81
372.706	4348.81
372.932	4395.81
373.158	4273.81
373.384	4187.81
373.61	4235.81
373.835	4265.81
374.061	4242.81
374.287	4261.81
374.513	4315.81
374.739	4483.81
374.965	4607.81
375.191	4615.81
375.416	4570.81
375.642	4419.81
375.868	4336.81
376.094	4310.81
376.319	4225.81
376.545	4237.81
376.771	4237.81
376.997	4213.81
377.222	4133.81
377.448	4158.81
377.674	4111.81
377.899	4155.81
378.125	4240.81
378.35	4121.81
378.576	4210.81
378.802	4106.81
379.027	4188.81
379.253	4168.81
379.478	4066.81
379.704	4159.81
379.929	4213.81
380.155	4145.81
380.38	4209.81
380.606	4183.81
380.831	4145.81
381.057	4244.81
381.282	4204.81
381.507	4227.81
381.733	4311.81
381.958	4309.81
382.184	4320.81
382.409	4370.81
382.634	4462.81
382.86	4502.81
383.085	4483.81
383.31	4535.81
383.535	4601.81
383.761	4648.81
383.986	4664.81
384.211	4801.81
384.436	4891.81
384.662	4982.81
384.887	5058.81
385.112	5030.81
385.337	5123.81
385.562	5082.81
385.787	5153.81
386.013	5200.81
386.238	5191.81
386.463	5136.81
386.688	5062.81
386.913	5048.81
387.138	5003.81
387.363	5058.81
387.588	4955.81
387.813	5074.81
388.038	5043.81
388.263	5067.81
388.488	5029.81
388.713	4994.81
388.938	5029.81
389.163	5012.81
389.387	5012.81
389.612	4905.81
389.837	5011.81
390.062	4971.81
390.287	4950.81
390.512	4951.81
390.736	5030.81
390.961	5130.81
391.186	5158.81
391.411	5334.81
391.636	5459.81
391.86	5640.81
392.085	5674.81
392.31	5548.81
392.534	5470.81
392.759	5361.81
392.984	5261.81
393.208	5308.81
393.433	5313.81
393.658	5325.81
393.882	5200.81
394.107	5242.81
394.331	5305.81
394.556	5234.81
394.78	5355.81
395.005	5365.81
395.229	5433.81
395.454	5574.81
395.678	5709.81
395.903	5665.81
396.127	5714.81
396.352	5514.81
396.576	5310.81
396.801	5353.81
397.025	5483.81
397.249	5487.81
397.474	5621.81
397.698	5603.81
397.922	5814.81
398.147	5961.81
398.371	6029.81
398.595	6131.81
398.82	6438.81
399.044	6887.81
399.268	7717.81
399.492	8743.81
399.717	9300.81
399.941	9047.81
400.165	8479.81
400.389	7767.81
400.613	7079.81
400.837	6573.81
401.062	6477.81
401.286	6408.81
401.51	6354.81
401.734	6359.81
401.958	6458.81
402.182	6599.81
402.406	6637.81
402.63	6710.81
402.854	6730.81
403.078	6838.81
403.302	6994.81
403.526	7130.81
403.75	7200.81
403.974	7249.81
404.198	7225.81
404.422	7254.81
404.645	7189.81
404.869	7157.81
405.093	7282.81
405.317	7337.81
405.541	7368.81
405.765	7070.81
405.988	6931.81
406.212	7241.81
406.436	7311.81
406.66	7433.81
406.883	7474.81
407.107	8050.81
407.331	8540.81
407.555	8965.81
407.778	8723.81
408.002	8012.81
408.226	7658.81
408.449	7487.81
408.673	7364.81
408.896	7592.81
409.12	7709.81
409.344	7291.81
409.567	6995.81
409.791	6936.81
410.014	6830.81
410.238	6787.81
410.461	6766.81
410.685	6801.81
410.908	6903.81
411.132	7123.81
411.355	7186.81
411.578	6845.81
411.802	6613.81
412.025	6594.81
412.249	6643.81
412.472	6554.81
412.695	6516.81
412.919	6413.81
413.142	6300.81
413.365	6298.81
413.589	6344.81
413.812	6168.81
414.035	6077.81
414.258	6279.81
414.482	6214.81
414.705	6299.81
414.928	6249.81
415.151	6205.81
415.374	6255.81
415.597	6220.81
415.821	6102.81
416.044	6078.81
416.267	6063.81
416.49	6046.81
416.713	6041.81
416.936	6121.81
417.159	6061.81
417.382	6159.81
417.605	6097.81
417.828	6270.81
418.051	6401.81
418.274	6295.81
418.497	6257.81
418.72	6317.81
418.943	6361.81
419.166	6632.81
419.389	7099.81
419.611	6898.81
419.834	6693.81
420.057	6520.81
420.28	6385.81
420.503	6221.81
420.726	6237.81
420.948	6400.81
421.171	6918.81
421.394	6760.81
421.617	6397.81
421.839	6333.81
422.062	6418.81
422.285	6578.81
422.507	7216.81
422.73	7617.81
422.953	7113.81
423.175	6772.81
423.398	6782.81
423.621	6797.81
423.843	6945.81
424.066	6941.81
424.288	6928.81
424.511	7112.81
424.733	7561.81
424.956	7849.81
425.178	7500.81
425.401	7627.81
425.623	7526.81
425.846	6586.81
426.068	6445.81
426.291	6328.81
426.513	6359.81
426.735	6447.81
426.958	6847.81
427.18	7518.81
427.402	8514.81
427.625	8542.81
427.847	7210.81
428.069	6489.81
428.292	6199.81
428.514	5902.81
428.736	5767.81
428.958	5777.81
429.181	5595.81
429.403	5617.81
429.625	5814.81
429.847	6094.81
430.069	6495.81
430.292	6169.81
430.514	5623.81
430.736	5699.81
430.958	5521.81
431.18	5552.81
431.402	5519.81
431.624	5530.81
431.846	5585.81
432.068	5607.81
432.29	5666.81
432.512	5571.81
432.734	5677.81
432.956	5651.81
433.178	5633.81
433.4	5683.81
433.622	5635.81
433.844	5632.81
434.066	5581.81
434.287	5693.81
434.509	6005.81
434.731	6143.81
434.953	6306.81
435.175	6274.81
435.397	6444.81
435.618	6381.81
435.84	6700.81
436.062	7470.81
436.284	7423.81
436.505	6201.81
436.727	6007.81
436.949	5740.81
437.17	5662.81
437.392	5646.81
437.614	5779.81
437.835	6151.81
438.057	6972.81
438.278	7622.81
438.5	7451.81
438.721	8292.81
438.943	7217.81
439.165	6169.81
439.386	6002.81
439.608	6051.81
439.829	6152.81
440.05	6454.81
440.272	6704.81
440.493	6173.81
440.715	5890.81
440.936	5845.81
441.158	6002.81
441.379	6171.81
441.6	6373.81
441.822	6601.81
442.043	6957.81
442.264	7674.81
442.486	7376.81
442.707	6656.81
442.928	6471.81
443.149	6649.81
443.371	6903.81
443.592	7365.81
443.813	8273.81
444.034	8248.81
444.255	7271.81
444.476	7216.81
444.698	7285.81
444.919	7344.81
445.14	7213.81
445.361	6982.81
445.582	7093.81
445.803	7571.81
446.024	8151.81
446.245	7808.81
446.466	7055.81
446.687	6153.81
446.908	5889.81
447.129	5669.81
447.35	5490.81
447.571	5476.81
447.792	5413.81
448.013	5422.81
448.234	5653.81
448.455	6162.81
448.675	7274.81
448.896	7751.81
449.117	6409.81
449.338	6662.81
449.559	7765.81
449.779	7997.81
450	6225.81
450.221	5606.81
450.442	5306.81
450.662	5271.81
450.883	5329.81
451.104	5415.81
451.324	5255.81
451.545	5202.81
451.766	4991.81
451.986	4938.81
452.207	4950.81
452.428	4944.81
452.648	4913.81
452.869	4893.81
453.089	4982.81
453.31	5077.81
453.53	4936.81
453.751	4890.81
453.971	4850.81
454.192	4971.81
454.412	4813.81
454.633	4754.81
454.853	4775.81
455.073	4773.81
455.294	5150.81
455.514	5592.81
455.734	5183.81
455.955	4664.81
456.175	4534.81
456.395	4554.81
456.616	4461.81
456.836	4535.81
457.056	4505.81
457.276	4480.81
457.497	4651.81
457.717	4630.81
457.937	4678.81
458.157	4686.81
458.377	4853.81
458.598	5131.81
458.818	5754.81
459.038	6355.81
459.258	6319.81
459.478	5786.81
459.698	5631.81
459.918	5698.81
460.138	5923.81
460.358	6095.81
460.578	6112.81
460.798	6261.81
461.018	6250.81
461.238	6180.81
461.458	6114.81
461.678	6039.81
461.898	6158.81
462.118	6197.81
462.338	6544.81
462.558	6772.81
462.777	7007.81
462.997	7578.81
463.217	8002.81
463.437	7776.81
463.657	7210.81
463.876	6989.81
464.096	7041.81
464.316	7131.81
464.536	7043.81
464.755	6849.81
464.975	6650.81
465.195	6790.81
465.414	6744.81
465.634	5969.81
465.854	5669.81
466.073	5477.81
466.293	5371.81
466.512	5217.81
466.732	5081.81
466.951	5110.81
467.171	5139.81
467.391	5124.81
467.61	5234.81
467.829	5164.81
468.049	5090.81
468.268	4928.81
468.488	4859.81
468.707	4848.81
468.927	4889.81
469.146	4847.81
469.365	4905.81
469.585	4949.81
469.804	5090.81
470.023	5356.81
470.243	5170.81
470.462	5368.81
470.681	5459.81
470.901	5315.81
471.12	5230.81
471.339	5175.81
471.558	5169.81
471.777	5117.81
471.997	4945.81
472.216	4960.81
472.435	4889.81
472.654	4907.81
472.873	4805.81
473.092	4896.81
473.311	4799.81
473.53	4861.81
473.749	4985.81
473.968	5415.81
474.187	6275.81
474.406	5922.81
474.625	5099.81
474.844	4923.81
475.063	4875.81
475.282	4860.81
475.501	4928.81
475.72	4945.81
475.939	4975.81
476.158	5014.81
476.377	5031.81
476.596	5058.81
476.814	5233.81
477.033	5299.81
477.252	5262.81
477.471	5400.81
477.69	5466.81
477.908	5586.81
478.127	5784.81
478.346	5825.81
478.564	5924.81
478.783	5937.81
479.002	6184.81
479.22	6119.81
479.439	6217.81
479.658	6351.81
479.876	6380.81
480.095	6559.81
480.313	6979.81
480.532	6791.81
480.751	6689.81
480.969	6596.81
481.188	6488.81
481.406	6283.81
481.624	6098.81
481.843	5897.81
482.061	5842.81
482.28	5832.81
482.498	5741.81
482.717	5708.81
482.935	5696.81
483.153	5674.81
483.372	5649.81
483.59	5687.81
483.808	5784.81
484.027	5756.81
484.245	5777.81
484.463	5729.81
484.681	5865.81
484.9	5867.81
485.118	5857.81
485.336	6016.81
485.554	6043.81
485.772	6101.81
485.99	6085.81
486.209	6038.81
486.427	6144.81
486.645	6180.81
486.863	6281.81
487.081	6183.81
487.299	6173.81
487.517	6163.81
487.735	6177.81
487.953	6090.81
