Data from Uncirc_2002_H10_HRD10591_00048.txt Node
Date: Wed Jan 03 10:39:50 EST 2024
User: Yrep
Spectrometer: HR+D1059
Trigger mode: 1
Integration Time (sec): 1.000000E-1
Scans to average: 1
Electric dark correction enabled: true
Nonlinearity correction enabled: false
Boxcar width: 0
XAxis mode: Wavelengths
Number of Pixels in Spectrum: 2048
>>>>>Begin Spectral Data<<<<<
223.165	-18.44
223.4	-18.44
223.635	-18.44
223.869	-15.44
224.104	-22.44
224.338	-13.44
224.573	-11.44
224.808	-16.44
225.042	-14.44
225.277	-7.44
225.511	2.56
225.746	2.56
225.98	8.56
226.215	6.56
226.449	21.56
226.683	27.56
226.918	25.56
227.152	24.56
227.387	22.56
227.621	48.56
227.856	22.56
228.09	49.56
228.324	57.56
228.559	53.56
228.793	45.56
229.027	54.56
229.262	66.56
229.496	58.56
229.73	81.56
229.964	67.56
230.199	84.56
230.433	61.56
230.667	62.56
230.901	64.56
231.136	84.56
231.37	74.56
231.604	77.56
231.838	72.56
232.072	68.56
232.306	68.56
232.541	68.56
232.775	67.56
233.009	69.56
233.243	73.56
233.477	81.56
233.711	75.56
233.945	78.56
234.179	78.56
234.413	79.56
234.647	69.56
234.881	70.56
235.115	69.56
235.349	66.56
235.583	76.56
235.817	80.56
236.051	74.56
236.285	61.56
236.519	72.56
236.753	74.56
236.987	79.56
237.221	69.56
237.455	93.56
237.689	87.56
237.922	67.56
238.156	76.56
238.39	63.56
238.624	57.56
238.858	70.56
239.091	84.56
239.325	82.56
239.559	82.56
239.793	75.56
240.027	68.56
240.26	98.56
240.494	66.56
240.728	68.56
240.961	64.56
241.195	72.56
241.429	76.56
241.662	71.56
241.896	72.56
242.13	78.56
242.363	80.56
242.597	84.56
242.83	76.56
243.064	71.56
243.298	80.56
243.531	70.56
243.765	73.56
243.998	78.56
244.232	88.56
244.465	86.56
244.699	78.56
244.932	73.56
245.166	73.56
245.399	78.56
245.633	73.56
245.866	89.56
246.099	79.56
246.333	65.56
246.566	68.56
246.8	82.56
247.033	70.56
247.266	79.56
247.5	65.56
247.733	71.56
247.966	77.56
248.2	79.56
248.433	74.56
248.666	67.56
248.899	72.56
249.133	74.56
249.366	87.56
249.599	85.56
249.832	72.56
250.066	83.56
250.299	88.56
250.532	92.56
250.765	86.56
250.998	64.56
251.231	77.56
251.465	65.56
251.698	69.56
251.931	68.56
252.164	77.56
252.397	76.56
252.63	69.56
252.863	80.56
253.096	74.56
253.329	78.56
253.562	71.56
253.795	77.56
254.028	77.56
254.261	70.56
254.494	79.56
254.727	77.56
254.96	93.56
255.193	74.56
255.426	79.56
255.659	70.56
255.892	89.56
256.124	72.56
256.357	81.56
256.59	76.56
256.823	73.56
257.056	79.56
257.289	89.56
257.521	92.56
257.754	70.56
257.987	61.56
258.22	87.56
258.452	72.56
258.685	81.56
258.918	81.56
259.151	84.56
259.383	84.56
259.616	67.56
259.849	74.56
260.081	76.56
260.314	90.56
260.547	82.56
260.779	76.56
261.012	85.56
261.244	80.56
261.477	98.56
261.71	89.56
261.942	81.56
262.175	105.56
262.407	87.56
262.64	88.56
262.872	62.56
263.105	77.56
263.337	71.56
263.57	66.56
263.802	73.56
264.035	81.56
264.267	69.56
264.499	93.56
264.732	75.56
264.964	79.56
265.197	72.56
265.429	81.56
265.661	85.56
265.894	74.56
266.126	71.56
266.358	72.56
266.591	94.56
266.823	87.56
267.055	76.56
267.287	83.56
267.52	80.56
267.752	84.56
267.984	69.56
268.216	70.56
268.448	93.56
268.681	83.56
268.913	84.56
269.145	81.56
269.377	66.56
269.609	74.56
269.841	71.56
270.073	87.56
270.306	81.56
270.538	92.56
270.77	92.56
271.002	84.56
271.234	87.56
271.466	78.56
271.698	73.56
271.93	77.56
272.162	80.56
272.394	80.56
272.626	81.56
272.858	104.56
273.09	66.56
273.322	97.56
273.553	80.56
273.785	76.56
274.017	85.56
274.249	86.56
274.481	82.56
274.713	68.56
274.945	87.56
275.176	72.56
275.408	88.56
275.64	65.56
275.872	81.56
276.104	92.56
276.335	90.56
276.567	85.56
276.799	102.56
277.031	82.56
277.262	78.56
277.494	68.56
277.726	93.56
277.957	94.56
278.189	86.56
278.421	89.56
278.652	74.56
278.884	95.56
279.115	85.56
279.347	84.56
279.579	88.56
279.81	89.56
280.042	86.56
280.273	73.56
280.505	86.56
280.736	78.56
280.968	88.56
281.199	70.56
281.431	77.56
281.662	87.56
281.894	86.56
282.125	96.56
282.356	98.56
282.588	105.56
282.819	105.56
283.051	84.56
283.282	65.56
283.513	91.56
283.745	73.56
283.976	74.56
284.207	86.56
284.439	95.56
284.67	84.56
284.901	80.56
285.132	75.56
285.364	76.56
285.595	76.56
285.826	97.56
286.057	72.56
286.288	72.56
286.52	86.56
286.751	67.56
286.982	81.56
287.213	85.56
287.444	68.56
287.675	78.56
287.906	85.56
288.138	70.56
288.369	88.56
288.6	92.56
288.831	91.56
289.062	84.56
289.293	84.56
289.524	67.56
289.755	94.56
289.986	87.56
290.217	88.56
290.448	81.56
290.679	81.56
290.91	84.56
291.141	92.56
291.371	80.56
291.602	79.56
291.833	85.56
292.064	79.56
292.295	78.56
292.526	88.56
292.757	96.56
292.987	89.56
293.218	89.56
293.449	89.56
293.68	71.56
293.91	92.56
294.141	90.56
294.372	71.56
294.603	79.56
294.833	92.56
295.064	92.56
295.295	76.56
295.525	68.56
295.756	81.56
295.987	110.56
296.217	124.56
296.448	117.56
296.679	95.56
296.909	99.56
297.14	90.56
297.37	84.56
297.601	88.56
297.831	76.56
298.062	94.56
298.292	95.56
298.523	88.56
298.753	77.56
298.984	90.56
299.214	87.56
299.445	76.56
299.675	80.56
299.905	89.56
300.136	84.56
300.366	94.56
300.597	78.56
300.827	93.56
301.057	89.56
301.288	107.56
301.518	90.56
301.748	96.56
301.979	99.56
302.209	75.56
302.439	88.56
302.669	98.56
302.9	85.56
303.13	84.56
303.36	99.56
303.59	99.56
303.82	103.56
304.051	89.56
304.281	90.56
304.511	83.56
304.741	86.56
304.971	80.56
305.201	102.56
305.431	86.56
305.661	76.56
305.891	88.56
306.121	94.56
306.352	105.56
306.582	84.56
306.812	83.56
307.042	94.56
307.272	84.56
307.502	80.56
307.731	85.56
307.961	94.56
308.191	90.56
308.421	106.56
308.651	104.56
308.881	94.56
309.111	93.56
309.341	83.56
309.571	89.56
309.8	96.56
310.03	92.56
310.26	99.56
310.49	92.56
310.72	87.56
310.949	108.56
311.179	91.56
311.409	95.56
311.639	93.56
311.868	81.56
312.098	92.56
312.328	104.56
312.557	96.56
312.787	86.56
313.017	106.56
313.246	88.56
313.476	89.56
313.706	101.56
313.935	87.56
314.165	97.56
314.394	107.56
314.624	91.56
314.853	90.56
315.083	85.56
315.312	91.56
315.542	74.56
315.771	85.56
316.001	81.56
316.23	84.56
316.46	89.56
316.689	106.56
316.919	92.56
317.148	71.56
317.377	85.56
317.607	90.56
317.836	103.56
318.065	102.56
318.295	84.56
318.524	88.56
318.753	87.56
318.983	102.56
319.212	92.56
319.441	106.56
319.67	96.56
319.9	86.56
320.129	76.56
320.358	107.56
320.587	98.56
320.816	89.56
321.046	92.56
321.275	101.56
321.504	90.56
321.733	96.56
321.962	99.56
322.191	90.56
322.42	98.56
322.649	120.56
322.878	91.56
323.108	110.56
323.337	128.56
323.566	122.56
323.795	153.56
324.024	168.56
324.253	322.56
324.482	657.56
324.71	1308.56
324.939	1686.56
325.168	614.56
325.397	199.56
325.626	149.56
325.855	106.56
326.084	109.56
326.313	116.56
326.542	138.56
326.77	202.56
326.999	380.56
327.228	759.56
327.457	1320.56
327.686	1059.56
327.914	308.56
328.143	164.56
328.372	121.56
328.6	105.56
328.829	115.56
329.058	104.56
329.287	132.56
329.515	105.56
329.744	90.56
329.972	105.56
330.201	101.56
330.43	98.56
330.658	110.56
330.887	116.56
331.115	102.56
331.344	92.56
331.572	94.56
331.801	101.56
332.03	101.56
332.258	82.56
332.486	100.56
332.715	88.56
332.943	87.56
333.172	90.56
333.4	81.56
333.629	101.56
333.857	101.56
334.085	99.56
334.314	98.56
334.542	104.56
334.771	93.56
334.999	90.56
335.227	78.56
335.455	97.56
335.684	85.56
335.912	93.56
336.14	96.56
336.369	92.56
336.597	89.56
336.825	102.56
337.053	89.56
337.281	77.56
337.51	82.56
337.738	84.56
337.966	101.56
338.194	93.56
338.422	94.56
338.65	76.56
338.878	87.56
339.106	89.56
339.334	78.56
339.562	80.56
339.79	65.56
340.018	89.56
340.246	96.56
340.474	76.56
340.702	81.56
340.93	88.56
341.158	78.56
341.386	101.56
341.614	84.56
341.842	88.56
342.07	72.56
342.298	85.56
342.526	87.56
342.754	90.56
342.981	89.56
343.209	78.56
343.437	99.56
343.665	75.56
343.893	81.56
344.12	87.56
344.348	81.56
344.576	84.56
344.804	91.56
345.031	95.56
345.259	92.56
345.487	80.56
345.714	71.56
345.942	84.56
346.17	94.56
346.397	96.56
346.625	96.56
346.853	83.56
347.08	95.56
347.308	84.56
347.535	74.56
347.763	94.56
347.99	108.56
348.218	90.56
348.445	97.56
348.673	86.56
348.9	86.56
349.128	86.56
349.355	82.56
349.583	80.56
349.81	94.56
350.037	90.56
350.265	100.56
350.492	82.56
350.72	89.56
350.947	100.56
351.174	106.56
351.402	94.56
351.629	117.56
351.856	105.56
352.083	93.56
352.311	106.56
352.538	99.56
352.765	88.56
352.992	96.56
353.22	92.56
353.447	106.56
353.674	95.56
353.901	97.56
354.128	85.56
354.355	90.56
354.583	87.56
354.81	98.56
355.037	88.56
355.264	82.56
355.491	96.56
355.718	97.56
355.945	88.56
356.172	99.56
356.399	99.56
356.626	92.56
356.853	96.56
357.08	91.56
357.307	98.56
357.534	97.56
357.761	105.56
357.988	95.56
358.215	111.56
358.441	100.56
358.668	87.56
358.895	89.56
359.122	95.56
359.349	90.56
359.576	79.56
359.802	89.56
360.029	90.56
360.256	100.56
360.483	104.56
360.709	93.56
360.936	82.56
361.163	93.56
361.39	101.56
361.616	100.56
361.843	93.56
362.07	100.56
362.296	93.56
362.523	99.56
362.749	92.56
362.976	80.56
363.203	93.56
363.429	74.56
363.656	90.56
363.882	84.56
364.109	92.56
364.335	87.56
364.562	88.56
364.788	92.56
365.015	86.56
365.241	95.56
365.468	83.56
365.694	98.56
365.92	92.56
366.147	84.56
366.373	92.56
366.599	82.56
366.826	90.56
367.052	100.56
367.278	89.56
367.505	93.56
367.731	79.56
367.957	101.56
368.184	90.56
368.41	94.56
368.636	107.56
368.862	108.56
369.089	103.56
369.315	93.56
369.541	86.56
369.767	85.56
369.993	98.56
370.219	76.56
370.445	86.56
370.672	84.56
370.898	76.56
371.124	99.56
371.35	84.56
371.576	90.56
371.802	82.56
372.028	83.56
372.254	85.56
372.48	87.56
372.706	86.56
372.932	93.56
373.158	76.56
373.384	76.56
373.61	90.56
373.835	82.56
374.061	102.56
374.287	87.56
374.513	106.56
374.739	97.56
374.965	81.56
375.191	89.56
375.416	101.56
375.642	96.56
375.868	91.56
376.094	86.56
376.319	91.56
376.545	82.56
376.771	92.56
376.997	85.56
377.222	73.56
377.448	88.56
377.674	96.56
377.899	86.56
378.125	85.56
378.35	68.56
378.576	97.56
378.802	81.56
379.027	78.56
379.253	89.56
379.478	83.56
379.704	88.56
379.929	99.56
380.155	75.56
380.38	91.56
380.606	92.56
380.831	100.56
381.057	87.56
381.282	87.56
381.507	100.56
381.733	86.56
381.958	102.56
382.184	86.56
382.409	90.56
382.634	87.56
382.86	93.56
383.085	96.56
383.31	97.56
383.535	98.56
383.761	90.56
383.986	96.56
384.211	86.56
384.436	92.56
384.662	117.56
384.887	98.56
385.112	106.56
385.337	105.56
385.562	108.56
385.787	99.56
386.013	108.56
386.238	111.56
386.463	89.56
386.688	97.56
386.913	103.56
387.138	86.56
387.363	97.56
387.588	100.56
387.813	90.56
388.038	103.56
388.263	104.56
388.488	100.56
388.713	92.56
388.938	85.56
389.163	95.56
389.387	100.56
389.612	83.56
389.837	99.56
390.062	96.56
390.287	86.56
390.512	86.56
390.736	84.56
390.961	101.56
391.186	107.56
391.411	94.56
391.636	97.56
391.86	74.56
392.085	75.56
392.31	76.56
392.534	68.56
392.759	86.56
392.984	90.56
393.208	73.56
393.433	89.56
393.658	90.56
393.882	78.56
394.107	92.56
394.331	85.56
394.556	84.56
394.78	94.56
395.005	84.56
395.229	84.56
395.454	95.56
395.678	83.56
395.903	81.56
396.127	80.56
396.352	74.56
396.576	93.56
396.801	82.56
397.025	88.56
397.249	88.56
397.474	100.56
397.698	100.56
397.922	89.56
398.147	88.56
398.371	82.56
398.595	94.56
398.82	95.56
399.044	82.56
399.268	97.56
399.492	82.56
399.717	74.56
399.941	85.56
400.165	92.56
400.389	71.56
400.613	84.56
400.837	81.56
401.062	103.56
401.286	76.56
401.51	86.56
401.734	84.56
401.958	90.56
402.182	111.56
402.406	135.56
402.63	103.56
402.854	80.56
403.078	88.56
403.302	78.56
403.526	81.56
403.75	78.56
403.974	94.56
404.198	95.56
404.422	95.56
404.645	88.56
404.869	94.56
405.093	89.56
405.317	91.56
405.541	100.56
405.765	94.56
405.988	101.56
406.212	140.56
406.436	190.56
406.66	140.56
406.883	89.56
407.107	97.56
407.331	106.56
407.555	93.56
407.778	100.56
408.002	93.56
408.226	86.56
408.449	92.56
408.673	79.56
408.896	91.56
409.12	89.56
409.344	85.56
409.567	91.56
409.791	90.56
410.014	106.56
410.238	100.56
410.461	88.56
410.685	95.56
410.908	90.56
411.132	93.56
411.355	96.56
411.578	82.56
411.802	80.56
412.025	79.56
412.249	94.56
412.472	82.56
412.695	85.56
412.919	94.56
413.142	78.56
413.365	87.56
413.589	101.56
413.812	87.56
414.035	104.56
414.258	96.56
414.482	96.56
414.705	85.56
414.928	81.56
415.151	88.56
415.374	96.56
415.597	73.56
415.821	92.56
416.044	85.56
416.267	94.56
416.49	92.56
416.713	75.56
416.936	90.56
417.159	76.56
417.382	87.56
417.605	86.56
417.828	93.56
418.051	90.56
418.274	98.56
418.497	88.56
418.72	93.56
418.943	79.56
419.166	82.56
419.389	94.56
419.611	89.56
419.834	82.56
420.057	80.56
420.28	92.56
420.503	82.56
420.726	84.56
420.948	85.56
421.171	89.56
421.394	94.56
421.617	83.56
421.839	92.56
422.062	91.56
422.285	93.56
422.507	86.56
422.73	102.56
422.953	93.56
423.175	81.56
423.398	82.56
423.621	97.56
423.843	94.56
424.066	84.56
424.288	72.56
424.511	71.56
424.733	102.56
424.956	96.56
425.178	76.56
425.401	97.56
425.623	109.56
425.846	90.56
426.068	88.56
426.291	76.56
426.513	86.56
426.735	103.56
426.958	96.56
427.18	90.56
427.402	128.56
427.625	140.56
427.847	119.56
428.069	87.56
428.292	96.56
428.514	97.56
428.736	90.56
428.958	73.56
429.181	61.56
429.403	89.56
429.625	81.56
429.847	87.56
430.069	97.56
430.292	85.56
430.514	75.56
430.736	70.56
430.958	75.56
431.18	81.56
431.402	84.56
431.624	79.56
431.846	96.56
432.068	89.56
432.29	87.56
432.512	93.56
432.734	76.56
432.956	82.56
433.178	81.56
433.4	101.56
433.622	100.56
433.844	80.56
434.066	102.56
434.287	93.56
434.509	102.56
434.731	86.56
434.953	89.56
435.175	81.56
435.397	92.56
435.618	85.56
435.84	110.56
436.062	101.56
436.284	112.56
436.505	102.56
436.727	92.56
436.949	98.56
437.17	84.56
437.392	86.56
437.614	69.56
437.835	99.56
438.057	102.56
438.278	118.56
438.5	98.56
438.721	125.56
438.943	109.56
439.165	88.56
439.386	92.56
439.608	102.56
439.829	92.56
440.05	102.56
440.272	144.56
440.493	103.56
440.715	87.56
440.936	77.56
441.158	92.56
441.379	82.56
441.6	88.56
441.822	90.56
442.043	94.56
442.264	90.56
442.486	77.56
442.707	89.56
442.928	88.56
443.149	119.56
443.371	112.56
443.592	83.56
443.813	100.56
444.034	103.56
444.255	86.56
444.476	76.56
444.698	88.56
444.919	72.56
445.14	121.56
445.361	118.56
445.582	100.56
445.803	127.56
446.024	111.56
446.245	123.56
446.466	81.56
446.687	86.56
446.908	77.56
447.129	83.56
447.35	82.56
447.571	85.56
447.792	91.56
448.013	90.56
448.234	92.56
448.455	98.56
448.675	101.56
448.896	110.56
449.117	96.56
449.338	84.56
449.559	114.56
449.779	125.56
450	86.56
450.221	78.56
450.442	93.56
450.662	92.56
450.883	102.56
451.104	97.56
451.324	84.56
451.545	76.56
451.766	81.56
451.986	86.56
452.207	78.56
452.428	84.56
452.648	98.56
452.869	110.56
453.089	100.56
453.31	103.56
453.53	96.56
453.751	97.56
453.971	108.56
454.192	100.56
454.412	85.56
454.633	79.56
454.853	82.56
455.073	100.56
455.294	94.56
455.514	116.56
455.734	90.56
455.955	89.56
456.175	74.56
456.395	84.56
456.616	84.56
456.836	92.56
457.056	79.56
457.276	87.56
457.497	87.56
457.717	86.56
457.937	90.56
458.157	83.56
458.377	86.56
458.598	105.56
458.818	120.56
459.038	140.56
459.258	101.56
459.478	92.56
459.698	86.56
459.918	89.56
460.138	98.56
460.358	90.56
460.578	90.56
460.798	97.56
461.018	89.56
461.238	90.56
461.458	82.56
461.678	79.56
461.898	83.56
462.118	79.56
462.338	84.56
462.558	92.56
462.777	95.56
462.997	79.56
463.217	67.56
463.437	92.56
463.657	81.56
463.876	87.56
464.096	99.56
464.316	95.56
464.536	92.56
464.755	92.56
464.975	101.56
465.195	124.56
465.414	115.56
465.634	95.56
465.854	89.56
466.073	79.56
466.293	86.56
466.512	81.56
466.732	77.56
466.951	82.56
467.171	95.56
467.391	92.56
467.61	94.56
467.829	87.56
468.049	88.56
468.268	81.56
468.488	78.56
468.707	103.56
468.927	81.56
469.146	83.56
469.365	72.56
469.585	89.56
469.804	80.56
470.023	101.56
470.243	97.56
470.462	103.56
470.681	103.56
470.901	97.56
471.12	85.56
471.339	82.56
471.558	63.56
471.777	80.56
471.997	85.56
472.216	81.56
472.435	98.56
472.654	76.56
472.873	82.56
473.092	89.56
473.311	85.56
473.53	88.56
473.749	84.56
473.968	93.56
474.187	103.56
474.406	85.56
474.625	86.56
474.844	95.56
475.063	81.56
475.282	85.56
475.501	81.56
475.72	79.56
475.939	89.56
476.158	92.56
476.377	89.56
476.596	84.56
476.814	88.56
477.033	95.56
477.252	80.56
477.471	79.56
477.69	77.56
477.908	90.56
478.127	81.56
478.346	92.56
478.564	89.56
478.783	89.56
479.002	86.56
479.22	86.56
479.439	95.56
479.658	95.56
479.876	92.56
480.095	86.56
480.313	96.56
480.532	82.56
480.751	95.56
480.969	87.56
481.188	109.56
481.406	107.56
481.624	101.56
481.843	99.56
482.061	82.56
482.28	78.56
482.498	82.56
482.717	73.56
482.935	78.56
483.153	79.56
483.372	76.56
483.59	93.56
483.808	101.56
484.027	91.56
484.245	84.56
484.463	91.56
484.681	93.56
484.9	103.56
485.118	90.56
485.336	89.56
485.554	94.56
485.772	100.56
485.99	101.56
486.209	93.56
486.427	102.56
486.645	95.56
486.863	110.56
487.081	96.56
487.299	91.56
487.517	89.56
487.735	96.56
487.953	84.56
488.171	93.56
488.389	90.56
488.607	92.56
488.825	100.56
489.043	74.56
489.261	87.56
489.479	69.56
489.696	79.56
489.914	90.56
490.132	89.56
490.35	93.56
490.568	86.56
490.786	80.56
491.003	93.56
491.221	95.56
491.439	81.56
491.657	101.56
491.874	100.56
492.092	72.56
492.31	87.56
492.527	91.56
492.745	86.56
492.963	84.56
493.18	80.56
493.398	84.56
493.615	82.56
493.833	87.56
494.05	90.56
494.268	86.56
494.485	93.56
494.703	75.56
494.92	80.56
495.138	97.56
495.355	99.56
495.573	91.56
495.79	100.56
496.008	78.56
496.225	96.56
496.442	96.56
496.66	96.56
496.877	98.56
497.094	87.56
497.312	95.56
497.529	88.56
497.746	94.56
497.963	76.56
498.181	76.56
498.398	92.56
498.615	94.56
498.832	89.56
499.049	86.56
499.267	95.56
499.484	100.56
499.701	72.56
499.918	89.56
500.135	103.56
500.352	80.56
500.569	79.56
500.786	79.56
501.003	79.56
501.22	85.56
501.437	64.56
501.654	94.56
501.871	81.56
502.088	86.56
502.305	90.56
502.522	95.56
502.739	81.56
502.956	92.56
503.172	73.56
503.389	90.56
503.606	90.56
503.823	88.56
504.04	82.56
504.256	88.56
504.473	92.56
504.69	79.56
504.907	81.56
505.123	79.56
505.34	63.56
505.557	88.56
505.773	93.56
505.99	85.56
506.207	89.56
506.423	88.56
506.64	80.56
506.856	66.56
507.073	89.56
507.289	87.56
507.506	93.56
507.722	105.56
507.939	98.56
508.155	97.56
508.372	86.56
508.588	79.56
508.805	86.56
509.021	83.56
509.238	96.56
509.454	94.56
509.67	91.56
509.887	80.56
510.103	111.56
510.319	196.56
510.536	622.56
510.752	1918.56
510.968	537.56
511.184	135.56
511.401	86.56
511.617	89.56
511.833	94.56
512.049	86.56
512.265	79.56
512.481	94.56
512.698	88.56
512.914	81.56
513.13	89.56
513.346	102.56
513.562	96.56
513.778	100.56
513.994	88.56
514.21	101.56
514.426	121.56
514.642	122.56
514.858	100.56
515.074	133.56
515.29	356.56
515.506	1102.56
515.721	414.56
515.937	130.56
516.153	106.56
516.369	96.56
516.585	94.56
516.801	84.56
517.016	89.56
