Data from Uncirc_2002_H10_HRD10591_00088.txt Node
Date: Wed Jan 03 10:39:58 EST 2024
User: Yrep
Spectrometer: HR+D1059
Trigger mode: 1
Integration Time (sec): 1.000000E-1
Scans to average: 1
Electric dark correction enabled: true
Nonlinearity correction enabled: false
Boxcar width: 0
XAxis mode: Wavelengths
Number of Pixels in Spectrum: 2048
>>>>>Begin Spectral Data<<<<<
223.165	-23.25
223.4	-23.25
223.635	-23.25
223.869	-26.25
224.104	-14.25
224.338	-21.25
224.573	-12.25
224.808	-12.25
225.042	-9.25
225.277	-6.25
225.511	-9.25
225.746	13.75
225.98	-0.25
226.215	12.75
226.449	14.75
226.683	23.75
226.918	34.75
227.152	34.75
227.387	32.75
227.621	32.75
227.856	39.75
228.09	56.75
228.324	52.75
228.559	54.75
228.793	68.75
229.027	61.75
229.262	86.75
229.496	69.75
229.73	85.75
229.964	86.75
230.199	70.75
230.433	80.75
230.667	76.75
230.901	84.75
231.136	70.75
231.37	85.75
231.604	71.75
231.838	87.75
232.072	82.75
232.306	80.75
232.541	73.75
232.775	74.75
233.009	77.75
233.243	71.75
233.477	78.75
233.711	83.75
233.945	87.75
234.179	70.75
234.413	52.75
234.647	85.75
234.881	85.75
235.115	53.75
235.349	72.75
235.583	81.75
235.817	73.75
236.051	75.75
236.285	84.75
236.519	77.75
236.753	85.75
236.987	80.75
237.221	76.75
237.455	75.75
237.689	90.75
237.922	81.75
238.156	63.75
238.39	79.75
238.624	84.75
238.858	81.75
239.091	86.75
239.325	82.75
239.559	74.75
239.793	72.75
240.027	80.75
240.26	85.75
240.494	69.75
240.728	83.75
240.961	78.75
241.195	72.75
241.429	83.75
241.662	86.75
241.896	73.75
242.13	92.75
242.363	79.75
242.597	92.75
242.83	87.75
243.064	82.75
243.298	91.75
243.531	81.75
243.765	88.75
243.998	84.75
244.232	89.75
244.465	78.75
244.699	70.75
244.932	78.75
245.166	90.75
245.399	86.75
245.633	78.75
245.866	78.75
246.099	70.75
246.333	72.75
246.566	86.75
246.8	88.75
247.033	77.75
247.266	69.75
247.5	76.75
247.733	69.75
247.966	80.75
248.2	64.75
248.433	66.75
248.666	64.75
248.899	81.75
249.133	78.75
249.366	88.75
249.599	78.75
249.832	88.75
250.066	77.75
250.299	86.75
250.532	73.75
250.765	80.75
250.998	81.75
251.231	76.75
251.465	81.75
251.698	76.75
251.931	69.75
252.164	73.75
252.397	79.75
252.63	88.75
252.863	84.75
253.096	89.75
253.329	90.75
253.562	77.75
253.795	88.75
254.028	79.75
254.261	78.75
254.494	69.75
254.727	84.75
254.96	77.75
255.193	85.75
255.426	81.75
255.659	74.75
255.892	90.75
256.124	87.75
256.357	78.75
256.59	78.75
256.823	76.75
257.056	71.75
257.289	84.75
257.521	83.75
257.754	65.75
257.987	77.75
258.22	92.75
258.452	76.75
258.685	75.75
258.918	73.75
259.151	64.75
259.383	81.75
259.616	80.75
259.849	77.75
260.081	71.75
260.314	88.75
260.547	88.75
260.779	89.75
261.012	82.75
261.244	90.75
261.477	93.75
261.71	80.75
261.942	103.75
262.175	118.75
262.407	77.75
262.64	75.75
262.872	81.75
263.105	74.75
263.337	74.75
263.57	93.75
263.802	79.75
264.035	80.75
264.267	82.75
264.499	77.75
264.732	86.75
264.964	84.75
265.197	90.75
265.429	74.75
265.661	73.75
265.894	82.75
266.126	77.75
266.358	93.75
266.591	78.75
266.823	88.75
267.055	77.75
267.287	90.75
267.52	97.75
267.752	80.75
267.984	72.75
268.216	89.75
268.448	82.75
268.681	89.75
268.913	90.75
269.145	91.75
269.377	71.75
269.609	85.75
269.841	78.75
270.073	82.75
270.306	87.75
270.538	86.75
270.77	75.75
271.002	88.75
271.234	79.75
271.466	85.75
271.698	88.75
271.93	81.75
272.162	84.75
272.394	83.75
272.626	89.75
272.858	88.75
273.09	89.75
273.322	102.75
273.553	73.75
273.785	65.75
274.017	85.75
274.249	80.75
274.481	86.75
274.713	84.75
274.945	90.75
275.176	78.75
275.408	83.75
275.64	90.75
275.872	93.75
276.104	91.75
276.335	85.75
276.567	92.75
276.799	91.75
277.031	92.75
277.262	91.75
277.494	88.75
277.726	83.75
277.957	72.75
278.189	84.75
278.421	78.75
278.652	100.75
278.884	77.75
279.115	89.75
279.347	87.75
279.579	85.75
279.81	82.75
280.042	94.75
280.273	85.75
280.505	80.75
280.736	94.75
280.968	86.75
281.199	84.75
281.431	84.75
281.662	80.75
281.894	84.75
282.125	91.75
282.356	107.75
282.588	125.75
282.819	110.75
283.051	80.75
283.282	98.75
283.513	71.75
283.745	89.75
283.976	90.75
284.207	80.75
284.439	81.75
284.67	86.75
284.901	82.75
285.132	81.75
285.364	88.75
285.595	84.75
285.826	80.75
286.057	91.75
286.288	85.75
286.52	78.75
286.751	78.75
286.982	76.75
287.213	89.75
287.444	81.75
287.675	72.75
287.906	84.75
288.138	96.75
288.369	86.75
288.6	101.75
288.831	92.75
289.062	86.75
289.293	90.75
289.524	98.75
289.755	87.75
289.986	77.75
290.217	100.75
290.448	71.75
290.679	80.75
290.91	89.75
291.141	84.75
291.371	87.75
291.602	89.75
291.833	94.75
292.064	85.75
292.295	82.75
292.526	91.75
292.757	74.75
292.987	92.75
293.218	77.75
293.449	89.75
293.68	102.75
293.91	93.75
294.141	95.75
294.372	90.75
294.603	91.75
294.833	98.75
295.064	80.75
295.295	89.75
295.525	92.75
295.756	107.75
295.987	105.75
296.217	116.75
296.448	115.75
296.679	87.75
296.909	88.75
297.14	98.75
297.37	70.75
297.601	85.75
297.831	89.75
298.062	83.75
298.292	94.75
298.523	83.75
298.753	92.75
298.984	90.75
299.214	90.75
299.445	83.75
299.675	86.75
299.905	85.75
300.136	100.75
300.366	84.75
300.597	71.75
300.827	83.75
301.057	99.75
301.288	85.75
301.518	88.75
301.748	98.75
301.979	97.75
302.209	89.75
302.439	90.75
302.669	93.75
302.9	84.75
303.13	78.75
303.36	77.75
303.59	97.75
303.82	87.75
304.051	88.75
304.281	101.75
304.511	88.75
304.741	84.75
304.971	100.75
305.201	94.75
305.431	102.75
305.661	88.75
305.891	77.75
306.121	90.75
306.352	99.75
306.582	101.75
306.812	83.75
307.042	86.75
307.272	93.75
307.502	87.75
307.731	96.75
307.961	89.75
308.191	94.75
308.421	95.75
308.651	93.75
308.881	86.75
309.111	82.75
309.341	90.75
309.571	96.75
309.8	85.75
310.03	91.75
310.26	82.75
310.49	80.75
310.72	93.75
310.949	98.75
311.179	102.75
311.409	87.75
311.639	100.75
311.868	97.75
312.098	81.75
312.328	91.75
312.557	101.75
312.787	97.75
313.017	91.75
313.246	86.75
313.476	82.75
313.706	82.75
313.935	94.75
314.165	91.75
314.394	80.75
314.624	95.75
314.853	84.75
315.083	92.75
315.312	90.75
315.542	84.75
315.771	69.75
316.001	87.75
316.23	78.75
316.46	91.75
316.689	78.75
316.919	101.75
317.148	89.75
317.377	87.75
317.607	93.75
317.836	78.75
318.065	93.75
318.295	90.75
318.524	79.75
318.753	80.75
318.983	107.75
319.212	101.75
319.441	108.75
319.67	92.75
319.9	93.75
320.129	87.75
320.358	109.75
320.587	85.75
320.816	95.75
321.046	101.75
321.275	93.75
321.504	84.75
321.733	103.75
321.962	96.75
322.191	91.75
322.42	99.75
322.649	110.75
322.878	93.75
323.108	90.75
323.337	121.75
323.566	129.75
323.795	142.75
324.024	172.75
324.253	336.75
324.482	716.75
324.71	1400.75
324.939	1826.75
325.168	685.75
325.397	224.75
325.626	135.75
325.855	107.75
326.084	124.75
326.313	122.75
326.542	124.75
326.77	217.75
326.999	388.75
327.228	806.75
327.457	1448.75
327.686	1147.75
327.914	341.75
328.143	168.75
328.372	144.75
328.6	119.75
328.829	105.75
329.058	112.75
329.287	120.75
329.515	104.75
329.744	97.75
329.972	90.75
330.201	95.75
330.43	110.75
330.658	115.75
330.887	119.75
331.115	116.75
331.344	68.75
331.572	93.75
331.801	98.75
332.03	105.75
332.258	94.75
332.486	103.75
332.715	96.75
332.943	109.75
333.172	97.75
333.4	87.75
333.629	100.75
333.857	104.75
334.085	104.75
334.314	92.75
334.542	107.75
334.771	98.75
334.999	105.75
335.227	87.75
335.455	79.75
335.684	78.75
335.912	90.75
336.14	95.75
336.369	103.75
336.597	90.75
336.825	87.75
337.053	89.75
337.281	97.75
337.51	86.75
337.738	92.75
337.966	81.75
338.194	87.75
338.422	89.75
338.65	102.75
338.878	89.75
339.106	85.75
339.334	100.75
339.562	90.75
339.79	92.75
340.018	92.75
340.246	93.75
340.474	91.75
340.702	87.75
340.93	66.75
341.158	98.75
341.386	90.75
341.614	89.75
341.842	88.75
342.07	100.75
342.298	102.75
342.526	93.75
342.754	87.75
342.981	88.75
343.209	85.75
343.437	88.75
343.665	85.75
343.893	85.75
344.12	94.75
344.348	88.75
344.576	76.75
344.804	100.75
345.031	74.75
345.259	97.75
345.487	102.75
345.714	90.75
345.942	104.75
346.17	79.75
346.397	95.75
346.625	88.75
346.853	88.75
347.08	87.75
347.308	90.75
347.535	99.75
347.763	94.75
347.99	95.75
348.218	94.75
348.445	111.75
348.673	76.75
348.9	89.75
349.128	94.75
349.355	78.75
349.583	108.75
349.81	94.75
350.037	96.75
350.265	90.75
350.492	83.75
350.72	83.75
350.947	89.75
351.174	103.75
351.402	100.75
351.629	117.75
351.856	98.75
352.083	95.75
352.311	88.75
352.538	94.75
352.765	111.75
352.992	127.75
353.22	105.75
353.447	103.75
353.674	101.75
353.901	74.75
354.128	112.75
354.355	110.75
354.583	91.75
354.81	102.75
355.037	100.75
355.264	97.75
355.491	90.75
355.718	80.75
355.945	93.75
356.172	98.75
356.399	97.75
356.626	93.75
356.853	89.75
357.08	88.75
357.307	100.75
357.534	88.75
357.761	96.75
357.988	94.75
358.215	108.75
358.441	103.75
358.668	86.75
358.895	79.75
359.122	83.75
359.349	82.75
359.576	97.75
359.802	94.75
360.029	79.75
360.256	102.75
360.483	104.75
360.709	93.75
360.936	105.75
361.163	79.75
361.39	99.75
361.616	90.75
361.843	84.75
362.07	87.75
362.296	95.75
362.523	95.75
362.749	87.75
362.976	84.75
363.203	98.75
363.429	81.75
363.656	106.75
363.882	68.75
364.109	94.75
364.335	82.75
364.562	81.75
364.788	95.75
365.015	81.75
365.241	82.75
365.468	97.75
365.694	101.75
365.92	88.75
366.147	85.75
366.373	99.75
366.599	83.75
366.826	90.75
367.052	85.75
367.278	85.75
367.505	86.75
367.731	84.75
367.957	89.75
368.184	89.75
368.41	89.75
368.636	110.75
368.862	103.75
369.089	110.75
369.315	85.75
369.541	93.75
369.767	82.75
369.993	79.75
370.219	88.75
370.445	75.75
370.672	97.75
370.898	76.75
371.124	92.75
371.35	89.75
371.576	93.75
371.802	65.75
372.028	88.75
372.254	104.75
372.48	74.75
372.706	73.75
372.932	78.75
373.158	87.75
373.384	87.75
373.61	93.75
373.835	93.75
374.061	88.75
374.287	96.75
374.513	81.75
374.739	80.75
374.965	78.75
375.191	78.75
375.416	90.75
375.642	89.75
375.868	83.75
376.094	80.75
376.319	85.75
376.545	86.75
376.771	98.75
376.997	100.75
377.222	78.75
377.448	87.75
377.674	87.75
377.899	81.75
378.125	89.75
378.35	92.75
378.576	93.75
378.802	80.75
379.027	85.75
379.253	96.75
379.478	88.75
379.704	76.75
379.929	94.75
380.155	102.75
380.38	83.75
380.606	81.75
380.831	96.75
381.057	95.75
381.282	87.75
381.507	93.75
381.733	97.75
381.958	84.75
382.184	82.75
382.409	92.75
382.634	83.75
382.86	98.75
383.085	99.75
383.31	94.75
383.535	105.75
383.761	91.75
383.986	102.75
384.211	90.75
384.436	94.75
384.662	97.75
384.887	86.75
385.112	89.75
385.337	89.75
385.562	95.75
385.787	98.75
386.013	103.75
386.238	100.75
386.463	102.75
386.688	88.75
386.913	105.75
387.138	112.75
387.363	89.75
387.588	96.75
387.813	102.75
388.038	113.75
388.263	96.75
388.488	111.75
388.713	100.75
388.938	89.75
389.163	93.75
389.387	95.75
389.612	97.75
389.837	94.75
390.062	99.75
390.287	87.75
390.512	91.75
390.736	84.75
390.961	103.75
391.186	90.75
391.411	88.75
391.636	89.75
391.86	77.75
392.085	95.75
392.31	72.75
392.534	90.75
392.759	80.75
392.984	72.75
393.208	89.75
393.433	93.75
393.658	84.75
393.882	98.75
394.107	86.75
394.331	82.75
394.556	81.75
394.78	98.75
395.005	94.75
395.229	78.75
395.454	102.75
395.678	85.75
395.903	80.75
396.127	91.75
396.352	87.75
396.576	85.75
396.801	90.75
397.025	96.75
397.249	93.75
397.474	78.75
397.698	80.75
397.922	77.75
398.147	77.75
398.371	89.75
398.595	92.75
398.82	89.75
399.044	88.75
399.268	86.75
399.492	91.75
399.717	90.75
399.941	90.75
400.165	82.75
400.389	87.75
400.613	79.75
400.837	92.75
401.062	79.75
401.286	86.75
401.51	85.75
401.734	82.75
401.958	91.75
402.182	134.75
402.406	152.75
402.63	106.75
402.854	91.75
403.078	86.75
403.302	91.75
403.526	94.75
403.75	86.75
403.974	85.75
404.198	94.75
404.422	86.75
404.645	87.75
404.869	98.75
405.093	106.75
405.317	94.75
405.541	97.75
405.765	93.75
405.988	94.75
406.212	159.75
406.436	200.75
406.66	129.75
406.883	86.75
407.107	102.75
407.331	85.75
407.555	97.75
407.778	88.75
408.002	101.75
408.226	95.75
408.449	89.75
408.673	90.75
408.896	83.75
409.12	87.75
409.344	92.75
409.567	82.75
409.791	87.75
410.014	94.75
410.238	80.75
410.461	81.75
410.685	86.75
410.908	95.75
411.132	108.75
411.355	100.75
411.578	89.75
411.802	98.75
412.025	84.75
412.249	93.75
412.472	82.75
412.695	93.75
412.919	84.75
413.142	98.75
413.365	85.75
413.589	90.75
413.812	81.75
414.035	109.75
414.258	101.75
414.482	91.75
414.705	81.75
414.928	78.75
415.151	90.75
415.374	92.75
415.597	82.75
415.821	84.75
416.044	82.75
416.267	103.75
416.49	84.75
416.713	72.75
416.936	82.75
417.159	87.75
417.382	79.75
417.605	76.75
417.828	87.75
418.051	95.75
418.274	82.75
418.497	99.75
418.72	84.75
418.943	85.75
419.166	90.75
419.389	85.75
419.611	97.75
419.834	105.75
420.057	90.75
420.28	88.75
420.503	72.75
420.726	89.75
420.948	70.75
421.171	78.75
421.394	98.75
421.617	82.75
421.839	89.75
422.062	93.75
422.285	97.75
422.507	93.75
422.73	95.75
422.953	89.75
423.175	89.75
423.398	89.75
423.621	83.75
423.843	94.75
424.066	89.75
424.288	93.75
424.511	86.75
424.733	101.75
424.956	94.75
425.178	85.75
425.401	94.75
425.623	99.75
425.846	84.75
426.068	91.75
426.291	91.75
426.513	85.75
426.735	82.75
426.958	88.75
427.18	85.75
427.402	132.75
427.625	142.75
427.847	106.75
428.069	97.75
428.292	87.75
428.514	94.75
428.736	86.75
428.958	80.75
429.181	76.75
429.403	85.75
429.625	90.75
429.847	90.75
430.069	88.75
430.292	100.75
430.514	91.75
430.736	89.75
430.958	87.75
431.18	82.75
431.402	84.75
431.624	90.75
431.846	78.75
432.068	75.75
432.29	85.75
432.512	90.75
432.734	86.75
432.956	92.75
433.178	88.75
433.4	84.75
433.622	85.75
433.844	71.75
434.066	80.75
434.287	89.75
434.509	87.75
434.731	92.75
434.953	80.75
435.175	73.75
435.397	93.75
435.618	89.75
435.84	95.75
436.062	115.75
436.284	101.75
436.505	107.75
436.727	101.75
436.949	101.75
437.17	86.75
437.392	78.75
437.614	102.75
437.835	90.75
438.057	120.75
438.278	118.75
438.5	98.75
438.721	114.75
438.943	84.75
439.165	98.75
439.386	81.75
439.608	69.75
439.829	101.75
440.05	115.75
440.272	130.75
440.493	98.75
440.715	86.75
440.936	81.75
441.158	81.75
441.379	80.75
441.6	97.75
441.822	107.75
442.043	97.75
442.264	92.75
442.486	90.75
442.707	91.75
442.928	90.75
443.149	120.75
443.371	128.75
443.592	105.75
443.813	95.75
444.034	101.75
444.255	82.75
444.476	74.75
444.698	87.75
444.919	93.75
445.14	130.75
445.361	118.75
445.582	105.75
445.803	115.75
446.024	123.75
446.245	116.75
446.466	106.75
446.687	85.75
446.908	87.75
447.129	77.75
447.35	87.75
447.571	99.75
447.792	92.75
448.013	95.75
448.234	97.75
448.455	106.75
448.675	101.75
448.896	87.75
449.117	114.75
449.338	83.75
449.559	113.75
449.779	127.75
450	85.75
450.221	91.75
450.442	82.75
450.662	90.75
450.883	89.75
451.104	106.75
451.324	90.75
451.545	92.75
451.766	82.75
451.986	88.75
452.207	83.75
452.428	86.75
452.648	83.75
452.869	99.75
453.089	93.75
453.31	107.75
453.53	99.75
453.751	91.75
453.971	103.75
454.192	111.75
454.412	98.75
454.633	87.75
454.853	84.75
455.073	65.75
455.294	83.75
455.514	86.75
455.734	79.75
455.955	93.75
456.175	83.75
456.395	77.75
456.616	87.75
456.836	87.75
457.056	73.75
457.276	87.75
457.497	83.75
457.717	83.75
457.937	66.75
458.157	85.75
458.377	90.75
458.598	85.75
458.818	129.75
459.038	134.75
459.258	103.75
459.478	82.75
459.698	81.75
459.918	88.75
460.138	85.75
460.358	80.75
460.578	85.75
460.798	93.75
461.018	101.75
461.238	90.75
461.458	94.75
461.678	74.75
461.898	82.75
462.118	86.75
462.338	81.75
462.558	86.75
462.777	89.75
462.997	95.75
463.217	93.75
463.437	85.75
463.657	74.75
463.876	85.75
464.096	83.75
464.316	82.75
464.536	93.75
464.755	96.75
464.975	98.75
465.195	142.75
465.414	133.75
465.634	67.75
465.854	76.75
466.073	83.75
466.293	94.75
466.512	90.75
466.732	96.75
466.951	67.75
467.171	88.75
467.391	88.75
467.61	92.75
467.829	103.75
468.049	94.75
468.268	87.75
468.488	84.75
468.707	87.75
468.927	95.75
469.146	66.75
469.365	70.75
469.585	73.75
469.804	96.75
470.023	90.75
470.243	96.75
470.462	101.75
470.681	120.75
470.901	79.75
471.12	79.75
471.339	69.75
471.558	87.75
471.777	78.75
471.997	81.75
472.216	90.75
472.435	106.75
472.654	88.75
472.873	88.75
473.092	93.75
473.311	80.75
473.53	72.75
473.749	89.75
473.968	84.75
474.187	94.75
474.406	95.75
474.625	81.75
474.844	80.75
475.063	85.75
475.282	85.75
475.501	73.75
475.72	94.75
475.939	78.75
476.158	71.75
476.377	79.75
476.596	82.75
476.814	96.75
477.033	97.75
477.252	80.75
477.471	97.75
477.69	84.75
477.908	86.75
478.127	90.75
478.346	85.75
478.564	87.75
478.783	88.75
479.002	68.75
479.22	90.75
479.439	95.75
479.658	90.75
479.876	88.75
480.095	97.75
480.313	92.75
480.532	87.75
480.751	76.75
480.969	103.75
481.188	107.75
481.406	97.75
481.624	85.75
481.843	91.75
482.061	79.75
482.28	90.75
482.498	90.75
482.717	86.75
482.935	76.75
483.153	73.75
483.372	101.75
483.59	76.75
483.808	77.75
484.027	87.75
484.245	79.75
484.463	74.75
484.681	89.75
484.9	91.75
485.118	105.75
485.336	110.75
485.554	96.75
485.772	96.75
485.99	97.75
486.209	115.75
486.427	100.75
486.645	90.75
486.863	105.75
487.081	76.75
487.299	91.75
487.517	86.75
487.735	80.75
487.953	97.75
488.171	94.75
488.389	89.75
488.607	87.75
488.825	81.75
489.043	94.75
489.261	93.75
489.479	79.75
489.696	90.75
489.914	81.75
490.132	95.75
490.35	104.75
490.568	79.75
490.786	77.75
491.003	94.75
491.221	71.75
491.439	97.75
491.657	88.75
491.874	96.75
492.092	82.75
492.31	78.75
492.527	74.75
492.745	84.75
492.963	88.75
493.18	86.75
493.398	84.75
493.615	83.75
493.833	96.75
494.05	90.75
494.268	87.75
494.485	88.75
494.703	76.75
494.92	98.75
495.138	84.75
495.355	99.75
495.573	90.75
495.79	88.75
496.008	102.75
496.225	90.75
496.442	98.75
496.66	86.75
496.877	86.75
497.094	101.75
497.312	88.75
497.529	77.75
497.746	86.75
497.963	85.75
498.181	79.75
498.398	100.75
498.615	109.75
498.832	101.75
499.049	90.75
499.267	100.75
499.484	73.75
499.701	90.75
499.918	103.75
500.135	91.75
500.352	92.75
500.569	80.75
500.786	79.75
501.003	90.75
501.22	94.75
501.437	86.75
501.654	89.75
501.871	97.75
502.088	98.75
502.305	88.75
502.522	92.75
502.739	76.75
502.956	90.75
503.172	84.75
503.389	82.75
503.606	92.75
503.823	102.75
504.04	87.75
504.256	90.75
504.473	85.75
504.69	88.75
504.907	98.75
505.123	82.75
505.34	92.75
505.557	91.75
505.773	98.75
505.99	88.75
506.207	86.75
506.423	82.75
506.64	86.75
506.856	95.75
507.073	92.75
507.289	82.75
507.506	86.75
507.722	95.75
507.939	96.75
508.155	88.75
508.372	73.75
508.588	81.75
508.805	97.75
509.021	92.75
509.238	90.75
509.454	89.75
509.67	89.75
509.887	113.75
510.103	129.75
510.319	207.75
510.536	676.75
510.752	2116.75
510.968	572.75
511.184	138.75
511.401	105.75
511.617	98.75
511.833	99.75
512.049	101.75
512.265	92.75
512.481	100.75
512.698	88.75
512.914	91.75
513.13	100.75
513.346	102.75
513.562	95.75
513.778	96.75
513.994	105.75
514.21	98.75
514.426	93.75
514.642	127.75
514.858	99.75
515.074	154.75
515.29	383.75
515.506	1241.75
515.721	462.75
515.937	130.75
516.153	111.75
516.369	91.75
516.585	94.75
516.801	84.75
517.016	88.75
