Data from Uncirc_2002_H10_HRD10591_00099.txt Node
Date: Wed Jan 03 10:40:01 EST 2024
User: Yrep
Spectrometer: HR+D1059
Trigger mode: 1
Integration Time (sec): 1.000000E-1
Scans to average: 1
Electric dark correction enabled: true
Nonlinearity correction enabled: false
Boxcar width: 0
XAxis mode: Wavelengths
Number of Pixels in Spectrum: 2048
>>>>>Begin Spectral Data<<<<<
223.165	-29.94
223.4	-29.94
223.635	-29.94
223.869	-10.94
224.104	-25.94
224.338	-5.94
224.573	-16.94
224.808	-11.94
225.042	-6.94
225.277	3.06
225.511	8.06
225.746	8.06
225.98	6.06
226.215	5.06
226.449	8.06
226.683	19.06
226.918	20.06
227.152	31.06
227.387	33.06
227.621	38.06
227.856	29.06
228.09	38.06
228.324	51.06
228.559	56.06
228.793	49.06
229.027	62.06
229.262	61.06
229.496	66.06
229.73	70.06
229.964	82.06
230.199	69.06
230.433	67.06
230.667	69.06
230.901	86.06
231.136	85.06
231.37	82.06
231.604	79.06
231.838	85.06
232.072	74.06
232.306	80.06
232.541	75.06
232.775	70.06
233.009	70.06
233.243	83.06
233.477	70.06
233.711	76.06
233.945	78.06
234.179	66.06
234.413	79.06
234.647	80.06
234.881	81.06
235.115	81.06
235.349	76.06
235.583	74.06
235.817	65.06
236.051	70.06
236.285	87.06
236.519	86.06
236.753	82.06
236.987	81.06
237.221	88.06
237.455	88.06
237.689	74.06
237.922	82.06
238.156	76.06
238.39	72.06
238.624	84.06
238.858	72.06
239.091	87.06
239.325	85.06
239.559	78.06
239.793	77.06
240.027	75.06
240.26	82.06
240.494	97.06
240.728	72.06
240.961	71.06
241.195	68.06
241.429	74.06
241.662	64.06
241.896	88.06
242.13	83.06
242.363	77.06
242.597	75.06
242.83	83.06
243.064	68.06
243.298	80.06
243.531	77.06
243.765	77.06
243.998	73.06
244.232	83.06
244.465	66.06
244.699	78.06
244.932	65.06
245.166	81.06
245.399	74.06
245.633	68.06
245.866	74.06
246.099	83.06
246.333	71.06
246.566	87.06
246.8	63.06
247.033	77.06
247.266	78.06
247.5	85.06
247.733	80.06
247.966	82.06
248.2	70.06
248.433	88.06
248.666	79.06
248.899	75.06
249.133	83.06
249.366	90.06
249.599	97.06
249.832	74.06
250.066	86.06
250.299	91.06
250.532	71.06
250.765	66.06
250.998	66.06
251.231	82.06
251.465	66.06
251.698	77.06
251.931	67.06
252.164	71.06
252.397	85.06
252.63	85.06
252.863	75.06
253.096	74.06
253.329	100.06
253.562	74.06
253.795	83.06
254.028	70.06
254.261	88.06
254.494	79.06
254.727	69.06
254.96	74.06
255.193	82.06
255.426	85.06
255.659	77.06
255.892	67.06
256.124	81.06
256.357	80.06
256.59	67.06
256.823	96.06
257.056	94.06
257.289	88.06
257.521	83.06
257.754	95.06
257.987	87.06
258.22	81.06
258.452	92.06
258.685	91.06
258.918	77.06
259.151	86.06
259.383	92.06
259.616	89.06
259.849	77.06
260.081	94.06
260.314	74.06
260.547	82.06
260.779	76.06
261.012	84.06
261.244	78.06
261.477	82.06
261.71	87.06
261.942	110.06
262.175	107.06
262.407	99.06
262.64	82.06
262.872	94.06
263.105	90.06
263.337	75.06
263.57	103.06
263.802	91.06
264.035	74.06
264.267	73.06
264.499	71.06
264.732	88.06
264.964	85.06
265.197	89.06
265.429	81.06
265.661	78.06
265.894	83.06
266.126	80.06
266.358	81.06
266.591	70.06
266.823	79.06
267.055	101.06
267.287	88.06
267.52	75.06
267.752	94.06
267.984	86.06
268.216	75.06
268.448	86.06
268.681	91.06
268.913	87.06
269.145	85.06
269.377	85.06
269.609	86.06
269.841	82.06
270.073	92.06
270.306	82.06
270.538	99.06
270.77	75.06
271.002	90.06
271.234	88.06
271.466	83.06
271.698	72.06
271.93	78.06
272.162	77.06
272.394	92.06
272.626	81.06
272.858	91.06
273.09	81.06
273.322	85.06
273.553	87.06
273.785	67.06
274.017	78.06
274.249	81.06
274.481	91.06
274.713	73.06
274.945	88.06
275.176	78.06
275.408	85.06
275.64	66.06
275.872	67.06
276.104	88.06
276.335	88.06
276.567	104.06
276.799	88.06
277.031	105.06
277.262	94.06
277.494	98.06
277.726	74.06
277.957	77.06
278.189	79.06
278.421	89.06
278.652	82.06
278.884	79.06
279.115	101.06
279.347	74.06
279.579	87.06
279.81	67.06
280.042	79.06
280.273	89.06
280.505	89.06
280.736	83.06
280.968	80.06
281.199	77.06
281.431	101.06
281.662	83.06
281.894	112.06
282.125	99.06
282.356	111.06
282.588	131.06
282.819	107.06
283.051	86.06
283.282	81.06
283.513	94.06
283.745	77.06
283.976	94.06
284.207	92.06
284.439	88.06
284.67	81.06
284.901	85.06
285.132	75.06
285.364	78.06
285.595	85.06
285.826	95.06
286.057	91.06
286.288	78.06
286.52	88.06
286.751	81.06
286.982	80.06
287.213	75.06
287.444	84.06
287.675	78.06
287.906	80.06
288.138	94.06
288.369	91.06
288.6	87.06
288.831	85.06
289.062	87.06
289.293	80.06
289.524	93.06
289.755	97.06
289.986	80.06
290.217	82.06
290.448	70.06
290.679	89.06
290.91	82.06
291.141	86.06
291.371	90.06
291.602	104.06
291.833	75.06
292.064	78.06
292.295	74.06
292.526	84.06
292.757	95.06
292.987	87.06
293.218	89.06
293.449	87.06
293.68	79.06
293.91	69.06
294.141	96.06
294.372	81.06
294.603	91.06
294.833	88.06
295.064	94.06
295.295	104.06
295.525	93.06
295.756	91.06
295.987	110.06
296.217	122.06
296.448	104.06
296.679	95.06
296.909	81.06
297.14	103.06
297.37	101.06
297.601	90.06
297.831	88.06
298.062	79.06
298.292	86.06
298.523	83.06
298.753	92.06
298.984	83.06
299.214	85.06
299.445	92.06
299.675	94.06
299.905	97.06
300.136	92.06
300.366	90.06
300.597	78.06
300.827	91.06
301.057	97.06
301.288	98.06
301.518	77.06
301.748	86.06
301.979	100.06
302.209	83.06
302.439	85.06
302.669	94.06
302.9	85.06
303.13	90.06
303.36	92.06
303.59	94.06
303.82	106.06
304.051	79.06
304.281	102.06
304.511	82.06
304.741	91.06
304.971	90.06
305.201	102.06
305.431	74.06
305.661	98.06
305.891	104.06
306.121	87.06
306.352	86.06
306.582	90.06
306.812	91.06
307.042	79.06
307.272	93.06
307.502	98.06
307.731	84.06
307.961	94.06
308.191	87.06
308.421	88.06
308.651	93.06
308.881	94.06
309.111	97.06
309.341	97.06
309.571	102.06
309.8	97.06
310.03	102.06
310.26	95.06
310.49	105.06
310.72	94.06
310.949	98.06
311.179	90.06
311.409	96.06
311.639	99.06
311.868	92.06
312.098	95.06
312.328	90.06
312.557	94.06
312.787	111.06
313.017	101.06
313.246	96.06
313.476	87.06
313.706	81.06
313.935	98.06
314.165	111.06
314.394	101.06
314.624	94.06
314.853	102.06
315.083	109.06
315.312	96.06
315.542	86.06
315.771	101.06
316.001	96.06
316.23	84.06
316.46	102.06
316.689	98.06
316.919	86.06
317.148	105.06
317.377	101.06
317.607	96.06
317.836	114.06
318.065	87.06
318.295	95.06
318.524	101.06
318.753	94.06
318.983	90.06
319.212	98.06
319.441	113.06
319.67	110.06
319.9	90.06
320.129	93.06
320.358	87.06
320.587	95.06
320.816	94.06
321.046	114.06
321.275	108.06
321.504	94.06
321.733	105.06
321.962	107.06
322.191	105.06
322.42	110.06
322.649	94.06
322.878	114.06
323.108	112.06
323.337	130.06
323.566	126.06
323.795	145.06
324.024	196.06
324.253	367.06
324.482	770.06
324.71	1534.06
324.939	2031.06
325.168	747.06
325.397	232.06
325.626	139.06
325.855	125.06
326.084	117.06
326.313	110.06
326.542	153.06
326.77	216.06
326.999	440.06
327.228	855.06
327.457	1565.06
327.686	1245.06
327.914	351.06
328.143	191.06
328.372	151.06
328.6	125.06
328.829	123.06
329.058	137.06
329.287	121.06
329.515	120.06
329.744	105.06
329.972	101.06
330.201	94.06
330.43	109.06
330.658	115.06
330.887	136.06
331.115	117.06
331.344	98.06
331.572	87.06
331.801	93.06
332.03	111.06
332.258	97.06
332.486	91.06
332.715	87.06
332.943	90.06
333.172	87.06
333.4	93.06
333.629	113.06
333.857	113.06
334.085	98.06
334.314	83.06
334.542	104.06
334.771	99.06
334.999	88.06
335.227	104.06
335.455	91.06
335.684	89.06
335.912	87.06
336.14	98.06
336.369	94.06
336.597	96.06
336.825	107.06
337.053	73.06
337.281	74.06
337.51	82.06
337.738	95.06
337.966	114.06
338.194	91.06
338.422	91.06
338.65	92.06
338.878	77.06
339.106	89.06
339.334	97.06
339.562	75.06
339.79	94.06
340.018	88.06
340.246	81.06
340.474	87.06
340.702	84.06
340.93	90.06
341.158	88.06
341.386	96.06
341.614	105.06
341.842	83.06
342.07	84.06
342.298	95.06
342.526	100.06
342.754	92.06
342.981	102.06
343.209	100.06
343.437	91.06
343.665	84.06
343.893	85.06
344.12	103.06
344.348	89.06
344.576	96.06
344.804	96.06
345.031	97.06
345.259	102.06
345.487	82.06
345.714	85.06
345.942	94.06
346.17	79.06
346.397	86.06
346.625	81.06
346.853	95.06
347.08	90.06
347.308	116.06
347.535	89.06
347.763	83.06
347.99	102.06
348.218	105.06
348.445	104.06
348.673	91.06
348.9	93.06
349.128	97.06
349.355	87.06
349.583	91.06
349.81	75.06
350.037	108.06
350.265	82.06
350.492	88.06
350.72	98.06
350.947	106.06
351.174	112.06
351.402	90.06
351.629	96.06
351.856	96.06
352.083	97.06
352.311	91.06
352.538	113.06
352.765	95.06
352.992	123.06
353.22	96.06
353.447	87.06
353.674	113.06
353.901	97.06
354.128	85.06
354.355	100.06
354.583	115.06
354.81	104.06
355.037	94.06
355.264	92.06
355.491	89.06
355.718	104.06
355.945	91.06
356.172	87.06
356.399	91.06
356.626	105.06
356.853	96.06
357.08	95.06
357.307	89.06
357.534	85.06
357.761	110.06
357.988	99.06
358.215	106.06
358.441	94.06
358.668	98.06
358.895	81.06
359.122	89.06
359.349	82.06
359.576	87.06
359.802	102.06
360.029	97.06
360.256	104.06
360.483	102.06
360.709	92.06
360.936	103.06
361.163	97.06
361.39	96.06
361.616	81.06
361.843	77.06
362.07	86.06
362.296	91.06
362.523	82.06
362.749	88.06
362.976	84.06
363.203	95.06
363.429	87.06
363.656	96.06
363.882	90.06
364.109	99.06
364.335	87.06
364.562	84.06
364.788	93.06
365.015	98.06
365.241	94.06
365.468	99.06
365.694	106.06
365.92	90.06
366.147	83.06
366.373	84.06
366.599	89.06
366.826	74.06
367.052	85.06
367.278	105.06
367.505	84.06
367.731	99.06
367.957	106.06
368.184	101.06
368.41	98.06
368.636	106.06
368.862	127.06
369.089	102.06
369.315	105.06
369.541	94.06
369.767	76.06
369.993	105.06
370.219	97.06
370.445	88.06
370.672	81.06
370.898	90.06
371.124	97.06
371.35	98.06
371.576	87.06
371.802	101.06
372.028	90.06
372.254	105.06
372.48	92.06
372.706	85.06
372.932	79.06
373.158	89.06
373.384	90.06
373.61	79.06
373.835	91.06
374.061	104.06
374.287	104.06
374.513	87.06
374.739	76.06
374.965	99.06
375.191	101.06
375.416	93.06
375.642	91.06
375.868	95.06
376.094	83.06
376.319	87.06
376.545	88.06
376.771	88.06
376.997	87.06
377.222	102.06
377.448	86.06
377.674	87.06
377.899	103.06
378.125	95.06
378.35	107.06
378.576	94.06
378.802	85.06
379.027	87.06
379.253	83.06
379.478	77.06
379.704	90.06
379.929	91.06
380.155	94.06
380.38	86.06
380.606	98.06
380.831	103.06
381.057	89.06
381.282	90.06
381.507	84.06
381.733	82.06
381.958	92.06
382.184	100.06
382.409	95.06
382.634	115.06
382.86	98.06
383.085	93.06
383.31	105.06
383.535	102.06
383.761	78.06
383.986	90.06
384.211	101.06
384.436	80.06
384.662	99.06
384.887	95.06
385.112	88.06
385.337	97.06
385.562	103.06
385.787	81.06
386.013	108.06
386.238	110.06
386.463	96.06
386.688	90.06
386.913	96.06
387.138	95.06
387.363	90.06
387.588	91.06
387.813	94.06
388.038	106.06
388.263	95.06
388.488	98.06
388.713	90.06
388.938	102.06
389.163	87.06
389.387	88.06
389.612	87.06
389.837	101.06
390.062	98.06
390.287	88.06
390.512	92.06
390.736	82.06
390.961	87.06
391.186	88.06
391.411	92.06
391.636	87.06
391.86	82.06
392.085	83.06
392.31	79.06
392.534	87.06
392.759	91.06
392.984	83.06
393.208	90.06
393.433	85.06
393.658	93.06
393.882	83.06
394.107	86.06
394.331	95.06
394.556	83.06
394.78	79.06
395.005	68.06
395.229	78.06
395.454	86.06
395.678	86.06
395.903	94.06
396.127	81.06
396.352	92.06
396.576	97.06
396.801	104.06
397.025	86.06
397.249	97.06
397.474	100.06
397.698	86.06
397.922	84.06
398.147	76.06
398.371	88.06
398.595	87.06
398.82	85.06
399.044	78.06
399.268	96.06
399.492	81.06
399.717	90.06
399.941	81.06
400.165	99.06
400.389	85.06
400.613	89.06
400.837	74.06
401.062	70.06
401.286	97.06
401.51	89.06
401.734	90.06
401.958	112.06
402.182	130.06
402.406	161.06
402.63	108.06
402.854	79.06
403.078	87.06
403.302	98.06
403.526	97.06
403.75	86.06
403.974	83.06
404.198	101.06
404.422	80.06
404.645	91.06
404.869	90.06
405.093	105.06
405.317	96.06
405.541	96.06
405.765	95.06
405.988	125.06
406.212	184.06
406.436	226.06
406.66	147.06
406.883	101.06
407.107	95.06
407.331	88.06
407.555	87.06
407.778	84.06
408.002	88.06
408.226	91.06
408.449	83.06
408.673	81.06
408.896	91.06
409.12	88.06
409.344	91.06
409.567	91.06
409.791	91.06
410.014	102.06
410.238	89.06
410.461	90.06
410.685	88.06
410.908	96.06
411.132	101.06
411.355	104.06
411.578	98.06
411.802	86.06
412.025	75.06
412.249	90.06
412.472	90.06
412.695	99.06
412.919	91.06
413.142	90.06
413.365	104.06
413.589	91.06
413.812	101.06
414.035	89.06
414.258	87.06
414.482	82.06
414.705	92.06
414.928	89.06
415.151	92.06
415.374	82.06
415.597	75.06
415.821	101.06
416.044	85.06
416.267	77.06
416.49	82.06
416.713	93.06
416.936	86.06
417.159	79.06
417.382	79.06
417.605	96.06
417.828	88.06
418.051	97.06
418.274	98.06
418.497	86.06
418.72	86.06
418.943	92.06
419.166	84.06
419.389	90.06
419.611	86.06
419.834	89.06
420.057	100.06
420.28	97.06
420.503	94.06
420.726	88.06
420.948	100.06
421.171	88.06
421.394	90.06
421.617	103.06
421.839	81.06
422.062	91.06
422.285	87.06
422.507	105.06
422.73	103.06
422.953	90.06
423.175	85.06
423.398	93.06
423.621	82.06
423.843	90.06
424.066	82.06
424.288	85.06
424.511	94.06
424.733	107.06
424.956	114.06
425.178	103.06
425.401	110.06
425.623	112.06
425.846	102.06
426.068	88.06
426.291	109.06
426.513	91.06
426.735	80.06
426.958	89.06
427.18	116.06
427.402	140.06
427.625	157.06
427.847	118.06
428.069	102.06
428.292	81.06
428.514	87.06
428.736	81.06
428.958	99.06
429.181	89.06
429.403	80.06
429.625	85.06
429.847	90.06
430.069	105.06
430.292	91.06
430.514	85.06
430.736	87.06
430.958	88.06
431.18	94.06
431.402	84.06
431.624	78.06
431.846	89.06
432.068	86.06
432.29	100.06
432.512	92.06
432.734	91.06
432.956	89.06
433.178	95.06
433.4	95.06
433.622	83.06
433.844	86.06
434.066	91.06
434.287	95.06
434.509	80.06
434.731	99.06
434.953	81.06
435.175	101.06
435.397	77.06
435.618	86.06
435.84	92.06
436.062	128.06
436.284	121.06
436.505	92.06
436.727	100.06
436.949	99.06
437.17	96.06
437.392	98.06
437.614	97.06
437.835	110.06
438.057	116.06
438.278	92.06
438.5	90.06
438.721	102.06
438.943	102.06
439.165	90.06
439.386	87.06
439.608	86.06
439.829	104.06
440.05	114.06
440.272	135.06
440.493	103.06
440.715	88.06
440.936	91.06
441.158	77.06
441.379	91.06
441.6	84.06
441.822	92.06
442.043	79.06
442.264	101.06
442.486	109.06
442.707	94.06
442.928	93.06
443.149	127.06
443.371	116.06
443.592	90.06
443.813	104.06
444.034	94.06
444.255	92.06
444.476	85.06
444.698	80.06
444.919	91.06
445.14	134.06
445.361	132.06
445.582	106.06
445.803	130.06
446.024	150.06
446.245	117.06
446.466	99.06
446.687	80.06
446.908	100.06
447.129	89.06
447.35	87.06
447.571	81.06
447.792	94.06
448.013	86.06
448.234	103.06
448.455	87.06
448.675	117.06
448.896	120.06
449.117	95.06
449.338	84.06
449.559	120.06
449.779	110.06
450	103.06
450.221	88.06
450.442	86.06
450.662	91.06
450.883	105.06
451.104	87.06
451.324	101.06
451.545	94.06
451.766	98.06
451.986	83.06
452.207	94.06
452.428	79.06
452.648	113.06
452.869	110.06
453.089	109.06
453.31	115.06
453.53	92.06
453.751	84.06
453.971	93.06
454.192	115.06
454.412	85.06
454.633	69.06
454.853	79.06
455.073	95.06
455.294	91.06
455.514	90.06
455.734	81.06
455.955	84.06
456.175	90.06
456.395	85.06
456.616	101.06
456.836	70.06
457.056	80.06
457.276	74.06
457.497	89.06
457.717	80.06
457.937	87.06
458.157	82.06
458.377	83.06
458.598	100.06
458.818	131.06
459.038	144.06
459.258	103.06
459.478	93.06
459.698	72.06
459.918	75.06
460.138	95.06
460.358	75.06
460.578	64.06
460.798	86.06
461.018	79.06
461.238	77.06
461.458	90.06
461.678	93.06
461.898	80.06
462.118	92.06
462.338	89.06
462.558	93.06
462.777	85.06
462.997	77.06
463.217	93.06
463.437	90.06
463.657	74.06
463.876	81.06
464.096	99.06
464.316	100.06
464.536	99.06
464.755	88.06
464.975	106.06
465.195	164.06
465.414	149.06
465.634	97.06
465.854	80.06
466.073	83.06
466.293	89.06
466.512	89.06
466.732	70.06
466.951	83.06
467.171	83.06
467.391	95.06
467.61	96.06
467.829	101.06
468.049	77.06
468.268	98.06
468.488	80.06
468.707	81.06
468.927	81.06
469.146	85.06
469.365	91.06
469.585	98.06
469.804	94.06
470.023	84.06
470.243	110.06
470.462	83.06
470.681	106.06
470.901	103.06
471.12	92.06
471.339	87.06
471.558	85.06
471.777	86.06
471.997	80.06
472.216	81.06
472.435	93.06
472.654	82.06
472.873	79.06
473.092	96.06
473.311	96.06
473.53	103.06
473.749	75.06
473.968	73.06
474.187	81.06
474.406	96.06
474.625	89.06
474.844	87.06
475.063	95.06
475.282	79.06
475.501	72.06
475.72	105.06
475.939	71.06
476.158	78.06
476.377	95.06
476.596	89.06
476.814	78.06
477.033	88.06
477.252	88.06
477.471	73.06
477.69	83.06
477.908	78.06
478.127	85.06
478.346	86.06
478.564	86.06
478.783	103.06
479.002	90.06
479.22	97.06
479.439	99.06
479.658	109.06
479.876	85.06
480.095	92.06
480.313	83.06
480.532	85.06
480.751	94.06
480.969	94.06
481.188	109.06
481.406	103.06
481.624	88.06
481.843	82.06
482.061	90.06
482.28	87.06
482.498	94.06
482.717	89.06
482.935	85.06
483.153	80.06
483.372	78.06
483.59	97.06
483.808	84.06
484.027	89.06
484.245	90.06
484.463	92.06
484.681	86.06
484.9	68.06
485.118	110.06
485.336	86.06
485.554	101.06
485.772	79.06
485.99	109.06
486.209	91.06
486.427	86.06
486.645	115.06
486.863	103.06
487.081	113.06
487.299	94.06
487.517	93.06
487.735	98.06
487.953	92.06
488.171	99.06
488.389	102.06
488.607	85.06
488.825	94.06
489.043	90.06
489.261	85.06
489.479	87.06
489.696	101.06
489.914	94.06
490.132	102.06
490.35	107.06
490.568	83.06
490.786	81.06
491.003	93.06
491.221	75.06
491.439	91.06
491.657	96.06
491.874	90.06
492.092	83.06
492.31	103.06
492.527	79.06
492.745	97.06
492.963	98.06
493.18	107.06
493.398	89.06
493.615	97.06
493.833	105.06
494.05	90.06
494.268	88.06
494.485	93.06
494.703	88.06
494.92	89.06
495.138	99.06
495.355	80.06
495.573	97.06
495.79	88.06
496.008	96.06
496.225	79.06
496.442	85.06
496.66	87.06
496.877	93.06
497.094	90.06
497.312	92.06
497.529	76.06
497.746	84.06
497.963	99.06
498.181	78.06
498.398	90.06
498.615	102.06
498.832	105.06
499.049	88.06
499.267	97.06
499.484	85.06
499.701	96.06
499.918	84.06
500.135	91.06
500.352	102.06
500.569	91.06
500.786	91.06
501.003	80.06
501.22	94.06
501.437	83.06
501.654	94.06
501.871	98.06
502.088	84.06
502.305	90.06
502.522	84.06
502.739	87.06
502.956	106.06
503.172	101.06
503.389	83.06
503.606	117.06
503.823	96.06
504.04	76.06
504.256	105.06
504.473	81.06
504.69	96.06
504.907	92.06
505.123	83.06
505.34	97.06
505.557	79.06
505.773	86.06
505.99	78.06
506.207	80.06
506.423	84.06
506.64	97.06
506.856	78.06
507.073	95.06
507.289	91.06
507.506	87.06
507.722	115.06
507.939	106.06
508.155	100.06
508.372	75.06
508.588	95.06
508.805	95.06
509.021	94.06
509.238	96.06
509.454	95.06
509.67	105.06
509.887	110.06
510.103	132.06
510.319	214.06
510.536	751.06
510.752	2284.06
510.968	641.06
511.184	165.06
511.401	109.06
511.617	103.06
511.833	95.06
512.049	99.06
512.265	99.06
512.481	94.06
512.698	81.06
512.914	79.06
513.13	88.06
513.346	97.06
513.562	92.06
513.778	96.06
513.994	99.06
514.21	91.06
514.426	110.06
514.642	118.06
514.858	136.06
515.074	152.06
515.29	436.06
515.506	1399.06
515.721	521.06
515.937	151.06
516.153	102.06
