Data from Uncirc_2002_H10_HRD10591_00046.txt Node
Date: Wed Jan 03 10:39:50 EST 2024
User: Yrep
Spectrometer: HR+D1059
Trigger mode: 1
Integration Time (sec): 1.000000E-1
Scans to average: 1
Electric dark correction enabled: true
Nonlinearity correction enabled: false
Boxcar width: 0
XAxis mode: Wavelengths
Number of Pixels in Spectrum: 2048
>>>>>Begin Spectral Data<<<<<
223.165	6
223.4	6
223.635	6
223.869	-24
224.104	-9
224.338	-28
224.573	-8
224.808	-26
225.042	-17
225.277	-1
225.511	-11
225.746	4
225.98	1
226.215	21
226.449	21
226.683	24
226.918	15
227.152	32
227.387	38
227.621	52
227.856	54
228.09	48
228.324	52
228.559	62
228.793	57
229.027	56
229.262	52
229.496	71
229.73	72
229.964	70
230.199	68
230.433	76
230.667	56
230.901	69
231.136	75
231.37	72
231.604	83
231.838	82
232.072	79
232.306	85
232.541	89
232.775	74
233.009	79
233.243	80
233.477	75
233.711	75
233.945	76
234.179	81
234.413	82
234.647	82
234.881	79
235.115	70
235.349	75
235.583	80
235.817	66
236.051	82
236.285	73
236.519	79
236.753	82
236.987	84
237.221	102
237.455	77
237.689	95
237.922	74
238.156	84
238.39	86
238.624	83
238.858	86
239.091	72
239.325	82
239.559	83
239.793	88
240.027	82
240.26	83
240.494	78
240.728	64
240.961	70
241.195	85
241.429	69
241.662	83
241.896	67
242.13	62
242.363	71
242.597	73
242.83	72
243.064	76
243.298	78
243.531	79
243.765	65
243.998	70
244.232	75
244.465	82
244.699	69
244.932	72
245.166	85
245.399	89
245.633	67
245.866	62
246.099	91
246.333	88
246.566	81
246.8	73
247.033	84
247.266	60
247.5	74
247.733	88
247.966	68
248.2	82
248.433	77
248.666	72
248.899	71
249.133	86
249.366	90
249.599	85
249.832	78
250.066	71
250.299	89
250.532	78
250.765	76
250.998	69
251.231	72
251.465	75
251.698	76
251.931	80
252.164	69
252.397	82
252.63	80
252.863	82
253.096	67
253.329	84
253.562	92
253.795	78
254.028	74
254.261	79
254.494	79
254.727	83
254.96	85
255.193	69
255.426	85
255.659	61
255.892	82
256.124	95
256.357	71
256.59	70
256.823	68
257.056	85
257.289	74
257.521	82
257.754	83
257.987	68
258.22	85
258.452	80
258.685	83
258.918	94
259.151	71
259.383	83
259.616	67
259.849	79
260.081	97
260.314	75
260.547	74
260.779	67
261.012	75
261.244	85
261.477	85
261.71	98
261.942	94
262.175	100
262.407	76
262.64	84
262.872	82
263.105	65
263.337	83
263.57	75
263.802	77
264.035	82
264.267	66
264.499	81
264.732	80
264.964	72
265.197	79
265.429	78
265.661	83
265.894	75
266.126	86
266.358	94
266.591	74
266.823	97
267.055	75
267.287	82
267.52	79
267.752	78
267.984	76
268.216	91
268.448	81
268.681	92
268.913	89
269.145	99
269.377	80
269.609	84
269.841	69
270.073	82
270.306	99
270.538	80
270.77	71
271.002	86
271.234	94
271.466	90
271.698	84
271.93	81
272.162	85
272.394	91
272.626	86
272.858	87
273.09	88
273.322	81
273.553	82
273.785	71
274.017	74
274.249	92
274.481	74
274.713	88
274.945	78
275.176	91
275.408	78
275.64	83
275.872	98
276.104	99
276.335	82
276.567	88
276.799	91
277.031	98
277.262	89
277.494	85
277.726	71
277.957	81
278.189	77
278.421	86
278.652	81
278.884	87
279.115	73
279.347	96
279.579	90
279.81	80
280.042	84
280.273	94
280.505	78
280.736	80
280.968	92
281.199	80
281.431	83
281.662	82
281.894	85
282.125	92
282.356	103
282.588	124
282.819	107
283.051	78
283.282	82
283.513	71
283.745	89
283.976	86
284.207	88
284.439	81
284.67	91
284.901	86
285.132	91
285.364	92
285.595	73
285.826	87
286.057	80
286.288	89
286.52	100
286.751	79
286.982	89
287.213	88
287.444	77
287.675	84
287.906	79
288.138	98
288.369	98
288.6	100
288.831	92
289.062	86
289.293	97
289.524	86
289.755	91
289.986	87
290.217	88
290.448	92
290.679	93
290.91	82
291.141	102
291.371	77
291.602	90
291.833	78
292.064	90
292.295	86
292.526	90
292.757	96
292.987	71
293.218	78
293.449	83
293.68	96
293.91	93
294.141	83
294.372	72
294.603	82
294.833	77
295.064	91
295.295	89
295.525	90
295.756	84
295.987	102
296.217	117
296.448	114
296.679	99
296.909	107
297.14	89
297.37	90
297.601	79
297.831	82
298.062	89
298.292	95
298.523	94
298.753	92
298.984	94
299.214	82
299.445	84
299.675	91
299.905	91
300.136	87
300.366	87
300.597	75
300.827	82
301.057	102
301.288	94
301.518	88
301.748	79
301.979	99
302.209	91
302.439	96
302.669	95
302.9	94
303.13	86
303.36	102
303.59	95
303.82	84
304.051	98
304.281	99
304.511	90
304.741	93
304.971	84
305.201	86
305.431	73
305.661	82
305.891	100
306.121	92
306.352	88
306.582	90
306.812	99
307.042	98
307.272	90
307.502	86
307.731	89
307.961	86
308.191	92
308.421	99
308.651	93
308.881	97
309.111	103
309.341	89
309.571	110
309.8	100
310.03	81
310.26	106
310.49	114
310.72	89
310.949	99
311.179	90
311.409	95
311.639	93
311.868	81
312.098	90
312.328	94
312.557	95
312.787	96
313.017	84
313.246	92
313.476	84
313.706	92
313.935	97
314.165	88
314.394	113
314.624	92
314.853	95
315.083	94
315.312	83
315.542	91
315.771	96
316.001	96
316.23	86
316.46	83
316.689	89
316.919	96
317.148	99
317.377	94
317.607	97
317.836	83
318.065	80
318.295	87
318.524	95
318.753	96
318.983	83
319.212	84
319.441	109
319.67	111
319.9	94
320.129	96
320.358	98
320.587	101
320.816	88
321.046	91
321.275	99
321.504	99
321.733	101
321.962	95
322.191	91
322.42	108
322.649	113
322.878	122
323.108	108
323.337	97
323.566	122
323.795	153
324.024	178
324.253	331
324.482	656
324.71	1306
324.939	1672
325.168	635
325.397	209
325.626	119
325.855	118
326.084	126
326.313	134
326.542	136
326.77	193
326.999	359
327.228	755
327.457	1352
327.686	1053
327.914	314
328.143	166
328.372	114
328.6	113
328.829	124
329.058	115
329.287	101
329.515	109
329.744	88
329.972	110
330.201	103
330.43	110
330.658	108
330.887	121
331.115	127
331.344	90
331.572	84
331.801	93
332.03	89
332.258	106
332.486	92
332.715	85
332.943	95
333.172	104
333.4	104
333.629	108
333.857	103
334.085	111
334.314	91
334.542	91
334.771	90
334.999	105
335.227	73
335.455	91
335.684	103
335.912	94
336.14	96
336.369	82
336.597	100
336.825	102
337.053	100
337.281	94
337.51	81
337.738	101
337.966	89
338.194	91
338.422	80
338.65	104
338.878	98
339.106	84
339.334	90
339.562	72
339.79	78
340.018	92
340.246	96
340.474	95
340.702	94
340.93	85
341.158	99
341.386	82
341.614	102
341.842	72
342.07	87
342.298	91
342.526	97
342.754	92
342.981	103
343.209	88
343.437	87
343.665	80
343.893	96
344.12	91
344.348	92
344.576	76
344.804	96
345.031	97
345.259	93
345.487	93
345.714	99
345.942	92
346.17	86
346.397	106
346.625	85
346.853	86
347.08	91
347.308	78
347.535	93
347.763	105
347.99	97
348.218	95
348.445	103
348.673	101
348.9	100
349.128	89
349.355	84
349.583	90
349.81	94
350.037	92
350.265	98
350.492	88
350.72	100
350.947	105
351.174	103
351.402	115
351.629	95
351.856	87
352.083	91
352.311	95
352.538	110
352.765	105
352.992	116
353.22	115
353.447	104
353.674	97
353.901	84
354.128	86
354.355	90
354.583	99
354.81	104
355.037	75
355.264	93
355.491	99
355.718	108
355.945	92
356.172	104
356.399	103
356.626	94
356.853	89
357.08	88
357.307	78
357.534	102
357.761	101
357.988	107
358.215	103
358.441	73
358.668	118
358.895	94
359.122	91
359.349	88
359.576	73
359.802	98
360.029	96
360.256	98
360.483	92
360.709	86
360.936	99
361.163	82
361.39	96
361.616	102
361.843	87
362.07	92
362.296	96
362.523	86
362.749	90
362.976	82
363.203	80
363.429	88
363.656	84
363.882	100
364.109	95
364.335	83
364.562	82
364.788	96
365.015	91
365.241	89
365.468	100
365.694	90
365.92	86
366.147	82
366.373	80
366.599	83
366.826	89
367.052	86
367.278	84
367.505	82
367.731	92
367.957	98
368.184	80
368.41	87
368.636	82
368.862	83
369.089	88
369.315	91
369.541	81
369.767	98
369.993	96
370.219	87
370.445	102
370.672	88
370.898	81
371.124	85
371.35	79
371.576	95
371.802	96
372.028	92
372.254	95
372.48	94
372.706	87
372.932	78
373.158	88
373.384	94
373.61	85
373.835	99
374.061	91
374.287	95
374.513	84
374.739	103
374.965	83
375.191	95
375.416	92
375.642	83
375.868	97
376.094	83
376.319	79
376.545	82
376.771	98
376.997	78
377.222	90
377.448	74
377.674	81
377.899	79
378.125	90
378.35	97
378.576	97
378.802	88
379.027	94
379.253	91
379.478	94
379.704	98
379.929	95
380.155	96
380.38	98
380.606	76
380.831	98
381.057	85
381.282	98
381.507	97
381.733	99
381.958	99
382.184	100
382.409	92
382.634	88
382.86	88
383.085	101
383.31	109
383.535	91
383.761	83
383.986	104
384.211	94
384.436	101
384.662	94
384.887	107
385.112	94
385.337	93
385.562	103
385.787	104
386.013	103
386.238	105
386.463	99
386.688	117
386.913	88
387.138	94
387.363	96
387.588	90
387.813	97
388.038	101
388.263	99
388.488	90
388.713	102
388.938	103
389.163	90
389.387	95
389.612	83
389.837	105
390.062	84
390.287	84
390.512	85
390.736	86
390.961	98
391.186	107
391.411	102
391.636	84
391.86	87
392.085	104
392.31	83
392.534	79
392.759	81
392.984	90
393.208	101
393.433	104
393.658	81
393.882	84
394.107	96
394.331	75
394.556	78
394.78	83
395.005	98
395.229	89
395.454	96
395.678	98
395.903	77
396.127	91
396.352	79
396.576	91
396.801	86
397.025	83
397.249	90
397.474	79
397.698	84
397.922	94
398.147	97
398.371	78
398.595	74
398.82	82
399.044	83
399.268	88
399.492	81
399.717	102
399.941	91
400.165	81
400.389	78
400.613	82
400.837	88
401.062	89
401.286	96
401.51	87
401.734	87
401.958	102
402.182	115
402.406	138
402.63	110
402.854	95
403.078	90
403.302	84
403.526	102
403.75	84
403.974	92
404.198	82
404.422	74
404.645	94
404.869	103
405.093	87
405.317	92
405.541	114
405.765	95
405.988	103
406.212	156
406.436	192
406.66	134
406.883	121
407.107	92
407.331	99
407.555	90
407.778	102
408.002	88
408.226	87
408.449	71
408.673	77
408.896	81
409.12	109
409.344	92
409.567	88
409.791	98
410.014	80
410.238	86
410.461	89
410.685	95
410.908	84
411.132	94
411.355	90
411.578	80
411.802	89
412.025	96
412.249	90
412.472	83
412.695	85
412.919	97
413.142	85
413.365	83
413.589	90
413.812	97
414.035	89
414.258	92
414.482	104
414.705	95
414.928	98
415.151	92
415.374	99
415.597	87
415.821	86
416.044	79
416.267	82
416.49	85
416.713	83
416.936	101
417.159	83
417.382	87
417.605	89
417.828	101
418.051	91
418.274	81
418.497	95
418.72	87
418.943	84
419.166	89
419.389	75
419.611	83
419.834	86
420.057	102
420.28	96
420.503	82
420.726	88
420.948	74
421.171	87
421.394	87
421.617	87
421.839	89
422.062	113
422.285	92
422.507	88
422.73	113
422.953	87
423.175	70
423.398	79
423.621	73
423.843	80
424.066	84
424.288	98
424.511	95
424.733	83
424.956	93
425.178	90
425.401	91
425.623	97
425.846	88
426.068	71
426.291	81
426.513	98
426.735	102
426.958	90
427.18	93
427.402	132
427.625	127
427.847	104
428.069	84
428.292	97
428.514	78
428.736	92
428.958	80
429.181	92
429.403	78
429.625	70
429.847	95
430.069	87
430.292	86
430.514	72
430.736	85
430.958	74
431.18	78
431.402	91
431.624	90
431.846	81
432.068	101
432.29	100
432.512	99
432.734	90
432.956	97
433.178	107
433.4	86
433.622	78
433.844	90
434.066	87
434.287	84
434.509	88
434.731	100
434.953	107
435.175	92
435.397	89
435.618	85
435.84	108
436.062	102
436.284	101
436.505	103
436.727	86
436.949	96
437.17	79
437.392	97
437.614	90
437.835	111
438.057	106
438.278	110
438.5	88
438.721	119
438.943	86
439.165	79
439.386	89
439.608	101
439.829	98
440.05	100
440.272	127
440.493	103
440.715	77
440.936	92
441.158	83
441.379	81
441.6	97
441.822	103
442.043	101
442.264	103
442.486	100
442.707	87
442.928	90
443.149	116
443.371	113
443.592	94
443.813	105
444.034	95
444.255	91
444.476	78
444.698	98
444.919	105
445.14	121
445.361	114
445.582	122
445.803	123
446.024	129
446.245	124
446.466	106
446.687	76
446.908	90
447.129	75
447.35	81
447.571	70
447.792	86
448.013	88
448.234	110
448.455	87
448.675	107
448.896	129
449.117	102
449.338	99
449.559	127
449.779	123
450	86
450.221	80
450.442	89
450.662	91
450.883	97
451.104	85
451.324	86
451.545	90
451.766	83
451.986	92
452.207	86
452.428	90
452.648	104
452.869	99
453.089	93
453.31	111
453.53	78
453.751	87
453.971	94
454.192	98
454.412	97
454.633	99
454.853	78
455.073	70
455.294	90
455.514	95
455.734	84
455.955	84
456.175	94
456.395	87
456.616	95
456.836	74
457.056	98
457.276	69
457.497	74
457.717	83
457.937	99
458.157	85
458.377	95
458.598	94
458.818	143
459.038	128
459.258	103
459.478	100
459.698	89
459.918	90
460.138	89
460.358	101
460.578	83
460.798	87
461.018	83
461.238	88
461.458	78
461.678	84
461.898	85
462.118	82
462.338	84
462.558	75
462.777	86
462.997	88
463.217	82
463.437	83
463.657	63
463.876	78
464.096	85
464.316	78
464.536	92
464.755	88
464.975	111
465.195	132
465.414	118
465.634	85
465.854	94
466.073	80
466.293	89
466.512	98
466.732	84
466.951	71
467.171	95
467.391	107
467.61	95
467.829	104
468.049	89
468.268	88
468.488	87
468.707	91
468.927	82
469.146	97
469.365	73
469.585	90
469.804	98
470.023	88
470.243	77
470.462	93
470.681	85
470.901	79
471.12	98
471.339	93
471.558	81
471.777	79
471.997	91
472.216	93
472.435	85
472.654	104
472.873	92
473.092	71
473.311	92
473.53	74
473.749	82
473.968	92
474.187	100
474.406	88
474.625	80
474.844	99
475.063	78
475.282	64
475.501	91
475.72	93
475.939	74
476.158	80
476.377	74
476.596	77
476.814	90
477.033	84
477.252	92
477.471	96
477.69	81
477.908	78
478.127	90
478.346	94
478.564	99
478.783	90
479.002	83
479.22	92
479.439	98
479.658	98
479.876	100
480.095	96
480.313	89
480.532	90
480.751	88
480.969	102
481.188	95
481.406	83
481.624	81
481.843	101
482.061	82
482.28	93
482.498	103
482.717	80
482.935	82
483.153	80
483.372	90
483.59	88
483.808	85
484.027	110
484.245	93
484.463	86
484.681	104
484.9	73
485.118	102
485.336	95
485.554	97
485.772	92
485.99	111
486.209	104
486.427	96
486.645	92
486.863	112
487.081	113
487.299	85
487.517	92
487.735	94
487.953	91
488.171	86
488.389	93
488.607	90
488.825	87
489.043	84
489.261	99
489.479	96
489.696	96
489.914	89
490.132	89
490.35	86
490.568	91
490.786	88
491.003	85
491.221	79
491.439	84
491.657	93
491.874	91
492.092	97
492.31	94
492.527	92
492.745	78
492.963	88
493.18	84
493.398	100
493.615	98
493.833	95
494.05	96
494.268	91
494.485	91
494.703	88
494.92	78
495.138	83
495.355	94
495.573	89
495.79	85
496.008	77
496.225	86
496.442	89
496.66	107
496.877	97
497.094	110
497.312	102
497.529	86
497.746	91
497.963	90
498.181	98
498.398	82
498.615	102
498.832	103
499.049	100
499.267	89
499.484	94
499.701	86
499.918	96
500.135	90
500.352	86
500.569	91
500.786	104
501.003	98
501.22	106
501.437	94
501.654	93
501.871	104
502.088	82
502.305	98
502.522	89
502.739	98
502.956	95
503.172	85
503.389	91
503.606	92
503.823	102
504.04	89
504.256	89
504.473	96
504.69	78
504.907	82
505.123	89
505.34	82
505.557	79
505.773	95
505.99	90
506.207	86
506.423	91
506.64	72
506.856	96
507.073	91
507.289	93
507.506	92
507.722	111
507.939	114
508.155	86
508.372	89
508.588	98
508.805	84
509.021	89
509.238	84
509.454	72
509.67	98
509.887	117
510.103	133
510.319	183
510.536	617
510.752	1844
510.968	540
511.184	135
511.401	94
511.617	90
511.833	89
512.049	94
512.265	81
512.481	88
512.698	102
512.914	89
513.13	89
513.346	90
513.562	88
513.778	84
513.994	86
514.21	98
514.426	111
514.642	114
514.858	110
515.074	128
515.29	360
515.506	1081
515.721	420
515.937	135
516.153	104
516.369	107
516.585	87
516.801	91
517.016	90
517.232	88
517.448	89
517.664	82
517.879	91
518.095	109
518.311	84
518.527	102
518.742	95
518.958	93
519.173	93
519.389	94
519.605	82
519.82	89
520.036	103
520.251	103
520.467	92
520.682	104
520.898	97
521.113	104
521.329	118
521.544	178
521.76	444
521.975	1777
522.19	1072
522.406	252
522.621	118
522.836	103
523.052	93
523.267	92
523.482	91
523.698	88
523.913	111
524.128	83
524.343	75
524.559	92
524.774	91
524.989	88
525.204	97
525.419	92
525.634	90
525.849	87
526.064	83
526.28	98
526.495	100
526.71	76
526.925	87
527.14	98
527.355	83
527.57	91
527.785	71
527.999	79
528.214	88
528.429	99
528.644	87
528.859	76
529.074	89
529.289	119
529.503	161
529.718	93
529.933	84
530.148	88
530.363	88
530.577	84
530.792	86
531.007	95
531.221	95
531.436	93
531.651	95
531.865	78
532.08	76
532.295	87
532.509	92
532.724	99
532.938	96
533.153	85
533.367	91
533.582	92
533.796	95
534.011	88
534.225	91
534.44	76
534.654	104
534.868	89
535.083	100
535.297	101
535.511	92
535.726	94
535.94	104
536.154	98
536.369	91
536.583	86
536.797	98
537.011	85
537.225	84
537.44	97
537.654	82
537.868	97
538.082	86
538.296	87
538.51	91
538.724	72
538.938	90
539.153	97
539.367	95
539.581	100
539.795	83
540.009	94
540.222	85
540.436	104
540.65	74
540.864	90
541.078	87
541.292	98
541.506	97
541.72	97
541.934	86
542.147	90
542.361	82
542.575	84
542.789	102
543.002	77
543.216	102
543.43	99
543.644	93
543.857	95
544.071	85
544.285	98
544.498	76
544.712	81
544.925	92
545.139	88
545.352	93
545.566	92
545.779	91
545.993	90
546.206	95
546.42	89
546.633	102
546.847	99
547.06	83
547.274	92
547.487	81
547.7	89
547.914	84
548.127	79
548.34	81
548.554	79
548.767	86
548.98	87
549.193	79
549.407	92
549.62	85
549.833	72
550.046	92
550.259	80
550.473	90
550.686	89
550.899	90
551.112	94
551.325	82
551.538	83
551.751	83
551.964	84
552.177	94
552.39	81
552.603	85
552.816	86
553.029	104
553.242	91
553.455	96
553.667	105
553.88	102
554.093	83
554.306	80
554.519	103
554.732	88
554.944	76
555.157	87
555.37	102
555.583	89
555.795	84
556.008	89
556.221	91
556.433	95
556.646	74
556.859	100
557.071	101
557.284	86
557.496	79
557.709	81
557.921	77
558.134	95
558.346	91
558.559	93
558.771	92
558.984	85
559.196	84
559.409	92
559.621	101
559.833	84
560.046	91
560.258	86
560.47	91
560.683	84
560.895	96
561.107	85
561.32	77
561.532	108
561.744	91
561.956	90
562.168	87
562.381	93
562.593	96
562.805	89
563.017	92
563.229	94
563.441	89
563.653	86
563.865	91
564.077	90
564.289	101
564.501	89
564.713	88
564.925	88
565.137	101
565.349	82
565.561	76
565.773	90
565.985	75
566.197	75
566.408	83
566.62	82
566.832	85
567.044	83
567.255	80
567.467	89
567.679	76
567.891	89
568.102	82
568.314	99
568.526	83
568.737	87
568.949	100
569.161	79
569.372	85
569.584	102
569.795	83
570.007	115
570.218	195
570.43	128
570.641	80
570.853	77
571.064	88
571.276	76
571.487	91
571.698	89
571.91	97
572.121	84
572.333	90
572.544	87
572.755	86
572.966	98
573.178	87
573.389	83
573.6	89
573.811	91
574.023	82
574.234	88
574.445	70
574.656	81
574.867	82
575.078	106
575.289	85
575.501	100
575.712	91
575.923	87
576.134	83
576.345	88
576.556	78
576.767	88
576.978	98
577.188	82
577.399	90
577.61	98
577.821	102
578.032	114
578.243	235
578.454	595
578.665	182
578.875	106
579.086	95
579.297	94
579.508	92
579.718	91
579.929	89
580.14	95
580.35	86
580.561	82
580.772	91
580.982	105
581.193	76
581.403	66
581.614	98
581.825	96
582.035	95
582.246	86
582.456	78
582.667	83
582.877	95
583.087	90
583.298	99
583.508	83
583.719	81
583.929	74
584.139	86
584.35	91
584.56	69
584.77	87
584.981	90
585.191	91
585.401	87
585.611	89
585.821	83
