Data from Uncirc_2002_H10_HRD10591_00097.txt Node
Date: Wed Jan 03 10:40:00 EST 2024
User: Yrep
Spectrometer: HR+D1059
Trigger mode: 1
Integration Time (sec): 1.000000E-1
Scans to average: 1
Electric dark correction enabled: true
Nonlinearity correction enabled: false
Boxcar width: 0
XAxis mode: Wavelengths
Number of Pixels in Spectrum: 2048
>>>>>Begin Spectral Data<<<<<
223.165	-18.31
223.4	-18.31
223.635	-18.31
223.869	-23.31
224.104	-15.31
224.338	-14.31
224.573	-24.31
224.808	-21.31
225.042	-11.31
225.277	-0.31
225.511	-1.31
225.746	13.69
225.98	6.69
226.215	13.69
226.449	22.69
226.683	18.69
226.918	17.69
227.152	36.69
227.387	32.69
227.621	20.69
227.856	42.69
228.09	54.69
228.324	39.69
228.559	51.69
228.793	76.69
229.027	56.69
229.262	63.69
229.496	53.69
229.73	81.69
229.964	85.69
230.199	95.69
230.433	72.69
230.667	88.69
230.901	65.69
231.136	81.69
231.37	88.69
231.604	75.69
231.838	84.69
232.072	98.69
232.306	78.69
232.541	81.69
232.775	88.69
233.009	80.69
233.243	85.69
233.477	69.69
233.711	79.69
233.945	108.69
234.179	77.69
234.413	77.69
234.647	78.69
234.881	91.69
235.115	79.69
235.349	72.69
235.583	70.69
235.817	69.69
236.051	79.69
236.285	81.69
236.519	81.69
236.753	83.69
236.987	84.69
237.221	84.69
237.455	83.69
237.689	77.69
237.922	77.69
238.156	74.69
238.39	71.69
238.624	72.69
238.858	63.69
239.091	73.69
239.325	87.69
239.559	70.69
239.793	80.69
240.027	68.69
240.26	76.69
240.494	76.69
240.728	75.69
240.961	61.69
241.195	66.69
241.429	80.69
241.662	83.69
241.896	85.69
242.13	82.69
242.363	61.69
242.597	79.69
242.83	80.69
243.064	89.69
243.298	82.69
243.531	68.69
243.765	82.69
243.998	74.69
244.232	79.69
244.465	95.69
244.699	78.69
244.932	82.69
245.166	87.69
245.399	79.69
245.633	86.69
245.866	67.69
246.099	75.69
246.333	83.69
246.566	77.69
246.8	68.69
247.033	64.69
247.266	89.69
247.5	82.69
247.733	69.69
247.966	81.69
248.2	73.69
248.433	80.69
248.666	69.69
248.899	73.69
249.133	90.69
249.366	83.69
249.599	77.69
249.832	73.69
250.066	70.69
250.299	79.69
250.532	87.69
250.765	88.69
250.998	70.69
251.231	83.69
251.465	89.69
251.698	85.69
251.931	79.69
252.164	78.69
252.397	82.69
252.63	103.69
252.863	68.69
253.096	73.69
253.329	72.69
253.562	96.69
253.795	85.69
254.028	75.69
254.261	98.69
254.494	96.69
254.727	81.69
254.96	64.69
255.193	84.69
255.426	73.69
255.659	73.69
255.892	70.69
256.124	84.69
256.357	84.69
256.59	77.69
256.823	71.69
257.056	89.69
257.289	87.69
257.521	80.69
257.754	77.69
257.987	80.69
258.22	86.69
258.452	81.69
258.685	85.69
258.918	87.69
259.151	92.69
259.383	68.69
259.616	84.69
259.849	81.69
260.081	78.69
260.314	67.69
260.547	78.69
260.779	84.69
261.012	98.69
261.244	84.69
261.477	93.69
261.71	94.69
261.942	103.69
262.175	114.69
262.407	98.69
262.64	71.69
262.872	73.69
263.105	65.69
263.337	73.69
263.57	93.69
263.802	90.69
264.035	65.69
264.267	77.69
264.499	89.69
264.732	96.69
264.964	85.69
265.197	87.69
265.429	86.69
265.661	81.69
265.894	75.69
266.126	79.69
266.358	76.69
266.591	85.69
266.823	77.69
267.055	85.69
267.287	86.69
267.52	91.69
267.752	75.69
267.984	95.69
268.216	77.69
268.448	101.69
268.681	91.69
268.913	83.69
269.145	76.69
269.377	76.69
269.609	86.69
269.841	71.69
270.073	85.69
270.306	83.69
270.538	85.69
270.77	81.69
271.002	67.69
271.234	79.69
271.466	85.69
271.698	78.69
271.93	85.69
272.162	89.69
272.394	89.69
272.626	84.69
272.858	80.69
273.09	83.69
273.322	81.69
273.553	90.69
273.785	71.69
274.017	86.69
274.249	93.69
274.481	87.69
274.713	86.69
274.945	95.69
275.176	77.69
275.408	78.69
275.64	75.69
275.872	87.69
276.104	69.69
276.335	90.69
276.567	94.69
276.799	101.69
277.031	114.69
277.262	85.69
277.494	80.69
277.726	81.69
277.957	87.69
278.189	89.69
278.421	98.69
278.652	85.69
278.884	85.69
279.115	82.69
279.347	82.69
279.579	67.69
279.81	90.69
280.042	89.69
280.273	73.69
280.505	98.69
280.736	93.69
280.968	87.69
281.199	82.69
281.431	98.69
281.662	83.69
281.894	88.69
282.125	96.69
282.356	111.69
282.588	133.69
282.819	103.69
283.051	102.69
283.282	89.69
283.513	104.69
283.745	83.69
283.976	85.69
284.207	80.69
284.439	87.69
284.67	87.69
284.901	82.69
285.132	82.69
285.364	82.69
285.595	98.69
285.826	84.69
286.057	95.69
286.288	96.69
286.52	66.69
286.751	66.69
286.982	83.69
287.213	87.69
287.444	96.69
287.675	79.69
287.906	94.69
288.138	99.69
288.369	88.69
288.6	98.69
288.831	87.69
289.062	85.69
289.293	84.69
289.524	81.69
289.755	97.69
289.986	88.69
290.217	83.69
290.448	85.69
290.679	79.69
290.91	73.69
291.141	90.69
291.371	85.69
291.602	73.69
291.833	91.69
292.064	78.69
292.295	90.69
292.526	79.69
292.757	84.69
292.987	82.69
293.218	88.69
293.449	102.69
293.68	92.69
293.91	90.69
294.141	91.69
294.372	80.69
294.603	69.69
294.833	77.69
295.064	95.69
295.295	86.69
295.525	96.69
295.756	91.69
295.987	105.69
296.217	123.69
296.448	125.69
296.679	91.69
296.909	81.69
297.14	98.69
297.37	86.69
297.601	85.69
297.831	80.69
298.062	80.69
298.292	87.69
298.523	90.69
298.753	80.69
298.984	86.69
299.214	74.69
299.445	115.69
299.675	98.69
299.905	98.69
300.136	93.69
300.366	85.69
300.597	95.69
300.827	95.69
301.057	101.69
301.288	96.69
301.518	101.69
301.748	99.69
301.979	90.69
302.209	98.69
302.439	91.69
302.669	103.69
302.9	91.69
303.13	88.69
303.36	92.69
303.59	99.69
303.82	101.69
304.051	90.69
304.281	77.69
304.511	90.69
304.741	77.69
304.971	78.69
305.201	102.69
305.431	89.69
305.661	88.69
305.891	93.69
306.121	91.69
306.352	103.69
306.582	102.69
306.812	97.69
307.042	84.69
307.272	102.69
307.502	86.69
307.731	78.69
307.961	103.69
308.191	85.69
308.421	96.69
308.651	96.69
308.881	85.69
309.111	87.69
309.341	99.69
309.571	96.69
309.8	97.69
310.03	101.69
310.26	93.69
310.49	96.69
310.72	89.69
310.949	107.69
311.179	99.69
311.409	89.69
311.639	108.69
311.868	89.69
312.098	103.69
312.328	99.69
312.557	104.69
312.787	104.69
313.017	101.69
313.246	81.69
313.476	81.69
313.706	89.69
313.935	90.69
314.165	102.69
314.394	98.69
314.624	90.69
314.853	91.69
315.083	102.69
315.312	87.69
315.542	90.69
315.771	94.69
316.001	82.69
316.23	81.69
316.46	89.69
316.689	82.69
316.919	99.69
317.148	89.69
317.377	97.69
317.607	97.69
317.836	87.69
318.065	79.69
318.295	93.69
318.524	88.69
318.753	100.69
318.983	90.69
319.212	94.69
319.441	113.69
319.67	114.69
319.9	95.69
320.129	100.69
320.358	94.69
320.587	81.69
320.816	96.69
321.046	98.69
321.275	109.69
321.504	92.69
321.733	79.69
321.962	95.69
322.191	101.69
322.42	107.69
322.649	102.69
322.878	106.69
323.108	106.69
323.337	117.69
323.566	147.69
323.795	140.69
324.024	200.69
324.253	368.69
324.482	767.69
324.71	1510.69
324.939	2047.69
325.168	758.69
325.397	241.69
325.626	138.69
325.855	115.69
326.084	118.69
326.313	140.69
326.542	145.69
326.77	222.69
326.999	411.69
327.228	885.69
327.457	1545.69
327.686	1215.69
327.914	350.69
328.143	181.69
328.372	127.69
328.6	116.69
328.829	102.69
329.058	124.69
329.287	117.69
329.515	117.69
329.744	105.69
329.972	100.69
330.201	95.69
330.43	113.69
330.658	117.69
330.887	137.69
331.115	126.69
331.344	96.69
331.572	107.69
331.801	101.69
332.03	105.69
332.258	91.69
332.486	99.69
332.715	106.69
332.943	104.69
333.172	104.69
333.4	89.69
333.629	89.69
333.857	106.69
334.085	114.69
334.314	86.69
334.542	98.69
334.771	101.69
334.999	95.69
335.227	101.69
335.455	86.69
335.684	93.69
335.912	83.69
336.14	82.69
336.369	103.69
336.597	94.69
336.825	98.69
337.053	74.69
337.281	98.69
337.51	94.69
337.738	81.69
337.966	85.69
338.194	92.69
338.422	95.69
338.65	86.69
338.878	107.69
339.106	90.69
339.334	91.69
339.562	98.69
339.79	102.69
340.018	94.69
340.246	104.69
340.474	82.69
340.702	83.69
340.93	93.69
341.158	101.69
341.386	108.69
341.614	93.69
341.842	90.69
342.07	88.69
342.298	97.69
342.526	75.69
342.754	90.69
342.981	91.69
343.209	90.69
343.437	101.69
343.665	90.69
343.893	86.69
344.12	97.69
344.348	103.69
344.576	88.69
344.804	97.69
345.031	93.69
345.259	100.69
345.487	88.69
345.714	102.69
345.942	83.69
346.17	100.69
346.397	86.69
346.625	90.69
346.853	99.69
347.08	92.69
347.308	101.69
347.535	77.69
347.763	104.69
347.99	105.69
348.218	99.69
348.445	92.69
348.673	97.69
348.9	84.69
349.128	88.69
349.355	96.69
349.583	98.69
349.81	97.69
350.037	89.69
350.265	97.69
350.492	89.69
350.72	93.69
350.947	82.69
351.174	95.69
351.402	115.69
351.629	94.69
351.856	105.69
352.083	94.69
352.311	98.69
352.538	96.69
352.765	109.69
352.992	121.69
353.22	105.69
353.447	102.69
353.674	87.69
353.901	92.69
354.128	88.69
354.355	99.69
354.583	100.69
354.81	107.69
355.037	93.69
355.264	85.69
355.491	101.69
355.718	89.69
355.945	94.69
356.172	97.69
356.399	97.69
356.626	101.69
356.853	96.69
357.08	91.69
357.307	98.69
357.534	101.69
357.761	95.69
357.988	100.69
358.215	78.69
358.441	85.69
358.668	95.69
358.895	88.69
359.122	87.69
359.349	82.69
359.576	94.69
359.802	102.69
360.029	109.69
360.256	110.69
360.483	96.69
360.709	85.69
360.936	79.69
361.163	89.69
361.39	96.69
361.616	86.69
361.843	78.69
362.07	90.69
362.296	93.69
362.523	94.69
362.749	99.69
362.976	96.69
363.203	100.69
363.429	100.69
363.656	97.69
363.882	98.69
364.109	67.69
364.335	90.69
364.562	102.69
364.788	89.69
365.015	86.69
365.241	98.69
365.468	107.69
365.694	89.69
365.92	96.69
366.147	83.69
366.373	93.69
366.599	104.69
366.826	101.69
367.052	80.69
367.278	100.69
367.505	90.69
367.731	96.69
367.957	104.69
368.184	90.69
368.41	99.69
368.636	104.69
368.862	109.69
369.089	98.69
369.315	97.69
369.541	86.69
369.767	85.69
369.993	94.69
370.219	95.69
370.445	87.69
370.672	83.69
370.898	84.69
371.124	79.69
371.35	85.69
371.576	98.69
371.802	83.69
372.028	83.69
372.254	89.69
372.48	85.69
372.706	94.69
372.932	87.69
373.158	83.69
373.384	88.69
373.61	106.69
373.835	98.69
374.061	91.69
374.287	108.69
374.513	94.69
374.739	90.69
374.965	93.69
375.191	78.69
375.416	95.69
375.642	79.69
375.868	93.69
376.094	77.69
376.319	90.69
376.545	93.69
376.771	97.69
376.997	87.69
377.222	75.69
377.448	85.69
377.674	74.69
377.899	80.69
378.125	86.69
378.35	87.69
378.576	79.69
378.802	87.69
379.027	95.69
379.253	91.69
379.478	79.69
379.704	88.69
379.929	87.69
380.155	99.69
380.38	103.69
380.606	97.69
380.831	86.69
381.057	86.69
381.282	86.69
381.507	90.69
381.733	97.69
381.958	91.69
382.184	101.69
382.409	99.69
382.634	97.69
382.86	83.69
383.085	77.69
383.31	88.69
383.535	93.69
383.761	91.69
383.986	91.69
384.211	81.69
384.436	99.69
384.662	86.69
384.887	91.69
385.112	87.69
385.337	101.69
385.562	95.69
385.787	100.69
386.013	108.69
386.238	110.69
386.463	93.69
386.688	98.69
386.913	86.69
387.138	93.69
387.363	91.69
387.588	100.69
387.813	99.69
388.038	104.69
388.263	114.69
388.488	98.69
388.713	105.69
388.938	83.69
389.163	84.69
389.387	96.69
389.612	108.69
389.837	97.69
390.062	93.69
390.287	75.69
390.512	92.69
390.736	88.69
390.961	84.69
391.186	82.69
391.411	99.69
391.636	105.69
391.86	74.69
392.085	83.69
392.31	72.69
392.534	76.69
392.759	87.69
392.984	91.69
393.208	98.69
393.433	91.69
393.658	91.69
393.882	74.69
394.107	89.69
394.331	82.69
394.556	90.69
394.78	71.69
395.005	93.69
395.229	87.69
395.454	77.69
395.678	82.69
395.903	90.69
396.127	99.69
396.352	85.69
396.576	64.69
396.801	77.69
397.025	92.69
397.249	99.69
397.474	88.69
397.698	88.69
397.922	76.69
398.147	82.69
398.371	88.69
398.595	76.69
398.82	88.69
399.044	90.69
399.268	69.69
399.492	88.69
399.717	89.69
399.941	82.69
400.165	74.69
400.389	97.69
400.613	95.69
400.837	82.69
401.062	91.69
401.286	89.69
401.51	84.69
401.734	87.69
401.958	94.69
402.182	113.69
402.406	142.69
402.63	102.69
402.854	90.69
403.078	89.69
403.302	80.69
403.526	86.69
403.75	90.69
403.974	81.69
404.198	92.69
404.422	82.69
404.645	87.69
404.869	76.69
405.093	99.69
405.317	96.69
405.541	104.69
405.765	110.69
405.988	114.69
406.212	170.69
406.436	238.69
406.66	137.69
406.883	91.69
407.107	93.69
407.331	90.69
407.555	88.69
407.778	97.69
408.002	95.69
408.226	77.69
408.449	86.69
408.673	86.69
408.896	90.69
409.12	98.69
409.344	99.69
409.567	89.69
409.791	99.69
410.014	98.69
410.238	83.69
410.461	85.69
410.685	96.69
410.908	100.69
411.132	107.69
411.355	83.69
411.578	71.69
411.802	90.69
412.025	88.69
412.249	98.69
412.472	104.69
412.695	92.69
412.919	98.69
413.142	91.69
413.365	90.69
413.589	87.69
413.812	93.69
414.035	79.69
414.258	88.69
414.482	88.69
414.705	81.69
414.928	80.69
415.151	86.69
415.374	94.69
415.597	85.69
415.821	88.69
416.044	77.69
416.267	77.69
416.49	83.69
416.713	94.69
416.936	91.69
417.159	79.69
417.382	98.69
417.605	90.69
417.828	100.69
418.051	98.69
418.274	99.69
418.497	85.69
418.72	85.69
418.943	84.69
419.166	83.69
419.389	72.69
419.611	90.69
419.834	86.69
420.057	98.69
420.28	78.69
420.503	93.69
420.726	100.69
420.948	99.69
421.171	89.69
421.394	94.69
421.617	100.69
421.839	103.69
422.062	85.69
422.285	84.69
422.507	92.69
422.73	100.69
422.953	105.69
423.175	91.69
423.398	80.69
423.621	82.69
423.843	99.69
424.066	97.69
424.288	88.69
424.511	81.69
424.733	97.69
424.956	108.69
425.178	93.69
425.401	92.69
425.623	95.69
425.846	89.69
426.068	86.69
426.291	100.69
426.513	75.69
426.735	87.69
426.958	91.69
427.18	98.69
427.402	153.69
427.625	149.69
427.847	114.69
428.069	105.69
428.292	88.69
428.514	79.69
428.736	91.69
428.958	86.69
429.181	82.69
429.403	74.69
429.625	86.69
429.847	90.69
430.069	96.69
430.292	82.69
430.514	79.69
430.736	93.69
430.958	77.69
431.18	78.69
431.402	88.69
431.624	73.69
431.846	74.69
432.068	80.69
432.29	78.69
432.512	95.69
432.734	84.69
432.956	97.69
433.178	104.69
433.4	88.69
433.622	96.69
433.844	91.69
434.066	81.69
434.287	95.69
434.509	85.69
434.731	85.69
434.953	94.69
435.175	84.69
435.397	78.69
435.618	90.69
435.84	101.69
436.062	120.69
436.284	97.69
436.505	112.69
436.727	92.69
436.949	108.69
437.17	92.69
437.392	88.69
437.614	91.69
437.835	110.69
438.057	107.69
438.278	103.69
438.5	104.69
438.721	108.69
438.943	92.69
439.165	85.69
439.386	90.69
439.608	99.69
439.829	97.69
440.05	110.69
440.272	126.69
440.493	103.69
440.715	101.69
440.936	76.69
441.158	80.69
441.379	91.69
441.6	89.69
441.822	106.69
442.043	107.69
442.264	99.69
442.486	94.69
442.707	90.69
442.928	97.69
443.149	123.69
443.371	119.69
443.592	97.69
443.813	112.69
444.034	96.69
444.255	91.69
444.476	91.69
444.698	90.69
444.919	83.69
445.14	129.69
445.361	120.69
445.582	103.69
445.803	111.69
446.024	122.69
446.245	122.69
446.466	116.69
446.687	88.69
446.908	91.69
447.129	96.69
447.35	91.69
447.571	89.69
447.792	88.69
448.013	101.69
448.234	102.69
448.455	107.69
448.675	116.69
448.896	112.69
449.117	91.69
449.338	97.69
449.559	119.69
449.779	131.69
450	90.69
450.221	84.69
450.442	94.69
450.662	109.69
450.883	105.69
451.104	101.69
451.324	94.69
451.545	90.69
451.766	93.69
451.986	88.69
452.207	84.69
452.428	95.69
452.648	99.69
452.869	119.69
453.089	120.69
453.31	115.69
453.53	82.69
453.751	88.69
453.971	111.69
454.192	113.69
454.412	89.69
454.633	93.69
454.853	104.69
455.073	89.69
455.294	91.69
455.514	99.69
455.734	84.69
455.955	67.69
456.175	80.69
456.395	66.69
456.616	94.69
456.836	76.69
457.056	98.69
457.276	78.69
457.497	91.69
457.717	92.69
457.937	93.69
458.157	86.69
458.377	88.69
458.598	110.69
458.818	137.69
459.038	143.69
459.258	103.69
459.478	90.69
459.698	95.69
459.918	86.69
460.138	76.69
460.358	85.69
460.578	84.69
460.798	89.69
461.018	89.69
461.238	87.69
461.458	94.69
461.678	95.69
461.898	93.69
462.118	88.69
462.338	84.69
462.558	93.69
462.777	90.69
462.997	77.69
463.217	81.69
463.437	81.69
463.657	76.69
463.876	79.69
464.096	90.69
464.316	97.69
464.536	85.69
464.755	85.69
464.975	103.69
465.195	157.69
465.414	146.69
465.634	103.69
465.854	80.69
466.073	85.69
466.293	89.69
466.512	82.69
466.732	90.69
466.951	93.69
467.171	91.69
467.391	90.69
467.61	109.69
467.829	88.69
468.049	104.69
468.268	77.69
468.488	76.69
468.707	92.69
468.927	98.69
469.146	93.69
469.365	82.69
469.585	74.69
469.804	85.69
470.023	100.69
470.243	95.69
470.462	102.69
470.681	118.69
470.901	94.69
471.12	87.69
471.339	82.69
471.558	94.69
471.777	74.69
471.997	88.69
472.216	90.69
472.435	94.69
472.654	81.69
472.873	75.69
473.092	79.69
473.311	97.69
473.53	78.69
473.749	81.69
473.968	98.69
474.187	112.69
474.406	88.69
474.625	79.69
474.844	92.69
475.063	84.69
475.282	80.69
475.501	76.69
475.72	83.69
475.939	89.69
476.158	86.69
476.377	88.69
476.596	83.69
476.814	93.69
477.033	95.69
477.252	75.69
477.471	91.69
477.69	81.69
477.908	94.69
478.127	95.69
478.346	84.69
478.564	79.69
478.783	110.69
479.002	94.69
479.22	91.69
479.439	79.69
479.658	114.69
479.876	76.69
480.095	94.69
480.313	102.69
480.532	86.69
480.751	92.69
480.969	95.69
481.188	110.69
481.406	107.69
481.624	84.69
481.843	92.69
482.061	80.69
482.28	90.69
482.498	93.69
482.717	91.69
482.935	69.69
483.153	98.69
483.372	89.69
483.59	76.69
483.808	104.69
484.027	111.69
484.245	90.69
484.463	80.69
484.681	90.69
484.9	97.69
485.118	94.69
485.336	93.69
485.554	103.69
485.772	97.69
485.99	100.69
486.209	99.69
486.427	100.69
486.645	114.69
486.863	98.69
487.081	108.69
487.299	101.69
487.517	84.69
487.735	90.69
487.953	84.69
488.171	98.69
488.389	96.69
488.607	99.69
488.825	90.69
489.043	90.69
489.261	83.69
489.479	90.69
489.696	86.69
489.914	90.69
490.132	88.69
490.35	97.69
490.568	96.69
490.786	86.69
491.003	87.69
491.221	82.69
491.439	88.69
491.657	89.69
491.874	95.69
492.092	96.69
492.31	96.69
492.527	103.69
492.745	86.69
492.963	86.69
493.18	103.69
493.398	98.69
493.615	105.69
493.833	80.69
494.05	81.69
494.268	105.69
494.485	85.69
494.703	89.69
494.92	84.69
495.138	98.69
495.355	76.69
495.573	100.69
495.79	107.69
496.008	92.69
496.225	73.69
496.442	95.69
496.66	85.69
496.877	82.69
497.094	99.69
497.312	89.69
497.529	73.69
497.746	97.69
497.963	88.69
498.181	86.69
498.398	88.69
498.615	102.69
498.832	104.69
499.049	84.69
499.267	94.69
499.484	97.69
499.701	81.69
499.918	89.69
500.135	86.69
500.352	80.69
500.569	91.69
500.786	99.69
501.003	83.69
501.22	86.69
501.437	94.69
501.654	90.69
501.871	103.69
502.088	91.69
502.305	82.69
502.522	78.69
502.739	81.69
502.956	91.69
503.172	81.69
503.389	95.69
503.606	91.69
503.823	74.69
504.04	88.69
504.256	97.69
504.473	90.69
504.69	101.69
504.907	99.69
505.123	97.69
505.34	84.69
505.557	89.69
505.773	94.69
505.99	90.69
506.207	74.69
506.423	91.69
506.64	80.69
506.856	92.69
507.073	90.69
507.289	96.69
507.506	88.69
507.722	113.69
507.939	120.69
508.155	97.69
508.372	92.69
508.588	92.69
508.805	97.69
509.021	84.69
509.238	91.69
509.454	89.69
509.67	87.69
509.887	112.69
510.103	136.69
510.319	203.69
510.536	734.69
510.752	2301.69
510.968	628.69
511.184	150.69
511.401	111.69
511.617	97.69
511.833	101.69
512.049	89.69
512.265	90.69
512.481	76.69
512.698	81.69
512.914	102.69
513.13	92.69
513.346	88.69
513.562	93.69
513.778	93.69
513.994	93.69
514.21	93.69
514.426	96.69
514.642	131.69
514.858	125.69
515.074	148.69
515.29	434.69
515.506	1380.69
515.721	511.69
515.937	147.69
516.153	114.69
