Data from Uncirc_2002_H10_HRD10591_00012.txt Node
Date: Wed Jan 03 10:39:43 EST 2024
User: Yrep
Spectrometer: HR+D1059
Trigger mode: 1
Integration Time (sec): 1.000000E-1
Scans to average: 1
Electric dark correction enabled: true
Nonlinearity correction enabled: false
Boxcar width: 0
XAxis mode: Wavelengths
Number of Pixels in Spectrum: 2048
>>>>>Begin Spectral Data<<<<<
223.165	-22.06
223.4	-22.06
223.635	-22.06
223.869	-19.06
224.104	-0.06
224.338	-17.06
224.573	-25.06
224.808	-8.06
225.042	-4.06
225.277	-21.06
225.511	5.94
225.746	9.94
225.98	14.94
226.215	4.94
226.449	24.94
226.683	4.94
226.918	14.94
227.152	35.94
227.387	38.94
227.621	46.94
227.856	34.94
228.09	51.94
228.324	40.94
228.559	42.94
228.793	57.94
229.027	71.94
229.262	66.94
229.496	62.94
229.73	81.94
229.964	59.94
230.199	77.94
230.433	71.94
230.667	81.94
230.901	76.94
231.136	69.94
231.37	72.94
231.604	75.94
231.838	84.94
232.072	81.94
232.306	92.94
232.541	80.94
232.775	83.94
233.009	87.94
233.243	78.94
233.477	68.94
233.711	68.94
233.945	63.94
234.179	81.94
234.413	82.94
234.647	83.94
234.881	75.94
235.115	83.94
235.349	90.94
235.583	92.94
235.817	78.94
236.051	92.94
236.285	76.94
236.519	79.94
236.753	78.94
236.987	78.94
237.221	77.94
237.455	84.94
237.689	84.94
237.922	80.94
238.156	65.94
238.39	75.94
238.624	79.94
238.858	73.94
239.091	76.94
239.325	68.94
239.559	63.94
239.793	75.94
240.027	75.94
240.26	79.94
240.494	75.94
240.728	79.94
240.961	94.94
241.195	87.94
241.429	92.94
241.662	64.94
241.896	75.94
242.13	55.94
242.363	70.94
242.597	59.94
242.83	74.94
243.064	69.94
243.298	81.94
243.531	65.94
243.765	73.94
243.998	80.94
244.232	70.94
244.465	80.94
244.699	89.94
244.932	77.94
245.166	67.94
245.399	91.94
245.633	86.94
245.866	50.94
246.099	87.94
246.333	79.94
246.566	80.94
246.8	85.94
247.033	94.94
247.266	79.94
247.5	83.94
247.733	75.94
247.966	58.94
248.2	67.94
248.433	82.94
248.666	66.94
248.899	89.94
249.133	94.94
249.366	85.94
249.599	91.94
249.832	81.94
250.066	76.94
250.299	66.94
250.532	65.94
250.765	72.94
250.998	74.94
251.231	78.94
251.465	78.94
251.698	76.94
251.931	90.94
252.164	83.94
252.397	76.94
252.63	84.94
252.863	75.94
253.096	88.94
253.329	87.94
253.562	79.94
253.795	95.94
254.028	87.94
254.261	84.94
254.494	74.94
254.727	73.94
254.96	89.94
255.193	80.94
255.426	67.94
255.659	77.94
255.892	81.94
256.124	90.94
256.357	74.94
256.59	65.94
256.823	74.94
257.056	88.94
257.289	91.94
257.521	80.94
257.754	92.94
257.987	80.94
258.22	90.94
258.452	99.94
258.685	84.94
258.918	71.94
259.151	71.94
259.383	78.94
259.616	88.94
259.849	83.94
260.081	73.94
260.314	85.94
260.547	75.94
260.779	86.94
261.012	91.94
261.244	85.94
261.477	81.94
261.71	80.94
261.942	92.94
262.175	78.94
262.407	88.94
262.64	85.94
262.872	82.94
263.105	96.94
263.337	87.94
263.57	82.94
263.802	89.94
264.035	87.94
264.267	91.94
264.499	93.94
264.732	106.94
264.964	100.94
265.197	84.94
265.429	79.94
265.661	85.94
265.894	85.94
266.126	75.94
266.358	85.94
266.591	90.94
266.823	81.94
267.055	68.94
267.287	79.94
267.52	73.94
267.752	90.94
267.984	81.94
268.216	97.94
268.448	77.94
268.681	62.94
268.913	86.94
269.145	90.94
269.377	77.94
269.609	80.94
269.841	84.94
270.073	84.94
270.306	81.94
270.538	85.94
270.77	79.94
271.002	93.94
271.234	78.94
271.466	99.94
271.698	82.94
271.93	74.94
272.162	72.94
272.394	98.94
272.626	90.94
272.858	93.94
273.09	84.94
273.322	90.94
273.553	81.94
273.785	99.94
274.017	86.94
274.249	90.94
274.481	81.94
274.713	83.94
274.945	102.94
275.176	91.94
275.408	99.94
275.64	92.94
275.872	85.94
276.104	82.94
276.335	88.94
276.567	91.94
276.799	97.94
277.031	91.94
277.262	89.94
277.494	93.94
277.726	83.94
277.957	72.94
278.189	84.94
278.421	78.94
278.652	66.94
278.884	92.94
279.115	81.94
279.347	82.94
279.579	82.94
279.81	82.94
280.042	85.94
280.273	95.94
280.505	92.94
280.736	92.94
280.968	96.94
281.199	98.94
281.431	71.94
281.662	91.94
281.894	91.94
282.125	89.94
282.356	113.94
282.588	118.94
282.819	89.94
283.051	87.94
283.282	84.94
283.513	110.94
283.745	82.94
283.976	83.94
284.207	97.94
284.439	91.94
284.67	91.94
284.901	88.94
285.132	95.94
285.364	80.94
285.595	99.94
285.826	71.94
286.057	90.94
286.288	80.94
286.52	109.94
286.751	79.94
286.982	87.94
287.213	78.94
287.444	89.94
287.675	86.94
287.906	73.94
288.138	88.94
288.369	89.94
288.6	83.94
288.831	93.94
289.062	83.94
289.293	73.94
289.524	85.94
289.755	80.94
289.986	92.94
290.217	85.94
290.448	85.94
290.679	78.94
290.91	95.94
291.141	80.94
291.371	88.94
291.602	81.94
291.833	84.94
292.064	87.94
292.295	89.94
292.526	87.94
292.757	89.94
292.987	85.94
293.218	77.94
293.449	75.94
293.68	80.94
293.91	89.94
294.141	96.94
294.372	99.94
294.603	76.94
294.833	82.94
295.064	85.94
295.295	83.94
295.525	94.94
295.756	92.94
295.987	107.94
296.217	94.94
296.448	107.94
296.679	100.94
296.909	78.94
297.14	92.94
297.37	92.94
297.601	93.94
297.831	98.94
298.062	96.94
298.292	85.94
298.523	79.94
298.753	78.94
298.984	92.94
299.214	91.94
299.445	87.94
299.675	86.94
299.905	96.94
300.136	88.94
300.366	92.94
300.597	98.94
300.827	92.94
301.057	75.94
301.288	93.94
301.518	86.94
301.748	87.94
301.979	97.94
302.209	91.94
302.439	91.94
302.669	97.94
302.9	88.94
303.13	93.94
303.36	86.94
303.59	88.94
303.82	87.94
304.051	100.94
304.281	90.94
304.511	75.94
304.741	86.94
304.971	95.94
305.201	90.94
305.431	106.94
305.661	85.94
305.891	89.94
306.121	96.94
306.352	101.94
306.582	99.94
306.812	95.94
307.042	81.94
307.272	92.94
307.502	94.94
307.731	82.94
307.961	89.94
308.191	94.94
308.421	78.94
308.651	90.94
308.881	93.94
309.111	80.94
309.341	94.94
309.571	100.94
309.8	91.94
310.03	89.94
310.26	82.94
310.49	89.94
310.72	92.94
310.949	102.94
311.179	90.94
311.409	97.94
311.639	100.94
311.868	93.94
312.098	88.94
312.328	88.94
312.557	91.94
312.787	92.94
313.017	98.94
313.246	103.94
313.476	98.94
313.706	72.94
313.935	88.94
314.165	99.94
314.394	89.94
314.624	92.94
314.853	97.94
315.083	90.94
315.312	71.94
315.542	96.94
315.771	96.94
316.001	87.94
316.23	58.94
316.46	96.94
316.689	80.94
316.919	94.94
317.148	98.94
317.377	95.94
317.607	90.94
317.836	91.94
318.065	92.94
318.295	95.94
318.524	80.94
318.753	92.94
318.983	100.94
319.212	94.94
319.441	112.94
319.67	100.94
319.9	100.94
320.129	80.94
320.358	78.94
320.587	87.94
320.816	105.94
321.046	100.94
321.275	91.94
321.504	111.94
321.733	97.94
321.962	92.94
322.191	105.94
322.42	98.94
322.649	106.94
322.878	91.94
323.108	111.94
323.337	111.94
323.566	114.94
323.795	116.94
324.024	176.94
324.253	314.94
324.482	663.94
324.71	1330.94
324.939	1706.94
325.168	629.94
325.397	210.94
325.626	147.94
325.855	129.94
326.084	118.94
326.313	116.94
326.542	137.94
326.77	204.94
326.999	386.94
327.228	788.94
327.457	1412.94
327.686	1092.94
327.914	288.94
328.143	155.94
328.372	112.94
328.6	108.94
328.829	104.94
329.058	107.94
329.287	115.94
329.515	103.94
329.744	89.94
329.972	96.94
330.201	88.94
330.43	107.94
330.658	112.94
330.887	106.94
331.115	92.94
331.344	97.94
331.572	99.94
331.801	96.94
332.03	89.94
332.258	102.94
332.486	84.94
332.715	90.94
332.943	97.94
333.172	89.94
333.4	100.94
333.629	94.94
333.857	103.94
334.085	93.94
334.314	99.94
334.542	75.94
334.771	83.94
334.999	95.94
335.227	86.94
335.455	89.94
335.684	104.94
335.912	92.94
336.14	87.94
336.369	94.94
336.597	98.94
336.825	82.94
337.053	93.94
337.281	91.94
337.51	93.94
337.738	108.94
337.966	99.94
338.194	86.94
338.422	94.94
338.65	93.94
338.878	99.94
339.106	92.94
339.334	89.94
339.562	83.94
339.79	84.94
340.018	90.94
340.246	84.94
340.474	98.94
340.702	85.94
340.93	87.94
341.158	79.94
341.386	85.94
341.614	98.94
341.842	107.94
342.07	107.94
342.298	90.94
342.526	81.94
342.754	90.94
342.981	82.94
343.209	92.94
343.437	94.94
343.665	78.94
343.893	84.94
344.12	89.94
344.348	92.94
344.576	88.94
344.804	96.94
345.031	98.94
345.259	87.94
345.487	101.94
345.714	97.94
345.942	91.94
346.17	83.94
346.397	82.94
346.625	87.94
346.853	73.94
347.08	86.94
347.308	99.94
347.535	94.94
347.763	90.94
347.99	79.94
348.218	100.94
348.445	103.94
348.673	87.94
348.9	83.94
349.128	107.94
349.355	86.94
349.583	95.94
349.81	93.94
350.037	88.94
350.265	86.94
350.492	86.94
350.72	98.94
350.947	103.94
351.174	94.94
351.402	90.94
351.629	101.94
351.856	116.94
352.083	102.94
352.311	107.94
352.538	99.94
352.765	99.94
352.992	115.94
353.22	130.94
353.447	100.94
353.674	98.94
353.901	102.94
354.128	97.94
354.355	100.94
354.583	112.94
354.81	108.94
355.037	96.94
355.264	102.94
355.491	96.94
355.718	89.94
355.945	92.94
356.172	102.94
356.399	97.94
356.626	94.94
356.853	104.94
357.08	96.94
357.307	101.94
357.534	92.94
357.761	90.94
357.988	86.94
358.215	89.94
358.441	88.94
358.668	97.94
358.895	90.94
359.122	87.94
359.349	77.94
359.576	93.94
359.802	90.94
360.029	108.94
360.256	104.94
360.483	92.94
360.709	83.94
360.936	91.94
361.163	97.94
361.39	82.94
361.616	83.94
361.843	91.94
362.07	81.94
362.296	88.94
362.523	91.94
362.749	94.94
362.976	86.94
363.203	79.94
363.429	82.94
363.656	82.94
363.882	75.94
364.109	84.94
364.335	91.94
364.562	111.94
364.788	90.94
365.015	80.94
365.241	88.94
365.468	100.94
365.694	114.94
365.92	87.94
366.147	92.94
366.373	86.94
366.599	92.94
366.826	89.94
367.052	85.94
367.278	83.94
367.505	72.94
367.731	86.94
367.957	92.94
368.184	83.94
368.41	90.94
368.636	104.94
368.862	111.94
369.089	100.94
369.315	89.94
369.541	95.94
369.767	94.94
369.993	90.94
370.219	78.94
370.445	96.94
370.672	84.94
370.898	89.94
371.124	92.94
371.35	92.94
371.576	86.94
371.802	100.94
372.028	81.94
372.254	91.94
372.48	83.94
372.706	79.94
372.932	94.94
373.158	91.94
373.384	89.94
373.61	89.94
373.835	83.94
374.061	84.94
374.287	71.94
374.513	89.94
374.739	88.94
374.965	95.94
375.191	96.94
375.416	87.94
375.642	83.94
375.868	96.94
376.094	94.94
376.319	75.94
376.545	96.94
376.771	93.94
376.997	82.94
377.222	95.94
377.448	91.94
377.674	89.94
377.899	81.94
378.125	77.94
378.35	87.94
378.576	87.94
378.802	85.94
379.027	90.94
379.253	96.94
379.478	92.94
379.704	89.94
379.929	94.94
380.155	94.94
380.38	92.94
380.606	92.94
380.831	110.94
381.057	86.94
381.282	92.94
381.507	91.94
381.733	98.94
381.958	103.94
382.184	92.94
382.409	100.94
382.634	107.94
382.86	86.94
383.085	112.94
383.31	99.94
383.535	115.94
383.761	91.94
383.986	94.94
384.211	100.94
384.436	110.94
384.662	107.94
384.887	106.94
385.112	107.94
385.337	101.94
385.562	111.94
385.787	97.94
386.013	106.94
386.238	115.94
386.463	118.94
386.688	99.94
386.913	85.94
387.138	113.94
387.363	105.94
387.588	100.94
387.813	105.94
388.038	105.94
388.263	113.94
388.488	114.94
388.713	95.94
388.938	98.94
389.163	91.94
389.387	92.94
389.612	90.94
389.837	100.94
390.062	94.94
390.287	89.94
390.512	95.94
390.736	104.94
390.961	79.94
391.186	80.94
391.411	95.94
391.636	90.94
391.86	94.94
392.085	82.94
392.31	86.94
392.534	95.94
392.759	104.94
392.984	93.94
393.208	109.94
393.433	133.94
393.658	123.94
393.882	79.94
394.107	96.94
394.331	79.94
394.556	75.94
394.78	86.94
395.005	88.94
395.229	89.94
395.454	104.94
395.678	90.94
395.903	95.94
396.127	70.94
396.352	97.94
396.576	86.94
396.801	107.94
397.025	105.94
397.249	93.94
397.474	98.94
397.698	82.94
397.922	88.94
398.147	77.94
398.371	79.94
398.595	86.94
398.82	85.94
399.044	102.94
399.268	87.94
399.492	75.94
399.717	91.94
399.941	84.94
400.165	86.94
400.389	89.94
400.613	88.94
400.837	85.94
401.062	92.94
401.286	89.94
401.51	97.94
401.734	91.94
401.958	99.94
402.182	117.94
402.406	126.94
402.63	102.94
402.854	85.94
403.078	79.94
403.302	99.94
403.526	113.94
403.75	84.94
403.974	82.94
404.198	103.94
404.422	83.94
404.645	86.94
404.869	100.94
405.093	87.94
405.317	95.94
405.541	93.94
405.765	103.94
405.988	111.94
406.212	138.94
406.436	194.94
406.66	134.94
406.883	104.94
407.107	99.94
407.331	107.94
407.555	86.94
407.778	91.94
408.002	92.94
408.226	82.94
408.449	93.94
408.673	86.94
408.896	96.94
409.12	82.94
409.344	80.94
409.567	95.94
409.791	91.94
410.014	95.94
410.238	102.94
410.461	89.94
410.685	94.94
410.908	79.94
411.132	116.94
411.355	95.94
411.578	81.94
411.802	95.94
412.025	91.94
412.249	88.94
412.472	86.94
412.695	91.94
412.919	88.94
413.142	89.94
413.365	95.94
413.589	86.94
413.812	98.94
414.035	94.94
414.258	83.94
414.482	88.94
414.705	95.94
414.928	78.94
415.151	105.94
415.374	102.94
415.597	75.94
415.821	77.94
416.044	78.94
416.267	92.94
416.49	99.94
416.713	102.94
416.936	94.94
417.159	92.94
417.382	89.94
417.605	96.94
417.828	84.94
418.051	88.94
418.274	102.94
418.497	86.94
418.72	89.94
418.943	89.94
419.166	92.94
419.389	93.94
419.611	86.94
419.834	85.94
420.057	83.94
420.28	84.94
420.503	71.94
420.726	85.94
420.948	88.94
421.171	98.94
421.394	89.94
421.617	97.94
421.839	89.94
422.062	94.94
422.285	102.94
422.507	83.94
422.73	119.94
422.953	99.94
423.175	86.94
423.398	90.94
423.621	88.94
423.843	88.94
424.066	81.94
424.288	90.94
424.511	82.94
424.733	103.94
424.956	97.94
425.178	104.94
425.401	99.94
425.623	79.94
425.846	98.94
426.068	92.94
426.291	89.94
426.513	101.94
426.735	90.94
426.958	98.94
427.18	98.94
427.402	140.94
427.625	143.94
427.847	97.94
428.069	106.94
428.292	96.94
428.514	87.94
428.736	91.94
428.958	81.94
429.181	85.94
429.403	87.94
429.625	95.94
429.847	87.94
430.069	83.94
430.292	89.94
430.514	78.94
430.736	89.94
430.958	85.94
431.18	96.94
431.402	84.94
431.624	86.94
431.846	78.94
432.068	91.94
432.29	92.94
432.512	90.94
432.734	98.94
432.956	95.94
433.178	83.94
433.4	92.94
433.622	80.94
433.844	82.94
434.066	89.94
434.287	87.94
434.509	87.94
434.731	83.94
434.953	89.94
435.175	84.94
435.397	86.94
435.618	98.94
435.84	113.94
436.062	106.94
436.284	102.94
436.505	90.94
436.727	73.94
436.949	103.94
437.17	98.94
437.392	86.94
437.614	93.94
437.835	107.94
438.057	107.94
438.278	99.94
438.5	94.94
438.721	103.94
438.943	99.94
439.165	87.94
439.386	87.94
439.608	84.94
439.829	87.94
440.05	110.94
440.272	122.94
440.493	107.94
440.715	94.94
440.936	80.94
441.158	75.94
441.379	75.94
441.6	86.94
441.822	90.94
442.043	94.94
442.264	103.94
442.486	101.94
442.707	80.94
442.928	89.94
443.149	130.94
443.371	108.94
443.592	101.94
443.813	103.94
444.034	101.94
444.255	84.94
444.476	91.94
444.698	82.94
444.919	96.94
445.14	136.94
445.361	121.94
445.582	91.94
445.803	116.94
446.024	128.94
446.245	130.94
446.466	102.94
446.687	91.94
446.908	85.94
447.129	82.94
447.35	92.94
447.571	85.94
447.792	102.94
448.013	95.94
448.234	92.94
448.455	99.94
448.675	88.94
448.896	116.94
449.117	124.94
449.338	106.94
449.559	108.94
449.779	106.94
450	87.94
450.221	91.94
450.442	97.94
450.662	84.94
450.883	97.94
451.104	102.94
451.324	83.94
451.545	81.94
451.766	93.94
451.986	87.94
452.207	100.94
452.428	86.94
452.648	88.94
452.869	89.94
453.089	103.94
453.31	106.94
453.53	94.94
453.751	95.94
453.971	98.94
454.192	101.94
454.412	89.94
454.633	88.94
454.853	83.94
455.073	81.94
455.294	92.94
455.514	96.94
455.734	104.94
455.955	86.94
456.175	69.94
456.395	91.94
456.616	84.94
456.836	78.94
457.056	88.94
457.276	70.94
457.497	91.94
457.717	92.94
457.937	80.94
458.157	90.94
458.377	90.94
458.598	98.94
458.818	136.94
459.038	121.94
459.258	103.94
459.478	104.94
459.698	98.94
459.918	98.94
460.138	92.94
460.358	83.94
460.578	82.94
460.798	88.94
461.018	96.94
461.238	87.94
461.458	91.94
461.678	92.94
461.898	77.94
462.118	82.94
462.338	87.94
462.558	88.94
462.777	95.94
462.997	94.94
463.217	80.94
463.437	87.94
463.657	87.94
463.876	79.94
464.096	69.94
464.316	81.94
464.536	84.94
464.755	87.94
464.975	91.94
465.195	144.94
465.414	131.94
465.634	96.94
465.854	87.94
466.073	91.94
466.293	95.94
466.512	92.94
466.732	99.94
466.951	101.94
467.171	96.94
467.391	103.94
467.61	96.94
467.829	94.94
468.049	90.94
468.268	79.94
468.488	83.94
468.707	86.94
468.927	95.94
469.146	93.94
469.365	91.94
469.585	85.94
469.804	86.94
470.023	97.94
470.243	89.94
470.462	78.94
470.681	101.94
470.901	87.94
471.12	97.94
471.339	90.94
471.558	84.94
471.777	82.94
471.997	86.94
472.216	95.94
472.435	92.94
472.654	83.94
472.873	98.94
473.092	100.94
473.311	95.94
473.53	91.94
473.749	78.94
473.968	85.94
474.187	90.94
474.406	110.94
474.625	105.94
474.844	79.94
475.063	86.94
475.282	85.94
475.501	78.94
475.72	79.94
475.939	81.94
476.158	95.94
476.377	107.94
476.596	86.94
476.814	85.94
477.033	87.94
477.252	79.94
477.471	78.94
477.69	69.94
477.908	92.94
478.127	91.94
478.346	97.94
478.564	86.94
478.783	96.94
479.002	84.94
479.22	82.94
479.439	106.94
479.658	96.94
479.876	86.94
480.095	86.94
480.313	91.94
480.532	79.94
480.751	98.94
480.969	87.94
481.188	98.94
481.406	87.94
481.624	83.94
481.843	81.94
482.061	90.94
482.28	87.94
482.498	81.94
482.717	103.94
482.935	92.94
483.153	79.94
483.372	86.94
483.59	84.94
483.808	91.94
484.027	104.94
484.245	84.94
484.463	83.94
484.681	98.94
484.9	89.94
485.118	102.94
485.336	89.94
485.554	95.94
485.772	111.94
485.99	106.94
486.209	96.94
486.427	101.94
486.645	104.94
486.863	116.94
487.081	92.94
487.299	86.94
487.517	102.94
487.735	110.94
487.953	96.94
488.171	97.94
488.389	90.94
488.607	101.94
488.825	80.94
489.043	84.94
489.261	105.94
489.479	78.94
489.696	86.94
489.914	95.94
490.132	92.94
490.35	86.94
490.568	93.94
490.786	91.94
491.003	88.94
491.221	97.94
491.439	98.94
491.657	73.94
491.874	83.94
492.092	86.94
492.31	89.94
492.527	88.94
492.745	89.94
492.963	88.94
493.18	92.94
493.398	94.94
493.615	96.94
493.833	82.94
494.05	98.94
494.268	95.94
494.485	83.94
494.703	97.94
494.92	82.94
495.138	84.94
495.355	81.94
495.573	86.94
495.79	104.94
496.008	86.94
496.225	98.94
496.442	93.94
496.66	104.94
496.877	99.94
497.094	93.94
497.312	89.94
497.529	100.94
497.746	82.94
497.963	78.94
498.181	84.94
498.398	95.94
498.615	98.94
498.832	92.94
499.049	95.94
499.267	90.94
499.484	94.94
499.701	91.94
499.918	98.94
500.135	96.94
500.352	78.94
500.569	89.94
500.786	92.94
501.003	95.94
501.22	101.94
501.437	102.94
501.654	86.94
501.871	83.94
502.088	92.94
502.305	99.94
502.522	88.94
502.739	76.94
502.956	89.94
503.172	88.94
503.389	108.94
503.606	91.94
503.823	97.94
504.04	95.94
504.256	90.94
504.473	79.94
504.69	85.94
504.907	95.94
505.123	96.94
505.34	89.94
505.557	93.94
505.773	104.94
505.99	86.94
506.207	88.94
506.423	78.94
506.64	99.94
506.856	82.94
507.073	92.94
507.289	99.94
507.506	88.94
507.722	101.94
507.939	99.94
508.155	103.94
508.372	86.94
508.588	99.94
508.805	102.94
509.021	106.94
509.238	96.94
509.454	92.94
509.67	98.94
509.887	92.94
510.103	118.94
510.319	174.94
510.536	606.94
510.752	1807.94
510.968	526.94
511.184	147.94
511.401	120.94
511.617	100.94
511.833	97.94
512.049	93.94
512.265	97.94
512.481	103.94
512.698	87.94
512.914	94.94
513.13	99.94
513.346	105.94
513.562	87.94
513.778	91.94
513.994	109.94
514.21	102.94
514.426	89.94
514.642	129.94
514.858	110.94
515.074	130.94
515.29	364.94
515.506	1081.94
515.721	405.94
515.937	144.94
516.153	99.94
516.369	96.94
516.585	95.94
