Data from Uncirc_2002_H10_HRD10591_00077.txt Node
Date: Wed Jan 03 10:39:56 EST 2024
User: Yrep
Spectrometer: HR+D1059
Trigger mode: 1
Integration Time (sec): 1.000000E-1
Scans to average: 1
Electric dark correction enabled: true
Nonlinearity correction enabled: false
Boxcar width: 0
XAxis mode: Wavelengths
Number of Pixels in Spectrum: 2048
>>>>>Begin Spectral Data<<<<<
223.165	-17.56
223.4	-17.56
223.635	-17.56
223.869	-11.56
224.104	-31.56
224.338	-13.56
224.573	-10.56
224.808	-9.56
225.042	-3.56
225.277	2.44
225.511	-14.56
225.746	11.44
225.98	-8.56
226.215	14.44
226.449	8.44
226.683	26.44
226.918	19.44
227.152	38.44
227.387	23.44
227.621	36.44
227.856	40.44
228.09	41.44
228.324	45.44
228.559	64.44
228.793	59.44
229.027	58.44
229.262	56.44
229.496	65.44
229.73	76.44
229.964	55.44
230.199	65.44
230.433	67.44
230.667	78.44
230.901	81.44
231.136	76.44
231.37	72.44
231.604	72.44
231.838	81.44
232.072	77.44
232.306	68.44
232.541	85.44
232.775	80.44
233.009	96.44
233.243	77.44
233.477	80.44
233.711	82.44
233.945	81.44
234.179	93.44
234.413	89.44
234.647	86.44
234.881	87.44
235.115	62.44
235.349	80.44
235.583	79.44
235.817	76.44
236.051	70.44
236.285	84.44
236.519	81.44
236.753	74.44
236.987	71.44
237.221	84.44
237.455	80.44
237.689	67.44
237.922	63.44
238.156	79.44
238.39	77.44
238.624	87.44
238.858	81.44
239.091	64.44
239.325	66.44
239.559	66.44
239.793	80.44
240.027	76.44
240.26	85.44
240.494	70.44
240.728	79.44
240.961	87.44
241.195	80.44
241.429	66.44
241.662	72.44
241.896	62.44
242.13	71.44
242.363	79.44
242.597	64.44
242.83	78.44
243.064	76.44
243.298	73.44
243.531	76.44
243.765	88.44
243.998	76.44
244.232	77.44
244.465	82.44
244.699	78.44
244.932	78.44
245.166	69.44
245.399	84.44
245.633	79.44
245.866	79.44
246.099	70.44
246.333	83.44
246.566	64.44
246.8	60.44
247.033	73.44
247.266	81.44
247.5	69.44
247.733	80.44
247.966	77.44
248.2	82.44
248.433	70.44
248.666	73.44
248.899	78.44
249.133	81.44
249.366	97.44
249.599	89.44
249.832	79.44
250.066	87.44
250.299	85.44
250.532	70.44
250.765	78.44
250.998	64.44
251.231	71.44
251.465	81.44
251.698	81.44
251.931	70.44
252.164	79.44
252.397	84.44
252.63	90.44
252.863	86.44
253.096	75.44
253.329	83.44
253.562	87.44
253.795	89.44
254.028	76.44
254.261	79.44
254.494	79.44
254.727	81.44
254.96	91.44
255.193	80.44
255.426	75.44
255.659	73.44
255.892	78.44
256.124	75.44
256.357	72.44
256.59	79.44
256.823	72.44
257.056	88.44
257.289	92.44
257.521	82.44
257.754	85.44
257.987	84.44
258.22	91.44
258.452	75.44
258.685	77.44
258.918	102.44
259.151	80.44
259.383	76.44
259.616	80.44
259.849	73.44
260.081	78.44
260.314	77.44
260.547	84.44
260.779	79.44
261.012	72.44
261.244	87.44
261.477	89.44
261.71	95.44
261.942	99.44
262.175	107.44
262.407	94.44
262.64	75.44
262.872	71.44
263.105	68.44
263.337	88.44
263.57	91.44
263.802	86.44
264.035	84.44
264.267	68.44
264.499	78.44
264.732	76.44
264.964	88.44
265.197	82.44
265.429	64.44
265.661	76.44
265.894	80.44
266.126	84.44
266.358	77.44
266.591	87.44
266.823	74.44
267.055	84.44
267.287	94.44
267.52	74.44
267.752	79.44
267.984	95.44
268.216	86.44
268.448	73.44
268.681	76.44
268.913	81.44
269.145	77.44
269.377	86.44
269.609	88.44
269.841	84.44
270.073	78.44
270.306	69.44
270.538	74.44
270.77	80.44
271.002	73.44
271.234	72.44
271.466	86.44
271.698	83.44
271.93	99.44
272.162	90.44
272.394	86.44
272.626	72.44
272.858	80.44
273.09	86.44
273.322	85.44
273.553	87.44
273.785	72.44
274.017	71.44
274.249	92.44
274.481	70.44
274.713	82.44
274.945	82.44
275.176	83.44
275.408	81.44
275.64	74.44
275.872	78.44
276.104	93.44
276.335	80.44
276.567	92.44
276.799	106.44
277.031	97.44
277.262	93.44
277.494	89.44
277.726	82.44
277.957	82.44
278.189	89.44
278.421	84.44
278.652	87.44
278.884	84.44
279.115	77.44
279.347	92.44
279.579	83.44
279.81	82.44
280.042	92.44
280.273	80.44
280.505	93.44
280.736	76.44
280.968	85.44
281.199	82.44
281.431	74.44
281.662	79.44
281.894	82.44
282.125	96.44
282.356	124.44
282.588	108.44
282.819	100.44
283.051	87.44
283.282	76.44
283.513	93.44
283.745	94.44
283.976	84.44
284.207	64.44
284.439	102.44
284.67	78.44
284.901	87.44
285.132	90.44
285.364	79.44
285.595	85.44
285.826	85.44
286.057	76.44
286.288	78.44
286.52	96.44
286.751	78.44
286.982	77.44
287.213	85.44
287.444	85.44
287.675	81.44
287.906	82.44
288.138	87.44
288.369	77.44
288.6	79.44
288.831	89.44
289.062	82.44
289.293	93.44
289.524	86.44
289.755	94.44
289.986	67.44
290.217	99.44
290.448	81.44
290.679	75.44
290.91	86.44
291.141	84.44
291.371	100.44
291.602	84.44
291.833	88.44
292.064	90.44
292.295	93.44
292.526	78.44
292.757	85.44
292.987	84.44
293.218	81.44
293.449	96.44
293.68	93.44
293.91	79.44
294.141	98.44
294.372	97.44
294.603	80.44
294.833	101.44
295.064	92.44
295.295	79.44
295.525	96.44
295.756	94.44
295.987	109.44
296.217	128.44
296.448	120.44
296.679	86.44
296.909	98.44
297.14	97.44
297.37	80.44
297.601	103.44
297.831	90.44
298.062	70.44
298.292	83.44
298.523	85.44
298.753	90.44
298.984	93.44
299.214	104.44
299.445	91.44
299.675	91.44
299.905	85.44
300.136	84.44
300.366	84.44
300.597	81.44
300.827	87.44
301.057	96.44
301.288	101.44
301.518	87.44
301.748	88.44
301.979	84.44
302.209	85.44
302.439	90.44
302.669	87.44
302.9	85.44
303.13	104.44
303.36	94.44
303.59	94.44
303.82	95.44
304.051	89.44
304.281	81.44
304.511	84.44
304.741	92.44
304.971	81.44
305.201	95.44
305.431	86.44
305.661	97.44
305.891	98.44
306.121	106.44
306.352	88.44
306.582	96.44
306.812	82.44
307.042	98.44
307.272	94.44
307.502	86.44
307.731	82.44
307.961	87.44
308.191	77.44
308.421	85.44
308.651	87.44
308.881	98.44
309.111	84.44
309.341	88.44
309.571	93.44
309.8	97.44
310.03	77.44
310.26	98.44
310.49	83.44
310.72	81.44
310.949	109.44
311.179	88.44
311.409	94.44
311.639	87.44
311.868	96.44
312.098	93.44
312.328	90.44
312.557	98.44
312.787	97.44
313.017	84.44
313.246	99.44
313.476	90.44
313.706	87.44
313.935	90.44
314.165	86.44
314.394	96.44
314.624	100.44
314.853	85.44
315.083	90.44
315.312	102.44
315.542	69.44
315.771	80.44
316.001	95.44
316.23	102.44
316.46	92.44
316.689	90.44
316.919	95.44
317.148	81.44
317.377	93.44
317.607	84.44
317.836	82.44
318.065	81.44
318.295	79.44
318.524	79.44
318.753	84.44
318.983	78.44
319.212	86.44
319.441	109.44
319.67	100.44
319.9	94.44
320.129	89.44
320.358	89.44
320.587	92.44
320.816	87.44
321.046	97.44
321.275	93.44
321.504	90.44
321.733	100.44
321.962	94.44
322.191	89.44
322.42	80.44
322.649	96.44
322.878	109.44
323.108	101.44
323.337	114.44
323.566	122.44
323.795	137.44
324.024	188.44
324.253	352.44
324.482	721.44
324.71	1540.44
324.939	1967.44
325.168	720.44
325.397	225.44
325.626	151.44
325.855	125.44
326.084	109.44
326.313	122.44
326.542	152.44
326.77	217.44
326.999	416.44
327.228	844.44
327.457	1498.44
327.686	1168.44
327.914	340.44
328.143	168.44
328.372	118.44
328.6	125.44
328.829	108.44
329.058	132.44
329.287	131.44
329.515	103.44
329.744	108.44
329.972	94.44
330.201	104.44
330.43	111.44
330.658	126.44
330.887	130.44
331.115	106.44
331.344	93.44
331.572	94.44
331.801	108.44
332.03	104.44
332.258	93.44
332.486	90.44
332.715	94.44
332.943	104.44
333.172	109.44
333.4	85.44
333.629	112.44
333.857	119.44
334.085	110.44
334.314	81.44
334.542	88.44
334.771	94.44
334.999	97.44
335.227	95.44
335.455	89.44
335.684	86.44
335.912	95.44
336.14	108.44
336.369	97.44
336.597	99.44
336.825	99.44
337.053	86.44
337.281	100.44
337.51	86.44
337.738	96.44
337.966	77.44
338.194	95.44
338.422	89.44
338.65	88.44
338.878	83.44
339.106	98.44
339.334	90.44
339.562	103.44
339.79	90.44
340.018	85.44
340.246	88.44
340.474	81.44
340.702	88.44
340.93	98.44
341.158	90.44
341.386	93.44
341.614	100.44
341.842	96.44
342.07	97.44
342.298	86.44
342.526	85.44
342.754	96.44
342.981	79.44
343.209	89.44
343.437	107.44
343.665	99.44
343.893	90.44
344.12	99.44
344.348	75.44
344.576	80.44
344.804	87.44
345.031	90.44
345.259	97.44
345.487	90.44
345.714	93.44
345.942	89.44
346.17	87.44
346.397	81.44
346.625	82.44
346.853	84.44
347.08	75.44
347.308	82.44
347.535	111.44
347.763	96.44
347.99	100.44
348.218	92.44
348.445	104.44
348.673	92.44
348.9	109.44
349.128	93.44
349.355	84.44
349.583	85.44
349.81	88.44
350.037	92.44
350.265	93.44
350.492	92.44
350.72	100.44
350.947	92.44
351.174	103.44
351.402	100.44
351.629	98.44
351.856	102.44
352.083	96.44
352.311	101.44
352.538	108.44
352.765	103.44
352.992	98.44
353.22	86.44
353.447	100.44
353.674	105.44
353.901	101.44
354.128	83.44
354.355	92.44
354.583	83.44
354.81	97.44
355.037	86.44
355.264	101.44
355.491	81.44
355.718	94.44
355.945	104.44
356.172	86.44
356.399	100.44
356.626	86.44
356.853	92.44
357.08	90.44
357.307	89.44
357.534	81.44
357.761	99.44
357.988	85.44
358.215	86.44
358.441	93.44
358.668	80.44
358.895	82.44
359.122	70.44
359.349	87.44
359.576	78.44
359.802	99.44
360.029	107.44
360.256	98.44
360.483	97.44
360.709	89.44
360.936	100.44
361.163	93.44
361.39	88.44
361.616	91.44
361.843	85.44
362.07	86.44
362.296	89.44
362.523	83.44
362.749	86.44
362.976	92.44
363.203	72.44
363.429	84.44
363.656	87.44
363.882	98.44
364.109	84.44
364.335	88.44
364.562	81.44
364.788	87.44
365.015	99.44
365.241	94.44
365.468	98.44
365.694	108.44
365.92	87.44
366.147	74.44
366.373	74.44
366.599	93.44
366.826	89.44
367.052	84.44
367.278	96.44
367.505	97.44
367.731	93.44
367.957	91.44
368.184	82.44
368.41	100.44
368.636	121.44
368.862	116.44
369.089	105.44
369.315	86.44
369.541	93.44
369.767	79.44
369.993	86.44
370.219	78.44
370.445	90.44
370.672	82.44
370.898	72.44
371.124	93.44
371.35	69.44
371.576	85.44
371.802	87.44
372.028	90.44
372.254	94.44
372.48	86.44
372.706	83.44
372.932	96.44
373.158	77.44
373.384	107.44
373.61	87.44
373.835	89.44
374.061	78.44
374.287	80.44
374.513	95.44
374.739	88.44
374.965	83.44
375.191	90.44
375.416	83.44
375.642	70.44
375.868	97.44
376.094	86.44
376.319	88.44
376.545	90.44
376.771	80.44
376.997	90.44
377.222	90.44
377.448	103.44
377.674	76.44
377.899	73.44
378.125	65.44
378.35	76.44
378.576	99.44
378.802	82.44
379.027	85.44
379.253	102.44
379.478	90.44
379.704	70.44
379.929	80.44
380.155	87.44
380.38	89.44
380.606	99.44
380.831	94.44
381.057	67.44
381.282	98.44
381.507	90.44
381.733	76.44
381.958	88.44
382.184	82.44
382.409	94.44
382.634	93.44
382.86	96.44
383.085	94.44
383.31	96.44
383.535	86.44
383.761	103.44
383.986	95.44
384.211	96.44
384.436	88.44
384.662	93.44
384.887	99.44
385.112	101.44
385.337	86.44
385.562	94.44
385.787	83.44
386.013	108.44
386.238	100.44
386.463	101.44
386.688	102.44
386.913	87.44
387.138	102.44
387.363	95.44
387.588	108.44
387.813	99.44
388.038	98.44
388.263	97.44
388.488	101.44
388.713	96.44
388.938	96.44
389.163	97.44
389.387	100.44
389.612	79.44
389.837	88.44
390.062	94.44
390.287	85.44
390.512	87.44
390.736	91.44
390.961	94.44
391.186	78.44
391.411	90.44
391.636	103.44
391.86	83.44
392.085	87.44
392.31	86.44
392.534	89.44
392.759	97.44
392.984	91.44
393.208	83.44
393.433	85.44
393.658	87.44
393.882	78.44
394.107	73.44
394.331	88.44
394.556	97.44
394.78	87.44
395.005	80.44
395.229	75.44
395.454	89.44
395.678	81.44
395.903	78.44
396.127	86.44
396.352	72.44
396.576	94.44
396.801	88.44
397.025	87.44
397.249	90.44
397.474	95.44
397.698	83.44
397.922	85.44
398.147	80.44
398.371	79.44
398.595	82.44
398.82	98.44
399.044	83.44
399.268	83.44
399.492	92.44
399.717	91.44
399.941	88.44
400.165	83.44
400.389	88.44
400.613	77.44
400.837	79.44
401.062	87.44
401.286	89.44
401.51	76.44
401.734	96.44
401.958	98.44
402.182	126.44
402.406	139.44
402.63	107.44
402.854	94.44
403.078	94.44
403.302	84.44
403.526	80.44
403.75	91.44
403.974	99.44
404.198	87.44
404.422	84.44
404.645	91.44
404.869	69.44
405.093	95.44
405.317	94.44
405.541	90.44
405.765	105.44
405.988	118.44
406.212	160.44
406.436	214.44
406.66	124.44
406.883	103.44
407.107	95.44
407.331	84.44
407.555	94.44
407.778	92.44
408.002	95.44
408.226	74.44
408.449	77.44
408.673	80.44
408.896	94.44
409.12	90.44
409.344	93.44
409.567	81.44
409.791	92.44
410.014	92.44
410.238	88.44
410.461	94.44
410.685	86.44
410.908	95.44
411.132	90.44
411.355	96.44
411.578	79.44
411.802	93.44
412.025	93.44
412.249	92.44
412.472	86.44
412.695	81.44
412.919	84.44
413.142	89.44
413.365	87.44
413.589	95.44
413.812	75.44
414.035	93.44
414.258	90.44
414.482	90.44
414.705	89.44
414.928	90.44
415.151	112.44
415.374	86.44
415.597	91.44
415.821	76.44
416.044	91.44
416.267	97.44
416.49	107.44
416.713	92.44
416.936	80.44
417.159	97.44
417.382	85.44
417.605	83.44
417.828	85.44
418.051	85.44
418.274	85.44
418.497	84.44
418.72	67.44
418.943	94.44
419.166	78.44
419.389	92.44
419.611	86.44
419.834	82.44
420.057	71.44
420.28	88.44
420.503	87.44
420.726	81.44
420.948	95.44
421.171	98.44
421.394	101.44
421.617	85.44
421.839	90.44
422.062	86.44
422.285	100.44
422.507	107.44
422.73	92.44
422.953	96.44
423.175	86.44
423.398	91.44
423.621	83.44
423.843	85.44
424.066	81.44
424.288	84.44
424.511	100.44
424.733	109.44
424.956	106.44
425.178	92.44
425.401	97.44
425.623	81.44
425.846	88.44
426.068	95.44
426.291	88.44
426.513	92.44
426.735	94.44
426.958	73.44
427.18	100.44
427.402	124.44
427.625	150.44
427.847	119.44
428.069	102.44
428.292	72.44
428.514	91.44
428.736	97.44
428.958	89.44
429.181	87.44
429.403	81.44
429.625	87.44
429.847	82.44
430.069	98.44
430.292	83.44
430.514	85.44
430.736	89.44
430.958	78.44
431.18	85.44
431.402	84.44
431.624	96.44
431.846	95.44
432.068	86.44
432.29	83.44
432.512	88.44
432.734	73.44
432.956	89.44
433.178	102.44
433.4	95.44
433.622	92.44
433.844	101.44
434.066	90.44
434.287	97.44
434.509	93.44
434.731	83.44
434.953	92.44
435.175	88.44
435.397	95.44
435.618	83.44
435.84	85.44
436.062	125.44
436.284	116.44
436.505	84.44
436.727	109.44
436.949	93.44
437.17	93.44
437.392	90.44
437.614	95.44
437.835	93.44
438.057	130.44
438.278	105.44
438.5	96.44
438.721	120.44
438.943	109.44
439.165	96.44
439.386	96.44
439.608	95.44
439.829	98.44
440.05	115.44
440.272	138.44
440.493	88.44
440.715	96.44
440.936	88.44
441.158	82.44
441.379	80.44
441.6	86.44
441.822	91.44
442.043	93.44
442.264	102.44
442.486	98.44
442.707	95.44
442.928	105.44
443.149	114.44
443.371	112.44
443.592	84.44
443.813	124.44
444.034	103.44
444.255	88.44
444.476	85.44
444.698	93.44
444.919	89.44
445.14	140.44
445.361	114.44
445.582	114.44
445.803	124.44
446.024	117.44
446.245	127.44
446.466	112.44
446.687	78.44
446.908	70.44
447.129	88.44
447.35	103.44
447.571	98.44
447.792	93.44
448.013	91.44
448.234	97.44
448.455	90.44
448.675	111.44
448.896	108.44
449.117	103.44
449.338	109.44
449.559	112.44
449.779	128.44
450	97.44
450.221	77.44
450.442	82.44
450.662	101.44
450.883	93.44
451.104	94.44
451.324	91.44
451.545	94.44
451.766	82.44
451.986	107.44
452.207	98.44
452.428	92.44
452.648	82.44
452.869	104.44
453.089	106.44
453.31	107.44
453.53	94.44
453.751	103.44
453.971	103.44
454.192	121.44
454.412	87.44
454.633	90.44
454.853	76.44
455.073	77.44
455.294	87.44
455.514	86.44
455.734	86.44
455.955	70.44
456.175	70.44
456.395	88.44
456.616	87.44
456.836	79.44
457.056	95.44
457.276	74.44
457.497	88.44
457.717	81.44
457.937	95.44
458.157	83.44
458.377	108.44
458.598	94.44
458.818	153.44
459.038	143.44
459.258	105.44
459.478	92.44
459.698	69.44
459.918	94.44
460.138	81.44
460.358	92.44
460.578	89.44
460.798	86.44
461.018	99.44
461.238	80.44
461.458	77.44
461.678	76.44
461.898	72.44
462.118	77.44
462.338	88.44
462.558	86.44
462.777	88.44
462.997	93.44
463.217	88.44
463.437	78.44
463.657	92.44
463.876	96.44
464.096	78.44
464.316	85.44
464.536	95.44
464.755	96.44
464.975	108.44
465.195	145.44
465.414	156.44
465.634	86.44
465.854	88.44
466.073	70.44
466.293	89.44
466.512	102.44
466.732	93.44
466.951	93.44
467.171	100.44
467.391	90.44
467.61	88.44
467.829	90.44
468.049	85.44
468.268	87.44
468.488	73.44
468.707	64.44
468.927	87.44
469.146	82.44
469.365	72.44
469.585	89.44
469.804	91.44
470.023	87.44
470.243	82.44
470.462	91.44
470.681	96.44
470.901	82.44
471.12	85.44
471.339	83.44
471.558	84.44
471.777	89.44
471.997	95.44
472.216	92.44
472.435	81.44
472.654	76.44
472.873	84.44
473.092	96.44
473.311	84.44
473.53	86.44
473.749	94.44
473.968	90.44
474.187	96.44
474.406	88.44
474.625	88.44
474.844	81.44
475.063	90.44
475.282	91.44
475.501	85.44
475.72	72.44
475.939	87.44
476.158	75.44
476.377	94.44
476.596	91.44
476.814	109.44
477.033	88.44
477.252	89.44
477.471	104.44
477.69	80.44
477.908	94.44
478.127	88.44
478.346	84.44
478.564	75.44
478.783	77.44
479.002	85.44
479.22	94.44
479.439	100.44
479.658	92.44
479.876	97.44
480.095	73.44
480.313	90.44
480.532	96.44
480.751	101.44
480.969	81.44
481.188	110.44
481.406	104.44
481.624	103.44
481.843	79.44
482.061	77.44
482.28	73.44
482.498	93.44
482.717	77.44
482.935	91.44
483.153	94.44
483.372	86.44
483.59	87.44
483.808	101.44
484.027	94.44
484.245	79.44
484.463	92.44
484.681	86.44
484.9	89.44
485.118	101.44
485.336	84.44
485.554	108.44
485.772	105.44
485.99	104.44
486.209	100.44
486.427	100.44
486.645	100.44
486.863	103.44
487.081	98.44
487.299	91.44
487.517	100.44
487.735	81.44
487.953	83.44
488.171	92.44
488.389	92.44
488.607	90.44
488.825	86.44
489.043	81.44
489.261	59.44
489.479	82.44
489.696	75.44
489.914	96.44
490.132	84.44
490.35	98.44
490.568	89.44
490.786	105.44
491.003	87.44
491.221	86.44
491.439	81.44
491.657	86.44
491.874	76.44
492.092	80.44
492.31	99.44
492.527	92.44
492.745	88.44
492.963	86.44
493.18	80.44
493.398	80.44
493.615	83.44
493.833	84.44
494.05	92.44
494.268	85.44
494.485	94.44
494.703	91.44
494.92	87.44
495.138	98.44
495.355	86.44
495.573	93.44
495.79	97.44
496.008	78.44
496.225	84.44
496.442	92.44
496.66	87.44
496.877	98.44
497.094	97.44
497.312	84.44
497.529	94.44
497.746	74.44
497.963	92.44
498.181	80.44
498.398	100.44
498.615	92.44
498.832	99.44
499.049	82.44
499.267	82.44
499.484	81.44
499.701	88.44
499.918	97.44
500.135	78.44
500.352	94.44
500.569	88.44
500.786	96.44
501.003	99.44
501.22	76.44
501.437	100.44
501.654	88.44
501.871	95.44
502.088	85.44
502.305	80.44
502.522	85.44
502.739	94.44
502.956	89.44
503.172	92.44
503.389	96.44
503.606	113.44
503.823	94.44
504.04	81.44
504.256	89.44
504.473	89.44
504.69	72.44
504.907	93.44
505.123	91.44
505.34	90.44
505.557	99.44
505.773	94.44
505.99	88.44
506.207	87.44
506.423	89.44
506.64	83.44
506.856	83.44
507.073	101.44
507.289	95.44
507.506	82.44
507.722	97.44
507.939	101.44
508.155	95.44
508.372	87.44
508.588	93.44
508.805	106.44
509.021	94.44
509.238	98.44
509.454	93.44
509.67	100.44
509.887	104.44
510.103	127.44
510.319	212.44
510.536	740.44
510.752	2326.44
510.968	659.44
511.184	155.44
511.401	117.44
511.617	110.44
511.833	88.44
512.049	84.44
512.265	95.44
512.481	88.44
512.698	78.44
512.914	85.44
513.13	89.44
513.346	95.44
513.562	99.44
513.778	91.44
513.994	73.44
514.21	88.44
514.426	104.44
514.642	129.44
514.858	121.44
515.074	151.44
515.29	408.44
515.506	1348.44
515.721	516.44
515.937	148.44
516.153	101.44
516.369	103.44
516.585	84.44
516.801	92.44
