Data from Uncirc_2002_H10_HRD10591_00090.txt Node
Date: Wed Jan 03 10:39:59 EST 2024
User: Yrep
Spectrometer: HR+D1059
Trigger mode: 1
Integration Time (sec): 1.000000E-1
Scans to average: 1
Electric dark correction enabled: true
Nonlinearity correction enabled: false
Boxcar width: 0
XAxis mode: Wavelengths
Number of Pixels in Spectrum: 2048
>>>>>Begin Spectral Data<<<<<
223.165	-27.25
223.4	-27.25
223.635	-27.25
223.869	-10.25
224.104	-24.25
224.338	-13.25
224.573	-18.25
224.808	-8.25
225.042	-17.25
225.277	-8.25
225.511	3.75
225.746	10.75
225.98	11.75
226.215	10.75
226.449	12.75
226.683	19.75
226.918	33.75
227.152	23.75
227.387	39.75
227.621	29.75
227.856	34.75
228.09	46.75
228.324	50.75
228.559	64.75
228.793	59.75
229.027	59.75
229.262	64.75
229.496	74.75
229.73	98.75
229.964	89.75
230.199	79.75
230.433	75.75
230.667	77.75
230.901	74.75
231.136	81.75
231.37	71.75
231.604	69.75
231.838	85.75
232.072	82.75
232.306	83.75
232.541	80.75
232.775	79.75
233.009	78.75
233.243	77.75
233.477	77.75
233.711	78.75
233.945	91.75
234.179	78.75
234.413	95.75
234.647	94.75
234.881	82.75
235.115	82.75
235.349	67.75
235.583	80.75
235.817	80.75
236.051	78.75
236.285	80.75
236.519	80.75
236.753	87.75
236.987	79.75
237.221	80.75
237.455	84.75
237.689	66.75
237.922	77.75
238.156	68.75
238.39	71.75
238.624	66.75
238.858	79.75
239.091	72.75
239.325	79.75
239.559	88.75
239.793	79.75
240.027	79.75
240.26	74.75
240.494	80.75
240.728	81.75
240.961	62.75
241.195	88.75
241.429	84.75
241.662	85.75
241.896	81.75
242.13	64.75
242.363	80.75
242.597	78.75
242.83	70.75
243.064	93.75
243.298	79.75
243.531	69.75
243.765	81.75
243.998	77.75
244.232	80.75
244.465	72.75
244.699	90.75
244.932	74.75
245.166	70.75
245.399	80.75
245.633	85.75
245.866	84.75
246.099	77.75
246.333	79.75
246.566	77.75
246.8	85.75
247.033	84.75
247.266	78.75
247.5	84.75
247.733	77.75
247.966	75.75
248.2	75.75
248.433	74.75
248.666	86.75
248.899	72.75
249.133	82.75
249.366	80.75
249.599	94.75
249.832	82.75
250.066	82.75
250.299	80.75
250.532	55.75
250.765	74.75
250.998	104.75
251.231	89.75
251.465	80.75
251.698	86.75
251.931	91.75
252.164	62.75
252.397	78.75
252.63	69.75
252.863	71.75
253.096	74.75
253.329	73.75
253.562	67.75
253.795	77.75
254.028	77.75
254.261	69.75
254.494	74.75
254.727	89.75
254.96	79.75
255.193	80.75
255.426	71.75
255.659	69.75
255.892	75.75
256.124	82.75
256.357	79.75
256.59	65.75
256.823	78.75
257.056	75.75
257.289	73.75
257.521	73.75
257.754	84.75
257.987	91.75
258.22	82.75
258.452	91.75
258.685	64.75
258.918	78.75
259.151	59.75
259.383	90.75
259.616	94.75
259.849	71.75
260.081	87.75
260.314	83.75
260.547	71.75
260.779	73.75
261.012	82.75
261.244	84.75
261.477	85.75
261.71	90.75
261.942	105.75
262.175	110.75
262.407	79.75
262.64	83.75
262.872	83.75
263.105	84.75
263.337	85.75
263.57	77.75
263.802	89.75
264.035	78.75
264.267	90.75
264.499	79.75
264.732	90.75
264.964	89.75
265.197	86.75
265.429	78.75
265.661	75.75
265.894	89.75
266.126	84.75
266.358	83.75
266.591	80.75
266.823	77.75
267.055	99.75
267.287	74.75
267.52	88.75
267.752	84.75
267.984	78.75
268.216	80.75
268.448	92.75
268.681	73.75
268.913	72.75
269.145	83.75
269.377	83.75
269.609	66.75
269.841	82.75
270.073	86.75
270.306	85.75
270.538	79.75
270.77	70.75
271.002	97.75
271.234	96.75
271.466	78.75
271.698	81.75
271.93	73.75
272.162	78.75
272.394	97.75
272.626	85.75
272.858	75.75
273.09	78.75
273.322	81.75
273.553	82.75
273.785	80.75
274.017	88.75
274.249	95.75
274.481	83.75
274.713	85.75
274.945	90.75
275.176	75.75
275.408	88.75
275.64	98.75
275.872	93.75
276.104	99.75
276.335	74.75
276.567	102.75
276.799	94.75
277.031	100.75
277.262	94.75
277.494	90.75
277.726	76.75
277.957	86.75
278.189	83.75
278.421	95.75
278.652	85.75
278.884	84.75
279.115	64.75
279.347	69.75
279.579	82.75
279.81	80.75
280.042	77.75
280.273	94.75
280.505	88.75
280.736	86.75
280.968	83.75
281.199	73.75
281.431	82.75
281.662	94.75
281.894	79.75
282.125	90.75
282.356	114.75
282.588	130.75
282.819	111.75
283.051	87.75
283.282	69.75
283.513	95.75
283.745	89.75
283.976	90.75
284.207	82.75
284.439	86.75
284.67	71.75
284.901	88.75
285.132	73.75
285.364	77.75
285.595	81.75
285.826	79.75
286.057	76.75
286.288	81.75
286.52	81.75
286.751	87.75
286.982	79.75
287.213	75.75
287.444	82.75
287.675	74.75
287.906	91.75
288.138	92.75
288.369	89.75
288.6	90.75
288.831	84.75
289.062	81.75
289.293	95.75
289.524	80.75
289.755	87.75
289.986	80.75
290.217	75.75
290.448	87.75
290.679	84.75
290.91	91.75
291.141	83.75
291.371	90.75
291.602	82.75
291.833	84.75
292.064	97.75
292.295	74.75
292.526	111.75
292.757	94.75
292.987	88.75
293.218	79.75
293.449	73.75
293.68	94.75
293.91	71.75
294.141	88.75
294.372	79.75
294.603	76.75
294.833	77.75
295.064	91.75
295.295	89.75
295.525	91.75
295.756	89.75
295.987	97.75
296.217	118.75
296.448	122.75
296.679	98.75
296.909	86.75
297.14	96.75
297.37	80.75
297.601	80.75
297.831	77.75
298.062	90.75
298.292	85.75
298.523	93.75
298.753	81.75
298.984	81.75
299.214	85.75
299.445	94.75
299.675	87.75
299.905	97.75
300.136	86.75
300.366	73.75
300.597	90.75
300.827	94.75
301.057	101.75
301.288	88.75
301.518	75.75
301.748	85.75
301.979	93.75
302.209	88.75
302.439	92.75
302.669	94.75
302.9	75.75
303.13	101.75
303.36	90.75
303.59	94.75
303.82	101.75
304.051	86.75
304.281	104.75
304.511	81.75
304.741	85.75
304.971	90.75
305.201	77.75
305.431	94.75
305.661	86.75
305.891	97.75
306.121	108.75
306.352	94.75
306.582	100.75
306.812	86.75
307.042	88.75
307.272	97.75
307.502	97.75
307.731	90.75
307.961	88.75
308.191	84.75
308.421	77.75
308.651	80.75
308.881	86.75
309.111	78.75
309.341	83.75
309.571	95.75
309.8	83.75
310.03	103.75
310.26	89.75
310.49	96.75
310.72	89.75
310.949	90.75
311.179	83.75
311.409	86.75
311.639	90.75
311.868	94.75
312.098	87.75
312.328	88.75
312.557	99.75
312.787	97.75
313.017	98.75
313.246	99.75
313.476	88.75
313.706	77.75
313.935	90.75
314.165	97.75
314.394	91.75
314.624	96.75
314.853	81.75
315.083	88.75
315.312	95.75
315.542	91.75
315.771	98.75
316.001	92.75
316.23	89.75
316.46	81.75
316.689	88.75
316.919	84.75
317.148	79.75
317.377	94.75
317.607	92.75
317.836	94.75
318.065	83.75
318.295	89.75
318.524	90.75
318.753	82.75
318.983	95.75
319.212	98.75
319.441	109.75
319.67	99.75
319.9	86.75
320.129	91.75
320.358	90.75
320.587	91.75
320.816	87.75
321.046	100.75
321.275	80.75
321.504	85.75
321.733	101.75
321.962	92.75
322.191	96.75
322.42	105.75
322.649	94.75
322.878	109.75
323.108	89.75
323.337	104.75
323.566	129.75
323.795	138.75
324.024	183.75
324.253	352.75
324.482	730.75
324.71	1425.75
324.939	1820.75
325.168	713.75
325.397	213.75
325.626	134.75
325.855	121.75
326.084	110.75
326.313	125.75
326.542	137.75
326.77	200.75
326.999	386.75
327.228	795.75
327.457	1426.75
327.686	1133.75
327.914	335.75
328.143	168.75
328.372	126.75
328.6	121.75
328.829	119.75
329.058	129.75
329.287	124.75
329.515	90.75
329.744	95.75
329.972	105.75
330.201	99.75
330.43	105.75
330.658	118.75
330.887	138.75
331.115	110.75
331.344	118.75
331.572	96.75
331.801	91.75
332.03	112.75
332.258	98.75
332.486	86.75
332.715	85.75
332.943	97.75
333.172	83.75
333.4	87.75
333.629	112.75
333.857	108.75
334.085	106.75
334.314	96.75
334.542	100.75
334.771	97.75
334.999	103.75
335.227	79.75
335.455	99.75
335.684	98.75
335.912	84.75
336.14	84.75
336.369	75.75
336.597	88.75
336.825	97.75
337.053	100.75
337.281	95.75
337.51	107.75
337.738	83.75
337.966	85.75
338.194	93.75
338.422	79.75
338.65	97.75
338.878	86.75
339.106	82.75
339.334	87.75
339.562	87.75
339.79	85.75
340.018	103.75
340.246	97.75
340.474	96.75
340.702	84.75
340.93	85.75
341.158	86.75
341.386	97.75
341.614	94.75
341.842	95.75
342.07	93.75
342.298	97.75
342.526	86.75
342.754	81.75
342.981	85.75
343.209	91.75
343.437	102.75
343.665	88.75
343.893	87.75
344.12	92.75
344.348	85.75
344.576	91.75
344.804	98.75
345.031	82.75
345.259	84.75
345.487	95.75
345.714	71.75
345.942	94.75
346.17	76.75
346.397	91.75
346.625	88.75
346.853	95.75
347.08	83.75
347.308	100.75
347.535	104.75
347.763	98.75
347.99	98.75
348.218	103.75
348.445	102.75
348.673	106.75
348.9	89.75
349.128	83.75
349.355	87.75
349.583	80.75
349.81	108.75
350.037	102.75
350.265	106.75
350.492	94.75
350.72	83.75
350.947	102.75
351.174	113.75
351.402	106.75
351.629	105.75
351.856	96.75
352.083	87.75
352.311	96.75
352.538	97.75
352.765	100.75
352.992	105.75
353.22	91.75
353.447	81.75
353.674	100.75
353.901	106.75
354.128	91.75
354.355	104.75
354.583	101.75
354.81	96.75
355.037	95.75
355.264	97.75
355.491	99.75
355.718	95.75
355.945	94.75
356.172	94.75
356.399	98.75
356.626	90.75
356.853	85.75
357.08	96.75
357.307	83.75
357.534	95.75
357.761	101.75
357.988	100.75
358.215	87.75
358.441	98.75
358.668	94.75
358.895	60.75
359.122	90.75
359.349	82.75
359.576	89.75
359.802	95.75
360.029	107.75
360.256	101.75
360.483	85.75
360.709	108.75
360.936	97.75
361.163	101.75
361.39	87.75
361.616	88.75
361.843	89.75
362.07	75.75
362.296	93.75
362.523	82.75
362.749	103.75
362.976	84.75
363.203	95.75
363.429	80.75
363.656	94.75
363.882	87.75
364.109	108.75
364.335	89.75
364.562	99.75
364.788	90.75
365.015	85.75
365.241	100.75
365.468	110.75
365.694	107.75
365.92	97.75
366.147	94.75
366.373	96.75
366.599	83.75
366.826	99.75
367.052	96.75
367.278	87.75
367.505	102.75
367.731	93.75
367.957	83.75
368.184	90.75
368.41	88.75
368.636	100.75
368.862	104.75
369.089	94.75
369.315	83.75
369.541	101.75
369.767	91.75
369.993	103.75
370.219	102.75
370.445	79.75
370.672	85.75
370.898	90.75
371.124	84.75
371.35	81.75
371.576	77.75
371.802	86.75
372.028	85.75
372.254	86.75
372.48	89.75
372.706	87.75
372.932	82.75
373.158	85.75
373.384	90.75
373.61	92.75
373.835	98.75
374.061	99.75
374.287	89.75
374.513	78.75
374.739	64.75
374.965	90.75
375.191	85.75
375.416	88.75
375.642	81.75
375.868	106.75
376.094	93.75
376.319	92.75
376.545	84.75
376.771	88.75
376.997	96.75
377.222	86.75
377.448	104.75
377.674	87.75
377.899	102.75
378.125	90.75
378.35	96.75
378.576	91.75
378.802	93.75
379.027	98.75
379.253	97.75
379.478	89.75
379.704	100.75
379.929	85.75
380.155	93.75
380.38	85.75
380.606	103.75
380.831	84.75
381.057	97.75
381.282	107.75
381.507	81.75
381.733	82.75
381.958	101.75
382.184	94.75
382.409	94.75
382.634	116.75
382.86	93.75
383.085	106.75
383.31	121.75
383.535	103.75
383.761	99.75
383.986	101.75
384.211	95.75
384.436	98.75
384.662	109.75
384.887	107.75
385.112	100.75
385.337	104.75
385.562	99.75
385.787	104.75
386.013	115.75
386.238	109.75
386.463	99.75
386.688	100.75
386.913	112.75
387.138	103.75
387.363	106.75
387.588	95.75
387.813	84.75
388.038	111.75
388.263	106.75
388.488	97.75
388.713	100.75
388.938	82.75
389.163	96.75
389.387	105.75
389.612	97.75
389.837	98.75
390.062	106.75
390.287	100.75
390.512	81.75
390.736	88.75
390.961	102.75
391.186	95.75
391.411	97.75
391.636	84.75
391.86	78.75
392.085	97.75
392.31	97.75
392.534	88.75
392.759	89.75
392.984	86.75
393.208	79.75
393.433	102.75
393.658	89.75
393.882	88.75
394.107	74.75
394.331	81.75
394.556	82.75
394.78	83.75
395.005	95.75
395.229	87.75
395.454	89.75
395.678	92.75
395.903	87.75
396.127	73.75
396.352	90.75
396.576	101.75
396.801	78.75
397.025	87.75
397.249	82.75
397.474	83.75
397.698	91.75
397.922	86.75
398.147	86.75
398.371	82.75
398.595	75.75
398.82	90.75
399.044	95.75
399.268	104.75
399.492	101.75
399.717	89.75
399.941	80.75
400.165	79.75
400.389	100.75
400.613	81.75
400.837	91.75
401.062	80.75
401.286	100.75
401.51	69.75
401.734	104.75
401.958	108.75
402.182	113.75
402.406	144.75
402.63	113.75
402.854	81.75
403.078	101.75
403.302	82.75
403.526	91.75
403.75	82.75
403.974	74.75
404.198	100.75
404.422	80.75
404.645	91.75
404.869	91.75
405.093	98.75
405.317	106.75
405.541	99.75
405.765	113.75
405.988	112.75
406.212	160.75
406.436	207.75
406.66	136.75
406.883	99.75
407.107	94.75
407.331	99.75
407.555	99.75
407.778	94.75
408.002	89.75
408.226	84.75
408.449	71.75
408.673	79.75
408.896	88.75
409.12	99.75
409.344	75.75
409.567	96.75
409.791	77.75
410.014	93.75
410.238	91.75
410.461	103.75
410.685	92.75
410.908	97.75
411.132	113.75
411.355	104.75
411.578	86.75
411.802	89.75
412.025	85.75
412.249	94.75
412.472	101.75
412.695	102.75
412.919	99.75
413.142	100.75
413.365	82.75
413.589	81.75
413.812	95.75
414.035	97.75
414.258	86.75
414.482	99.75
414.705	96.75
414.928	98.75
415.151	89.75
415.374	80.75
415.597	94.75
415.821	90.75
416.044	87.75
416.267	91.75
416.49	96.75
416.713	79.75
416.936	91.75
417.159	87.75
417.382	91.75
417.605	84.75
417.828	80.75
418.051	95.75
418.274	103.75
418.497	93.75
418.72	95.75
418.943	89.75
419.166	86.75
419.389	81.75
419.611	92.75
419.834	86.75
420.057	80.75
420.28	86.75
420.503	94.75
420.726	73.75
420.948	89.75
421.171	96.75
421.394	96.75
421.617	97.75
421.839	82.75
422.062	88.75
422.285	88.75
422.507	109.75
422.73	95.75
422.953	81.75
423.175	89.75
423.398	77.75
423.621	107.75
423.843	91.75
424.066	86.75
424.288	98.75
424.511	87.75
424.733	102.75
424.956	117.75
425.178	98.75
425.401	87.75
425.623	98.75
425.846	88.75
426.068	95.75
426.291	81.75
426.513	87.75
426.735	86.75
426.958	102.75
427.18	104.75
427.402	129.75
427.625	135.75
427.847	114.75
428.069	105.75
428.292	88.75
428.514	94.75
428.736	90.75
428.958	79.75
429.181	86.75
429.403	91.75
429.625	89.75
429.847	91.75
430.069	90.75
430.292	77.75
430.514	105.75
430.736	97.75
430.958	106.75
431.18	88.75
431.402	97.75
431.624	95.75
431.846	91.75
432.068	86.75
432.29	78.75
432.512	94.75
432.734	93.75
432.956	86.75
433.178	90.75
433.4	101.75
433.622	84.75
433.844	102.75
434.066	90.75
434.287	83.75
434.509	88.75
434.731	84.75
434.953	90.75
435.175	81.75
435.397	86.75
435.618	91.75
435.84	98.75
436.062	112.75
436.284	104.75
436.505	104.75
436.727	112.75
436.949	84.75
437.17	82.75
437.392	85.75
437.614	114.75
437.835	114.75
438.057	97.75
438.278	98.75
438.5	103.75
438.721	109.75
438.943	97.75
439.165	78.75
439.386	86.75
439.608	98.75
439.829	98.75
440.05	123.75
440.272	125.75
440.493	106.75
440.715	88.75
440.936	82.75
441.158	80.75
441.379	95.75
441.6	96.75
441.822	93.75
442.043	88.75
442.264	93.75
442.486	78.75
442.707	94.75
442.928	94.75
443.149	118.75
443.371	121.75
443.592	115.75
443.813	108.75
444.034	102.75
444.255	100.75
444.476	97.75
444.698	81.75
444.919	89.75
445.14	136.75
445.361	125.75
445.582	113.75
445.803	117.75
446.024	125.75
446.245	127.75
446.466	110.75
446.687	81.75
446.908	91.75
447.129	87.75
447.35	82.75
447.571	98.75
447.792	99.75
448.013	85.75
448.234	97.75
448.455	99.75
448.675	104.75
448.896	110.75
449.117	90.75
449.338	97.75
449.559	122.75
449.779	120.75
450	94.75
450.221	86.75
450.442	77.75
450.662	94.75
450.883	113.75
451.104	113.75
451.324	86.75
451.545	93.75
451.766	85.75
451.986	88.75
452.207	94.75
452.428	95.75
452.648	104.75
452.869	101.75
453.089	97.75
453.31	90.75
453.53	91.75
453.751	100.75
453.971	90.75
454.192	96.75
454.412	85.75
454.633	91.75
454.853	86.75
455.073	79.75
455.294	90.75
455.514	121.75
455.734	96.75
455.955	73.75
456.175	89.75
456.395	92.75
456.616	77.75
456.836	101.75
457.056	94.75
457.276	83.75
457.497	71.75
457.717	89.75
457.937	85.75
458.157	88.75
458.377	103.75
458.598	110.75
458.818	143.75
459.038	150.75
459.258	112.75
459.478	102.75
459.698	90.75
459.918	87.75
460.138	95.75
460.358	85.75
460.578	94.75
460.798	90.75
461.018	99.75
461.238	85.75
461.458	87.75
461.678	87.75
461.898	92.75
462.118	99.75
462.338	74.75
462.558	87.75
462.777	84.75
462.997	82.75
463.217	85.75
463.437	82.75
463.657	71.75
463.876	87.75
464.096	80.75
464.316	113.75
464.536	95.75
464.755	93.75
464.975	92.75
465.195	136.75
465.414	130.75
465.634	83.75
465.854	98.75
466.073	94.75
466.293	100.75
466.512	77.75
466.732	83.75
466.951	101.75
467.171	93.75
467.391	94.75
467.61	110.75
467.829	108.75
468.049	94.75
468.268	80.75
468.488	91.75
468.707	87.75
468.927	78.75
469.146	84.75
469.365	86.75
469.585	83.75
469.804	98.75
470.023	84.75
470.243	105.75
470.462	94.75
470.681	108.75
470.901	97.75
471.12	91.75
471.339	86.75
471.558	79.75
471.777	86.75
471.997	74.75
472.216	98.75
472.435	95.75
472.654	91.75
472.873	91.75
473.092	78.75
473.311	91.75
473.53	86.75
473.749	94.75
473.968	97.75
474.187	105.75
474.406	101.75
474.625	81.75
474.844	81.75
475.063	88.75
475.282	88.75
475.501	86.75
475.72	91.75
475.939	95.75
476.158	87.75
476.377	95.75
476.596	89.75
476.814	85.75
477.033	86.75
477.252	84.75
477.471	94.75
477.69	96.75
477.908	89.75
478.127	84.75
478.346	88.75
478.564	82.75
478.783	85.75
479.002	90.75
479.22	88.75
479.439	107.75
479.658	98.75
479.876	96.75
480.095	87.75
480.313	93.75
480.532	98.75
480.751	92.75
480.969	94.75
481.188	125.75
481.406	95.75
481.624	100.75
481.843	77.75
482.061	90.75
482.28	91.75
482.498	79.75
482.717	87.75
482.935	107.75
483.153	83.75
483.372	86.75
483.59	93.75
483.808	83.75
484.027	80.75
484.245	75.75
484.463	89.75
484.681	90.75
484.9	88.75
485.118	96.75
485.336	98.75
485.554	85.75
485.772	101.75
485.99	95.75
486.209	97.75
486.427	102.75
486.645	109.75
486.863	108.75
487.081	106.75
487.299	99.75
487.517	99.75
487.735	97.75
487.953	88.75
488.171	89.75
488.389	95.75
488.607	84.75
488.825	91.75
489.043	97.75
489.261	95.75
489.479	90.75
489.696	90.75
489.914	84.75
490.132	104.75
490.35	88.75
490.568	91.75
490.786	103.75
491.003	93.75
491.221	89.75
491.439	111.75
491.657	90.75
491.874	81.75
492.092	96.75
492.31	77.75
492.527	78.75
492.745	90.75
492.963	91.75
493.18	100.75
493.398	88.75
493.615	95.75
493.833	85.75
494.05	80.75
494.268	91.75
494.485	87.75
494.703	87.75
494.92	89.75
495.138	81.75
495.355	98.75
495.573	91.75
495.79	105.75
496.008	104.75
496.225	90.75
496.442	77.75
496.66	89.75
496.877	79.75
497.094	104.75
497.312	86.75
497.529	84.75
497.746	99.75
497.963	98.75
498.181	98.75
498.398	89.75
498.615	110.75
498.832	91.75
499.049	93.75
499.267	100.75
499.484	88.75
499.701	89.75
499.918	98.75
500.135	94.75
500.352	105.75
500.569	89.75
500.786	80.75
501.003	83.75
501.22	100.75
501.437	90.75
501.654	90.75
501.871	98.75
502.088	83.75
502.305	94.75
502.522	102.75
502.739	94.75
502.956	89.75
503.172	95.75
503.389	85.75
503.606	92.75
503.823	88.75
504.04	93.75
504.256	87.75
504.473	96.75
504.69	101.75
504.907	101.75
505.123	87.75
505.34	85.75
505.557	74.75
505.773	87.75
505.99	96.75
506.207	92.75
506.423	98.75
506.64	80.75
506.856	78.75
507.073	89.75
507.289	85.75
507.506	92.75
507.722	104.75
507.939	102.75
508.155	91.75
508.372	96.75
508.588	97.75
508.805	94.75
509.021	108.75
509.238	91.75
509.454	88.75
509.67	97.75
509.887	112.75
510.103	142.75
510.319	217.75
510.536	690.75
510.752	2197.75
510.968	611.75
511.184	155.75
511.401	114.75
511.617	81.75
511.833	90.75
512.049	109.75
512.265	89.75
512.481	97.75
512.698	96.75
512.914	101.75
513.13	87.75
513.346	97.75
513.562	94.75
513.778	97.75
513.994	90.75
514.21	92.75
514.426	120.75
514.642	115.75
514.858	113.75
515.074	155.75
515.29	419.75
515.506	1287.75
515.721	484.75
515.937	145.75
516.153	104.75
