Data from Uncirc_2002_H10_HRD10591_00037.txt Node
Date: Wed Jan 03 10:39:48 EST 2024
User: Yrep
Spectrometer: HR+D1059
Trigger mode: 1
Integration Time (sec): 1.000000E-1
Scans to average: 1
Electric dark correction enabled: true
Nonlinearity correction enabled: false
Boxcar width: 0
XAxis mode: Wavelengths
Number of Pixels in Spectrum: 2048
>>>>>Begin Spectral Data<<<<<
223.165	-17.12
223.4	-17.12
223.635	-17.12
223.869	-17.12
224.104	-25.12
224.338	-19.12
224.573	-6.12
224.808	-18.12
225.042	-14.12
225.277	0.88
225.511	8.88
225.746	-8.12
225.98	19.88
226.215	7.88
226.449	17.88
226.683	8.88
226.918	29.88
227.152	30.88
227.387	39.88
227.621	41.88
227.856	52.88
228.09	50.88
228.324	46.88
228.559	45.88
228.793	55.88
229.027	75.88
229.262	65.88
229.496	75.88
229.73	74.88
229.964	69.88
230.199	66.88
230.433	73.88
230.667	67.88
230.901	72.88
231.136	87.88
231.37	64.88
231.604	65.88
231.838	85.88
232.072	81.88
232.306	73.88
232.541	82.88
232.775	84.88
233.009	61.88
233.243	76.88
233.477	86.88
233.711	80.88
233.945	78.88
234.179	81.88
234.413	71.88
234.647	97.88
234.881	89.88
235.115	74.88
235.349	72.88
235.583	72.88
235.817	81.88
236.051	89.88
236.285	71.88
236.519	54.88
236.753	64.88
236.987	96.88
237.221	64.88
237.455	68.88
237.689	78.88
237.922	65.88
238.156	82.88
238.39	69.88
238.624	69.88
238.858	70.88
239.091	77.88
239.325	74.88
239.559	84.88
239.793	78.88
240.027	87.88
240.26	83.88
240.494	81.88
240.728	73.88
240.961	74.88
241.195	83.88
241.429	77.88
241.662	61.88
241.896	67.88
242.13	73.88
242.363	83.88
242.597	79.88
242.83	68.88
243.064	65.88
243.298	71.88
243.531	88.88
243.765	81.88
243.998	74.88
244.232	68.88
244.465	88.88
244.699	66.88
244.932	67.88
245.166	80.88
245.399	81.88
245.633	84.88
245.866	73.88
246.099	75.88
246.333	76.88
246.566	69.88
246.8	67.88
247.033	84.88
247.266	81.88
247.5	69.88
247.733	80.88
247.966	78.88
248.2	90.88
248.433	77.88
248.666	86.88
248.899	85.88
249.133	78.88
249.366	85.88
249.599	97.88
249.832	79.88
250.066	85.88
250.299	74.88
250.532	93.88
250.765	64.88
250.998	52.88
251.231	77.88
251.465	73.88
251.698	87.88
251.931	63.88
252.164	78.88
252.397	77.88
252.63	85.88
252.863	79.88
253.096	88.88
253.329	79.88
253.562	85.88
253.795	93.88
254.028	79.88
254.261	74.88
254.494	79.88
254.727	73.88
254.96	80.88
255.193	77.88
255.426	84.88
255.659	71.88
255.892	67.88
256.124	82.88
256.357	90.88
256.59	89.88
256.823	76.88
257.056	81.88
257.289	80.88
257.521	91.88
257.754	77.88
257.987	95.88
258.22	76.88
258.452	84.88
258.685	87.88
258.918	88.88
259.151	90.88
259.383	77.88
259.616	89.88
259.849	82.88
260.081	86.88
260.314	74.88
260.547	81.88
260.779	82.88
261.012	77.88
261.244	69.88
261.477	75.88
261.71	84.88
261.942	95.88
262.175	91.88
262.407	104.88
262.64	68.88
262.872	73.88
263.105	72.88
263.337	85.88
263.57	71.88
263.802	86.88
264.035	73.88
264.267	87.88
264.499	74.88
264.732	70.88
264.964	85.88
265.197	76.88
265.429	89.88
265.661	79.88
265.894	98.88
266.126	94.88
266.358	84.88
266.591	66.88
266.823	84.88
267.055	81.88
267.287	97.88
267.52	79.88
267.752	82.88
267.984	94.88
268.216	78.88
268.448	69.88
268.681	87.88
268.913	78.88
269.145	88.88
269.377	67.88
269.609	64.88
269.841	90.88
270.073	88.88
270.306	79.88
270.538	83.88
270.77	75.88
271.002	79.88
271.234	87.88
271.466	95.88
271.698	100.88
271.93	85.88
272.162	89.88
272.394	89.88
272.626	93.88
272.858	82.88
273.09	73.88
273.322	80.88
273.553	72.88
273.785	85.88
274.017	80.88
274.249	83.88
274.481	89.88
274.713	92.88
274.945	83.88
275.176	69.88
275.408	90.88
275.64	81.88
275.872	93.88
276.104	83.88
276.335	71.88
276.567	78.88
276.799	97.88
277.031	100.88
277.262	90.88
277.494	72.88
277.726	77.88
277.957	88.88
278.189	85.88
278.421	89.88
278.652	89.88
278.884	79.88
279.115	94.88
279.347	77.88
279.579	85.88
279.81	86.88
280.042	89.88
280.273	90.88
280.505	71.88
280.736	84.88
280.968	86.88
281.199	81.88
281.431	98.88
281.662	78.88
281.894	99.88
282.125	86.88
282.356	124.88
282.588	117.88
282.819	125.88
283.051	100.88
283.282	94.88
283.513	80.88
283.745	86.88
283.976	74.88
284.207	93.88
284.439	85.88
284.67	80.88
284.901	82.88
285.132	97.88
285.364	90.88
285.595	84.88
285.826	85.88
286.057	96.88
286.288	83.88
286.52	87.88
286.751	85.88
286.982	85.88
287.213	91.88
287.444	89.88
287.675	90.88
287.906	102.88
288.138	81.88
288.369	92.88
288.6	75.88
288.831	80.88
289.062	97.88
289.293	85.88
289.524	90.88
289.755	84.88
289.986	83.88
290.217	93.88
290.448	73.88
290.679	87.88
290.91	87.88
291.141	87.88
291.371	85.88
291.602	86.88
291.833	81.88
292.064	92.88
292.295	85.88
292.526	81.88
292.757	82.88
292.987	85.88
293.218	74.88
293.449	79.88
293.68	76.88
293.91	79.88
294.141	76.88
294.372	96.88
294.603	87.88
294.833	87.88
295.064	90.88
295.295	84.88
295.525	88.88
295.756	104.88
295.987	112.88
296.217	111.88
296.448	108.88
296.679	106.88
296.909	102.88
297.14	88.88
297.37	99.88
297.601	87.88
297.831	95.88
298.062	84.88
298.292	93.88
298.523	76.88
298.753	86.88
298.984	98.88
299.214	101.88
299.445	95.88
299.675	90.88
299.905	98.88
300.136	87.88
300.366	80.88
300.597	80.88
300.827	70.88
301.057	88.88
301.288	88.88
301.518	95.88
301.748	89.88
301.979	86.88
302.209	80.88
302.439	86.88
302.669	85.88
302.9	86.88
303.13	86.88
303.36	79.88
303.59	97.88
303.82	103.88
304.051	86.88
304.281	99.88
304.511	84.88
304.741	90.88
304.971	97.88
305.201	76.88
305.431	84.88
305.661	69.88
305.891	82.88
306.121	97.88
306.352	103.88
306.582	105.88
306.812	89.88
307.042	102.88
307.272	85.88
307.502	90.88
307.731	73.88
307.961	79.88
308.191	85.88
308.421	76.88
308.651	89.88
308.881	94.88
309.111	87.88
309.341	105.88
309.571	89.88
309.8	95.88
310.03	97.88
310.26	102.88
310.49	101.88
310.72	106.88
310.949	96.88
311.179	93.88
311.409	88.88
311.639	86.88
311.868	88.88
312.098	85.88
312.328	81.88
312.557	105.88
312.787	97.88
313.017	97.88
313.246	106.88
313.476	85.88
313.706	87.88
313.935	93.88
314.165	89.88
314.394	78.88
314.624	100.88
314.853	86.88
315.083	86.88
315.312	96.88
315.542	93.88
315.771	100.88
316.001	91.88
316.23	82.88
316.46	84.88
316.689	90.88
316.919	90.88
317.148	87.88
317.377	102.88
317.607	87.88
317.836	99.88
318.065	93.88
318.295	84.88
318.524	89.88
318.753	90.88
318.983	89.88
319.212	84.88
319.441	98.88
319.67	116.88
319.9	90.88
320.129	92.88
320.358	88.88
320.587	95.88
320.816	95.88
321.046	92.88
321.275	88.88
321.504	93.88
321.733	106.88
321.962	91.88
322.191	94.88
322.42	104.88
322.649	110.88
322.878	94.88
323.108	104.88
323.337	117.88
323.566	119.88
323.795	132.88
324.024	183.88
324.253	319.88
324.482	705.88
324.71	1393.88
324.939	1773.88
325.168	649.88
325.397	204.88
325.626	129.88
325.855	117.88
326.084	119.88
326.313	120.88
326.542	138.88
326.77	203.88
326.999	400.88
327.228	794.88
327.457	1407.88
327.686	1109.88
327.914	327.88
328.143	173.88
328.372	125.88
328.6	113.88
328.829	110.88
329.058	118.88
329.287	117.88
329.515	112.88
329.744	96.88
329.972	102.88
330.201	94.88
330.43	109.88
330.658	115.88
330.887	109.88
331.115	90.88
331.344	82.88
331.572	90.88
331.801	101.88
332.03	87.88
332.258	93.88
332.486	92.88
332.715	86.88
332.943	99.88
333.172	92.88
333.4	88.88
333.629	102.88
333.857	107.88
334.085	94.88
334.314	86.88
334.542	96.88
334.771	82.88
334.999	97.88
335.227	85.88
335.455	92.88
335.684	110.88
335.912	90.88
336.14	93.88
336.369	93.88
336.597	98.88
336.825	94.88
337.053	88.88
337.281	101.88
337.51	90.88
337.738	87.88
337.966	94.88
338.194	99.88
338.422	107.88
338.65	94.88
338.878	96.88
339.106	91.88
339.334	73.88
339.562	62.88
339.79	69.88
340.018	93.88
340.246	96.88
340.474	99.88
340.702	98.88
340.93	85.88
341.158	80.88
341.386	82.88
341.614	93.88
341.842	92.88
342.07	86.88
342.298	78.88
342.526	77.88
342.754	96.88
342.981	98.88
343.209	89.88
343.437	96.88
343.665	96.88
343.893	88.88
344.12	83.88
344.348	90.88
344.576	98.88
344.804	102.88
345.031	87.88
345.259	92.88
345.487	97.88
345.714	82.88
345.942	67.88
346.17	97.88
346.397	80.88
346.625	89.88
346.853	97.88
347.08	89.88
347.308	101.88
347.535	95.88
347.763	89.88
347.99	95.88
348.218	104.88
348.445	86.88
348.673	92.88
348.9	91.88
349.128	103.88
349.355	81.88
349.583	83.88
349.81	97.88
350.037	88.88
350.265	90.88
350.492	86.88
350.72	78.88
350.947	100.88
351.174	112.88
351.402	95.88
351.629	89.88
351.856	95.88
352.083	80.88
352.311	109.88
352.538	89.88
352.765	95.88
352.992	97.88
353.22	105.88
353.447	105.88
353.674	99.88
353.901	88.88
354.128	92.88
354.355	94.88
354.583	105.88
354.81	96.88
355.037	87.88
355.264	97.88
355.491	106.88
355.718	90.88
355.945	84.88
356.172	103.88
356.399	88.88
356.626	81.88
356.853	88.88
357.08	86.88
357.307	91.88
357.534	92.88
357.761	84.88
357.988	94.88
358.215	93.88
358.441	109.88
358.668	85.88
358.895	94.88
359.122	98.88
359.349	105.88
359.576	87.88
359.802	112.88
360.029	106.88
360.256	107.88
360.483	99.88
360.709	111.88
360.936	94.88
361.163	96.88
361.39	86.88
361.616	101.88
361.843	68.88
362.07	72.88
362.296	89.88
362.523	81.88
362.749	88.88
362.976	81.88
363.203	94.88
363.429	96.88
363.656	89.88
363.882	84.88
364.109	95.88
364.335	102.88
364.562	78.88
364.788	89.88
365.015	91.88
365.241	87.88
365.468	103.88
365.694	91.88
365.92	86.88
366.147	88.88
366.373	87.88
366.599	95.88
366.826	84.88
367.052	87.88
367.278	81.88
367.505	75.88
367.731	82.88
367.957	87.88
368.184	93.88
368.41	85.88
368.636	94.88
368.862	101.88
369.089	99.88
369.315	95.88
369.541	89.88
369.767	81.88
369.993	85.88
370.219	82.88
370.445	90.88
370.672	92.88
370.898	81.88
371.124	72.88
371.35	72.88
371.576	81.88
371.802	94.88
372.028	86.88
372.254	85.88
372.48	84.88
372.706	83.88
372.932	91.88
373.158	90.88
373.384	91.88
373.61	90.88
373.835	76.88
374.061	90.88
374.287	101.88
374.513	92.88
374.739	89.88
374.965	93.88
375.191	80.88
375.416	92.88
375.642	73.88
375.868	81.88
376.094	81.88
376.319	82.88
376.545	89.88
376.771	99.88
376.997	79.88
377.222	93.88
377.448	90.88
377.674	83.88
377.899	92.88
378.125	81.88
378.35	95.88
378.576	84.88
378.802	94.88
379.027	94.88
379.253	90.88
379.478	91.88
379.704	101.88
379.929	86.88
380.155	93.88
380.38	85.88
380.606	88.88
380.831	84.88
381.057	88.88
381.282	84.88
381.507	97.88
381.733	91.88
381.958	96.88
382.184	88.88
382.409	96.88
382.634	92.88
382.86	101.88
383.085	105.88
383.31	90.88
383.535	109.88
383.761	102.88
383.986	79.88
384.211	103.88
384.436	93.88
384.662	93.88
384.887	95.88
385.112	97.88
385.337	68.88
385.562	105.88
385.787	103.88
386.013	108.88
386.238	102.88
386.463	107.88
386.688	100.88
386.913	91.88
387.138	93.88
387.363	99.88
387.588	80.88
387.813	89.88
388.038	101.88
388.263	103.88
388.488	113.88
388.713	102.88
388.938	91.88
389.163	89.88
389.387	84.88
389.612	80.88
389.837	94.88
390.062	88.88
390.287	94.88
390.512	90.88
390.736	89.88
390.961	93.88
391.186	91.88
391.411	96.88
391.636	83.88
391.86	64.88
392.085	87.88
392.31	87.88
392.534	89.88
392.759	85.88
392.984	79.88
393.208	92.88
393.433	105.88
393.658	85.88
393.882	93.88
394.107	95.88
394.331	86.88
394.556	76.88
394.78	81.88
395.005	94.88
395.229	90.88
395.454	78.88
395.678	90.88
395.903	90.88
396.127	91.88
396.352	88.88
396.576	78.88
396.801	98.88
397.025	96.88
397.249	84.88
397.474	86.88
397.698	92.88
397.922	96.88
398.147	81.88
398.371	81.88
398.595	93.88
398.82	82.88
399.044	85.88
399.268	87.88
399.492	79.88
399.717	88.88
399.941	92.88
400.165	81.88
400.389	82.88
400.613	87.88
400.837	84.88
401.062	79.88
401.286	78.88
401.51	78.88
401.734	80.88
401.958	100.88
402.182	120.88
402.406	145.88
402.63	117.88
402.854	92.88
403.078	82.88
403.302	85.88
403.526	81.88
403.75	83.88
403.974	89.88
404.198	85.88
404.422	75.88
404.645	86.88
404.869	84.88
405.093	94.88
405.317	81.88
405.541	86.88
405.765	94.88
405.988	97.88
406.212	154.88
406.436	185.88
406.66	129.88
406.883	98.88
407.107	112.88
407.331	75.88
407.555	93.88
407.778	87.88
408.002	88.88
408.226	88.88
408.449	84.88
408.673	72.88
408.896	79.88
409.12	81.88
409.344	84.88
409.567	87.88
409.791	91.88
410.014	81.88
410.238	79.88
410.461	110.88
410.685	101.88
410.908	106.88
411.132	110.88
411.355	94.88
411.578	97.88
411.802	85.88
412.025	101.88
412.249	89.88
412.472	98.88
412.695	97.88
412.919	90.88
413.142	88.88
413.365	81.88
413.589	95.88
413.812	108.88
414.035	89.88
414.258	78.88
414.482	90.88
414.705	87.88
414.928	93.88
415.151	80.88
415.374	90.88
415.597	90.88
415.821	82.88
416.044	87.88
416.267	84.88
416.49	93.88
416.713	95.88
416.936	96.88
417.159	101.88
417.382	78.88
417.605	83.88
417.828	96.88
418.051	76.88
418.274	99.88
418.497	81.88
418.72	81.88
418.943	92.88
419.166	92.88
419.389	70.88
419.611	86.88
419.834	86.88
420.057	89.88
420.28	88.88
420.503	88.88
420.726	85.88
420.948	87.88
421.171	80.88
421.394	82.88
421.617	85.88
421.839	88.88
422.062	85.88
422.285	85.88
422.507	92.88
422.73	103.88
422.953	99.88
423.175	79.88
423.398	96.88
423.621	90.88
423.843	83.88
424.066	88.88
424.288	77.88
424.511	80.88
424.733	91.88
424.956	105.88
425.178	94.88
425.401	95.88
425.623	104.88
425.846	85.88
426.068	89.88
426.291	73.88
426.513	88.88
426.735	80.88
426.958	83.88
427.18	113.88
427.402	111.88
427.625	134.88
427.847	113.88
428.069	96.88
428.292	86.88
428.514	96.88
428.736	87.88
428.958	84.88
429.181	65.88
429.403	87.88
429.625	100.88
429.847	80.88
430.069	94.88
430.292	96.88
430.514	77.88
430.736	71.88
430.958	92.88
431.18	93.88
431.402	81.88
431.624	87.88
431.846	83.88
432.068	90.88
432.29	80.88
432.512	92.88
432.734	88.88
432.956	89.88
433.178	85.88
433.4	86.88
433.622	97.88
433.844	92.88
434.066	88.88
434.287	96.88
434.509	87.88
434.731	94.88
434.953	89.88
435.175	70.88
435.397	85.88
435.618	82.88
435.84	90.88
436.062	121.88
436.284	88.88
436.505	99.88
436.727	101.88
436.949	97.88
437.17	87.88
437.392	84.88
437.614	83.88
437.835	98.88
438.057	99.88
438.278	92.88
438.5	100.88
438.721	95.88
438.943	97.88
439.165	92.88
439.386	91.88
439.608	96.88
439.829	90.88
440.05	96.88
440.272	130.88
440.493	87.88
440.715	74.88
440.936	80.88
441.158	79.88
441.379	81.88
441.6	91.88
441.822	92.88
442.043	86.88
442.264	95.88
442.486	81.88
442.707	104.88
442.928	102.88
443.149	126.88
443.371	110.88
443.592	92.88
443.813	105.88
444.034	83.88
444.255	92.88
444.476	88.88
444.698	89.88
444.919	89.88
445.14	117.88
445.361	118.88
445.582	101.88
445.803	116.88
446.024	101.88
446.245	120.88
446.466	108.88
446.687	84.88
446.908	94.88
447.129	88.88
447.35	97.88
447.571	83.88
447.792	88.88
448.013	75.88
448.234	102.88
448.455	107.88
448.675	99.88
448.896	104.88
449.117	93.88
449.338	94.88
449.559	121.88
449.779	120.88
450	85.88
450.221	84.88
450.442	88.88
450.662	89.88
450.883	98.88
451.104	97.88
451.324	90.88
451.545	79.88
451.766	96.88
451.986	79.88
452.207	87.88
452.428	73.88
452.648	86.88
452.869	99.88
453.089	87.88
453.31	95.88
453.53	98.88
453.751	85.88
453.971	98.88
454.192	106.88
454.412	85.88
454.633	100.88
454.853	93.88
455.073	83.88
455.294	80.88
455.514	102.88
455.734	90.88
455.955	87.88
456.175	76.88
456.395	90.88
456.616	84.88
456.836	71.88
457.056	87.88
457.276	84.88
457.497	77.88
457.717	87.88
457.937	83.88
458.157	93.88
458.377	94.88
458.598	89.88
458.818	122.88
459.038	146.88
459.258	94.88
459.478	86.88
459.698	79.88
459.918	85.88
460.138	82.88
460.358	103.88
460.578	80.88
460.798	92.88
461.018	86.88
461.238	91.88
461.458	78.88
461.678	78.88
461.898	92.88
462.118	99.88
462.338	84.88
462.558	84.88
462.777	78.88
462.997	91.88
463.217	85.88
463.437	82.88
463.657	80.88
463.876	96.88
464.096	94.88
464.316	96.88
464.536	86.88
464.755	81.88
464.975	96.88
465.195	140.88
465.414	124.88
465.634	98.88
465.854	78.88
466.073	83.88
466.293	78.88
466.512	84.88
466.732	78.88
466.951	93.88
467.171	86.88
467.391	100.88
467.61	99.88
467.829	94.88
468.049	99.88
468.268	72.88
468.488	85.88
468.707	77.88
468.927	75.88
469.146	88.88
469.365	100.88
469.585	65.88
469.804	90.88
470.023	81.88
470.243	90.88
470.462	95.88
470.681	100.88
470.901	91.88
471.12	84.88
471.339	79.88
471.558	81.88
471.777	90.88
471.997	79.88
472.216	80.88
472.435	104.88
472.654	94.88
472.873	89.88
473.092	85.88
473.311	81.88
473.53	79.88
473.749	111.88
473.968	93.88
474.187	103.88
474.406	95.88
474.625	95.88
474.844	90.88
475.063	75.88
475.282	95.88
475.501	81.88
475.72	74.88
475.939	85.88
476.158	77.88
476.377	89.88
476.596	74.88
476.814	74.88
477.033	86.88
477.252	89.88
477.471	76.88
477.69	84.88
477.908	83.88
478.127	75.88
478.346	84.88
478.564	89.88
478.783	84.88
479.002	87.88
479.22	100.88
479.439	89.88
479.658	117.88
479.876	88.88
480.095	88.88
480.313	90.88
480.532	99.88
480.751	92.88
480.969	93.88
481.188	110.88
481.406	102.88
481.624	89.88
481.843	81.88
482.061	87.88
482.28	79.88
482.498	82.88
482.717	87.88
482.935	76.88
483.153	88.88
483.372	81.88
483.59	75.88
483.808	85.88
484.027	89.88
484.245	84.88
484.463	90.88
484.681	100.88
484.9	95.88
485.118	94.88
485.336	91.88
485.554	103.88
485.772	90.88
485.99	101.88
486.209	115.88
486.427	84.88
486.645	94.88
486.863	102.88
487.081	102.88
487.299	109.88
487.517	94.88
487.735	97.88
487.953	92.88
488.171	90.88
488.389	86.88
488.607	87.88
488.825	87.88
489.043	98.88
489.261	93.88
489.479	84.88
489.696	82.88
489.914	72.88
490.132	89.88
490.35	79.88
490.568	81.88
490.786	95.88
491.003	87.88
491.221	92.88
491.439	73.88
491.657	99.88
491.874	86.88
492.092	85.88
492.31	94.88
492.527	94.88
492.745	85.88
492.963	94.88
493.18	95.88
493.398	95.88
493.615	89.88
493.833	90.88
494.05	84.88
494.268	84.88
494.485	78.88
494.703	88.88
494.92	83.88
495.138	86.88
495.355	82.88
495.573	87.88
495.79	83.88
496.008	89.88
496.225	95.88
496.442	95.88
496.66	82.88
496.877	86.88
497.094	90.88
497.312	95.88
497.529	95.88
497.746	91.88
497.963	74.88
498.181	95.88
498.398	92.88
498.615	101.88
498.832	93.88
499.049	82.88
499.267	86.88
499.484	96.88
499.701	69.88
499.918	97.88
500.135	98.88
500.352	100.88
500.569	89.88
500.786	84.88
501.003	87.88
501.22	76.88
501.437	88.88
501.654	85.88
501.871	96.88
502.088	104.88
502.305	90.88
502.522	90.88
502.739	77.88
502.956	90.88
503.172	90.88
503.389	84.88
503.606	92.88
503.823	81.88
504.04	81.88
504.256	94.88
504.473	88.88
504.69	90.88
504.907	94.88
505.123	93.88
505.34	88.88
505.557	77.88
505.773	80.88
505.99	87.88
506.207	92.88
506.423	92.88
506.64	79.88
506.856	101.88
507.073	101.88
507.289	89.88
507.506	86.88
507.722	105.88
507.939	105.88
508.155	86.88
508.372	105.88
508.588	81.88
508.805	98.88
509.021	101.88
509.238	97.88
509.454	97.88
509.67	92.88
509.887	95.88
510.103	117.88
510.319	188.88
510.536	663.88
510.752	2034.88
510.968	585.88
511.184	144.88
511.401	107.88
511.617	94.88
511.833	102.88
512.049	85.88
512.265	97.88
512.481	90.88
512.698	90.88
512.914	92.88
513.13	89.88
513.346	81.88
513.562	112.88
513.778	87.88
513.994	103.88
514.21	103.88
514.426	116.88
514.642	115.88
514.858	110.88
515.074	153.88
515.29	398.88
515.506	1202.88
515.721	470.88
515.937	147.88
516.153	96.88
516.369	95.88
516.585	93.88
516.801	100.88
517.016	90.88
