Data from Uncirc_2002_H10_HRD10591_00078.txt Node
Date: Wed Jan 03 10:39:56 EST 2024
User: Yrep
Spectrometer: HR+D1059
Trigger mode: 1
Integration Time (sec): 1.000000E-1
Scans to average: 1
Electric dark correction enabled: true
Nonlinearity correction enabled: false
Boxcar width: 0
XAxis mode: Wavelengths
Number of Pixels in Spectrum: 2048
>>>>>Begin Spectral Data<<<<<
223.165	-0.75
223.4	-0.75
223.635	-0.75
223.869	-22.75
224.104	-29.75
224.338	-13.75
224.573	-19.75
224.808	-5.75
225.042	-4.75
225.277	3.25
225.511	5.25
225.746	7.25
225.98	9.25
226.215	11.25
226.449	13.25
226.683	18.25
226.918	9.25
227.152	20.25
227.387	38.25
227.621	33.25
227.856	35.25
228.09	40.25
228.324	59.25
228.559	56.25
228.793	58.25
229.027	67.25
229.262	65.25
229.496	62.25
229.73	81.25
229.964	85.25
230.199	70.25
230.433	79.25
230.667	79.25
230.901	86.25
231.136	67.25
231.37	71.25
231.604	88.25
231.838	76.25
232.072	78.25
232.306	82.25
232.541	72.25
232.775	82.25
233.009	84.25
233.243	85.25
233.477	77.25
233.711	75.25
233.945	77.25
234.179	89.25
234.413	86.25
234.647	94.25
234.881	80.25
235.115	73.25
235.349	80.25
235.583	78.25
235.817	59.25
236.051	77.25
236.285	89.25
236.519	77.25
236.753	72.25
236.987	86.25
237.221	81.25
237.455	85.25
237.689	87.25
237.922	73.25
238.156	61.25
238.39	77.25
238.624	72.25
238.858	80.25
239.091	69.25
239.325	73.25
239.559	79.25
239.793	82.25
240.027	69.25
240.26	70.25
240.494	85.25
240.728	72.25
240.961	82.25
241.195	71.25
241.429	90.25
241.662	66.25
241.896	78.25
242.13	82.25
242.363	78.25
242.597	70.25
242.83	91.25
243.064	67.25
243.298	82.25
243.531	66.25
243.765	77.25
243.998	74.25
244.232	80.25
244.465	84.25
244.699	76.25
244.932	81.25
245.166	87.25
245.399	81.25
245.633	94.25
245.866	81.25
246.099	84.25
246.333	87.25
246.566	75.25
246.8	77.25
247.033	74.25
247.266	65.25
247.5	82.25
247.733	82.25
247.966	68.25
248.2	72.25
248.433	82.25
248.666	91.25
248.899	75.25
249.133	73.25
249.366	77.25
249.599	90.25
249.832	77.25
250.066	88.25
250.299	78.25
250.532	82.25
250.765	93.25
250.998	74.25
251.231	88.25
251.465	74.25
251.698	89.25
251.931	74.25
252.164	89.25
252.397	93.25
252.63	79.25
252.863	80.25
253.096	73.25
253.329	81.25
253.562	86.25
253.795	62.25
254.028	82.25
254.261	63.25
254.494	82.25
254.727	84.25
254.96	81.25
255.193	85.25
255.426	88.25
255.659	71.25
255.892	79.25
256.124	77.25
256.357	73.25
256.59	73.25
256.823	79.25
257.056	78.25
257.289	81.25
257.521	64.25
257.754	75.25
257.987	77.25
258.22	80.25
258.452	80.25
258.685	65.25
258.918	85.25
259.151	84.25
259.383	81.25
259.616	76.25
259.849	80.25
260.081	84.25
260.314	81.25
260.547	79.25
260.779	88.25
261.012	67.25
261.244	87.25
261.477	80.25
261.71	88.25
261.942	121.25
262.175	109.25
262.407	87.25
262.64	86.25
262.872	66.25
263.105	69.25
263.337	79.25
263.57	64.25
263.802	78.25
264.035	84.25
264.267	86.25
264.499	80.25
264.732	78.25
264.964	84.25
265.197	78.25
265.429	80.25
265.661	90.25
265.894	89.25
266.126	76.25
266.358	70.25
266.591	86.25
266.823	88.25
267.055	86.25
267.287	84.25
267.52	81.25
267.752	83.25
267.984	69.25
268.216	79.25
268.448	91.25
268.681	73.25
268.913	77.25
269.145	74.25
269.377	83.25
269.609	79.25
269.841	80.25
270.073	71.25
270.306	99.25
270.538	70.25
270.77	72.25
271.002	93.25
271.234	84.25
271.466	84.25
271.698	82.25
271.93	77.25
272.162	86.25
272.394	94.25
272.626	94.25
272.858	97.25
273.09	95.25
273.322	81.25
273.553	86.25
273.785	84.25
274.017	80.25
274.249	82.25
274.481	74.25
274.713	81.25
274.945	75.25
275.176	78.25
275.408	95.25
275.64	85.25
275.872	96.25
276.104	94.25
276.335	98.25
276.567	92.25
276.799	109.25
277.031	84.25
277.262	84.25
277.494	87.25
277.726	97.25
277.957	58.25
278.189	91.25
278.421	82.25
278.652	77.25
278.884	69.25
279.115	88.25
279.347	85.25
279.579	90.25
279.81	87.25
280.042	83.25
280.273	86.25
280.505	82.25
280.736	80.25
280.968	83.25
281.199	72.25
281.431	85.25
281.662	84.25
281.894	77.25
282.125	94.25
282.356	122.25
282.588	127.25
282.819	106.25
283.051	91.25
283.282	90.25
283.513	94.25
283.745	102.25
283.976	88.25
284.207	92.25
284.439	88.25
284.67	77.25
284.901	79.25
285.132	75.25
285.364	98.25
285.595	81.25
285.826	91.25
286.057	85.25
286.288	80.25
286.52	96.25
286.751	90.25
286.982	89.25
287.213	90.25
287.444	89.25
287.675	94.25
287.906	81.25
288.138	83.25
288.369	85.25
288.6	87.25
288.831	83.25
289.062	94.25
289.293	77.25
289.524	98.25
289.755	85.25
289.986	93.25
290.217	83.25
290.448	95.25
290.679	82.25
290.91	79.25
291.141	90.25
291.371	95.25
291.602	79.25
291.833	101.25
292.064	73.25
292.295	90.25
292.526	93.25
292.757	93.25
292.987	87.25
293.218	88.25
293.449	95.25
293.68	95.25
293.91	94.25
294.141	85.25
294.372	88.25
294.603	90.25
294.833	88.25
295.064	88.25
295.295	97.25
295.525	99.25
295.756	99.25
295.987	101.25
296.217	134.25
296.448	99.25
296.679	80.25
296.909	95.25
297.14	74.25
297.37	89.25
297.601	95.25
297.831	91.25
298.062	86.25
298.292	82.25
298.523	90.25
298.753	87.25
298.984	96.25
299.214	82.25
299.445	91.25
299.675	78.25
299.905	90.25
300.136	97.25
300.366	87.25
300.597	99.25
300.827	90.25
301.057	97.25
301.288	97.25
301.518	96.25
301.748	85.25
301.979	102.25
302.209	79.25
302.439	94.25
302.669	96.25
302.9	73.25
303.13	99.25
303.36	88.25
303.59	102.25
303.82	105.25
304.051	79.25
304.281	89.25
304.511	98.25
304.741	78.25
304.971	94.25
305.201	83.25
305.431	84.25
305.661	102.25
305.891	87.25
306.121	84.25
306.352	93.25
306.582	99.25
306.812	85.25
307.042	88.25
307.272	86.25
307.502	82.25
307.731	87.25
307.961	80.25
308.191	78.25
308.421	86.25
308.651	95.25
308.881	90.25
309.111	90.25
309.341	91.25
309.571	99.25
309.8	89.25
310.03	93.25
310.26	89.25
310.49	85.25
310.72	80.25
310.949	95.25
311.179	82.25
311.409	94.25
311.639	82.25
311.868	98.25
312.098	102.25
312.328	94.25
312.557	94.25
312.787	102.25
313.017	94.25
313.246	99.25
313.476	100.25
313.706	89.25
313.935	91.25
314.165	103.25
314.394	94.25
314.624	84.25
314.853	101.25
315.083	92.25
315.312	86.25
315.542	99.25
315.771	95.25
316.001	100.25
316.23	91.25
316.46	79.25
316.689	78.25
316.919	83.25
317.148	97.25
317.377	95.25
317.607	99.25
317.836	82.25
318.065	86.25
318.295	86.25
318.524	86.25
318.753	89.25
318.983	100.25
319.212	103.25
319.441	115.25
319.67	95.25
319.9	98.25
320.129	93.25
320.358	91.25
320.587	87.25
320.816	95.25
321.046	100.25
321.275	102.25
321.504	89.25
321.733	98.25
321.962	90.25
322.191	101.25
322.42	99.25
322.649	123.25
322.878	105.25
323.108	117.25
323.337	122.25
323.566	141.25
323.795	147.25
324.024	207.25
324.253	368.25
324.482	792.25
324.71	1635.25
324.939	2175.25
325.168	794.25
325.397	237.25
325.626	147.25
325.855	133.25
326.084	125.25
326.313	125.25
326.542	162.25
326.77	214.25
326.999	439.25
327.228	916.25
327.457	1655.25
327.686	1275.25
327.914	351.25
328.143	189.25
328.372	143.25
328.6	106.25
328.829	106.25
329.058	113.25
329.287	146.25
329.515	102.25
329.744	100.25
329.972	104.25
330.201	97.25
330.43	101.25
330.658	119.25
330.887	138.25
331.115	112.25
331.344	96.25
331.572	99.25
331.801	104.25
332.03	110.25
332.258	96.25
332.486	90.25
332.715	81.25
332.943	99.25
333.172	86.25
333.4	103.25
333.629	105.25
333.857	100.25
334.085	95.25
334.314	109.25
334.542	100.25
334.771	108.25
334.999	101.25
335.227	105.25
335.455	98.25
335.684	106.25
335.912	92.25
336.14	74.25
336.369	102.25
336.597	109.25
336.825	90.25
337.053	93.25
337.281	85.25
337.51	99.25
337.738	83.25
337.966	100.25
338.194	95.25
338.422	99.25
338.65	96.25
338.878	100.25
339.106	85.25
339.334	87.25
339.562	87.25
339.79	88.25
340.018	79.25
340.246	88.25
340.474	103.25
340.702	96.25
340.93	98.25
341.158	94.25
341.386	83.25
341.614	98.25
341.842	91.25
342.07	95.25
342.298	83.25
342.526	83.25
342.754	88.25
342.981	88.25
343.209	104.25
343.437	102.25
343.665	77.25
343.893	86.25
344.12	100.25
344.348	95.25
344.576	100.25
344.804	83.25
345.031	75.25
345.259	92.25
345.487	91.25
345.714	82.25
345.942	81.25
346.17	95.25
346.397	90.25
346.625	96.25
346.853	95.25
347.08	99.25
347.308	114.25
347.535	100.25
347.763	108.25
347.99	104.25
348.218	110.25
348.445	113.25
348.673	91.25
348.9	93.25
349.128	101.25
349.355	90.25
349.583	99.25
349.81	86.25
350.037	95.25
350.265	95.25
350.492	109.25
350.72	91.25
350.947	101.25
351.174	99.25
351.402	110.25
351.629	99.25
351.856	99.25
352.083	101.25
352.311	115.25
352.538	106.25
352.765	101.25
352.992	113.25
353.22	107.25
353.447	90.25
353.674	83.25
353.901	88.25
354.128	110.25
354.355	101.25
354.583	82.25
354.81	94.25
355.037	90.25
355.264	88.25
355.491	91.25
355.718	104.25
355.945	105.25
356.172	101.25
356.399	96.25
356.626	85.25
356.853	99.25
357.08	91.25
357.307	80.25
357.534	90.25
357.761	75.25
357.988	88.25
358.215	85.25
358.441	91.25
358.668	84.25
358.895	71.25
359.122	79.25
359.349	85.25
359.576	91.25
359.802	91.25
360.029	102.25
360.256	96.25
360.483	86.25
360.709	83.25
360.936	97.25
361.163	84.25
361.39	88.25
361.616	88.25
361.843	101.25
362.07	91.25
362.296	90.25
362.523	92.25
362.749	105.25
362.976	95.25
363.203	85.25
363.429	85.25
363.656	87.25
363.882	78.25
364.109	101.25
364.335	92.25
364.562	89.25
364.788	93.25
365.015	103.25
365.241	95.25
365.468	101.25
365.694	107.25
365.92	96.25
366.147	85.25
366.373	89.25
366.599	106.25
366.826	84.25
367.052	95.25
367.278	83.25
367.505	102.25
367.731	90.25
367.957	89.25
368.184	104.25
368.41	87.25
368.636	129.25
368.862	111.25
369.089	114.25
369.315	103.25
369.541	85.25
369.767	83.25
369.993	89.25
370.219	92.25
370.445	88.25
370.672	90.25
370.898	99.25
371.124	75.25
371.35	86.25
371.576	80.25
371.802	78.25
372.028	97.25
372.254	91.25
372.48	102.25
372.706	78.25
372.932	78.25
373.158	74.25
373.384	80.25
373.61	88.25
373.835	75.25
374.061	93.25
374.287	96.25
374.513	87.25
374.739	88.25
374.965	90.25
375.191	83.25
375.416	81.25
375.642	93.25
375.868	77.25
376.094	77.25
376.319	85.25
376.545	78.25
376.771	84.25
376.997	81.25
377.222	88.25
377.448	97.25
377.674	87.25
377.899	89.25
378.125	83.25
378.35	91.25
378.576	76.25
378.802	94.25
379.027	107.25
379.253	89.25
379.478	87.25
379.704	87.25
379.929	99.25
380.155	82.25
380.38	82.25
380.606	99.25
380.831	88.25
381.057	100.25
381.282	95.25
381.507	102.25
381.733	96.25
381.958	111.25
382.184	89.25
382.409	98.25
382.634	95.25
382.86	91.25
383.085	101.25
383.31	105.25
383.535	92.25
383.761	86.25
383.986	86.25
384.211	92.25
384.436	102.25
384.662	100.25
384.887	84.25
385.112	99.25
385.337	88.25
385.562	106.25
385.787	104.25
386.013	111.25
386.238	115.25
386.463	109.25
386.688	113.25
386.913	92.25
387.138	88.25
387.363	96.25
387.588	100.25
387.813	95.25
388.038	120.25
388.263	103.25
388.488	93.25
388.713	99.25
388.938	100.25
389.163	103.25
389.387	96.25
389.612	96.25
389.837	91.25
390.062	91.25
390.287	92.25
390.512	99.25
390.736	79.25
390.961	101.25
391.186	91.25
391.411	89.25
391.636	101.25
391.86	93.25
392.085	79.25
392.31	83.25
392.534	82.25
392.759	88.25
392.984	103.25
393.208	97.25
393.433	81.25
393.658	90.25
393.882	93.25
394.107	90.25
394.331	79.25
394.556	86.25
394.78	70.25
395.005	68.25
395.229	84.25
395.454	89.25
395.678	71.25
395.903	82.25
396.127	95.25
396.352	77.25
396.576	83.25
396.801	81.25
397.025	90.25
397.249	72.25
397.474	92.25
397.698	93.25
397.922	86.25
398.147	93.25
398.371	92.25
398.595	90.25
398.82	86.25
399.044	83.25
399.268	94.25
399.492	97.25
399.717	91.25
399.941	77.25
400.165	79.25
400.389	94.25
400.613	91.25
400.837	81.25
401.062	79.25
401.286	78.25
401.51	95.25
401.734	106.25
401.958	104.25
402.182	124.25
402.406	148.25
402.63	113.25
402.854	103.25
403.078	78.25
403.302	88.25
403.526	89.25
403.75	100.25
403.974	81.25
404.198	80.25
404.422	96.25
404.645	80.25
404.869	86.25
405.093	83.25
405.317	86.25
405.541	98.25
405.765	98.25
405.988	115.25
406.212	176.25
406.436	218.25
406.66	124.25
406.883	97.25
407.107	108.25
407.331	102.25
407.555	102.25
407.778	93.25
408.002	103.25
408.226	83.25
408.449	95.25
408.673	89.25
408.896	98.25
409.12	96.25
409.344	95.25
409.567	99.25
409.791	99.25
410.014	94.25
410.238	86.25
410.461	90.25
410.685	77.25
410.908	95.25
411.132	98.25
411.355	98.25
411.578	86.25
411.802	96.25
412.025	86.25
412.249	97.25
412.472	90.25
412.695	91.25
412.919	98.25
413.142	81.25
413.365	74.25
413.589	88.25
413.812	79.25
414.035	86.25
414.258	79.25
414.482	95.25
414.705	105.25
414.928	84.25
415.151	92.25
415.374	82.25
415.597	87.25
415.821	100.25
416.044	82.25
416.267	85.25
416.49	84.25
416.713	86.25
416.936	103.25
417.159	90.25
417.382	88.25
417.605	74.25
417.828	88.25
418.051	94.25
418.274	97.25
418.497	79.25
418.72	79.25
418.943	94.25
419.166	75.25
419.389	78.25
419.611	72.25
419.834	85.25
420.057	88.25
420.28	86.25
420.503	82.25
420.726	74.25
420.948	89.25
421.171	98.25
421.394	85.25
421.617	87.25
421.839	95.25
422.062	103.25
422.285	82.25
422.507	101.25
422.73	95.25
422.953	91.25
423.175	99.25
423.398	94.25
423.621	77.25
423.843	81.25
424.066	97.25
424.288	94.25
424.511	74.25
424.733	94.25
424.956	98.25
425.178	96.25
425.401	87.25
425.623	94.25
425.846	78.25
426.068	106.25
426.291	86.25
426.513	100.25
426.735	86.25
426.958	99.25
427.18	96.25
427.402	119.25
427.625	134.25
427.847	133.25
428.069	109.25
428.292	95.25
428.514	86.25
428.736	88.25
428.958	92.25
429.181	81.25
429.403	85.25
429.625	93.25
429.847	72.25
430.069	91.25
430.292	101.25
430.514	87.25
430.736	81.25
430.958	94.25
431.18	70.25
431.402	100.25
431.624	74.25
431.846	77.25
432.068	78.25
432.29	96.25
432.512	82.25
432.734	93.25
432.956	90.25
433.178	99.25
433.4	80.25
433.622	81.25
433.844	100.25
434.066	101.25
434.287	95.25
434.509	107.25
434.731	89.25
434.953	81.25
435.175	101.25
435.397	93.25
435.618	89.25
435.84	94.25
436.062	123.25
436.284	119.25
436.505	94.25
436.727	96.25
436.949	97.25
437.17	86.25
437.392	77.25
437.614	87.25
437.835	110.25
438.057	108.25
438.278	94.25
438.5	105.25
438.721	138.25
438.943	90.25
439.165	81.25
439.386	103.25
439.608	98.25
439.829	92.25
440.05	122.25
440.272	113.25
440.493	98.25
440.715	79.25
440.936	84.25
441.158	87.25
441.379	81.25
441.6	91.25
441.822	87.25
442.043	95.25
442.264	101.25
442.486	101.25
442.707	80.25
442.928	92.25
443.149	112.25
443.371	126.25
443.592	99.25
443.813	107.25
444.034	100.25
444.255	87.25
444.476	89.25
444.698	98.25
444.919	86.25
445.14	126.25
445.361	130.25
445.582	102.25
445.803	122.25
446.024	137.25
446.245	130.25
446.466	112.25
446.687	97.25
446.908	65.25
447.129	71.25
447.35	94.25
447.571	88.25
447.792	95.25
448.013	89.25
448.234	107.25
448.455	87.25
448.675	124.25
448.896	88.25
449.117	86.25
449.338	102.25
449.559	118.25
449.779	111.25
450	91.25
450.221	95.25
450.442	87.25
450.662	89.25
450.883	101.25
451.104	104.25
451.324	89.25
451.545	77.25
451.766	97.25
451.986	77.25
452.207	83.25
452.428	83.25
452.648	83.25
452.869	94.25
453.089	114.25
453.31	108.25
453.53	94.25
453.751	87.25
453.971	108.25
454.192	105.25
454.412	95.25
454.633	76.25
454.853	85.25
455.073	86.25
455.294	90.25
455.514	101.25
455.734	96.25
455.955	73.25
456.175	91.25
456.395	84.25
456.616	93.25
456.836	77.25
457.056	85.25
457.276	73.25
457.497	71.25
457.717	75.25
457.937	83.25
458.157	72.25
458.377	85.25
458.598	109.25
458.818	143.25
459.038	147.25
459.258	108.25
459.478	73.25
459.698	85.25
459.918	101.25
460.138	87.25
460.358	77.25
460.578	85.25
460.798	94.25
461.018	87.25
461.238	89.25
461.458	87.25
461.678	77.25
461.898	94.25
462.118	101.25
462.338	87.25
462.558	88.25
462.777	83.25
462.997	83.25
463.217	69.25
463.437	87.25
463.657	81.25
463.876	91.25
464.096	74.25
464.316	99.25
464.536	98.25
464.755	99.25
464.975	95.25
465.195	145.25
465.414	150.25
465.634	101.25
465.854	77.25
466.073	79.25
466.293	83.25
466.512	88.25
466.732	85.25
466.951	85.25
467.171	91.25
467.391	95.25
467.61	106.25
467.829	90.25
468.049	91.25
468.268	79.25
468.488	98.25
468.707	88.25
468.927	90.25
469.146	86.25
469.365	82.25
469.585	86.25
469.804	80.25
470.023	90.25
470.243	90.25
470.462	100.25
470.681	97.25
470.901	89.25
471.12	86.25
471.339	97.25
471.558	93.25
471.777	85.25
471.997	83.25
472.216	89.25
472.435	90.25
472.654	97.25
472.873	99.25
473.092	83.25
473.311	95.25
473.53	75.25
473.749	79.25
473.968	88.25
474.187	101.25
474.406	91.25
474.625	82.25
474.844	89.25
475.063	80.25
475.282	77.25
475.501	69.25
475.72	96.25
475.939	82.25
476.158	93.25
476.377	83.25
476.596	92.25
476.814	90.25
477.033	75.25
477.252	86.25
477.471	95.25
477.69	80.25
477.908	94.25
478.127	99.25
478.346	88.25
478.564	97.25
478.783	86.25
479.002	100.25
479.22	90.25
479.439	96.25
479.658	97.25
479.876	87.25
480.095	81.25
480.313	82.25
480.532	97.25
480.751	90.25
480.969	90.25
481.188	100.25
481.406	100.25
481.624	91.25
481.843	83.25
482.061	88.25
482.28	87.25
482.498	90.25
482.717	84.25
482.935	81.25
483.153	88.25
483.372	92.25
483.59	91.25
483.808	76.25
484.027	93.25
484.245	90.25
484.463	85.25
484.681	99.25
484.9	91.25
485.118	90.25
485.336	101.25
485.554	102.25
485.772	95.25
485.99	100.25
486.209	116.25
486.427	106.25
486.645	91.25
486.863	104.25
487.081	99.25
487.299	99.25
487.517	78.25
487.735	90.25
487.953	91.25
488.171	93.25
488.389	103.25
488.607	110.25
488.825	90.25
489.043	91.25
489.261	81.25
489.479	96.25
489.696	94.25
489.914	85.25
490.132	84.25
490.35	91.25
490.568	90.25
490.786	88.25
491.003	83.25
491.221	91.25
491.439	124.25
491.657	102.25
491.874	96.25
492.092	93.25
492.31	85.25
492.527	68.25
492.745	98.25
492.963	96.25
493.18	86.25
493.398	105.25
493.615	87.25
493.833	89.25
494.05	90.25
494.268	92.25
494.485	73.25
494.703	89.25
494.92	88.25
495.138	91.25
495.355	87.25
495.573	94.25
495.79	92.25
496.008	91.25
496.225	91.25
496.442	82.25
496.66	85.25
496.877	95.25
497.094	101.25
497.312	99.25
497.529	87.25
497.746	103.25
497.963	90.25
498.181	84.25
498.398	87.25
498.615	106.25
498.832	125.25
499.049	99.25
499.267	100.25
499.484	97.25
499.701	94.25
499.918	90.25
500.135	96.25
500.352	80.25
500.569	88.25
500.786	109.25
501.003	90.25
501.22	80.25
501.437	104.25
501.654	86.25
501.871	93.25
502.088	81.25
502.305	67.25
502.522	82.25
502.739	91.25
502.956	97.25
503.172	90.25
503.389	98.25
503.606	104.25
503.823	102.25
504.04	102.25
504.256	94.25
504.473	101.25
504.69	95.25
504.907	98.25
505.123	104.25
505.34	82.25
505.557	96.25
505.773	99.25
505.99	102.25
506.207	92.25
506.423	98.25
506.64	82.25
506.856	96.25
507.073	71.25
507.289	92.25
507.506	103.25
507.722	105.25
507.939	114.25
508.155	97.25
508.372	86.25
508.588	95.25
508.805	89.25
509.021	99.25
509.238	102.25
509.454	99.25
509.67	100.25
509.887	118.25
510.103	145.25
510.319	207.25
510.536	778.25
510.752	2369.25
510.968	660.25
511.184	159.25
511.401	94.25
511.617	100.25
511.833	75.25
512.049	93.25
512.265	91.25
512.481	93.25
512.698	97.25
512.914	108.25
513.13	82.25
513.346	87.25
513.562	85.25
513.778	90.25
513.994	112.25
514.21	107.25
514.426	91.25
514.642	122.25
514.858	120.25
515.074	149.25
515.29	423.25
515.506	1441.25
515.721	532.25
515.937	151.25
516.153	106.25
516.369	103.25
