Data from Uncirc_2002_H10_HRD10591_00015.txt Node
Date: Wed Jan 03 10:39:44 EST 2024
User: Yrep
Spectrometer: HR+D1059
Trigger mode: 1
Integration Time (sec): 1.000000E-1
Scans to average: 1
Electric dark correction enabled: true
Nonlinearity correction enabled: false
Boxcar width: 0
XAxis mode: Wavelengths
Number of Pixels in Spectrum: 2048
>>>>>Begin Spectral Data<<<<<
223.165	-12.94
223.4	-12.94
223.635	-12.94
223.869	-3.94
224.104	-25.94
224.338	-14.94
224.573	-12.94
224.808	-10.94
225.042	-15.94
225.277	-4.94
225.511	0.06
225.746	10.06
225.98	8.06
226.215	11.06
226.449	2.06
226.683	17.06
226.918	15.06
227.152	39.06
227.387	23.06
227.621	47.06
227.856	47.06
228.09	44.06
228.324	61.06
228.559	69.06
228.793	148.06
229.027	439.06
229.262	488.06
229.496	584.06
229.73	766.06
229.964	765.06
230.199	537.06
230.433	472.06
230.667	449.06
230.901	438.06
231.136	437.06
231.37	419.06
231.604	443.06
231.838	430.06
232.072	427.06
232.306	457.06
232.541	456.06
232.775	440.06
233.009	448.06
233.243	442.06
233.477	464.06
233.711	452.06
233.945	480.06
234.179	477.06
234.413	489.06
234.647	479.06
234.881	487.06
235.115	512.06
235.349	504.06
235.583	551.06
235.817	570.06
236.051	599.06
236.285	597.06
236.519	581.06
236.753	658.06
236.987	851.06
237.221	1293.06
237.455	1412.06
237.689	853.06
237.922	730.06
238.156	705.06
238.39	629.06
238.624	628.06
238.858	622.06
239.091	628.06
239.325	623.06
239.559	668.06
239.793	658.06
240.027	721.06
240.26	871.06
240.494	951.06
240.728	912.06
240.961	839.06
241.195	798.06
241.429	744.06
241.662	741.06
241.896	719.06
242.13	736.06
242.363	742.06
242.597	742.06
242.83	788.06
243.064	774.06
243.298	806.06
243.531	784.06
243.765	777.06
243.998	800.06
244.232	819.06
244.465	858.06
244.699	865.06
244.932	873.06
245.166	873.06
245.399	881.06
245.633	865.06
245.866	885.06
246.099	890.06
246.333	925.06
246.566	919.06
246.8	944.06
247.033	987.06
247.266	1008.06
247.5	1046.06
247.733	1102.06
247.966	1087.06
248.2	1044.06
248.433	1090.06
248.666	1151.06
248.899	1283.06
249.133	1398.06
249.366	1370.06
249.599	1256.06
249.832	1126.06
250.066	1173.06
250.299	1203.06
250.532	1288.06
250.765	1425.06
250.998	1627.06
251.231	1561.06
251.465	1412.06
251.698	1373.06
251.931	1337.06
252.164	1340.06
252.397	1382.06
252.63	1363.06
252.863	1485.06
253.096	1594.06
253.329	1645.06
253.562	1584.06
253.795	1478.06
254.028	1508.06
254.261	1566.06
254.494	1742.06
254.727	2058.06
254.96	2139.06
255.193	1838.06
255.426	1646.06
255.659	1540.06
255.892	1521.06
256.124	1501.06
256.357	1466.06
256.59	1430.06
256.823	1409.06
257.056	1442.06
257.289	1455.06
257.521	1461.06
257.754	1479.06
257.987	1458.06
258.22	1464.06
258.452	1483.06
258.685	1515.06
258.918	1484.06
259.151	1544.06
259.383	1626.06
259.616	1655.06
259.849	1675.06
260.081	1853.06
260.314	2034.06
260.547	1883.06
260.779	1792.06
261.012	1681.06
261.244	1664.06
261.477	1599.06
261.71	1655.06
261.942	1672.06
262.175	1715.06
262.407	1635.06
262.64	1551.06
262.872	1603.06
263.105	1575.06
263.337	1591.06
263.57	1569.06
263.802	1593.06
264.035	1588.06
264.267	1621.06
264.499	1618.06
264.732	1601.06
264.964	1613.06
265.197	1642.06
265.429	1606.06
265.661	1646.06
265.894	1629.06
266.126	1693.06
266.358	1637.06
266.591	1745.06
266.823	1785.06
267.055	1829.06
267.287	1807.06
267.52	1802.06
267.752	1793.06
267.984	1778.06
268.216	1823.06
268.448	1830.06
268.681	1950.06
268.913	2037.06
269.145	2266.06
269.377	2293.06
269.609	2199.06
269.841	2202.06
270.073	2254.06
270.306	2561.06
270.538	2696.06
270.77	2553.06
271.002	2400.06
271.234	2357.06
271.466	2471.06
271.698	2649.06
271.93	2595.06
272.162	2583.06
272.394	2545.06
272.626	2455.06
272.858	2280.06
273.09	2223.06
273.322	2185.06
273.553	2163.06
273.785	2173.06
274.017	2195.06
274.249	2183.06
274.481	2153.06
274.713	2189.06
274.945	2238.06
275.176	2189.06
275.408	2172.06
275.64	2203.06
275.872	2201.06
276.104	2214.06
276.335	2243.06
276.567	2279.06
276.799	2420.06
277.031	2715.06
277.262	2749.06
277.494	2642.06
277.726	2518.06
277.957	2431.06
278.189	2337.06
278.421	2303.06
278.652	2307.06
278.884	2311.06
279.115	2293.06
279.347	2294.06
279.579	2280.06
279.81	2275.06
280.042	2301.06
280.273	2351.06
280.505	2328.06
280.736	2313.06
280.968	2317.06
281.199	2393.06
281.431	2335.06
281.662	2365.06
281.894	2431.06
282.125	2471.06
282.356	2645.06
282.588	2729.06
282.819	2611.06
283.051	2481.06
283.282	2464.06
283.513	2496.06
283.745	2561.06
283.976	2552.06
284.207	2560.06
284.439	2568.06
284.67	2555.06
284.901	2541.06
285.132	2573.06
285.364	2562.06
285.595	2562.06
285.826	2557.06
286.057	2591.06
286.288	2557.06
286.52	2600.06
286.751	2539.06
286.982	2654.06
287.213	2642.06
287.444	2654.06
287.675	2771.06
287.906	2798.06
288.138	2815.06
288.369	2836.06
288.6	2818.06
288.831	2770.06
289.062	2729.06
289.293	2715.06
289.524	2709.06
289.755	2711.06
289.986	2747.06
290.217	2761.06
290.448	2733.06
290.679	2758.06
290.91	2730.06
291.141	2731.06
291.371	2747.06
291.602	2753.06
291.833	2698.06
292.064	2757.06
292.295	2697.06
292.526	2752.06
292.757	2816.06
292.987	2753.06
293.218	2767.06
293.449	2800.06
293.68	2775.06
293.91	2746.06
294.141	2784.06
294.372	2760.06
294.603	2722.06
294.833	2800.06
295.064	2805.06
295.295	2795.06
295.525	2861.06
295.756	2860.06
295.987	2972.06
296.217	3100.06
296.448	3002.06
296.679	2898.06
296.909	2873.06
297.14	2888.06
297.37	2965.06
297.601	2954.06
297.831	2999.06
298.062	2942.06
298.292	2943.06
298.523	3030.06
298.753	3073.06
298.984	3026.06
299.214	2953.06
299.445	2974.06
299.675	3005.06
299.905	3086.06
300.136	3026.06
300.366	3134.06
300.597	3104.06
300.827	3210.06
301.057	3245.06
301.288	3274.06
301.518	3243.06
301.748	3227.06
301.979	3279.06
302.209	3307.06
302.439	3318.06
302.669	3218.06
302.9	3203.06
303.13	3188.06
303.36	3225.06
303.59	3319.06
303.82	3359.06
304.051	3312.06
304.281	3233.06
304.511	3186.06
304.741	3245.06
304.971	3226.06
305.201	3227.06
305.431	3183.06
305.661	3187.06
305.891	3158.06
306.121	3178.06
306.352	3247.06
306.582	3249.06
306.812	3151.06
307.042	3183.06
307.272	3196.06
307.502	3199.06
307.731	3201.06
307.961	3157.06
308.191	3199.06
308.421	3187.06
308.651	3213.06
308.881	3306.06
309.111	3237.06
309.341	3278.06
309.571	3322.06
309.8	3402.06
310.03	3483.06
310.26	3514.06
310.49	3522.06
310.72	3587.06
310.949	3713.06
311.179	3693.06
311.409	3536.06
311.639	3527.06
311.868	3567.06
312.098	3606.06
312.328	3650.06
312.557	3753.06
312.787	3839.06
313.017	3769.06
313.246	3693.06
313.476	3634.06
313.706	3735.06
313.935	3802.06
314.165	3868.06
314.394	3846.06
314.624	3799.06
314.853	3698.06
315.083	3660.06
315.312	3688.06
315.542	3669.06
315.771	3616.06
316.001	3605.06
316.23	3608.06
316.46	3593.06
316.689	3675.06
316.919	3679.06
317.148	3683.06
317.377	3669.06
317.607	3665.06
317.836	3595.06
318.065	3616.06
318.295	3621.06
318.524	3616.06
318.753	3600.06
318.983	3536.06
319.212	3529.06
319.441	3659.06
319.67	3657.06
319.9	3561.06
320.129	3594.06
320.358	3629.06
320.587	3590.06
320.816	3656.06
321.046	3767.06
321.275	3703.06
321.504	3741.06
321.733	3741.06
321.962	3815.06
322.191	3922.06
322.42	3963.06
322.649	4080.06
322.878	4077.06
323.108	4181.06
323.337	4438.06
323.566	4569.06
323.795	4733.06
324.024	5338.06
324.253	6881.06
324.482	10387.06
324.71	14798.06
324.939	15611.06
325.168	12383.06
325.397	6282.06
325.626	5029.06
325.855	4598.06
326.084	4619.06
326.313	4593.06
326.542	4685.06
326.77	5302.06
326.999	6637.06
327.228	9663.06
327.457	13897.06
327.686	13254.06
327.914	7037.06
328.143	5597.06
328.372	5128.06
328.6	5054.06
328.829	5037.06
329.058	5132.06
329.287	5189.06
329.515	4801.06
329.744	4560.06
329.972	4630.06
330.201	4704.06
330.43	4942.06
330.658	5217.06
330.887	5599.06
331.115	5239.06
331.344	4854.06
331.572	4754.06
331.801	4785.06
332.03	4916.06
332.258	4842.06
332.486	4806.06
332.715	4939.06
332.943	5047.06
333.172	5178.06
333.4	5339.06
333.629	5403.06
333.857	5419.06
334.085	5366.06
334.314	5337.06
334.542	5233.06
334.771	5270.06
334.999	5128.06
335.227	5132.06
335.455	4989.06
335.684	4895.06
335.912	4906.06
336.14	4820.06
336.369	4775.06
336.597	4920.06
336.825	4779.06
337.053	4717.06
337.281	4633.06
337.51	4632.06
337.738	4669.06
337.966	4557.06
338.194	4522.06
338.422	4491.06
338.65	4498.06
338.878	4519.06
339.106	4443.06
339.334	4479.06
339.562	4351.06
339.79	4346.06
340.018	4385.06
340.246	4370.06
340.474	4285.06
340.702	4246.06
340.93	4292.06
341.158	4315.06
341.386	4240.06
341.614	4319.06
341.842	4254.06
342.07	4285.06
342.298	4222.06
342.526	4173.06
342.754	4165.06
342.981	4226.06
343.209	4371.06
343.437	4570.06
343.665	4853.06
343.893	5064.06
344.12	5094.06
344.348	4931.06
344.576	4734.06
344.804	4597.06
345.031	4554.06
345.259	4521.06
345.487	4337.06
345.714	4273.06
345.942	4194.06
346.17	4122.06
346.397	4128.06
346.625	4095.06
346.853	4122.06
347.08	4111.06
347.308	4133.06
347.535	4165.06
347.763	4243.06
347.99	4189.06
348.218	4208.06
348.445	4241.06
348.673	4165.06
348.9	4125.06
349.128	4003.06
349.355	4080.06
349.583	3988.06
349.81	3954.06
350.037	3989.06
350.265	3958.06
350.492	3962.06
350.72	3991.06
350.947	4047.06
351.174	4081.06
351.402	4127.06
351.629	4065.06
351.856	4142.06
352.083	4141.06
352.311	4123.06
352.538	4170.06
352.765	4149.06
352.992	4086.06
353.22	3963.06
353.447	3996.06
353.674	3959.06
353.901	3873.06
354.128	3868.06
354.355	3849.06
354.583	3936.06
354.81	3863.06
355.037	3893.06
355.264	3861.06
355.491	3904.06
355.718	3861.06
355.945	3847.06
356.172	3890.06
356.399	3896.06
356.626	3872.06
356.853	3868.06
357.08	3873.06
357.307	3809.06
357.534	3832.06
357.761	3902.06
357.988	3917.06
358.215	3841.06
358.441	3901.06
358.668	3957.06
358.895	3972.06
359.122	3995.06
359.349	4030.06
359.576	4157.06
359.802	4407.06
360.029	4487.06
360.256	4474.06
360.483	4323.06
360.709	4108.06
360.936	4105.06
361.163	4072.06
361.39	4134.06
361.616	4145.06
361.843	4063.06
362.07	4116.06
362.296	4066.06
362.523	4040.06
362.749	4095.06
362.976	4033.06
363.203	3983.06
363.429	3985.06
363.656	3995.06
363.882	4011.06
364.109	3958.06
364.335	3874.06
364.562	4009.06
364.788	4003.06
365.015	3976.06
365.241	3979.06
365.468	3983.06
365.694	4026.06
365.92	4066.06
366.147	3950.06
366.373	3964.06
366.599	3950.06
366.826	3877.06
367.052	3885.06
367.278	4040.06
367.505	3913.06
367.731	4017.06
367.957	3925.06
368.184	4063.06
368.41	4042.06
368.636	4187.06
368.862	4180.06
369.089	4101.06
369.315	4058.06
369.541	4035.06
369.767	4071.06
369.993	4133.06
370.219	4087.06
370.445	4102.06
370.672	4136.06
370.898	4074.06
371.124	4193.06
371.35	4278.06
371.576	4182.06
371.802	4184.06
372.028	4223.06
372.254	4237.06
372.48	4247.06
372.706	4370.06
372.932	4422.06
373.158	4344.06
373.384	4286.06
373.61	4294.06
373.835	4286.06
374.061	4286.06
374.287	4448.06
374.513	4418.06
374.739	4599.06
374.965	4649.06
375.191	4639.06
375.416	4621.06
375.642	4450.06
375.868	4408.06
376.094	4371.06
376.319	4311.06
376.545	4375.06
376.771	4318.06
376.997	4311.06
377.222	4349.06
377.448	4293.06
377.674	4236.06
377.899	4246.06
378.125	4253.06
378.35	4179.06
378.576	4182.06
378.802	4145.06
379.027	4196.06
379.253	4252.06
379.478	4170.06
379.704	4259.06
379.929	4264.06
380.155	4269.06
380.38	4199.06
380.606	4297.06
380.831	4232.06
381.057	4262.06
381.282	4285.06
381.507	4313.06
381.733	4349.06
381.958	4358.06
382.184	4396.06
382.409	4432.06
382.634	4520.06
382.86	4530.06
383.085	4589.06
383.31	4697.06
383.535	4681.06
383.761	4691.06
383.986	4826.06
384.211	4840.06
384.436	4921.06
384.662	5064.06
384.887	5109.06
385.112	5090.06
385.337	5141.06
385.562	5149.06
385.787	5171.06
386.013	5229.06
386.238	5201.06
386.463	5233.06
386.688	5132.06
386.913	5078.06
387.138	5091.06
387.363	5109.06
387.588	5035.06
387.813	5049.06
388.038	5117.06
388.263	5091.06
388.488	5149.06
388.713	5118.06
388.938	5043.06
389.163	5081.06
389.387	5082.06
389.612	4965.06
389.837	5045.06
390.062	4994.06
390.287	5044.06
390.512	5065.06
390.736	5081.06
390.961	5185.06
391.186	5237.06
391.411	5411.06
391.636	5569.06
391.86	5693.06
392.085	5711.06
392.31	5609.06
392.534	5427.06
392.759	5395.06
392.984	5377.06
393.208	5421.06
393.433	5354.06
393.658	5404.06
393.882	5349.06
394.107	5299.06
394.331	5405.06
394.556	5372.06
394.78	5450.06
395.005	5497.06
395.229	5466.06
395.454	5665.06
395.678	5775.06
395.903	5723.06
396.127	5765.06
396.352	5639.06
396.576	5455.06
396.801	5411.06
397.025	5598.06
397.249	5545.06
397.474	5694.06
397.698	5730.06
397.922	5882.06
398.147	5986.06
398.371	6053.06
398.595	6152.06
398.82	6483.06
399.044	7093.06
399.268	7823.06
399.492	8903.06
399.717	9528.06
399.941	9220.06
400.165	8626.06
400.389	7924.06
400.613	7175.06
400.837	6683.06
401.062	6634.06
401.286	6477.06
401.51	6483.06
401.734	6338.06
401.958	6508.06
402.182	6651.06
402.406	6651.06
402.63	6756.06
402.854	6839.06
403.078	6986.06
403.302	7161.06
403.526	7220.06
403.75	7286.06
403.974	7389.06
404.198	7334.06
404.422	7401.06
404.645	7301.06
404.869	7230.06
405.093	7366.06
405.317	7415.06
405.541	7432.06
405.765	7129.06
405.988	7024.06
406.212	7287.06
406.436	7450.06
406.66	7598.06
406.883	7592.06
407.107	8247.06
407.331	8753.06
407.555	9223.06
407.778	8859.06
408.002	8161.06
408.226	7713.06
408.449	7710.06
408.673	7507.06
408.896	7660.06
409.12	7913.06
409.344	7424.06
409.567	7032.06
409.791	6984.06
410.014	6917.06
410.238	6860.06
410.461	6939.06
410.685	6933.06
410.908	7017.06
411.132	7274.06
411.355	7277.06
411.578	6869.06
411.802	6657.06
412.025	6638.06
412.249	6706.06
412.472	6731.06
412.695	6619.06
412.919	6451.06
413.142	6331.06
413.365	6292.06
413.589	6343.06
413.812	6256.06
414.035	6148.06
414.258	6332.06
414.482	6339.06
414.705	6306.06
414.928	6354.06
415.151	6271.06
415.374	6335.06
415.597	6234.06
415.821	6155.06
416.044	6166.06
416.267	6210.06
416.49	6097.06
416.713	6085.06
416.936	6185.06
417.159	6136.06
417.382	6346.06
417.605	6213.06
417.828	6416.06
418.051	6549.06
418.274	6401.06
418.497	6370.06
418.72	6501.06
418.943	6369.06
419.166	6764.06
419.389	7266.06
419.611	7033.06
419.834	6742.06
420.057	6712.06
420.28	6484.06
420.503	6331.06
420.726	6309.06
420.948	6494.06
421.171	6943.06
421.394	6939.06
421.617	6479.06
421.839	6406.06
422.062	6502.06
422.285	6666.06
422.507	7295.06
422.73	7897.06
422.953	7252.06
423.175	6813.06
423.398	6927.06
423.621	6860.06
423.843	7074.06
424.066	7118.06
424.288	6950.06
424.511	7109.06
424.733	7664.06
424.956	8086.06
425.178	7585.06
425.401	7691.06
425.623	7629.06
425.846	6684.06
426.068	6492.06
426.291	6449.06
426.513	6464.06
426.735	6514.06
426.958	7011.06
427.18	7749.06
427.402	8883.06
427.625	8823.06
427.847	7489.06
428.069	6606.06
428.292	6234.06
428.514	6041.06
428.736	5792.06
428.958	5855.06
429.181	5639.06
429.403	5679.06
429.625	5855.06
429.847	6175.06
430.069	6733.06
430.292	6371.06
430.514	5649.06
430.736	5793.06
430.958	5718.06
431.18	5587.06
431.402	5550.06
431.624	5513.06
431.846	5633.06
432.068	5647.06
432.29	5712.06
432.512	5702.06
432.734	5797.06
432.956	5625.06
433.178	5782.06
433.4	5737.06
433.622	5729.06
433.844	5677.06
434.066	5735.06
434.287	5795.06
434.509	6061.06
434.731	6235.06
434.953	6385.06
435.175	6520.06
435.397	6581.06
435.618	6419.06
435.84	6844.06
436.062	7638.06
436.284	7655.06
436.505	6491.06
436.727	6177.06
436.949	5881.06
437.17	5766.06
437.392	5710.06
437.614	5893.06
437.835	6198.06
438.057	7220.06
438.278	7863.06
438.5	7773.06
438.721	8498.06
438.943	7444.06
439.165	6271.06
439.386	6171.06
439.608	6161.06
439.829	6214.06
440.05	6648.06
440.272	6990.06
440.493	6358.06
440.715	5992.06
440.936	6047.06
441.158	6035.06
441.379	6202.06
441.6	6542.06
441.822	6714.06
442.043	7190.06
442.264	7945.06
442.486	7544.06
442.707	6773.06
442.928	6598.06
443.149	6793.06
443.371	7032.06
443.592	7549.06
443.813	8573.06
444.034	8442.06
444.255	7415.06
444.476	7218.06
444.698	7454.06
444.919	7512.06
445.14	7259.06
445.361	7190.06
445.582	7302.06
445.803	7848.06
446.024	8541.06
446.245	8192.06
446.466	7263.06
446.687	6389.06
446.908	6036.06
447.129	5709.06
447.35	5569.06
447.571	5574.06
447.792	5428.06
448.013	5605.06
448.234	5735.06
448.455	6297.06
448.675	7573.06
448.896	8054.06
449.117	6595.06
449.338	6870.06
449.559	8103.06
449.779	8235.06
450	6427.06
450.221	5698.06
450.442	5460.06
450.662	5343.06
450.883	5456.06
451.104	5579.06
451.324	5446.06
451.545	5291.06
451.766	5148.06
451.986	4994.06
452.207	4996.06
452.428	4994.06
452.648	5027.06
452.869	5017.06
453.089	5130.06
453.31	5135.06
453.53	5009.06
453.751	4945.06
453.971	5012.06
454.192	5058.06
454.412	4897.06
454.633	4787.06
454.853	4889.06
455.073	4885.06
455.294	5238.06
455.514	5719.06
455.734	5240.06
455.955	4759.06
456.175	4661.06
456.395	4594.06
456.616	4606.06
456.836	4609.06
457.056	4566.06
457.276	4510.06
457.497	4677.06
457.717	4618.06
457.937	4707.06
458.157	4808.06
458.377	4898.06
458.598	5203.06
458.818	5856.06
459.038	6662.06
459.258	6636.06
459.478	5931.06
459.698	5771.06
459.918	5784.06
460.138	5992.06
460.358	6243.06
460.578	6197.06
460.798	6255.06
461.018	6352.06
461.238	6194.06
461.458	6124.06
461.678	6094.06
461.898	6304.06
462.118	6336.06
462.338	6666.06
462.558	6845.06
462.777	7096.06
462.997	7569.06
463.217	8003.06
463.437	7766.06
463.657	7205.06
463.876	7029.06
464.096	7066.06
464.316	7059.06
464.536	7161.06
464.755	6934.06
464.975	6834.06
465.195	6852.06
465.414	6919.06
465.634	6143.06
465.854	5795.06
466.073	5644.06
466.293	5470.06
466.512	5216.06
466.732	5166.06
466.951	5165.06
467.171	5244.06
467.391	5249.06
467.61	5307.06
467.829	5264.06
468.049	5131.06
468.268	4985.06
468.488	4978.06
468.707	4856.06
468.927	4870.06
469.146	4937.06
469.365	5021.06
469.585	4974.06
469.804	5196.06
470.023	5336.06
470.243	5409.06
470.462	5511.06
470.681	5531.06
470.901	5440.06
471.12	5299.06
471.339	5267.06
471.558	5221.06
471.777	5123.06
471.997	5013.06
472.216	4972.06
472.435	4975.06
472.654	4954.06
472.873	4877.06
473.092	4870.06
473.311	4869.06
473.53	4903.06
473.749	5031.06
473.968	5607.06
474.187	6509.06
474.406	6104.06
474.625	5279.06
474.844	4975.06
475.063	5001.06
475.282	4984.06
475.501	5008.06
475.72	5060.06
475.939	5101.06
476.158	5137.06
476.377	5129.06
476.596	5118.06
476.814	5282.06
477.033	5322.06
477.252	5482.06
477.471	5468.06
477.69	5559.06
477.908	5654.06
478.127	5791.06
478.346	5854.06
478.564	5990.06
478.783	6149.06
479.002	6276.06
479.22	6220.06
479.439	6327.06
479.658	6419.06
479.876	6557.06
480.095	6749.06
480.313	7098.06
480.532	7027.06
480.751	6860.06
480.969	6690.06
481.188	6598.06
481.406	6415.06
481.624	6170.06
481.843	5941.06
482.061	5928.06
482.28	5898.06
482.498	5794.06
482.717	5738.06
482.935	5816.06
483.153	5765.06
483.372	5809.06
483.59	5804.06
483.808	5749.06
484.027	5799.06
484.245	5850.06
484.463	5808.06
484.681	5966.06
484.9	5925.06
485.118	6058.06
485.336	6007.06
485.554	6113.06
485.772	6183.06
485.99	6213.06
486.209	6177.06
486.427	6145.06
486.645	6236.06
486.863	6351.06
487.081	6321.06
487.299	6312.06
487.517	6241.06
487.735	6113.06
487.953	6197.06
