Data from Uncirc_2002_H10_HRD10591_00087.txt Node
Date: Wed Jan 03 10:39:58 EST 2024
User: Yrep
Spectrometer: HR+D1059
Trigger mode: 1
Integration Time (sec): 1.000000E-1
Scans to average: 1
Electric dark correction enabled: true
Nonlinearity correction enabled: false
Boxcar width: 0
XAxis mode: Wavelengths
Number of Pixels in Spectrum: 2048
>>>>>Begin Spectral Data<<<<<
223.165	-26
223.4	-26
223.635	-26
223.869	-8
224.104	-15
224.338	-18
224.573	-15
224.808	0
225.042	-8
225.277	-20
225.511	-17
225.746	5
225.98	4
226.215	4
226.449	33
226.683	26
226.918	18
227.152	37
227.387	33
227.621	42
227.856	56
228.09	56
228.324	62
228.559	72
228.793	53
229.027	59
229.262	58
229.496	85
229.73	89
229.964	78
230.199	77
230.433	72
230.667	77
230.901	96
231.136	70
231.37	81
231.604	80
231.838	73
232.072	70
232.306	85
232.541	85
232.775	75
233.009	75
233.243	65
233.477	91
233.711	86
233.945	76
234.179	77
234.413	81
234.647	77
234.881	76
235.115	91
235.349	73
235.583	70
235.817	84
236.051	79
236.285	80
236.519	87
236.753	70
236.987	64
237.221	79
237.455	80
237.689	80
237.922	80
238.156	74
238.39	82
238.624	91
238.858	76
239.091	80
239.325	76
239.559	80
239.793	90
240.027	55
240.26	73
240.494	80
240.728	90
240.961	71
241.195	75
241.429	91
241.662	72
241.896	67
242.13	84
242.363	69
242.597	75
242.83	70
243.064	93
243.298	53
243.531	88
243.765	75
243.998	76
244.232	81
244.465	95
244.699	83
244.932	80
245.166	71
245.399	79
245.633	79
245.866	72
246.099	89
246.333	90
246.566	86
246.8	81
247.033	95
247.266	77
247.5	85
247.733	77
247.966	85
248.2	79
248.433	85
248.666	70
248.899	77
249.133	83
249.366	88
249.599	90
249.832	75
250.066	78
250.299	73
250.532	92
250.765	83
250.998	77
251.231	83
251.465	75
251.698	97
251.931	78
252.164	84
252.397	76
252.63	77
252.863	84
253.096	89
253.329	91
253.562	74
253.795	85
254.028	74
254.261	67
254.494	82
254.727	93
254.96	71
255.193	89
255.426	80
255.659	74
255.892	95
256.124	86
256.357	76
256.59	84
256.823	96
257.056	83
257.289	86
257.521	84
257.754	91
257.987	83
258.22	85
258.452	79
258.685	86
258.918	83
259.151	88
259.383	77
259.616	84
259.849	76
260.081	81
260.314	80
260.547	73
260.779	87
261.012	88
261.244	85
261.477	85
261.71	98
261.942	103
262.175	122
262.407	96
262.64	84
262.872	92
263.105	96
263.337	89
263.57	74
263.802	88
264.035	81
264.267	79
264.499	76
264.732	86
264.964	86
265.197	88
265.429	91
265.661	83
265.894	82
266.126	80
266.358	87
266.591	90
266.823	88
267.055	90
267.287	72
267.52	72
267.752	96
267.984	85
268.216	75
268.448	85
268.681	87
268.913	87
269.145	82
269.377	83
269.609	71
269.841	81
270.073	86
270.306	79
270.538	91
270.77	104
271.002	90
271.234	83
271.466	86
271.698	84
271.93	71
272.162	88
272.394	107
272.626	110
272.858	84
273.09	88
273.322	89
273.553	77
273.785	81
274.017	78
274.249	75
274.481	81
274.713	92
274.945	83
275.176	82
275.408	91
275.64	94
275.872	87
276.104	83
276.335	89
276.567	104
276.799	100
277.031	111
277.262	90
277.494	84
277.726	72
277.957	88
278.189	84
278.421	109
278.652	91
278.884	86
279.115	95
279.347	87
279.579	96
279.81	73
280.042	85
280.273	92
280.505	76
280.736	91
280.968	79
281.199	95
281.431	96
281.662	88
281.894	86
282.125	94
282.356	120
282.588	125
282.819	113
283.051	99
283.282	93
283.513	85
283.745	93
283.976	86
284.207	75
284.439	87
284.67	87
284.901	94
285.132	93
285.364	99
285.595	87
285.826	89
286.057	90
286.288	83
286.52	83
286.751	90
286.982	75
287.213	86
287.444	85
287.675	84
287.906	87
288.138	87
288.369	99
288.6	87
288.831	90
289.062	90
289.293	102
289.524	79
289.755	85
289.986	88
290.217	82
290.448	98
290.679	88
290.91	93
291.141	82
291.371	87
291.602	81
291.833	94
292.064	95
292.295	88
292.526	91
292.757	83
292.987	75
293.218	92
293.449	90
293.68	105
293.91	93
294.141	109
294.372	100
294.603	89
294.833	87
295.064	89
295.295	86
295.525	99
295.756	88
295.987	114
296.217	142
296.448	133
296.679	89
296.909	93
297.14	81
297.37	92
297.601	90
297.831	93
298.062	88
298.292	87
298.523	92
298.753	80
298.984	100
299.214	92
299.445	85
299.675	97
299.905	82
300.136	80
300.366	99
300.597	104
300.827	97
301.057	104
301.288	96
301.518	101
301.748	72
301.979	107
302.209	98
302.439	100
302.669	88
302.9	84
303.13	88
303.36	88
303.59	107
303.82	108
304.051	91
304.281	89
304.511	93
304.741	95
304.971	82
305.201	96
305.431	75
305.661	80
305.891	93
306.121	81
306.352	92
306.582	88
306.812	100
307.042	93
307.272	88
307.502	85
307.731	91
307.961	86
308.191	88
308.421	96
308.651	101
308.881	114
309.111	89
309.341	103
309.571	103
309.8	96
310.03	103
310.26	101
310.49	89
310.72	99
310.949	106
311.179	110
311.409	101
311.639	100
311.868	107
312.098	93
312.328	103
312.557	101
312.787	108
313.017	106
313.246	86
313.476	91
313.706	80
313.935	97
314.165	101
314.394	103
314.624	105
314.853	91
315.083	90
315.312	90
315.542	88
315.771	101
316.001	102
316.23	108
316.46	91
316.689	90
316.919	97
317.148	91
317.377	110
317.607	92
317.836	101
318.065	93
318.295	88
318.524	85
318.753	88
318.983	99
319.212	108
319.441	120
319.67	96
319.9	92
320.129	96
320.358	87
320.587	93
320.816	92
321.046	96
321.275	88
321.504	84
321.733	92
321.962	96
322.191	103
322.42	100
322.649	103
322.878	111
323.108	108
323.337	128
323.566	131
323.795	138
324.024	189
324.253	375
324.482	724
324.71	1495
324.939	1968
325.168	759
325.397	221
325.626	149
325.855	129
326.084	119
326.313	129
326.542	166
326.77	216
326.999	423
327.228	850
327.457	1479
327.686	1173
327.914	345
328.143	184
328.372	136
328.6	116
328.829	132
329.058	125
329.287	119
329.515	100
329.744	113
329.972	91
330.201	112
330.43	113
330.658	130
330.887	147
331.115	128
331.344	106
331.572	110
331.801	104
332.03	96
332.258	104
332.486	112
332.715	97
332.943	104
333.172	101
333.4	85
333.629	102
333.857	117
334.085	104
334.314	103
334.542	99
334.771	105
334.999	86
335.227	105
335.455	108
335.684	92
335.912	98
336.14	97
336.369	89
336.597	108
336.825	117
337.053	83
337.281	97
337.51	92
337.738	87
337.966	92
338.194	100
338.422	92
338.65	92
338.878	109
339.106	87
339.334	83
339.562	93
339.79	87
340.018	79
340.246	94
340.474	91
340.702	103
340.93	98
341.158	89
341.386	95
341.614	74
341.842	93
342.07	100
342.298	94
342.526	99
342.754	87
342.981	91
343.209	85
343.437	93
343.665	83
343.893	86
344.12	97
344.348	103
344.576	95
344.804	74
345.031	94
345.259	99
345.487	97
345.714	91
345.942	84
346.17	96
346.397	99
346.625	88
346.853	104
347.08	84
347.308	94
347.535	100
347.763	97
347.99	104
348.218	92
348.445	97
348.673	109
348.9	86
349.128	86
349.355	96
349.583	97
349.81	80
350.037	94
350.265	83
350.492	92
350.72	95
350.947	113
351.174	100
351.402	107
351.629	108
351.856	100
352.083	109
352.311	92
352.538	129
352.765	108
352.992	116
353.22	102
353.447	85
353.674	101
353.901	103
354.128	94
354.355	105
354.583	88
354.81	99
355.037	97
355.264	99
355.491	100
355.718	98
355.945	93
356.172	94
356.399	109
356.626	91
356.853	96
357.08	81
357.307	86
357.534	82
357.761	87
357.988	97
358.215	90
358.441	89
358.668	98
358.895	80
359.122	95
359.349	83
359.576	99
359.802	97
360.029	120
360.256	116
360.483	102
360.709	106
360.936	99
361.163	88
361.39	97
361.616	110
361.843	94
362.07	101
362.296	111
362.523	95
362.749	79
362.976	96
363.203	100
363.429	93
363.656	91
363.882	81
364.109	96
364.335	99
364.562	103
364.788	96
365.015	100
365.241	103
365.468	107
365.694	111
365.92	100
366.147	91
366.373	87
366.599	85
366.826	103
367.052	89
367.278	91
367.505	98
367.731	109
367.957	100
368.184	105
368.41	103
368.636	113
368.862	123
369.089	97
369.315	95
369.541	101
369.767	88
369.993	89
370.219	97
370.445	90
370.672	83
370.898	97
371.124	98
371.35	82
371.576	84
371.802	88
372.028	78
372.254	85
372.48	74
372.706	101
372.932	91
373.158	87
373.384	108
373.61	93
373.835	89
374.061	80
374.287	93
374.513	90
374.739	89
374.965	93
375.191	89
375.416	84
375.642	94
375.868	94
376.094	85
376.319	97
376.545	94
376.771	88
376.997	102
377.222	103
377.448	88
377.674	98
377.899	110
378.125	93
378.35	101
378.576	84
378.802	96
379.027	92
379.253	110
379.478	92
379.704	100
379.929	99
380.155	91
380.38	83
380.606	104
380.831	86
381.057	99
381.282	89
381.507	94
381.733	90
381.958	89
382.184	94
382.409	96
382.634	100
382.86	88
383.085	98
383.31	124
383.535	103
383.761	100
383.986	93
384.211	100
384.436	100
384.662	88
384.887	100
385.112	103
385.337	103
385.562	102
385.787	107
386.013	121
386.238	107
386.463	104
386.688	112
386.913	100
387.138	106
387.363	115
387.588	96
387.813	90
388.038	100
388.263	97
388.488	98
388.713	108
388.938	85
389.163	100
389.387	102
389.612	108
389.837	85
390.062	89
390.287	109
390.512	102
390.736	97
390.961	93
391.186	99
391.411	91
391.636	103
391.86	81
392.085	77
392.31	90
392.534	91
392.759	94
392.984	89
393.208	98
393.433	93
393.658	102
393.882	81
394.107	88
394.331	89
394.556	75
394.78	80
395.005	88
395.229	86
395.454	97
395.678	85
395.903	81
396.127	86
396.352	105
396.576	72
396.801	92
397.025	85
397.249	100
397.474	97
397.698	91
397.922	86
398.147	95
398.371	90
398.595	76
398.82	90
399.044	97
399.268	99
399.492	96
399.717	93
399.941	92
400.165	78
400.389	97
400.613	91
400.837	81
401.062	92
401.286	92
401.51	92
401.734	97
401.958	96
402.182	124
402.406	156
402.63	129
402.854	82
403.078	103
403.302	91
403.526	95
403.75	97
403.974	81
404.198	88
404.422	100
404.645	107
404.869	98
405.093	92
405.317	91
405.541	91
405.765	98
405.988	113
406.212	152
406.436	207
406.66	136
406.883	97
407.107	102
407.331	93
407.555	87
407.778	84
408.002	86
408.226	102
408.449	83
408.673	88
408.896	95
409.12	109
409.344	96
409.567	78
409.791	84
410.014	104
410.238	77
410.461	81
410.685	92
410.908	98
411.132	105
411.355	104
411.578	94
411.802	84
412.025	93
412.249	80
412.472	87
412.695	91
412.919	93
413.142	84
413.365	95
413.589	77
413.812	76
414.035	99
414.258	92
414.482	98
414.705	96
414.928	90
415.151	91
415.374	90
415.597	90
415.821	92
416.044	85
416.267	98
416.49	97
416.713	81
416.936	87
417.159	91
417.382	76
417.605	95
417.828	85
418.051	99
418.274	85
418.497	85
418.72	91
418.943	86
419.166	79
419.389	89
419.611	98
419.834	95
420.057	95
420.28	95
420.503	89
420.726	95
420.948	92
421.171	100
421.394	83
421.617	73
421.839	96
422.062	100
422.285	90
422.507	105
422.73	106
422.953	97
423.175	95
423.398	96
423.621	102
423.843	99
424.066	94
424.288	89
424.511	93
424.733	98
424.956	113
425.178	104
425.401	86
425.623	92
425.846	87
426.068	77
426.291	93
426.513	91
426.735	90
426.958	97
427.18	91
427.402	120
427.625	151
427.847	116
428.069	104
428.292	87
428.514	86
428.736	92
428.958	68
429.181	86
429.403	75
429.625	78
429.847	87
430.069	92
430.292	95
430.514	97
430.736	80
430.958	86
431.18	80
431.402	81
431.624	89
431.846	93
432.068	84
432.29	102
432.512	89
432.734	99
432.956	100
433.178	97
433.4	87
433.622	91
433.844	110
434.066	106
434.287	83
434.509	84
434.731	94
434.953	91
435.175	88
435.397	77
435.618	96
435.84	110
436.062	123
436.284	108
436.505	107
436.727	114
436.949	101
437.17	99
437.392	91
437.614	103
437.835	100
438.057	123
438.278	98
438.5	93
438.721	125
438.943	97
439.165	99
439.386	85
439.608	87
439.829	81
440.05	121
440.272	138
440.493	111
440.715	88
440.936	72
441.158	80
441.379	78
441.6	96
441.822	94
442.043	89
442.264	104
442.486	106
442.707	97
442.928	92
443.149	126
443.371	132
443.592	98
443.813	110
444.034	92
444.255	92
444.476	79
444.698	104
444.919	99
445.14	136
445.361	121
445.582	104
445.803	132
446.024	127
446.245	145
446.466	106
446.687	103
446.908	102
447.129	98
447.35	102
447.571	95
447.792	89
448.013	104
448.234	108
448.455	102
448.675	114
448.896	115
449.117	101
449.338	96
449.559	112
449.779	134
450	84
450.221	89
450.442	89
450.662	99
450.883	89
451.104	108
451.324	93
451.545	85
451.766	85
451.986	87
452.207	96
452.428	95
452.648	110
452.869	103
453.089	104
453.31	124
453.53	85
453.751	89
453.971	96
454.192	105
454.412	74
454.633	88
454.853	91
455.073	100
455.294	99
455.514	97
455.734	94
455.955	85
456.175	87
456.395	95
456.616	94
456.836	91
457.056	84
457.276	78
457.497	95
457.717	81
457.937	80
458.157	78
458.377	92
458.598	109
458.818	137
459.038	151
459.258	97
459.478	103
459.698	80
459.918	90
460.138	90
460.358	70
460.578	89
460.798	96
461.018	101
461.238	93
461.458	91
461.678	89
461.898	82
462.118	91
462.338	89
462.558	83
462.777	98
462.997	90
463.217	83
463.437	98
463.657	81
463.876	76
464.096	96
464.316	93
464.536	98
464.755	102
464.975	109
465.195	156
465.414	157
465.634	101
465.854	83
466.073	93
466.293	87
466.512	84
466.732	80
466.951	89
467.171	92
467.391	89
467.61	96
467.829	107
468.049	89
468.268	82
468.488	89
468.707	92
468.927	104
469.146	79
469.365	78
469.585	87
469.804	103
470.023	105
470.243	84
470.462	89
470.681	99
470.901	93
471.12	93
471.339	82
471.558	91
471.777	91
471.997	86
472.216	104
472.435	102
472.654	85
472.873	93
473.092	85
473.311	77
473.53	85
473.749	78
473.968	95
474.187	106
474.406	99
474.625	83
474.844	85
475.063	81
475.282	100
475.501	108
475.72	74
475.939	87
476.158	88
476.377	93
476.596	84
476.814	103
477.033	81
477.252	77
477.471	97
477.69	87
477.908	94
478.127	90
478.346	82
478.564	97
478.783	94
479.002	90
479.22	87
479.439	99
479.658	101
479.876	94
480.095	89
480.313	91
480.532	92
480.751	90
480.969	97
481.188	116
481.406	99
481.624	90
481.843	91
482.061	81
482.28	87
482.498	88
482.717	85
482.935	90
483.153	96
483.372	91
483.59	95
483.808	99
484.027	93
484.245	110
484.463	88
484.681	95
484.9	90
485.118	93
485.336	97
485.554	90
485.772	105
485.99	114
486.209	94
486.427	92
486.645	101
486.863	89
487.081	108
487.299	105
487.517	95
487.735	107
487.953	102
488.171	88
488.389	94
488.607	95
488.825	93
489.043	95
489.261	88
489.479	89
489.696	101
489.914	89
490.132	73
490.35	75
490.568	85
490.786	92
491.003	91
491.221	94
491.439	100
491.657	107
491.874	95
492.092	100
492.31	95
492.527	89
492.745	84
492.963	76
493.18	83
493.398	97
493.615	97
493.833	96
494.05	90
494.268	82
494.485	96
494.703	100
494.92	91
495.138	97
495.355	83
495.573	79
495.79	84
496.008	100
496.225	83
496.442	87
496.66	92
496.877	96
497.094	83
497.312	95
497.529	85
497.746	97
497.963	91
498.181	93
498.398	92
498.615	88
498.832	102
499.049	98
499.267	92
499.484	95
499.701	100
499.918	85
500.135	88
500.352	90
500.569	90
500.786	91
501.003	90
501.22	77
501.437	90
501.654	93
501.871	94
502.088	105
502.305	95
502.522	87
502.739	96
502.956	87
503.172	102
503.389	102
503.606	109
503.823	98
504.04	84
504.256	86
504.473	92
504.69	88
504.907	97
505.123	88
505.34	90
505.557	100
505.773	71
505.99	88
506.207	92
506.423	95
506.64	98
506.856	96
507.073	93
507.289	101
507.506	90
507.722	105
507.939	107
508.155	110
508.372	92
508.588	99
508.805	105
509.021	99
509.238	93
509.454	83
509.67	107
509.887	117
510.103	131
510.319	203
510.536	748
510.752	2325
510.968	631
511.184	163
511.401	106
511.617	98
511.833	82
512.049	98
512.265	79
512.481	96
512.698	74
512.914	93
513.13	97
513.346	93
513.562	100
513.778	97
513.994	97
514.21	120
514.426	119
514.642	138
514.858	107
515.074	156
515.29	433
515.506	1361
515.721	493
515.937	159
516.153	97
516.369	97
516.585	91
516.801	96
517.016	82
517.232	95
517.448	91
517.664	100
517.879	87
518.095	105
518.311	99
518.527	87
518.742	84
518.958	85
519.173	85
519.389	101
519.605	101
519.82	88
520.036	113
520.251	120
520.467	103
520.682	102
520.898	115
521.113	99
521.329	137
521.544	203
521.76	538
521.975	2187
522.19	1297
522.406	288
522.621	128
522.836	97
523.052	100
523.267	103
523.482	84
523.698	101
523.913	124
524.128	107
524.343	87
524.559	84
524.774	93
524.989	104
525.204	116
525.419	91
525.634	88
525.849	89
526.064	80
526.28	93
526.495	92
526.71	80
526.925	80
527.14	91
527.355	93
527.57	91
527.785	80
527.999	101
528.214	96
528.429	81
528.644	99
528.859	93
529.074	84
529.289	129
529.503	181
529.718	93
529.933	93
530.148	88
530.363	99
530.577	102
530.792	93
531.007	85
531.221	104
531.436	97
531.651	72
531.865	84
532.08	84
532.295	99
532.509	91
532.724	107
532.938	100
533.153	89
533.367	97
533.582	93
533.796	99
534.011	91
534.225	88
534.44	81
534.654	88
534.868	99
535.083	98
535.297	89
535.511	95
535.726	100
535.94	86
536.154	92
536.369	96
536.583	83
536.797	97
537.011	96
537.225	102
537.44	103
537.654	85
537.868	84
538.082	102
538.296	84
538.51	108
538.724	83
538.938	105
539.153	92
539.367	93
539.581	102
539.795	92
540.009	91
540.222	88
540.436	93
540.65	82
540.864	95
541.078	87
541.292	85
541.506	89
541.72	89
541.934	92
542.147	99
542.361	90
542.575	82
542.789	80
543.002	100
543.216	87
543.43	97
543.644	105
543.857	105
544.071	96
544.285	101
544.498	102
544.712	76
544.925	98
545.139	108
545.352	100
545.566	76
545.779	96
545.993	92
546.206	90
546.42	80
546.633	92
546.847	99
547.06	96
547.274	92
547.487	93
547.7	82
547.914	85
548.127	86
548.34	98
548.554	95
548.767	93
548.98	83
549.193	84
549.407	100
549.62	88
549.833	81
550.046	85
550.259	89
550.473	92
550.686	85
550.899	87
551.112	88
551.325	81
551.538	101
551.751	95
551.964	92
552.177	84
552.39	96
552.603	90
552.816	84
553.029	104
553.242	89
553.455	90
553.667	92
553.88	83
554.093	92
554.306	100
554.519	90
554.732	82
554.944	92
555.157	98
555.37	85
555.583	81
555.795	100
556.008	94
556.221	99
556.433	92
556.646	92
556.859	79
557.071	83
557.284	92
557.496	94
557.709	92
557.921	75
558.134	96
558.346	88
558.559	96
558.771	97
558.984	95
559.196	99
559.409	95
559.621	90
559.833	91
560.046	98
560.258	85
560.47	89
560.683	92
560.895	94
561.107	87
561.32	90
561.532	86
561.744	87
561.956	99
562.168	92
562.381	95
562.593	74
562.805	75
563.017	81
563.229	89
563.441	90
563.653	79
563.865	99
564.077	84
564.289	88
564.501	101
564.713	85
564.925	76
565.137	99
565.349	96
565.561	91
565.773	90
565.985	91
566.197	85
566.408	84
566.62	90
566.832	96
567.044	96
567.255	81
567.467	83
567.679	85
567.891	90
568.102	85
568.314	75
568.526	96
568.737	83
568.949	100
569.161	87
569.372	93
569.584	97
569.795	97
570.007	135
570.218	237
570.43	151
570.641	94
570.853	75
571.064	74
571.276	92
571.487	88
571.698	97
571.91	95
572.121	78
572.333	100
572.544	84
572.755	108
572.966	78
573.178	87
573.389	91
573.6	91
573.811	96
574.023	86
574.234	89
574.445	97
574.656	80
574.867	92
575.078	83
575.289	101
575.501	95
575.712	83
575.923	107
576.134	89
576.345	87
576.556	85
576.767	88
576.978	99
577.188	92
577.399	89
577.61	104
577.821	88
578.032	107
578.243	262
578.454	722
578.665	209
578.875	115
579.086	87
579.297	86
579.508	93
579.718	83
579.929	100
580.14	84
580.35	107
580.561	89
580.772	87
580.982	86
581.193	88
581.403	80
581.614	81
581.825	86
582.035	105
582.246	89
582.456	93
582.667	92
582.877	96
583.087	88
583.298	84
583.508	95
583.719	91
