Data from Uncirc_2002_H10_HRD10591_00043.txt Node
Date: Wed Jan 03 10:39:49 EST 2024
User: Yrep
Spectrometer: HR+D1059
Trigger mode: 1
Integration Time (sec): 1.000000E-1
Scans to average: 1
Electric dark correction enabled: true
Nonlinearity correction enabled: false
Boxcar width: 0
XAxis mode: Wavelengths
Number of Pixels in Spectrum: 2048
>>>>>Begin Spectral Data<<<<<
223.165	-9.06
223.4	-9.06
223.635	-9.06
223.869	-26.06
224.104	-19.06
224.338	-10.06
224.573	-19.06
224.808	-11.06
225.042	6.94
225.277	-8.06
225.511	3.94
225.746	9.94
225.98	5.94
226.215	4.94
226.449	15.94
226.683	11.94
226.918	16.94
227.152	25.94
227.387	34.94
227.621	35.94
227.856	50.94
228.09	51.94
228.324	65.94
228.559	63.94
228.793	57.94
229.027	54.94
229.262	67.94
229.496	77.94
229.73	83.94
229.964	76.94
230.199	76.94
230.433	71.94
230.667	63.94
230.901	84.94
231.136	81.94
231.37	83.94
231.604	76.94
231.838	74.94
232.072	77.94
232.306	79.94
232.541	75.94
232.775	89.94
233.009	76.94
233.243	74.94
233.477	90.94
233.711	74.94
233.945	67.94
234.179	87.94
234.413	80.94
234.647	89.94
234.881	72.94
235.115	81.94
235.349	90.94
235.583	80.94
235.817	84.94
236.051	80.94
236.285	83.94
236.519	87.94
236.753	78.94
236.987	81.94
237.221	97.94
237.455	81.94
237.689	77.94
237.922	85.94
238.156	81.94
238.39	80.94
238.624	85.94
238.858	69.94
239.091	80.94
239.325	82.94
239.559	77.94
239.793	74.94
240.027	91.94
240.26	90.94
240.494	82.94
240.728	83.94
240.961	74.94
241.195	73.94
241.429	77.94
241.662	86.94
241.896	69.94
242.13	79.94
242.363	81.94
242.597	71.94
242.83	87.94
243.064	77.94
243.298	75.94
243.531	77.94
243.765	79.94
243.998	71.94
244.232	77.94
244.465	90.94
244.699	100.94
244.932	75.94
245.166	76.94
245.399	82.94
245.633	89.94
245.866	89.94
246.099	81.94
246.333	77.94
246.566	72.94
246.8	79.94
247.033	91.94
247.266	81.94
247.5	88.94
247.733	85.94
247.966	97.94
248.2	85.94
248.433	85.94
248.666	86.94
248.899	91.94
249.133	90.94
249.366	89.94
249.599	92.94
249.832	76.94
250.066	71.94
250.299	85.94
250.532	83.94
250.765	79.94
250.998	86.94
251.231	83.94
251.465	81.94
251.698	90.94
251.931	77.94
252.164	83.94
252.397	83.94
252.63	83.94
252.863	82.94
253.096	81.94
253.329	88.94
253.562	94.94
253.795	81.94
254.028	76.94
254.261	78.94
254.494	83.94
254.727	79.94
254.96	81.94
255.193	91.94
255.426	69.94
255.659	107.94
255.892	93.94
256.124	94.94
256.357	89.94
256.59	91.94
256.823	82.94
257.056	83.94
257.289	93.94
257.521	89.94
257.754	91.94
257.987	86.94
258.22	98.94
258.452	80.94
258.685	89.94
258.918	91.94
259.151	82.94
259.383	88.94
259.616	96.94
259.849	99.94
260.081	92.94
260.314	79.94
260.547	89.94
260.779	98.94
261.012	82.94
261.244	78.94
261.477	91.94
261.71	75.94
261.942	114.94
262.175	104.94
262.407	95.94
262.64	83.94
262.872	79.94
263.105	84.94
263.337	78.94
263.57	105.94
263.802	85.94
264.035	83.94
264.267	83.94
264.499	73.94
264.732	66.94
264.964	80.94
265.197	77.94
265.429	74.94
265.661	87.94
265.894	85.94
266.126	84.94
266.358	81.94
266.591	80.94
266.823	80.94
267.055	86.94
267.287	88.94
267.52	98.94
267.752	79.94
267.984	86.94
268.216	84.94
268.448	94.94
268.681	85.94
268.913	81.94
269.145	88.94
269.377	94.94
269.609	85.94
269.841	84.94
270.073	87.94
270.306	88.94
270.538	81.94
270.77	92.94
271.002	81.94
271.234	91.94
271.466	80.94
271.698	88.94
271.93	96.94
272.162	68.94
272.394	93.94
272.626	83.94
272.858	87.94
273.09	91.94
273.322	77.94
273.553	84.94
273.785	76.94
274.017	87.94
274.249	79.94
274.481	74.94
274.713	82.94
274.945	87.94
275.176	84.94
275.408	86.94
275.64	93.94
275.872	93.94
276.104	80.94
276.335	93.94
276.567	103.94
276.799	105.94
277.031	99.94
277.262	101.94
277.494	95.94
277.726	93.94
277.957	93.94
278.189	86.94
278.421	100.94
278.652	88.94
278.884	83.94
279.115	65.94
279.347	91.94
279.579	95.94
279.81	87.94
280.042	93.94
280.273	83.94
280.505	87.94
280.736	88.94
280.968	88.94
281.199	81.94
281.431	81.94
281.662	91.94
281.894	103.94
282.125	99.94
282.356	105.94
282.588	144.94
282.819	106.94
283.051	87.94
283.282	88.94
283.513	90.94
283.745	96.94
283.976	77.94
284.207	104.94
284.439	91.94
284.67	95.94
284.901	71.94
285.132	88.94
285.364	87.94
285.595	83.94
285.826	94.94
286.057	96.94
286.288	96.94
286.52	92.94
286.751	85.94
286.982	88.94
287.213	80.94
287.444	92.94
287.675	88.94
287.906	96.94
288.138	91.94
288.369	93.94
288.6	77.94
288.831	85.94
289.062	91.94
289.293	77.94
289.524	79.94
289.755	89.94
289.986	91.94
290.217	93.94
290.448	82.94
290.679	97.94
290.91	94.94
291.141	94.94
291.371	97.94
291.602	101.94
291.833	86.94
292.064	96.94
292.295	96.94
292.526	96.94
292.757	89.94
292.987	66.94
293.218	87.94
293.449	79.94
293.68	84.94
293.91	83.94
294.141	84.94
294.372	93.94
294.603	77.94
294.833	84.94
295.064	106.94
295.295	98.94
295.525	86.94
295.756	109.94
295.987	107.94
296.217	132.94
296.448	116.94
296.679	102.94
296.909	89.94
297.14	93.94
297.37	100.94
297.601	81.94
297.831	100.94
298.062	83.94
298.292	84.94
298.523	87.94
298.753	83.94
298.984	74.94
299.214	91.94
299.445	90.94
299.675	90.94
299.905	102.94
300.136	82.94
300.366	90.94
300.597	86.94
300.827	94.94
301.057	89.94
301.288	83.94
301.518	72.94
301.748	87.94
301.979	114.94
302.209	93.94
302.439	106.94
302.669	101.94
302.9	76.94
303.13	89.94
303.36	92.94
303.59	97.94
303.82	111.94
304.051	92.94
304.281	97.94
304.511	100.94
304.741	89.94
304.971	94.94
305.201	103.94
305.431	87.94
305.661	93.94
305.891	103.94
306.121	87.94
306.352	86.94
306.582	95.94
306.812	96.94
307.042	88.94
307.272	88.94
307.502	96.94
307.731	92.94
307.961	104.94
308.191	102.94
308.421	88.94
308.651	92.94
308.881	110.94
309.111	80.94
309.341	99.94
309.571	93.94
309.8	105.94
310.03	101.94
310.26	100.94
310.49	96.94
310.72	98.94
310.949	99.94
311.179	117.94
311.409	99.94
311.639	89.94
311.868	84.94
312.098	86.94
312.328	104.94
312.557	100.94
312.787	90.94
313.017	112.94
313.246	104.94
313.476	72.94
313.706	91.94
313.935	97.94
314.165	91.94
314.394	90.94
314.624	106.94
314.853	96.94
315.083	99.94
315.312	99.94
315.542	98.94
315.771	89.94
316.001	101.94
316.23	84.94
316.46	88.94
316.689	93.94
316.919	93.94
317.148	88.94
317.377	113.94
317.607	92.94
317.836	91.94
318.065	100.94
318.295	88.94
318.524	105.94
318.753	88.94
318.983	83.94
319.212	100.94
319.441	115.94
319.67	115.94
319.9	90.94
320.129	101.94
320.358	108.94
320.587	111.94
320.816	109.94
321.046	95.94
321.275	88.94
321.504	103.94
321.733	104.94
321.962	83.94
322.191	95.94
322.42	106.94
322.649	104.94
322.878	111.94
323.108	115.94
323.337	105.94
323.566	115.94
323.795	133.94
324.024	179.94
324.253	333.94
324.482	663.94
324.71	1322.94
324.939	1757.94
325.168	653.94
325.397	214.94
325.626	133.94
325.855	126.94
326.084	128.94
326.313	134.94
326.542	135.94
326.77	193.94
326.999	379.94
327.228	791.94
327.457	1408.94
327.686	1090.94
327.914	325.94
328.143	182.94
328.372	139.94
328.6	113.94
328.829	109.94
329.058	118.94
329.287	112.94
329.515	106.94
329.744	109.94
329.972	97.94
330.201	97.94
330.43	101.94
330.658	120.94
330.887	124.94
331.115	114.94
331.344	88.94
331.572	105.94
331.801	83.94
332.03	100.94
332.258	100.94
332.486	90.94
332.715	103.94
332.943	95.94
333.172	109.94
333.4	102.94
333.629	104.94
333.857	104.94
334.085	115.94
334.314	96.94
334.542	88.94
334.771	110.94
334.999	79.94
335.227	87.94
335.455	83.94
335.684	96.94
335.912	92.94
336.14	98.94
336.369	92.94
336.597	99.94
336.825	95.94
337.053	92.94
337.281	86.94
337.51	96.94
337.738	87.94
337.966	90.94
338.194	101.94
338.422	104.94
338.65	113.94
338.878	104.94
339.106	99.94
339.334	90.94
339.562	109.94
339.79	102.94
340.018	110.94
340.246	92.94
340.474	92.94
340.702	74.94
340.93	102.94
341.158	93.94
341.386	95.94
341.614	117.94
341.842	120.94
342.07	101.94
342.298	107.94
342.526	89.94
342.754	79.94
342.981	87.94
343.209	93.94
343.437	89.94
343.665	91.94
343.893	98.94
344.12	105.94
344.348	92.94
344.576	97.94
344.804	85.94
345.031	91.94
345.259	106.94
345.487	100.94
345.714	101.94
345.942	103.94
346.17	83.94
346.397	87.94
346.625	106.94
346.853	104.94
347.08	112.94
347.308	93.94
347.535	106.94
347.763	82.94
347.99	74.94
348.218	98.94
348.445	98.94
348.673	93.94
348.9	101.94
349.128	99.94
349.355	85.94
349.583	93.94
349.81	87.94
350.037	106.94
350.265	103.94
350.492	102.94
350.72	95.94
350.947	94.94
351.174	96.94
351.402	99.94
351.629	94.94
351.856	109.94
352.083	96.94
352.311	116.94
352.538	118.94
352.765	102.94
352.992	115.94
353.22	100.94
353.447	99.94
353.674	116.94
353.901	93.94
354.128	87.94
354.355	86.94
354.583	87.94
354.81	98.94
355.037	92.94
355.264	103.94
355.491	98.94
355.718	99.94
355.945	92.94
356.172	92.94
356.399	96.94
356.626	96.94
356.853	95.94
357.08	94.94
357.307	100.94
357.534	90.94
357.761	95.94
357.988	95.94
358.215	98.94
358.441	106.94
358.668	115.94
358.895	84.94
359.122	87.94
359.349	85.94
359.576	101.94
359.802	99.94
360.029	112.94
360.256	100.94
360.483	94.94
360.709	77.94
360.936	105.94
361.163	96.94
361.39	95.94
361.616	88.94
361.843	92.94
362.07	89.94
362.296	65.94
362.523	96.94
362.749	92.94
362.976	86.94
363.203	97.94
363.429	91.94
363.656	109.94
363.882	111.94
364.109	92.94
364.335	83.94
364.562	86.94
364.788	91.94
365.015	91.94
365.241	99.94
365.468	105.94
365.694	106.94
365.92	92.94
366.147	83.94
366.373	79.94
366.599	80.94
366.826	94.94
367.052	103.94
367.278	94.94
367.505	85.94
367.731	91.94
367.957	89.94
368.184	89.94
368.41	86.94
368.636	119.94
368.862	99.94
369.089	105.94
369.315	93.94
369.541	86.94
369.767	93.94
369.993	93.94
370.219	85.94
370.445	83.94
370.672	89.94
370.898	88.94
371.124	95.94
371.35	92.94
371.576	88.94
371.802	87.94
372.028	83.94
372.254	91.94
372.48	97.94
372.706	85.94
372.932	85.94
373.158	87.94
373.384	78.94
373.61	93.94
373.835	93.94
374.061	94.94
374.287	83.94
374.513	72.94
374.739	89.94
374.965	78.94
375.191	80.94
375.416	85.94
375.642	95.94
375.868	106.94
376.094	91.94
376.319	92.94
376.545	91.94
376.771	88.94
376.997	91.94
377.222	88.94
377.448	97.94
377.674	89.94
377.899	104.94
378.125	79.94
378.35	101.94
378.576	89.94
378.802	83.94
379.027	100.94
379.253	102.94
379.478	100.94
379.704	84.94
379.929	76.94
380.155	84.94
380.38	87.94
380.606	90.94
380.831	86.94
381.057	81.94
381.282	108.94
381.507	95.94
381.733	85.94
381.958	90.94
382.184	89.94
382.409	85.94
382.634	82.94
382.86	89.94
383.085	94.94
383.31	95.94
383.535	92.94
383.761	95.94
383.986	97.94
384.211	88.94
384.436	100.94
384.662	101.94
384.887	102.94
385.112	100.94
385.337	96.94
385.562	100.94
385.787	93.94
386.013	105.94
386.238	100.94
386.463	115.94
386.688	109.94
386.913	95.94
387.138	111.94
387.363	109.94
387.588	95.94
387.813	84.94
388.038	97.94
388.263	96.94
388.488	104.94
388.713	94.94
388.938	99.94
389.163	98.94
389.387	98.94
389.612	95.94
389.837	82.94
390.062	99.94
390.287	88.94
390.512	88.94
390.736	96.94
390.961	105.94
391.186	107.94
391.411	98.94
391.636	97.94
391.86	99.94
392.085	85.94
392.31	92.94
392.534	88.94
392.759	91.94
392.984	85.94
393.208	93.94
393.433	109.94
393.658	108.94
393.882	88.94
394.107	99.94
394.331	78.94
394.556	78.94
394.78	85.94
395.005	100.94
395.229	89.94
395.454	81.94
395.678	86.94
395.903	84.94
396.127	82.94
396.352	97.94
396.576	91.94
396.801	94.94
397.025	107.94
397.249	104.94
397.474	77.94
397.698	82.94
397.922	79.94
398.147	100.94
398.371	90.94
398.595	92.94
398.82	103.94
399.044	93.94
399.268	93.94
399.492	95.94
399.717	88.94
399.941	81.94
400.165	99.94
400.389	91.94
400.613	91.94
400.837	94.94
401.062	96.94
401.286	89.94
401.51	79.94
401.734	77.94
401.958	95.94
402.182	113.94
402.406	136.94
402.63	105.94
402.854	98.94
403.078	91.94
403.302	83.94
403.526	89.94
403.75	88.94
403.974	91.94
404.198	90.94
404.422	80.94
404.645	82.94
404.869	81.94
405.093	89.94
405.317	80.94
405.541	84.94
405.765	93.94
405.988	98.94
406.212	147.94
406.436	188.94
406.66	130.94
406.883	88.94
407.107	95.94
407.331	93.94
407.555	92.94
407.778	112.94
408.002	82.94
408.226	85.94
408.449	100.94
408.673	82.94
408.896	79.94
409.12	83.94
409.344	79.94
409.567	100.94
409.791	87.94
410.014	91.94
410.238	93.94
410.461	106.94
410.685	92.94
410.908	84.94
411.132	103.94
411.355	94.94
411.578	88.94
411.802	93.94
412.025	73.94
412.249	73.94
412.472	100.94
412.695	91.94
412.919	102.94
413.142	79.94
413.365	90.94
413.589	90.94
413.812	102.94
414.035	83.94
414.258	88.94
414.482	87.94
414.705	88.94
414.928	80.94
415.151	87.94
415.374	77.94
415.597	79.94
415.821	87.94
416.044	84.94
416.267	101.94
416.49	79.94
416.713	100.94
416.936	79.94
417.159	71.94
417.382	84.94
417.605	99.94
417.828	105.94
418.051	79.94
418.274	85.94
418.497	74.94
418.72	83.94
418.943	99.94
419.166	92.94
419.389	84.94
419.611	97.94
419.834	92.94
420.057	87.94
420.28	102.94
420.503	86.94
420.726	83.94
420.948	78.94
421.171	99.94
421.394	87.94
421.617	100.94
421.839	81.94
422.062	82.94
422.285	90.94
422.507	96.94
422.73	106.94
422.953	85.94
423.175	92.94
423.398	83.94
423.621	94.94
423.843	87.94
424.066	87.94
424.288	99.94
424.511	95.94
424.733	97.94
424.956	84.94
425.178	91.94
425.401	95.94
425.623	93.94
425.846	87.94
426.068	79.94
426.291	87.94
426.513	93.94
426.735	85.94
426.958	85.94
427.18	103.94
427.402	127.94
427.625	144.94
427.847	114.94
428.069	92.94
428.292	91.94
428.514	84.94
428.736	72.94
428.958	87.94
429.181	94.94
429.403	88.94
429.625	82.94
429.847	100.94
430.069	100.94
430.292	94.94
430.514	90.94
430.736	86.94
430.958	91.94
431.18	88.94
431.402	82.94
431.624	82.94
431.846	75.94
432.068	102.94
432.29	93.94
432.512	89.94
432.734	97.94
432.956	93.94
433.178	88.94
433.4	93.94
433.622	107.94
433.844	102.94
434.066	89.94
434.287	83.94
434.509	86.94
434.731	96.94
434.953	88.94
435.175	92.94
435.397	81.94
435.618	90.94
435.84	94.94
436.062	115.94
436.284	104.94
436.505	100.94
436.727	96.94
436.949	92.94
437.17	90.94
437.392	108.94
437.614	88.94
437.835	109.94
438.057	115.94
438.278	102.94
438.5	103.94
438.721	98.94
438.943	105.94
439.165	80.94
439.386	93.94
439.608	91.94
439.829	94.94
440.05	127.94
440.272	118.94
440.493	90.94
440.715	95.94
440.936	77.94
441.158	91.94
441.379	98.94
441.6	101.94
441.822	90.94
442.043	95.94
442.264	104.94
442.486	93.94
442.707	105.94
442.928	103.94
443.149	122.94
443.371	129.94
443.592	98.94
443.813	103.94
444.034	100.94
444.255	101.94
444.476	81.94
444.698	75.94
444.919	86.94
445.14	133.94
445.361	113.94
445.582	100.94
445.803	109.94
446.024	130.94
446.245	115.94
446.466	106.94
446.687	90.94
446.908	86.94
447.129	84.94
447.35	85.94
447.571	93.94
447.792	95.94
448.013	83.94
448.234	105.94
448.455	99.94
448.675	108.94
448.896	99.94
449.117	100.94
449.338	97.94
449.559	122.94
449.779	108.94
450	103.94
450.221	91.94
450.442	91.94
450.662	98.94
450.883	100.94
451.104	107.94
451.324	86.94
451.545	79.94
451.766	90.94
451.986	78.94
452.207	88.94
452.428	89.94
452.648	84.94
452.869	111.94
453.089	97.94
453.31	102.94
453.53	91.94
453.751	81.94
453.971	105.94
454.192	106.94
454.412	85.94
454.633	80.94
454.853	84.94
455.073	89.94
455.294	93.94
455.514	102.94
455.734	84.94
455.955	103.94
456.175	84.94
456.395	79.94
456.616	75.94
456.836	95.94
457.056	78.94
457.276	82.94
457.497	92.94
457.717	91.94
457.937	84.94
458.157	91.94
458.377	96.94
458.598	99.94
458.818	111.94
459.038	133.94
459.258	100.94
459.478	87.94
459.698	80.94
459.918	81.94
460.138	88.94
460.358	98.94
460.578	73.94
460.798	93.94
461.018	99.94
461.238	91.94
461.458	80.94
461.678	80.94
461.898	97.94
462.118	103.94
462.338	93.94
462.558	85.94
462.777	78.94
462.997	87.94
463.217	82.94
463.437	79.94
463.657	82.94
463.876	80.94
464.096	88.94
464.316	99.94
464.536	80.94
464.755	89.94
464.975	99.94
465.195	148.94
465.414	129.94
465.634	96.94
465.854	81.94
466.073	83.94
466.293	77.94
466.512	76.94
466.732	91.94
466.951	86.94
467.171	74.94
467.391	91.94
467.61	113.94
467.829	102.94
468.049	84.94
468.268	90.94
468.488	78.94
468.707	100.94
468.927	75.94
469.146	80.94
469.365	92.94
469.585	89.94
469.804	104.94
470.023	85.94
470.243	97.94
470.462	89.94
470.681	112.94
470.901	75.94
471.12	77.94
471.339	84.94
471.558	78.94
471.777	91.94
471.997	84.94
472.216	91.94
472.435	93.94
472.654	88.94
472.873	91.94
473.092	82.94
473.311	90.94
473.53	101.94
473.749	81.94
473.968	105.94
474.187	99.94
474.406	88.94
474.625	87.94
474.844	82.94
475.063	75.94
475.282	91.94
475.501	84.94
475.72	87.94
475.939	77.94
476.158	81.94
476.377	90.94
476.596	86.94
476.814	96.94
477.033	100.94
477.252	92.94
477.471	86.94
477.69	91.94
477.908	81.94
478.127	87.94
478.346	85.94
478.564	88.94
478.783	88.94
479.002	84.94
479.22	92.94
479.439	106.94
479.658	87.94
479.876	88.94
480.095	97.94
480.313	96.94
480.532	69.94
480.751	77.94
480.969	83.94
481.188	106.94
481.406	99.94
481.624	96.94
481.843	86.94
482.061	91.94
482.28	88.94
482.498	90.94
482.717	84.94
482.935	86.94
483.153	85.94
483.372	93.94
483.59	94.94
483.808	93.94
484.027	102.94
484.245	95.94
484.463	91.94
484.681	98.94
484.9	97.94
485.118	101.94
485.336	111.94
485.554	96.94
485.772	112.94
485.99	93.94
486.209	99.94
486.427	96.94
486.645	94.94
486.863	93.94
487.081	88.94
487.299	100.94
487.517	97.94
487.735	92.94
487.953	86.94
488.171	94.94
488.389	80.94
488.607	92.94
488.825	105.94
489.043	79.94
489.261	96.94
489.479	77.94
489.696	85.94
489.914	91.94
490.132	89.94
490.35	95.94
490.568	93.94
490.786	86.94
491.003	94.94
491.221	92.94
491.439	83.94
491.657	98.94
491.874	86.94
492.092	90.94
492.31	78.94
492.527	98.94
492.745	100.94
492.963	93.94
493.18	99.94
493.398	86.94
493.615	97.94
493.833	99.94
494.05	88.94
494.268	81.94
494.485	94.94
494.703	96.94
494.92	92.94
495.138	74.94
495.355	80.94
495.573	104.94
495.79	83.94
496.008	94.94
496.225	116.94
496.442	79.94
496.66	88.94
496.877	95.94
497.094	89.94
497.312	81.94
497.529	99.94
497.746	100.94
497.963	84.94
498.181	92.94
498.398	83.94
498.615	95.94
498.832	89.94
499.049	78.94
499.267	102.94
499.484	98.94
499.701	83.94
499.918	105.94
500.135	90.94
500.352	79.94
500.569	101.94
500.786	76.94
501.003	92.94
501.22	79.94
501.437	87.94
501.654	101.94
501.871	108.94
502.088	88.94
502.305	97.94
502.522	95.94
502.739	92.94
502.956	81.94
503.172	86.94
503.389	104.94
503.606	105.94
503.823	76.94
504.04	98.94
504.256	88.94
504.473	90.94
504.69	92.94
504.907	102.94
505.123	102.94
505.34	88.94
505.557	77.94
505.773	82.94
505.99	87.94
506.207	75.94
506.423	92.94
506.64	83.94
506.856	80.94
507.073	92.94
507.289	91.94
507.506	101.94
507.722	89.94
507.939	104.94
508.155	107.94
508.372	87.94
508.588	103.94
508.805	91.94
509.021	85.94
509.238	108.94
509.454	95.94
509.67	115.94
509.887	98.94
510.103	142.94
510.319	181.94
510.536	651.94
510.752	1935.94
510.968	549.94
511.184	143.94
511.401	117.94
511.617	90.94
511.833	109.94
512.049	100.94
512.265	84.94
512.481	86.94
512.698	91.94
512.914	88.94
513.13	90.94
513.346	93.94
513.562	100.94
513.778	85.94
513.994	92.94
514.21	92.94
514.426	99.94
514.642	116.94
514.858	111.94
515.074	147.94
515.29	363.94
515.506	1136.94
515.721	434.94
