Data from Uncirc_2002_H10_HRD10591_00030.txt Node
Date: Wed Jan 03 10:39:47 EST 2024
User: Yrep
Spectrometer: HR+D1059
Trigger mode: 1
Integration Time (sec): 1.000000E-1
Scans to average: 1
Electric dark correction enabled: true
Nonlinearity correction enabled: false
Boxcar width: 0
XAxis mode: Wavelengths
Number of Pixels in Spectrum: 2048
>>>>>Begin Spectral Data<<<<<
223.165	-15.44
223.4	-15.44
223.635	-15.44
223.869	-31.44
224.104	-23.44
224.338	-18.44
224.573	-12.44
224.808	-18.44
225.042	-8.44
225.277	-18.44
225.511	1.56
225.746	-5.44
225.98	10.56
226.215	15.56
226.449	31.56
226.683	22.56
226.918	28.56
227.152	41.56
227.387	34.56
227.621	53.56
227.856	41.56
228.09	51.56
228.324	55.56
228.559	56.56
228.793	43.56
229.027	56.56
229.262	60.56
229.496	78.56
229.73	84.56
229.964	83.56
230.199	76.56
230.433	64.56
230.667	85.56
230.901	90.56
231.136	75.56
231.37	73.56
231.604	72.56
231.838	76.56
232.072	88.56
232.306	80.56
232.541	83.56
232.775	94.56
233.009	90.56
233.243	67.56
233.477	88.56
233.711	82.56
233.945	73.56
234.179	86.56
234.413	70.56
234.647	86.56
234.881	72.56
235.115	85.56
235.349	64.56
235.583	82.56
235.817	72.56
236.051	73.56
236.285	75.56
236.519	82.56
236.753	85.56
236.987	86.56
237.221	85.56
237.455	76.56
237.689	71.56
237.922	73.56
238.156	88.56
238.39	74.56
238.624	77.56
238.858	73.56
239.091	87.56
239.325	81.56
239.559	68.56
239.793	85.56
240.027	85.56
240.26	74.56
240.494	81.56
240.728	83.56
240.961	74.56
241.195	78.56
241.429	89.56
241.662	73.56
241.896	72.56
242.13	64.56
242.363	74.56
242.597	75.56
242.83	72.56
243.064	86.56
243.298	85.56
243.531	71.56
243.765	77.56
243.998	84.56
244.232	77.56
244.465	82.56
244.699	90.56
244.932	82.56
245.166	80.56
245.399	69.56
245.633	75.56
245.866	79.56
246.099	76.56
246.333	84.56
246.566	67.56
246.8	72.56
247.033	69.56
247.266	68.56
247.5	65.56
247.733	89.56
247.966	59.56
248.2	78.56
248.433	82.56
248.666	71.56
248.899	74.56
249.133	84.56
249.366	86.56
249.599	98.56
249.832	89.56
250.066	83.56
250.299	76.56
250.532	68.56
250.765	73.56
250.998	95.56
251.231	90.56
251.465	94.56
251.698	73.56
251.931	86.56
252.164	72.56
252.397	72.56
252.63	84.56
252.863	79.56
253.096	89.56
253.329	98.56
253.562	78.56
253.795	77.56
254.028	78.56
254.261	81.56
254.494	79.56
254.727	76.56
254.96	86.56
255.193	78.56
255.426	74.56
255.659	78.56
255.892	72.56
256.124	72.56
256.357	78.56
256.59	83.56
256.823	67.56
257.056	86.56
257.289	87.56
257.521	73.56
257.754	90.56
257.987	79.56
258.22	89.56
258.452	93.56
258.685	82.56
258.918	72.56
259.151	84.56
259.383	92.56
259.616	71.56
259.849	77.56
260.081	87.56
260.314	77.56
260.547	78.56
260.779	92.56
261.012	86.56
261.244	89.56
261.477	78.56
261.71	77.56
261.942	97.56
262.175	110.56
262.407	96.56
262.64	92.56
262.872	90.56
263.105	87.56
263.337	81.56
263.57	94.56
263.802	78.56
264.035	88.56
264.267	98.56
264.499	81.56
264.732	96.56
264.964	85.56
265.197	75.56
265.429	85.56
265.661	94.56
265.894	83.56
266.126	82.56
266.358	79.56
266.591	88.56
266.823	80.56
267.055	96.56
267.287	90.56
267.52	72.56
267.752	93.56
267.984	82.56
268.216	89.56
268.448	90.56
268.681	80.56
268.913	76.56
269.145	80.56
269.377	73.56
269.609	80.56
269.841	89.56
270.073	77.56
270.306	84.56
270.538	94.56
270.77	71.56
271.002	70.56
271.234	79.56
271.466	87.56
271.698	76.56
271.93	103.56
272.162	81.56
272.394	74.56
272.626	77.56
272.858	87.56
273.09	99.56
273.322	84.56
273.553	82.56
273.785	75.56
274.017	78.56
274.249	73.56
274.481	95.56
274.713	83.56
274.945	84.56
275.176	81.56
275.408	77.56
275.64	87.56
275.872	77.56
276.104	82.56
276.335	86.56
276.567	84.56
276.799	107.56
277.031	95.56
277.262	96.56
277.494	89.56
277.726	80.56
277.957	76.56
278.189	85.56
278.421	80.56
278.652	84.56
278.884	83.56
279.115	95.56
279.347	82.56
279.579	77.56
279.81	78.56
280.042	74.56
280.273	60.56
280.505	89.56
280.736	90.56
280.968	70.56
281.199	89.56
281.431	83.56
281.662	79.56
281.894	90.56
282.125	81.56
282.356	111.56
282.588	139.56
282.819	116.56
283.051	92.56
283.282	80.56
283.513	89.56
283.745	71.56
283.976	87.56
284.207	80.56
284.439	97.56
284.67	77.56
284.901	85.56
285.132	96.56
285.364	75.56
285.595	83.56
285.826	89.56
286.057	76.56
286.288	84.56
286.52	96.56
286.751	85.56
286.982	86.56
287.213	89.56
287.444	86.56
287.675	88.56
287.906	84.56
288.138	92.56
288.369	94.56
288.6	94.56
288.831	88.56
289.062	77.56
289.293	89.56
289.524	84.56
289.755	89.56
289.986	78.56
290.217	88.56
290.448	92.56
290.679	93.56
290.91	85.56
291.141	85.56
291.371	92.56
291.602	87.56
291.833	76.56
292.064	84.56
292.295	76.56
292.526	79.56
292.757	90.56
292.987	74.56
293.218	81.56
293.449	81.56
293.68	87.56
293.91	82.56
294.141	98.56
294.372	89.56
294.603	90.56
294.833	83.56
295.064	87.56
295.295	104.56
295.525	85.56
295.756	88.56
295.987	102.56
296.217	118.56
296.448	117.56
296.679	88.56
296.909	94.56
297.14	87.56
297.37	88.56
297.601	96.56
297.831	87.56
298.062	81.56
298.292	88.56
298.523	90.56
298.753	88.56
298.984	86.56
299.214	81.56
299.445	96.56
299.675	90.56
299.905	96.56
300.136	85.56
300.366	84.56
300.597	90.56
300.827	88.56
301.057	119.56
301.288	110.56
301.518	99.56
301.748	98.56
301.979	97.56
302.209	92.56
302.439	81.56
302.669	79.56
302.9	87.56
303.13	90.56
303.36	94.56
303.59	106.56
303.82	107.56
304.051	84.56
304.281	85.56
304.511	89.56
304.741	90.56
304.971	97.56
305.201	93.56
305.431	83.56
305.661	82.56
305.891	109.56
306.121	102.56
306.352	97.56
306.582	107.56
306.812	79.56
307.042	82.56
307.272	100.56
307.502	84.56
307.731	97.56
307.961	101.56
308.191	100.56
308.421	86.56
308.651	80.56
308.881	95.56
309.111	91.56
309.341	96.56
309.571	92.56
309.8	88.56
310.03	89.56
310.26	97.56
310.49	95.56
310.72	105.56
310.949	104.56
311.179	95.56
311.409	86.56
311.639	93.56
311.868	84.56
312.098	86.56
312.328	96.56
312.557	103.56
312.787	88.56
313.017	95.56
313.246	98.56
313.476	100.56
313.706	84.56
313.935	84.56
314.165	101.56
314.394	101.56
314.624	101.56
314.853	95.56
315.083	95.56
315.312	93.56
315.542	85.56
315.771	92.56
316.001	98.56
316.23	88.56
316.46	91.56
316.689	87.56
316.919	92.56
317.148	85.56
317.377	96.56
317.607	89.56
317.836	94.56
318.065	87.56
318.295	86.56
318.524	81.56
318.753	82.56
318.983	101.56
319.212	109.56
319.441	100.56
319.67	103.56
319.9	85.56
320.129	87.56
320.358	93.56
320.587	101.56
320.816	98.56
321.046	80.56
321.275	87.56
321.504	83.56
321.733	97.56
321.962	95.56
322.191	110.56
322.42	102.56
322.649	92.56
322.878	109.56
323.108	97.56
323.337	121.56
323.566	142.56
323.795	142.56
324.024	213.56
324.253	354.56
324.482	779.56
324.71	1548.56
324.939	2038.56
325.168	755.56
325.397	226.56
325.626	133.56
325.855	113.56
326.084	111.56
326.313	123.56
326.542	151.56
326.77	225.56
326.999	439.56
327.228	879.56
327.457	1590.56
327.686	1256.56
327.914	342.56
328.143	178.56
328.372	129.56
328.6	117.56
328.829	104.56
329.058	127.56
329.287	118.56
329.515	105.56
329.744	111.56
329.972	92.56
330.201	92.56
330.43	116.56
330.658	109.56
330.887	120.56
331.115	129.56
331.344	100.56
331.572	92.56
331.801	114.56
332.03	99.56
332.258	87.56
332.486	95.56
332.715	87.56
332.943	90.56
333.172	81.56
333.4	90.56
333.629	96.56
333.857	112.56
334.085	117.56
334.314	89.56
334.542	99.56
334.771	112.56
334.999	112.56
335.227	96.56
335.455	87.56
335.684	83.56
335.912	99.56
336.14	96.56
336.369	108.56
336.597	109.56
336.825	110.56
337.053	103.56
337.281	97.56
337.51	93.56
337.738	80.56
337.966	83.56
338.194	87.56
338.422	101.56
338.65	95.56
338.878	96.56
339.106	91.56
339.334	101.56
339.562	86.56
339.79	85.56
340.018	93.56
340.246	89.56
340.474	102.56
340.702	97.56
340.93	90.56
341.158	97.56
341.386	82.56
341.614	83.56
341.842	92.56
342.07	76.56
342.298	86.56
342.526	103.56
342.754	89.56
342.981	102.56
343.209	94.56
343.437	97.56
343.665	86.56
343.893	80.56
344.12	82.56
344.348	92.56
344.576	101.56
344.804	85.56
345.031	89.56
345.259	94.56
345.487	84.56
345.714	88.56
345.942	80.56
346.17	100.56
346.397	84.56
346.625	89.56
346.853	101.56
347.08	87.56
347.308	87.56
347.535	77.56
347.763	102.56
347.99	81.56
348.218	95.56
348.445	102.56
348.673	103.56
348.9	92.56
349.128	117.56
349.355	85.56
349.583	99.56
349.81	96.56
350.037	106.56
350.265	99.56
350.492	98.56
350.72	92.56
350.947	100.56
351.174	100.56
351.402	110.56
351.629	101.56
351.856	103.56
352.083	95.56
352.311	110.56
352.538	103.56
352.765	98.56
352.992	111.56
353.22	106.56
353.447	104.56
353.674	95.56
353.901	101.56
354.128	99.56
354.355	87.56
354.583	88.56
354.81	86.56
355.037	84.56
355.264	83.56
355.491	95.56
355.718	80.56
355.945	100.56
356.172	109.56
356.399	93.56
356.626	99.56
356.853	94.56
357.08	95.56
357.307	109.56
357.534	95.56
357.761	93.56
357.988	93.56
358.215	98.56
358.441	96.56
358.668	80.56
358.895	87.56
359.122	80.56
359.349	94.56
359.576	90.56
359.802	112.56
360.029	107.56
360.256	101.56
360.483	97.56
360.709	90.56
360.936	98.56
361.163	89.56
361.39	92.56
361.616	88.56
361.843	65.56
362.07	93.56
362.296	97.56
362.523	82.56
362.749	97.56
362.976	78.56
363.203	79.56
363.429	74.56
363.656	90.56
363.882	97.56
364.109	97.56
364.335	74.56
364.562	95.56
364.788	71.56
365.015	100.56
365.241	95.56
365.468	103.56
365.694	105.56
365.92	87.56
366.147	102.56
366.373	97.56
366.599	100.56
366.826	73.56
367.052	77.56
367.278	100.56
367.505	91.56
367.731	93.56
367.957	95.56
368.184	99.56
368.41	86.56
368.636	109.56
368.862	106.56
369.089	105.56
369.315	88.56
369.541	91.56
369.767	98.56
369.993	90.56
370.219	83.56
370.445	96.56
370.672	100.56
370.898	97.56
371.124	71.56
371.35	71.56
371.576	86.56
371.802	85.56
372.028	86.56
372.254	92.56
372.48	76.56
372.706	97.56
372.932	79.56
373.158	100.56
373.384	93.56
373.61	91.56
373.835	89.56
374.061	84.56
374.287	90.56
374.513	94.56
374.739	79.56
374.965	73.56
375.191	95.56
375.416	81.56
375.642	88.56
375.868	107.56
376.094	80.56
376.319	94.56
376.545	99.56
376.771	87.56
376.997	98.56
377.222	95.56
377.448	82.56
377.674	92.56
377.899	88.56
378.125	81.56
378.35	87.56
378.576	98.56
378.802	93.56
379.027	89.56
379.253	92.56
379.478	81.56
379.704	103.56
379.929	100.56
380.155	88.56
380.38	88.56
380.606	85.56
380.831	95.56
381.057	100.56
381.282	89.56
381.507	85.56
381.733	87.56
381.958	109.56
382.184	88.56
382.409	91.56
382.634	107.56
382.86	89.56
383.085	104.56
383.31	91.56
383.535	95.56
383.761	89.56
383.986	90.56
384.211	96.56
384.436	93.56
384.662	113.56
384.887	106.56
385.112	103.56
385.337	93.56
385.562	108.56
385.787	102.56
386.013	102.56
386.238	129.56
386.463	94.56
386.688	93.56
386.913	108.56
387.138	95.56
387.363	89.56
387.588	90.56
387.813	87.56
388.038	104.56
388.263	111.56
388.488	106.56
388.713	94.56
388.938	80.56
389.163	101.56
389.387	95.56
389.612	104.56
389.837	100.56
390.062	95.56
390.287	87.56
390.512	95.56
390.736	105.56
390.961	86.56
391.186	86.56
391.411	85.56
391.636	90.56
391.86	100.56
392.085	85.56
392.31	74.56
392.534	85.56
392.759	85.56
392.984	84.56
393.208	105.56
393.433	118.56
393.658	102.56
393.882	81.56
394.107	75.56
394.331	85.56
394.556	80.56
394.78	78.56
395.005	94.56
395.229	84.56
395.454	78.56
395.678	94.56
395.903	77.56
396.127	89.56
396.352	81.56
396.576	86.56
396.801	89.56
397.025	93.56
397.249	90.56
397.474	88.56
397.698	82.56
397.922	79.56
398.147	85.56
398.371	74.56
398.595	74.56
398.82	89.56
399.044	73.56
399.268	85.56
399.492	89.56
399.717	92.56
399.941	92.56
400.165	99.56
400.389	114.56
400.613	80.56
400.837	89.56
401.062	91.56
401.286	91.56
401.51	101.56
401.734	85.56
401.958	101.56
402.182	104.56
402.406	165.56
402.63	103.56
402.854	89.56
403.078	98.56
403.302	90.56
403.526	89.56
403.75	82.56
403.974	95.56
404.198	80.56
404.422	78.56
404.645	78.56
404.869	89.56
405.093	91.56
405.317	96.56
405.541	90.56
405.765	99.56
405.988	103.56
406.212	158.56
406.436	194.56
406.66	132.56
406.883	94.56
407.107	80.56
407.331	102.56
407.555	108.56
407.778	85.56
408.002	88.56
408.226	79.56
408.449	86.56
408.673	91.56
408.896	88.56
409.12	88.56
409.344	95.56
409.567	91.56
409.791	108.56
410.014	90.56
410.238	94.56
410.461	86.56
410.685	86.56
410.908	94.56
411.132	94.56
411.355	92.56
411.578	87.56
411.802	103.56
412.025	95.56
412.249	94.56
412.472	92.56
412.695	89.56
412.919	81.56
413.142	79.56
413.365	82.56
413.589	89.56
413.812	83.56
414.035	102.56
414.258	81.56
414.482	90.56
414.705	94.56
414.928	86.56
415.151	89.56
415.374	83.56
415.597	85.56
415.821	86.56
416.044	80.56
416.267	93.56
416.49	96.56
416.713	81.56
416.936	86.56
417.159	90.56
417.382	80.56
417.605	68.56
417.828	79.56
418.051	68.56
418.274	85.56
418.497	95.56
418.72	97.56
418.943	99.56
419.166	79.56
419.389	94.56
419.611	80.56
419.834	85.56
420.057	84.56
420.28	73.56
420.503	93.56
420.726	77.56
420.948	76.56
421.171	87.56
421.394	106.56
421.617	80.56
421.839	70.56
422.062	85.56
422.285	87.56
422.507	110.56
422.73	96.56
422.953	95.56
423.175	74.56
423.398	84.56
423.621	88.56
423.843	89.56
424.066	85.56
424.288	81.56
424.511	94.56
424.733	105.56
424.956	105.56
425.178	90.56
425.401	91.56
425.623	94.56
425.846	83.56
426.068	80.56
426.291	81.56
426.513	87.56
426.735	76.56
426.958	87.56
427.18	98.56
427.402	130.56
427.625	146.56
427.847	122.56
428.069	109.56
428.292	98.56
428.514	84.56
428.736	86.56
428.958	82.56
429.181	87.56
429.403	80.56
429.625	89.56
429.847	86.56
430.069	105.56
430.292	88.56
430.514	94.56
430.736	94.56
430.958	81.56
431.18	78.56
431.402	89.56
431.624	94.56
431.846	68.56
432.068	79.56
432.29	82.56
432.512	98.56
432.734	82.56
432.956	87.56
433.178	111.56
433.4	87.56
433.622	81.56
433.844	88.56
434.066	86.56
434.287	81.56
434.509	89.56
434.731	87.56
434.953	93.56
435.175	89.56
435.397	102.56
435.618	104.56
435.84	95.56
436.062	116.56
436.284	115.56
436.505	100.56
436.727	96.56
436.949	95.56
437.17	74.56
437.392	97.56
437.614	86.56
437.835	101.56
438.057	101.56
438.278	101.56
438.5	106.56
438.721	103.56
438.943	104.56
439.165	88.56
439.386	95.56
439.608	81.56
439.829	96.56
440.05	118.56
440.272	144.56
440.493	93.56
440.715	84.56
440.936	83.56
441.158	75.56
441.379	91.56
441.6	95.56
441.822	92.56
442.043	97.56
442.264	94.56
442.486	85.56
442.707	80.56
442.928	101.56
443.149	128.56
443.371	128.56
443.592	113.56
443.813	110.56
444.034	98.56
444.255	86.56
444.476	93.56
444.698	84.56
444.919	92.56
445.14	131.56
445.361	111.56
445.582	95.56
445.803	141.56
446.024	119.56
446.245	128.56
446.466	98.56
446.687	87.56
446.908	87.56
447.129	88.56
447.35	80.56
447.571	84.56
447.792	86.56
448.013	96.56
448.234	102.56
448.455	96.56
448.675	102.56
448.896	113.56
449.117	87.56
449.338	82.56
449.559	114.56
449.779	127.56
450	92.56
450.221	86.56
450.442	86.56
450.662	83.56
450.883	98.56
451.104	108.56
451.324	95.56
451.545	90.56
451.766	81.56
451.986	85.56
452.207	89.56
452.428	92.56
452.648	112.56
452.869	100.56
453.089	114.56
453.31	115.56
453.53	90.56
453.751	85.56
453.971	101.56
454.192	88.56
454.412	71.56
454.633	77.56
454.853	79.56
455.073	104.56
455.294	98.56
455.514	92.56
455.734	86.56
455.955	94.56
456.175	82.56
456.395	83.56
456.616	89.56
456.836	97.56
457.056	93.56
457.276	89.56
457.497	72.56
457.717	83.56
457.937	74.56
458.157	89.56
458.377	82.56
458.598	94.56
458.818	143.56
459.038	149.56
459.258	108.56
459.478	89.56
459.698	84.56
459.918	80.56
460.138	77.56
460.358	77.56
460.578	88.56
460.798	92.56
461.018	86.56
461.238	59.56
461.458	84.56
461.678	72.56
461.898	78.56
462.118	84.56
462.338	81.56
462.558	82.56
462.777	83.56
462.997	79.56
463.217	77.56
463.437	80.56
463.657	80.56
463.876	72.56
464.096	74.56
464.316	86.56
464.536	104.56
464.755	91.56
464.975	115.56
465.195	137.56
465.414	130.56
465.634	101.56
465.854	88.56
466.073	94.56
466.293	94.56
466.512	84.56
466.732	83.56
466.951	85.56
467.171	82.56
467.391	88.56
467.61	90.56
467.829	91.56
468.049	90.56
468.268	83.56
468.488	79.56
468.707	94.56
468.927	91.56
469.146	79.56
469.365	97.56
469.585	80.56
469.804	90.56
470.023	99.56
470.243	96.56
470.462	109.56
470.681	84.56
470.901	93.56
471.12	86.56
471.339	82.56
471.558	97.56
471.777	90.56
471.997	86.56
472.216	102.56
472.435	98.56
472.654	98.56
472.873	96.56
473.092	82.56
473.311	91.56
473.53	77.56
473.749	90.56
473.968	85.56
474.187	104.56
474.406	99.56
474.625	92.56
474.844	86.56
475.063	87.56
475.282	77.56
475.501	87.56
475.72	86.56
475.939	85.56
476.158	84.56
476.377	85.56
476.596	97.56
476.814	82.56
477.033	82.56
477.252	96.56
477.471	100.56
477.69	75.56
477.908	89.56
478.127	88.56
478.346	91.56
478.564	81.56
478.783	88.56
479.002	86.56
479.22	90.56
479.439	88.56
479.658	112.56
479.876	77.56
480.095	94.56
480.313	96.56
480.532	97.56
480.751	89.56
480.969	100.56
481.188	102.56
481.406	109.56
481.624	99.56
481.843	100.56
482.061	79.56
482.28	84.56
482.498	75.56
482.717	69.56
482.935	83.56
483.153	87.56
483.372	84.56
483.59	84.56
483.808	98.56
484.027	89.56
484.245	90.56
484.463	87.56
484.681	83.56
484.9	79.56
485.118	98.56
485.336	101.56
485.554	100.56
485.772	89.56
485.99	92.56
486.209	94.56
486.427	112.56
486.645	102.56
486.863	117.56
487.081	108.56
487.299	100.56
487.517	104.56
487.735	91.56
487.953	96.56
488.171	96.56
488.389	100.56
488.607	96.56
488.825	95.56
489.043	82.56
489.261	89.56
489.479	94.56
489.696	87.56
489.914	80.56
490.132	91.56
490.35	85.56
490.568	79.56
490.786	76.56
491.003	93.56
491.221	85.56
491.439	88.56
491.657	84.56
491.874	92.56
492.092	90.56
492.31	85.56
492.527	88.56
492.745	80.56
492.963	93.56
493.18	89.56
493.398	99.56
493.615	99.56
493.833	95.56
494.05	102.56
494.268	88.56
494.485	86.56
494.703	82.56
494.92	100.56
495.138	93.56
495.355	79.56
495.573	85.56
495.79	90.56
496.008	96.56
496.225	90.56
496.442	88.56
496.66	93.56
496.877	78.56
497.094	95.56
497.312	86.56
497.529	97.56
497.746	88.56
497.963	99.56
498.181	75.56
498.398	88.56
498.615	106.56
498.832	107.56
499.049	91.56
499.267	95.56
499.484	93.56
499.701	80.56
499.918	89.56
500.135	79.56
500.352	73.56
500.569	87.56
500.786	88.56
501.003	85.56
501.22	92.56
501.437	86.56
501.654	100.56
501.871	105.56
502.088	95.56
502.305	90.56
502.522	100.56
502.739	80.56
502.956	95.56
503.172	93.56
503.389	91.56
503.606	104.56
503.823	98.56
504.04	97.56
504.256	96.56
504.473	88.56
504.69	85.56
504.907	105.56
505.123	99.56
505.34	90.56
505.557	74.56
505.773	89.56
505.99	98.56
506.207	96.56
506.423	96.56
506.64	77.56
506.856	77.56
507.073	85.56
507.289	83.56
507.506	94.56
507.722	109.56
507.939	100.56
508.155	92.56
508.372	93.56
508.588	99.56
508.805	82.56
509.021	92.56
509.238	80.56
509.454	97.56
509.67	96.56
509.887	97.56
510.103	120.56
510.319	208.56
510.536	723.56
510.752	2261.56
510.968	632.56
511.184	158.56
511.401	112.56
511.617	105.56
511.833	105.56
512.049	95.56
512.265	96.56
512.481	86.56
512.698	94.56
512.914	96.56
513.13	74.56
513.346	99.56
513.562	102.56
513.778	106.56
513.994	97.56
514.21	100.56
514.426	111.56
514.642	121.56
514.858	119.56
515.074	172.56
515.29	427.56
515.506	1395.56
515.721	489.56
515.937	140.56
516.153	116.56
516.369	96.56
