Data from Uncirc_2002_H10_HRD10591_00017.txt Node
Date: Wed Jan 03 10:39:44 EST 2024
User: Yrep
Spectrometer: HR+D1059
Trigger mode: 1
Integration Time (sec): 1.000000E-1
Scans to average: 1
Electric dark correction enabled: true
Nonlinearity correction enabled: false
Boxcar width: 0
XAxis mode: Wavelengths
Number of Pixels in Spectrum: 2048
>>>>>Begin Spectral Data<<<<<
223.165	-16
223.4	-16
223.635	-16
223.869	-13
224.104	-33
224.338	-32
224.573	-28
224.808	-8
225.042	-8
225.277	-8
225.511	0
225.746	-6
225.98	13
226.215	14
226.449	21
226.683	30
226.918	41
227.152	33
227.387	34
227.621	36
227.856	49
228.09	44
228.324	50
228.559	73
228.793	70
229.027	56
229.262	56
229.496	62
229.73	73
229.964	74
230.199	70
230.433	72
230.667	83
230.901	88
231.136	62
231.37	79
231.604	86
231.838	85
232.072	92
232.306	81
232.541	83
232.775	86
233.009	75
233.243	84
233.477	75
233.711	79
233.945	78
234.179	78
234.413	71
234.647	74
234.881	71
235.115	78
235.349	78
235.583	80
235.817	74
236.051	73
236.285	82
236.519	84
236.753	76
236.987	77
237.221	87
237.455	77
237.689	73
237.922	80
238.156	70
238.39	88
238.624	79
238.858	77
239.091	79
239.325	75
239.559	81
239.793	96
240.027	88
240.26	55
240.494	84
240.728	82
240.961	90
241.195	86
241.429	85
241.662	81
241.896	75
242.13	83
242.363	81
242.597	64
242.83	84
243.064	72
243.298	75
243.531	78
243.765	90
243.998	88
244.232	74
244.465	91
244.699	87
244.932	87
245.166	89
245.399	77
245.633	84
245.866	85
246.099	89
246.333	66
246.566	77
246.8	90
247.033	86
247.266	72
247.5	75
247.733	83
247.966	81
248.2	80
248.433	80
248.666	90
248.899	78
249.133	89
249.366	93
249.599	79
249.832	86
250.066	78
250.299	78
250.532	86
250.765	93
250.998	82
251.231	90
251.465	71
251.698	71
251.931	86
252.164	84
252.397	77
252.63	85
252.863	65
253.096	76
253.329	84
253.562	85
253.795	84
254.028	98
254.261	81
254.494	90
254.727	82
254.96	74
255.193	87
255.426	79
255.659	79
255.892	81
256.124	73
256.357	100
256.59	84
256.823	73
257.056	80
257.289	65
257.521	85
257.754	85
257.987	95
258.22	90
258.452	81
258.685	83
258.918	90
259.151	81
259.383	71
259.616	90
259.849	91
260.081	77
260.314	84
260.547	64
260.779	90
261.012	77
261.244	89
261.477	94
261.71	109
261.942	94
262.175	100
262.407	100
262.64	88
262.872	68
263.105	92
263.337	95
263.57	85
263.802	86
264.035	85
264.267	83
264.499	84
264.732	91
264.964	75
265.197	82
265.429	82
265.661	80
265.894	87
266.126	94
266.358	89
266.591	88
266.823	72
267.055	78
267.287	76
267.52	82
267.752	88
267.984	74
268.216	91
268.448	76
268.681	81
268.913	86
269.145	86
269.377	82
269.609	80
269.841	75
270.073	89
270.306	89
270.538	73
270.77	95
271.002	88
271.234	88
271.466	81
271.698	93
271.93	93
272.162	87
272.394	89
272.626	80
272.858	86
273.09	76
273.322	74
273.553	88
273.785	93
274.017	87
274.249	77
274.481	88
274.713	78
274.945	88
275.176	80
275.408	93
275.64	91
275.872	102
276.104	93
276.335	76
276.567	101
276.799	98
277.031	77
277.262	79
277.494	81
277.726	92
277.957	93
278.189	93
278.421	78
278.652	96
278.884	88
279.115	79
279.347	91
279.579	80
279.81	97
280.042	85
280.273	85
280.505	95
280.736	64
280.968	86
281.199	81
281.431	75
281.662	80
281.894	85
282.125	107
282.356	114
282.588	133
282.819	108
283.051	88
283.282	82
283.513	98
283.745	75
283.976	84
284.207	87
284.439	91
284.67	102
284.901	89
285.132	86
285.364	88
285.595	88
285.826	85
286.057	93
286.288	87
286.52	101
286.751	88
286.982	80
287.213	84
287.444	98
287.675	77
287.906	106
288.138	84
288.369	80
288.6	92
288.831	106
289.062	86
289.293	90
289.524	98
289.755	94
289.986	92
290.217	92
290.448	83
290.679	98
290.91	86
291.141	91
291.371	84
291.602	93
291.833	86
292.064	81
292.295	70
292.526	79
292.757	76
292.987	81
293.218	82
293.449	92
293.68	93
293.91	100
294.141	75
294.372	97
294.603	93
294.833	83
295.064	92
295.295	100
295.525	93
295.756	91
295.987	112
296.217	120
296.448	103
296.679	86
296.909	94
297.14	85
297.37	98
297.601	98
297.831	94
298.062	97
298.292	88
298.523	100
298.753	85
298.984	102
299.214	100
299.445	97
299.675	81
299.905	86
300.136	87
300.366	92
300.597	101
300.827	83
301.057	88
301.288	108
301.518	102
301.748	87
301.979	104
302.209	93
302.439	105
302.669	98
302.9	89
303.13	85
303.36	94
303.59	105
303.82	89
304.051	84
304.281	90
304.511	101
304.741	101
304.971	113
305.201	93
305.431	99
305.661	85
305.891	87
306.121	97
306.352	96
306.582	89
306.812	93
307.042	78
307.272	90
307.502	99
307.731	104
307.961	95
308.191	82
308.421	80
308.651	80
308.881	107
309.111	113
309.341	94
309.571	93
309.8	85
310.03	100
310.26	100
310.49	97
310.72	83
310.949	94
311.179	101
311.409	88
311.639	94
311.868	104
312.098	101
312.328	94
312.557	98
312.787	86
313.017	114
313.246	97
313.476	96
313.706	91
313.935	92
314.165	104
314.394	86
314.624	90
314.853	89
315.083	94
315.312	96
315.542	91
315.771	107
316.001	93
316.23	99
316.46	93
316.689	88
316.919	89
317.148	98
317.377	97
317.607	91
317.836	110
318.065	100
318.295	94
318.524	97
318.753	104
318.983	98
319.212	98
319.441	110
319.67	106
319.9	101
320.129	97
320.358	102
320.587	100
320.816	93
321.046	85
321.275	91
321.504	94
321.733	78
321.962	115
322.191	101
322.42	97
322.649	106
322.878	110
323.108	118
323.337	110
323.566	116
323.795	136
324.024	168
324.253	320
324.482	654
324.71	1270
324.939	1674
325.168	662
325.397	216
325.626	146
325.855	111
326.084	109
326.313	123
326.542	143
326.77	197
326.999	379
327.228	757
327.457	1329
327.686	1072
327.914	285
328.143	167
328.372	121
328.6	115
328.829	106
329.058	104
329.287	110
329.515	105
329.744	87
329.972	102
330.201	101
330.43	107
330.658	116
330.887	129
331.115	96
331.344	90
331.572	100
331.801	97
332.03	94
332.258	98
332.486	82
332.715	95
332.943	94
333.172	100
333.4	100
333.629	117
333.857	115
334.085	101
334.314	108
334.542	94
334.771	101
334.999	99
335.227	94
335.455	98
335.684	110
335.912	84
336.14	101
336.369	105
336.597	100
336.825	89
337.053	104
337.281	91
337.51	94
337.738	98
337.966	97
338.194	96
338.422	89
338.65	83
338.878	86
339.106	78
339.334	94
339.562	93
339.79	96
340.018	106
340.246	92
340.474	102
340.702	95
340.93	88
341.158	92
341.386	86
341.614	83
341.842	93
342.07	85
342.298	95
342.526	94
342.754	78
342.981	80
343.209	82
343.437	88
343.665	84
343.893	91
344.12	83
344.348	102
344.576	90
344.804	88
345.031	102
345.259	96
345.487	83
345.714	108
345.942	88
346.17	88
346.397	100
346.625	87
346.853	100
347.08	100
347.308	94
347.535	97
347.763	109
347.99	97
348.218	103
348.445	100
348.673	102
348.9	92
349.128	94
349.355	94
349.583	103
349.81	95
350.037	98
350.265	98
350.492	99
350.72	103
350.947	98
351.174	98
351.402	112
351.629	100
351.856	94
352.083	109
352.311	99
352.538	110
352.765	101
352.992	110
353.22	117
353.447	111
353.674	98
353.901	109
354.128	86
354.355	93
354.583	112
354.81	97
355.037	94
355.264	100
355.491	92
355.718	94
355.945	99
356.172	91
356.399	101
356.626	80
356.853	91
357.08	98
357.307	85
357.534	88
357.761	104
357.988	95
358.215	89
358.441	90
358.668	95
358.895	104
359.122	86
359.349	86
359.576	92
359.802	107
360.029	101
360.256	97
360.483	87
360.709	87
360.936	103
361.163	97
361.39	103
361.616	93
361.843	99
362.07	97
362.296	104
362.523	82
362.749	98
362.976	75
363.203	107
363.429	89
363.656	104
363.882	92
364.109	105
364.335	93
364.562	88
364.788	97
365.015	90
365.241	87
365.468	90
365.694	91
365.92	95
366.147	87
366.373	88
366.599	95
366.826	104
367.052	84
367.278	100
367.505	91
367.731	82
367.957	73
368.184	97
368.41	103
368.636	89
368.862	113
369.089	95
369.315	88
369.541	87
369.767	86
369.993	94
370.219	85
370.445	88
370.672	89
370.898	93
371.124	80
371.35	88
371.576	82
371.802	104
372.028	73
372.254	75
372.48	92
372.706	95
372.932	77
373.158	87
373.384	93
373.61	94
373.835	87
374.061	96
374.287	80
374.513	90
374.739	92
374.965	84
375.191	86
375.416	97
375.642	90
375.868	85
376.094	89
376.319	73
376.545	90
376.771	91
376.997	89
377.222	93
377.448	80
377.674	84
377.899	90
378.125	96
378.35	81
378.576	92
378.802	92
379.027	92
379.253	93
379.478	95
379.704	105
379.929	82
380.155	91
380.38	92
380.606	89
380.831	96
381.057	88
381.282	96
381.507	87
381.733	102
381.958	96
382.184	91
382.409	105
382.634	102
382.86	111
383.085	105
383.31	122
383.535	102
383.761	106
383.986	84
384.211	97
384.436	99
384.662	94
384.887	115
385.112	97
385.337	109
385.562	114
385.787	93
386.013	105
386.238	114
386.463	92
386.688	116
386.913	113
387.138	101
387.363	92
387.588	97
387.813	108
388.038	131
388.263	116
388.488	113
388.713	103
388.938	100
389.163	115
389.387	98
389.612	83
389.837	84
390.062	81
390.287	99
390.512	84
390.736	86
390.961	97
391.186	93
391.411	109
391.636	101
391.86	88
392.085	86
392.31	91
392.534	87
392.759	94
392.984	90
393.208	117
393.433	119
393.658	102
393.882	101
394.107	85
394.331	89
394.556	83
394.78	99
395.005	100
395.229	92
395.454	88
395.678	82
395.903	86
396.127	99
396.352	88
396.576	101
396.801	96
397.025	105
397.249	97
397.474	85
397.698	84
397.922	89
398.147	105
398.371	93
398.595	99
398.82	91
399.044	83
399.268	88
399.492	88
399.717	80
399.941	82
400.165	97
400.389	96
400.613	93
400.837	102
401.062	90
401.286	75
401.51	88
401.734	96
401.958	99
402.182	108
402.406	126
402.63	109
402.854	96
403.078	87
403.302	80
403.526	94
403.75	88
403.974	90
404.198	88
404.422	88
404.645	96
404.869	92
405.093	105
405.317	88
405.541	101
405.765	110
405.988	100
406.212	160
406.436	168
406.66	125
406.883	107
407.107	102
407.331	89
407.555	100
407.778	101
408.002	80
408.226	86
408.449	102
408.673	81
408.896	87
409.12	88
409.344	82
409.567	80
409.791	76
410.014	97
410.238	102
410.461	91
410.685	91
410.908	123
411.132	107
411.355	86
411.578	97
411.802	85
412.025	88
412.249	90
412.472	91
412.695	84
412.919	88
413.142	88
413.365	72
413.589	100
413.812	105
414.035	85
414.258	90
414.482	97
414.705	84
414.928	91
415.151	85
415.374	91
415.597	91
415.821	101
416.044	90
416.267	81
416.49	90
416.713	92
416.936	82
417.159	88
417.382	107
417.605	90
417.828	97
418.051	101
418.274	97
418.497	91
418.72	100
418.943	98
419.166	103
419.389	90
419.611	86
419.834	95
420.057	80
420.28	106
420.503	88
420.726	88
420.948	90
421.171	93
421.394	90
421.617	93
421.839	95
422.062	89
422.285	88
422.507	100
422.73	95
422.953	91
423.175	99
423.398	85
423.621	83
423.843	90
424.066	90
424.288	81
424.511	98
424.733	86
424.956	100
425.178	79
425.401	99
425.623	106
425.846	90
426.068	99
426.291	85
426.513	93
426.735	110
426.958	84
427.18	106
427.402	138
427.625	144
427.847	115
428.069	105
428.292	94
428.514	73
428.736	85
428.958	89
429.181	90
429.403	81
429.625	97
429.847	86
430.069	109
430.292	84
430.514	92
430.736	76
430.958	88
431.18	83
431.402	74
431.624	80
431.846	86
432.068	90
432.29	78
432.512	80
432.734	85
432.956	92
433.178	101
433.4	99
433.622	98
433.844	101
434.066	106
434.287	113
434.509	93
434.731	99
434.953	87
435.175	85
435.397	105
435.618	89
435.84	95
436.062	136
436.284	107
436.505	96
436.727	82
436.949	95
437.17	91
437.392	109
437.614	94
437.835	105
438.057	116
438.278	112
438.5	100
438.721	121
438.943	83
439.165	103
439.386	92
439.608	92
439.829	100
440.05	105
440.272	122
440.493	98
440.715	108
440.936	85
441.158	81
441.379	81
441.6	96
441.822	80
442.043	104
442.264	106
442.486	102
442.707	83
442.928	88
443.149	107
443.371	125
443.592	105
443.813	100
444.034	104
444.255	87
444.476	97
444.698	85
444.919	90
445.14	135
445.361	120
445.582	94
445.803	118
446.024	106
446.245	107
446.466	107
446.687	99
446.908	90
447.129	93
447.35	94
447.571	84
447.792	94
448.013	103
448.234	92
448.455	106
448.675	102
448.896	96
449.117	94
449.338	98
449.559	129
449.779	119
450	82
450.221	85
450.442	82
450.662	84
450.883	94
451.104	103
451.324	107
451.545	99
451.766	90
451.986	88
452.207	93
452.428	87
452.648	102
452.869	116
453.089	110
453.31	113
453.53	104
453.751	88
453.971	109
454.192	90
454.412	85
454.633	89
454.853	92
455.073	90
455.294	87
455.514	94
455.734	90
455.955	88
456.175	88
456.395	82
456.616	94
456.836	77
457.056	93
457.276	88
457.497	99
457.717	88
457.937	89
458.157	85
458.377	90
458.598	116
458.818	132
459.038	139
459.258	110
459.478	80
459.698	96
459.918	97
460.138	85
460.358	96
460.578	94
460.798	86
461.018	84
461.238	94
461.458	86
461.678	92
461.898	89
462.118	86
462.338	96
462.558	82
462.777	80
462.997	88
463.217	90
463.437	90
463.657	93
463.876	75
464.096	89
464.316	106
464.536	96
464.755	88
464.975	98
465.195	148
465.414	139
465.634	103
465.854	107
466.073	98
466.293	86
466.512	92
466.732	85
466.951	96
467.171	85
467.391	89
467.61	81
467.829	70
468.049	91
468.268	93
468.488	92
468.707	86
468.927	72
469.146	92
469.365	85
469.585	88
469.804	93
470.023	88
470.243	90
470.462	104
470.681	107
470.901	86
471.12	86
471.339	90
471.558	91
471.777	91
471.997	94
472.216	96
472.435	90
472.654	84
472.873	88
473.092	82
473.311	85
473.53	84
473.749	92
473.968	92
474.187	106
474.406	98
474.625	85
474.844	86
475.063	98
475.282	99
475.501	88
475.72	96
475.939	84
476.158	94
476.377	96
476.596	94
476.814	106
477.033	91
477.252	85
477.471	89
477.69	97
477.908	102
478.127	88
478.346	87
478.564	97
478.783	93
479.002	89
479.22	91
479.439	93
479.658	94
479.876	83
480.095	82
480.313	88
480.532	85
480.751	104
480.969	84
481.188	111
481.406	99
481.624	90
481.843	97
482.061	85
482.28	83
482.498	92
482.717	84
482.935	88
483.153	106
483.372	83
483.59	94
483.808	85
484.027	90
484.245	93
484.463	96
484.681	98
484.9	103
485.118	93
485.336	96
485.554	100
485.772	92
485.99	88
486.209	91
486.427	99
486.645	106
486.863	118
487.081	102
487.299	96
487.517	93
487.735	114
487.953	93
488.171	100
488.389	102
488.607	89
488.825	98
489.043	100
489.261	106
489.479	93
489.696	106
489.914	100
490.132	91
490.35	111
490.568	82
490.786	82
491.003	101
491.221	86
491.439	92
491.657	83
491.874	96
492.092	86
492.31	101
492.527	77
492.745	75
492.963	98
493.18	95
493.398	97
493.615	93
493.833	107
494.05	90
494.268	74
494.485	100
494.703	100
494.92	92
495.138	88
495.355	89
495.573	91
495.79	92
496.008	88
496.225	101
496.442	93
496.66	86
496.877	85
497.094	96
497.312	98
497.529	89
497.746	93
497.963	97
498.181	90
498.398	93
498.615	106
498.832	92
499.049	90
499.267	90
499.484	86
499.701	88
499.918	90
500.135	96
500.352	99
500.569	93
500.786	94
501.003	86
501.22	100
501.437	87
501.654	85
501.871	108
502.088	96
502.305	85
502.522	91
502.739	82
502.956	93
503.172	92
503.389	78
503.606	102
503.823	104
504.04	89
504.256	94
504.473	90
504.69	86
504.907	84
505.123	89
505.34	89
505.557	90
505.773	100
505.99	96
506.207	92
506.423	100
506.64	96
506.856	84
507.073	91
507.289	89
507.506	82
507.722	98
507.939	104
508.155	102
508.372	87
508.588	86
508.805	96
509.021	80
509.238	98
509.454	103
509.67	93
509.887	109
510.103	109
510.319	182
510.536	598
510.752	1808
510.968	532
511.184	148
511.401	117
511.617	89
511.833	94
512.049	93
512.265	81
512.481	93
512.698	94
512.914	102
513.13	90
513.346	106
513.562	101
513.778	100
513.994	107
514.21	93
514.426	119
514.642	122
514.858	106
515.074	147
515.29	358
515.506	1072
515.721	412
515.937	148
516.153	111
516.369	93
516.585	96
516.801	94
517.016	89
517.232	98
517.448	80
517.664	96
517.879	100
518.095	84
518.311	86
518.527	93
518.742	96
518.958	96
519.173	107
519.389	91
519.605	111
519.82	100
520.036	102
520.251	119
520.467	109
520.682	105
520.898	100
521.113	110
521.329	115
521.544	174
521.76	432
521.975	1735
522.19	1062
522.406	254
522.621	117
522.836	100
523.052	106
523.267	80
523.482	92
523.698	92
523.913	109
524.128	101
524.343	101
524.559	94
524.774	104
524.989	92
525.204	107
525.419	87
525.634	91
525.849	94
526.064	96
526.28	92
526.495	91
526.71	101
526.925	91
527.14	95
527.355	99
527.57	101
527.785	100
527.999	100
528.214	108
528.429	78
528.644	93
528.859	104
529.074	94
529.289	107
529.503	136
529.718	100
529.933	100
530.148	92
530.363	89
530.577	102
530.792	100
531.007	89
531.221	88
531.436	95
531.651	102
531.865	103
532.08	85
532.295	110
532.509	98
532.724	93
532.938	95
533.153	104
533.367	102
533.582	90
533.796	81
534.011	100
534.225	106
534.44	99
534.654	97
534.868	103
535.083	94
535.297	90
535.511	92
535.726	99
535.94	104
536.154	104
536.369	94
536.583	102
536.797	98
537.011	102
537.225	90
537.44	90
537.654	93
537.868	93
538.082	92
538.296	92
538.51	77
538.724	91
538.938	92
539.153	109
539.367	96
539.581	97
539.795	84
540.009	99
540.222	89
540.436	96
540.65	95
540.864	89
541.078	99
541.292	97
541.506	114
541.72	88
541.934	104
542.147	95
542.361	101
542.575	93
542.789	97
543.002	82
543.216	83
543.43	106
543.644	89
543.857	90
544.071	93
544.285	69
544.498	89
544.712	90
544.925	92
545.139	104
545.352	101
545.566	76
545.779	80
545.993	72
546.206	97
546.42	92
546.633	91
546.847	97
547.06	88
547.274	90
547.487	94
547.7	84
547.914	96
548.127	82
548.34	94
548.554	90
548.767	100
548.98	84
549.193	93
549.407	90
549.62	91
549.833	84
550.046	90
550.259	88
550.473	93
550.686	102
550.899	90
551.112	102
551.325	84
551.538	82
551.751	97
551.964	90
552.177	99
552.39	98
552.603	100
552.816	98
553.029	93
553.242	89
553.455	82
553.667	105
553.88	94
554.093	78
554.306	86
554.519	97
554.732	105
554.944	112
555.157	100
555.37	98
555.583	105
555.795	103
556.008	88
556.221	93
556.433	98
556.646	83
556.859	76
557.071	88
557.284	94
557.496	101
557.709	94
557.921	99
558.134	85
558.346	99
558.559	82
558.771	90
558.984	92
559.196	94
559.409	93
559.621	94
559.833	84
560.046	83
560.258	102
560.47	91
560.683	84
560.895	83
561.107	89
561.32	98
561.532	91
561.744	103
561.956	89
562.168	89
562.381	106
562.593	88
562.805	85
563.017	83
563.229	94
563.441	88
563.653	92
563.865	93
564.077	100
564.289	70
564.501	84
564.713	92
564.925	100
565.137	95
565.349	98
565.561	95
565.773	109
565.985	103
566.197	91
566.408	92
566.62	84
566.832	72
567.044	84
567.255	88
567.467	79
567.679	80
567.891	93
568.102	86
568.314	83
568.526	67
568.737	106
568.949	85
569.161	89
569.372	96
569.584	97
569.795	87
570.007	106
570.218	205
570.43	121
570.641	84
570.853	88
571.064	97
571.276	91
571.487	86
571.698	93
571.91	78
572.121	86
572.333	99
572.544	93
572.755	87
572.966	83
573.178	75
573.389	105
573.6	81
573.811	93
574.023	90
574.234	78
574.445	96
574.656	104
574.867	96
575.078	87
575.289	81
575.501	90
575.712	88
575.923	94
576.134	94
576.345	93
576.556	104
576.767	84
576.978	105
577.188	98
577.399	96
577.61	92
577.821	106
578.032	110
578.243	229
578.454	635
578.665	213
578.875	105
579.086	94
579.297	99
579.508	102
579.718	97
579.929	92
580.14	82
580.35	92
580.561	86
580.772	95
580.982	86
581.193	91
581.403	110
581.614	78
581.825	93
582.035	90
582.246	103
582.456	75
582.667	98
582.877	76
583.087	86
583.298	81
583.508	76
