Data from Uncirc_2002_H10_HRD10591_00003.txt Node
Date: Wed Jan 03 10:39:41 EST 2024
User: Yrep
Spectrometer: HR+D1059
Trigger mode: 1
Integration Time (sec): 1.000000E-1
Scans to average: 1
Electric dark correction enabled: true
Nonlinearity correction enabled: false
Boxcar width: 0
XAxis mode: Wavelengths
Number of Pixels in Spectrum: 2048
>>>>>Begin Spectral Data<<<<<
223.165	-9.81
223.4	-9.81
223.635	-9.81
223.869	-23.81
224.104	-15.81
224.338	-0.81
224.573	-12.81
224.808	-23.81
225.042	-6.81
225.277	1.19
225.511	-8.81
225.746	0.19
225.98	7.19
226.215	23.19
226.449	10.19
226.683	2.19
226.918	15.19
227.152	43.19
227.387	33.19
227.621	42.19
227.856	49.19
228.09	33.19
228.324	46.19
228.559	57.19
228.793	53.19
229.027	63.19
229.262	70.19
229.496	73.19
229.73	89.19
229.964	72.19
230.199	65.19
230.433	83.19
230.667	77.19
230.901	76.19
231.136	84.19
231.37	91.19
231.604	82.19
231.838	87.19
232.072	77.19
232.306	78.19
232.541	75.19
232.775	89.19
233.009	85.19
233.243	78.19
233.477	84.19
233.711	74.19
233.945	79.19
234.179	64.19
234.413	103.19
234.647	67.19
234.881	75.19
235.115	81.19
235.349	86.19
235.583	75.19
235.817	78.19
236.051	75.19
236.285	69.19
236.519	76.19
236.753	78.19
236.987	70.19
237.221	81.19
237.455	76.19
237.689	69.19
237.922	70.19
238.156	78.19
238.39	71.19
238.624	71.19
238.858	83.19
239.091	63.19
239.325	90.19
239.559	73.19
239.793	73.19
240.027	84.19
240.26	88.19
240.494	72.19
240.728	67.19
240.961	73.19
241.195	73.19
241.429	80.19
241.662	88.19
241.896	78.19
242.13	81.19
242.363	74.19
242.597	68.19
242.83	65.19
243.064	75.19
243.298	79.19
243.531	75.19
243.765	85.19
243.998	75.19
244.232	77.19
244.465	74.19
244.699	80.19
244.932	72.19
245.166	83.19
245.399	78.19
245.633	65.19
245.866	83.19
246.099	77.19
246.333	73.19
246.566	83.19
246.8	85.19
247.033	72.19
247.266	66.19
247.5	75.19
247.733	94.19
247.966	76.19
248.2	64.19
248.433	74.19
248.666	80.19
248.899	89.19
249.133	91.19
249.366	94.19
249.599	94.19
249.832	88.19
250.066	86.19
250.299	94.19
250.532	92.19
250.765	84.19
250.998	67.19
251.231	77.19
251.465	82.19
251.698	65.19
251.931	73.19
252.164	78.19
252.397	78.19
252.63	83.19
252.863	77.19
253.096	70.19
253.329	83.19
253.562	69.19
253.795	72.19
254.028	71.19
254.261	79.19
254.494	74.19
254.727	93.19
254.96	82.19
255.193	63.19
255.426	83.19
255.659	79.19
255.892	72.19
256.124	83.19
256.357	86.19
256.59	87.19
256.823	74.19
257.056	95.19
257.289	84.19
257.521	78.19
257.754	89.19
257.987	78.19
258.22	80.19
258.452	75.19
258.685	97.19
258.918	71.19
259.151	89.19
259.383	88.19
259.616	91.19
259.849	83.19
260.081	85.19
260.314	81.19
260.547	75.19
260.779	83.19
261.012	73.19
261.244	83.19
261.477	102.19
261.71	85.19
261.942	101.19
262.175	109.19
262.407	66.19
262.64	87.19
262.872	83.19
263.105	83.19
263.337	72.19
263.57	87.19
263.802	91.19
264.035	84.19
264.267	72.19
264.499	71.19
264.732	89.19
264.964	81.19
265.197	78.19
265.429	86.19
265.661	70.19
265.894	77.19
266.126	85.19
266.358	78.19
266.591	83.19
266.823	92.19
267.055	71.19
267.287	90.19
267.52	79.19
267.752	87.19
267.984	86.19
268.216	78.19
268.448	91.19
268.681	82.19
268.913	85.19
269.145	92.19
269.377	82.19
269.609	81.19
269.841	83.19
270.073	90.19
270.306	89.19
270.538	90.19
270.77	89.19
271.002	86.19
271.234	92.19
271.466	93.19
271.698	83.19
271.93	89.19
272.162	87.19
272.394	82.19
272.626	88.19
272.858	79.19
273.09	87.19
273.322	80.19
273.553	83.19
273.785	89.19
274.017	91.19
274.249	77.19
274.481	97.19
274.713	102.19
274.945	77.19
275.176	97.19
275.408	76.19
275.64	91.19
275.872	91.19
276.104	92.19
276.335	87.19
276.567	88.19
276.799	99.19
277.031	90.19
277.262	87.19
277.494	93.19
277.726	77.19
277.957	90.19
278.189	82.19
278.421	80.19
278.652	71.19
278.884	84.19
279.115	81.19
279.347	97.19
279.579	70.19
279.81	84.19
280.042	85.19
280.273	92.19
280.505	82.19
280.736	83.19
280.968	90.19
281.199	82.19
281.431	81.19
281.662	90.19
281.894	81.19
282.125	108.19
282.356	93.19
282.588	118.19
282.819	100.19
283.051	88.19
283.282	96.19
283.513	73.19
283.745	75.19
283.976	86.19
284.207	91.19
284.439	83.19
284.67	93.19
284.901	89.19
285.132	96.19
285.364	96.19
285.595	90.19
285.826	90.19
286.057	82.19
286.288	89.19
286.52	91.19
286.751	79.19
286.982	87.19
287.213	82.19
287.444	90.19
287.675	79.19
287.906	78.19
288.138	86.19
288.369	91.19
288.6	82.19
288.831	89.19
289.062	85.19
289.293	97.19
289.524	94.19
289.755	86.19
289.986	79.19
290.217	92.19
290.448	93.19
290.679	90.19
290.91	83.19
291.141	90.19
291.371	101.19
291.602	89.19
291.833	92.19
292.064	79.19
292.295	99.19
292.526	71.19
292.757	72.19
292.987	88.19
293.218	79.19
293.449	80.19
293.68	83.19
293.91	80.19
294.141	95.19
294.372	86.19
294.603	77.19
294.833	80.19
295.064	91.19
295.295	82.19
295.525	79.19
295.756	104.19
295.987	90.19
296.217	96.19
296.448	107.19
296.679	89.19
296.909	91.19
297.14	89.19
297.37	91.19
297.601	91.19
297.831	90.19
298.062	94.19
298.292	84.19
298.523	94.19
298.753	86.19
298.984	86.19
299.214	88.19
299.445	93.19
299.675	100.19
299.905	91.19
300.136	89.19
300.366	89.19
300.597	101.19
300.827	91.19
301.057	104.19
301.288	99.19
301.518	91.19
301.748	91.19
301.979	91.19
302.209	86.19
302.439	85.19
302.669	80.19
302.9	94.19
303.13	84.19
303.36	92.19
303.59	94.19
303.82	103.19
304.051	88.19
304.281	77.19
304.511	89.19
304.741	77.19
304.971	104.19
305.201	84.19
305.431	87.19
305.661	79.19
305.891	77.19
306.121	73.19
306.352	87.19
306.582	94.19
306.812	89.19
307.042	95.19
307.272	109.19
307.502	88.19
307.731	82.19
307.961	80.19
308.191	87.19
308.421	98.19
308.651	98.19
308.881	89.19
309.111	87.19
309.341	92.19
309.571	94.19
309.8	85.19
310.03	96.19
310.26	77.19
310.49	97.19
310.72	103.19
310.949	96.19
311.179	93.19
311.409	84.19
311.639	97.19
311.868	86.19
312.098	89.19
312.328	80.19
312.557	109.19
312.787	98.19
313.017	95.19
313.246	89.19
313.476	97.19
313.706	92.19
313.935	95.19
314.165	93.19
314.394	97.19
314.624	93.19
314.853	86.19
315.083	80.19
315.312	85.19
315.542	85.19
315.771	91.19
316.001	85.19
316.23	90.19
316.46	73.19
316.689	90.19
316.919	91.19
317.148	81.19
317.377	96.19
317.607	104.19
317.836	96.19
318.065	100.19
318.295	85.19
318.524	91.19
318.753	107.19
318.983	104.19
319.212	94.19
319.441	85.19
319.67	84.19
319.9	86.19
320.129	87.19
320.358	96.19
320.587	82.19
320.816	95.19
321.046	84.19
321.275	94.19
321.504	87.19
321.733	105.19
321.962	71.19
322.191	100.19
322.42	106.19
322.649	94.19
322.878	97.19
323.108	108.19
323.337	113.19
323.566	120.19
323.795	116.19
324.024	175.19
324.253	297.19
324.482	619.19
324.71	1248.19
324.939	1623.19
325.168	630.19
325.397	201.19
325.626	124.19
325.855	116.19
326.084	117.19
326.313	110.19
326.542	121.19
326.77	202.19
326.999	373.19
327.228	701.19
327.457	1275.19
327.686	1038.19
327.914	298.19
328.143	159.19
328.372	134.19
328.6	101.19
328.829	121.19
329.058	114.19
329.287	106.19
329.515	107.19
329.744	99.19
329.972	96.19
330.201	103.19
330.43	97.19
330.658	111.19
330.887	111.19
331.115	105.19
331.344	98.19
331.572	99.19
331.801	93.19
332.03	103.19
332.258	98.19
332.486	87.19
332.715	92.19
332.943	90.19
333.172	91.19
333.4	92.19
333.629	93.19
333.857	93.19
334.085	88.19
334.314	98.19
334.542	92.19
334.771	97.19
334.999	102.19
335.227	92.19
335.455	74.19
335.684	87.19
335.912	89.19
336.14	88.19
336.369	111.19
336.597	98.19
336.825	105.19
337.053	101.19
337.281	83.19
337.51	105.19
337.738	86.19
337.966	92.19
338.194	85.19
338.422	82.19
338.65	100.19
338.878	106.19
339.106	101.19
339.334	91.19
339.562	85.19
339.79	90.19
340.018	89.19
340.246	95.19
340.474	88.19
340.702	87.19
340.93	84.19
341.158	84.19
341.386	84.19
341.614	91.19
341.842	92.19
342.07	88.19
342.298	106.19
342.526	74.19
342.754	96.19
342.981	98.19
343.209	86.19
343.437	98.19
343.665	85.19
343.893	74.19
344.12	91.19
344.348	83.19
344.576	93.19
344.804	99.19
345.031	101.19
345.259	79.19
345.487	86.19
345.714	85.19
345.942	90.19
346.17	80.19
346.397	95.19
346.625	95.19
346.853	106.19
347.08	82.19
347.308	91.19
347.535	89.19
347.763	96.19
347.99	73.19
348.218	96.19
348.445	104.19
348.673	90.19
348.9	98.19
349.128	88.19
349.355	89.19
349.583	80.19
349.81	95.19
350.037	88.19
350.265	95.19
350.492	101.19
350.72	90.19
350.947	99.19
351.174	105.19
351.402	101.19
351.629	89.19
351.856	101.19
352.083	100.19
352.311	88.19
352.538	97.19
352.765	109.19
352.992	103.19
353.22	117.19
353.447	94.19
353.674	91.19
353.901	93.19
354.128	88.19
354.355	94.19
354.583	115.19
354.81	104.19
355.037	88.19
355.264	108.19
355.491	97.19
355.718	71.19
355.945	97.19
356.172	101.19
356.399	93.19
356.626	97.19
356.853	94.19
357.08	89.19
357.307	93.19
357.534	104.19
357.761	86.19
357.988	80.19
358.215	82.19
358.441	92.19
358.668	93.19
358.895	89.19
359.122	100.19
359.349	90.19
359.576	94.19
359.802	95.19
360.029	106.19
360.256	106.19
360.483	91.19
360.709	95.19
360.936	114.19
361.163	88.19
361.39	85.19
361.616	96.19
361.843	88.19
362.07	89.19
362.296	77.19
362.523	82.19
362.749	87.19
362.976	83.19
363.203	91.19
363.429	83.19
363.656	95.19
363.882	99.19
364.109	82.19
364.335	91.19
364.562	98.19
364.788	85.19
365.015	91.19
365.241	97.19
365.468	82.19
365.694	88.19
365.92	92.19
366.147	87.19
366.373	94.19
366.599	89.19
366.826	88.19
367.052	81.19
367.278	83.19
367.505	86.19
367.731	82.19
367.957	84.19
368.184	87.19
368.41	89.19
368.636	97.19
368.862	98.19
369.089	96.19
369.315	88.19
369.541	89.19
369.767	95.19
369.993	81.19
370.219	87.19
370.445	82.19
370.672	94.19
370.898	84.19
371.124	81.19
371.35	86.19
371.576	83.19
371.802	89.19
372.028	74.19
372.254	91.19
372.48	95.19
372.706	77.19
372.932	91.19
373.158	96.19
373.384	97.19
373.61	90.19
373.835	84.19
374.061	91.19
374.287	83.19
374.513	80.19
374.739	88.19
374.965	91.19
375.191	82.19
375.416	96.19
375.642	83.19
375.868	86.19
376.094	88.19
376.319	87.19
376.545	95.19
376.771	88.19
376.997	96.19
377.222	91.19
377.448	93.19
377.674	83.19
377.899	92.19
378.125	87.19
378.35	102.19
378.576	93.19
378.802	85.19
379.027	93.19
379.253	99.19
379.478	98.19
379.704	96.19
379.929	80.19
380.155	91.19
380.38	91.19
380.606	75.19
380.831	81.19
381.057	106.19
381.282	79.19
381.507	92.19
381.733	89.19
381.958	94.19
382.184	104.19
382.409	98.19
382.634	102.19
382.86	104.19
383.085	111.19
383.31	104.19
383.535	102.19
383.761	108.19
383.986	112.19
384.211	107.19
384.436	102.19
384.662	105.19
384.887	97.19
385.112	104.19
385.337	91.19
385.562	102.19
385.787	109.19
386.013	112.19
386.238	101.19
386.463	113.19
386.688	102.19
386.913	101.19
387.138	111.19
387.363	122.19
387.588	86.19
387.813	101.19
388.038	108.19
388.263	115.19
388.488	100.19
388.713	94.19
388.938	87.19
389.163	98.19
389.387	83.19
389.612	97.19
389.837	99.19
390.062	86.19
390.287	100.19
390.512	101.19
390.736	84.19
390.961	88.19
391.186	90.19
391.411	99.19
391.636	94.19
391.86	90.19
392.085	66.19
392.31	85.19
392.534	93.19
392.759	102.19
392.984	91.19
393.208	118.19
393.433	154.19
393.658	136.19
393.882	90.19
394.107	73.19
394.331	99.19
394.556	98.19
394.78	82.19
395.005	94.19
395.229	92.19
395.454	78.19
395.678	90.19
395.903	95.19
396.127	93.19
396.352	73.19
396.576	88.19
396.801	109.19
397.025	112.19
397.249	85.19
397.474	77.19
397.698	87.19
397.922	91.19
398.147	92.19
398.371	90.19
398.595	89.19
398.82	74.19
399.044	94.19
399.268	74.19
399.492	88.19
399.717	84.19
399.941	80.19
400.165	96.19
400.389	82.19
400.613	87.19
400.837	83.19
401.062	95.19
401.286	88.19
401.51	87.19
401.734	94.19
401.958	89.19
402.182	109.19
402.406	146.19
402.63	102.19
402.854	97.19
403.078	89.19
403.302	83.19
403.526	86.19
403.75	96.19
403.974	105.19
404.198	86.19
404.422	88.19
404.645	81.19
404.869	98.19
405.093	94.19
405.317	79.19
405.541	105.19
405.765	92.19
405.988	97.19
406.212	149.19
406.436	166.19
406.66	109.19
406.883	99.19
407.107	91.19
407.331	83.19
407.555	87.19
407.778	93.19
408.002	84.19
408.226	73.19
408.449	96.19
408.673	76.19
408.896	84.19
409.12	78.19
409.344	93.19
409.567	106.19
409.791	91.19
410.014	99.19
410.238	86.19
410.461	80.19
410.685	93.19
410.908	110.19
411.132	109.19
411.355	92.19
411.578	88.19
411.802	81.19
412.025	96.19
412.249	84.19
412.472	86.19
412.695	82.19
412.919	91.19
413.142	85.19
413.365	74.19
413.589	77.19
413.812	99.19
414.035	88.19
414.258	82.19
414.482	85.19
414.705	90.19
414.928	96.19
415.151	81.19
415.374	95.19
415.597	84.19
415.821	89.19
416.044	80.19
416.267	88.19
416.49	88.19
416.713	91.19
416.936	95.19
417.159	89.19
417.382	87.19
417.605	70.19
417.828	97.19
418.051	92.19
418.274	88.19
418.497	85.19
418.72	84.19
418.943	95.19
419.166	95.19
419.389	97.19
419.611	96.19
419.834	91.19
420.057	103.19
420.28	93.19
420.503	74.19
420.726	89.19
420.948	73.19
421.171	86.19
421.394	85.19
421.617	80.19
421.839	91.19
422.062	86.19
422.285	89.19
422.507	100.19
422.73	100.19
422.953	118.19
423.175	96.19
423.398	97.19
423.621	77.19
423.843	74.19
424.066	71.19
424.288	85.19
424.511	83.19
424.733	89.19
424.956	95.19
425.178	91.19
425.401	97.19
425.623	103.19
425.846	84.19
426.068	88.19
426.291	90.19
426.513	82.19
426.735	83.19
426.958	95.19
427.18	91.19
427.402	131.19
427.625	125.19
427.847	82.19
428.069	112.19
428.292	79.19
428.514	87.19
428.736	79.19
428.958	90.19
429.181	75.19
429.403	77.19
429.625	80.19
429.847	93.19
430.069	96.19
430.292	91.19
430.514	80.19
430.736	74.19
430.958	89.19
431.18	87.19
431.402	90.19
431.624	87.19
431.846	68.19
432.068	79.19
432.29	81.19
432.512	79.19
432.734	80.19
432.956	95.19
433.178	91.19
433.4	97.19
433.622	84.19
433.844	92.19
434.066	81.19
434.287	78.19
434.509	90.19
434.731	90.19
434.953	97.19
435.175	88.19
435.397	102.19
435.618	86.19
435.84	81.19
436.062	110.19
436.284	100.19
436.505	97.19
436.727	90.19
436.949	83.19
437.17	95.19
437.392	68.19
437.614	88.19
437.835	99.19
438.057	112.19
438.278	101.19
438.5	105.19
438.721	105.19
438.943	96.19
439.165	91.19
439.386	88.19
439.608	88.19
439.829	88.19
440.05	110.19
440.272	114.19
440.493	90.19
440.715	76.19
440.936	86.19
441.158	78.19
441.379	73.19
441.6	102.19
441.822	81.19
442.043	94.19
442.264	91.19
442.486	74.19
442.707	81.19
442.928	87.19
443.149	116.19
443.371	117.19
443.592	100.19
443.813	87.19
444.034	89.19
444.255	96.19
444.476	85.19
444.698	91.19
444.919	80.19
445.14	144.19
445.361	119.19
445.582	107.19
445.803	126.19
446.024	126.19
446.245	120.19
446.466	102.19
446.687	92.19
446.908	94.19
447.129	91.19
447.35	92.19
447.571	96.19
447.792	94.19
448.013	83.19
448.234	107.19
448.455	100.19
448.675	104.19
448.896	106.19
449.117	102.19
449.338	106.19
449.559	126.19
449.779	117.19
450	86.19
450.221	81.19
450.442	89.19
450.662	86.19
450.883	88.19
451.104	95.19
451.324	92.19
451.545	95.19
451.766	83.19
451.986	91.19
452.207	82.19
452.428	83.19
452.648	98.19
452.869	98.19
453.089	102.19
453.31	96.19
453.53	82.19
453.751	72.19
453.971	91.19
454.192	103.19
454.412	90.19
454.633	89.19
454.853	89.19
455.073	98.19
455.294	81.19
455.514	86.19
455.734	83.19
455.955	81.19
456.175	75.19
456.395	77.19
456.616	86.19
456.836	84.19
457.056	101.19
457.276	85.19
457.497	85.19
457.717	92.19
457.937	93.19
458.157	87.19
458.377	79.19
458.598	95.19
458.818	121.19
459.038	127.19
459.258	90.19
459.478	81.19
459.698	95.19
459.918	77.19
460.138	84.19
460.358	81.19
460.578	95.19
460.798	73.19
461.018	88.19
461.238	81.19
461.458	68.19
461.678	82.19
461.898	87.19
462.118	83.19
462.338	85.19
462.558	86.19
462.777	79.19
462.997	83.19
463.217	87.19
463.437	91.19
463.657	103.19
463.876	92.19
464.096	92.19
464.316	72.19
464.536	83.19
464.755	106.19
464.975	109.19
465.195	143.19
465.414	135.19
465.634	85.19
465.854	69.19
466.073	82.19
466.293	87.19
466.512	89.19
466.732	93.19
466.951	95.19
467.171	88.19
467.391	89.19
467.61	105.19
467.829	102.19
468.049	105.19
468.268	81.19
468.488	87.19
468.707	90.19
468.927	74.19
469.146	70.19
469.365	89.19
469.585	97.19
469.804	86.19
470.023	91.19
470.243	90.19
470.462	91.19
470.681	88.19
470.901	89.19
471.12	90.19
471.339	77.19
471.558	78.19
471.777	84.19
471.997	97.19
472.216	101.19
472.435	88.19
472.654	80.19
472.873	100.19
473.092	77.19
473.311	86.19
473.53	81.19
473.749	91.19
473.968	73.19
474.187	81.19
474.406	90.19
474.625	83.19
474.844	82.19
475.063	75.19
475.282	84.19
475.501	88.19
475.72	86.19
475.939	93.19
476.158	87.19
476.377	97.19
476.596	101.19
476.814	88.19
477.033	90.19
477.252	101.19
477.471	84.19
477.69	79.19
477.908	80.19
478.127	90.19
478.346	91.19
478.564	93.19
478.783	85.19
479.002	83.19
479.22	92.19
479.439	95.19
479.658	105.19
479.876	90.19
480.095	77.19
480.313	89.19
480.532	86.19
480.751	84.19
480.969	93.19
481.188	102.19
481.406	98.19
481.624	95.19
481.843	85.19
482.061	89.19
482.28	83.19
482.498	88.19
482.717	84.19
482.935	86.19
483.153	95.19
483.372	70.19
483.59	84.19
483.808	105.19
484.027	84.19
484.245	105.19
484.463	79.19
484.681	96.19
484.9	87.19
485.118	92.19
485.336	95.19
485.554	105.19
485.772	97.19
485.99	111.19
486.209	101.19
486.427	102.19
486.645	104.19
486.863	112.19
487.081	96.19
487.299	112.19
487.517	104.19
487.735	91.19
487.953	89.19
488.171	97.19
488.389	87.19
488.607	105.19
488.825	106.19
489.043	86.19
489.261	88.19
489.479	99.19
489.696	93.19
489.914	79.19
490.132	90.19
490.35	83.19
490.568	89.19
490.786	83.19
491.003	86.19
491.221	87.19
491.439	95.19
491.657	96.19
491.874	93.19
492.092	91.19
492.31	90.19
492.527	85.19
492.745	78.19
492.963	89.19
493.18	91.19
493.398	94.19
493.615	96.19
493.833	107.19
494.05	92.19
494.268	85.19
494.485	90.19
494.703	95.19
494.92	81.19
495.138	85.19
495.355	93.19
495.573	97.19
495.79	93.19
496.008	96.19
496.225	87.19
496.442	71.19
496.66	89.19
496.877	94.19
497.094	91.19
497.312	87.19
497.529	94.19
497.746	91.19
497.963	95.19
498.181	89.19
498.398	88.19
498.615	96.19
498.832	94.19
499.049	89.19
499.267	104.19
499.484	89.19
499.701	87.19
499.918	91.19
500.135	87.19
500.352	96.19
500.569	86.19
500.786	77.19
501.003	97.19
501.22	81.19
501.437	97.19
501.654	94.19
501.871	96.19
502.088	95.19
502.305	86.19
502.522	84.19
502.739	90.19
502.956	107.19
503.172	77.19
503.389	96.19
503.606	96.19
503.823	94.19
504.04	87.19
504.256	88.19
504.473	88.19
504.69	96.19
504.907	93.19
505.123	96.19
505.34	94.19
505.557	85.19
505.773	91.19
505.99	88.19
506.207	74.19
506.423	71.19
506.64	98.19
506.856	103.19
507.073	79.19
507.289	93.19
507.506	99.19
507.722	98.19
507.939	83.19
508.155	94.19
508.372	94.19
508.588	88.19
508.805	88.19
509.021	99.19
509.238	93.19
509.454	86.19
509.67	93.19
509.887	91.19
510.103	128.19
510.319	163.19
510.536	577.19
510.752	1769.19
510.968	519.19
511.184	141.19
511.401	106.19
511.617	98.19
511.833	95.19
512.049	92.19
512.265	94.19
512.481	88.19
512.698	98.19
512.914	92.19
513.13	103.19
513.346	90.19
513.562	79.19
513.778	81.19
513.994	95.19
514.21	93.19
514.426	113.19
514.642	112.19
514.858	120.19
515.074	146.19
515.29	339.19
515.506	1042.19
515.721	405.19
515.937	136.19
516.153	104.19
516.369	99.19
516.585	87.19
516.801	104.19
517.016	92.19
