Data from Uncirc_2002_H10_HRD10591_00071.txt Node
Date: Wed Jan 03 10:39:55 EST 2024
User: Yrep
Spectrometer: HR+D1059
Trigger mode: 1
Integration Time (sec): 1.000000E-1
Scans to average: 1
Electric dark correction enabled: true
Nonlinearity correction enabled: false
Boxcar width: 0
XAxis mode: Wavelengths
Number of Pixels in Spectrum: 2048
>>>>>Begin Spectral Data<<<<<
223.165	-19.44
223.4	-19.44
223.635	-19.44
223.869	-23.44
224.104	-14.44
224.338	-7.44
224.573	-10.44
224.808	-14.44
225.042	-5.44
225.277	-8.44
225.511	1.56
225.746	3.56
225.98	9.56
226.215	-1.44
226.449	-1.44
226.683	22.56
226.918	30.56
227.152	38.56
227.387	36.56
227.621	39.56
227.856	34.56
228.09	57.56
228.324	61.56
228.559	62.56
228.793	67.56
229.027	61.56
229.262	58.56
229.496	73.56
229.73	80.56
229.964	80.56
230.199	77.56
230.433	73.56
230.667	77.56
230.901	71.56
231.136	82.56
231.37	77.56
231.604	74.56
231.838	88.56
232.072	82.56
232.306	87.56
232.541	86.56
232.775	72.56
233.009	84.56
233.243	95.56
233.477	86.56
233.711	65.56
233.945	79.56
234.179	81.56
234.413	78.56
234.647	85.56
234.881	78.56
235.115	75.56
235.349	82.56
235.583	71.56
235.817	71.56
236.051	78.56
236.285	74.56
236.519	58.56
236.753	70.56
236.987	74.56
237.221	83.56
237.455	93.56
237.689	77.56
237.922	67.56
238.156	78.56
238.39	78.56
238.624	80.56
238.858	67.56
239.091	73.56
239.325	55.56
239.559	69.56
239.793	76.56
240.027	76.56
240.26	79.56
240.494	65.56
240.728	83.56
240.961	85.56
241.195	91.56
241.429	89.56
241.662	77.56
241.896	79.56
242.13	84.56
242.363	65.56
242.597	88.56
242.83	74.56
243.064	82.56
243.298	84.56
243.531	73.56
243.765	69.56
243.998	88.56
244.232	84.56
244.465	74.56
244.699	78.56
244.932	67.56
245.166	81.56
245.399	73.56
245.633	92.56
245.866	69.56
246.099	70.56
246.333	80.56
246.566	84.56
246.8	78.56
247.033	66.56
247.266	68.56
247.5	75.56
247.733	72.56
247.966	71.56
248.2	80.56
248.433	82.56
248.666	69.56
248.899	77.56
249.133	86.56
249.366	87.56
249.599	102.56
249.832	77.56
250.066	93.56
250.299	81.56
250.532	84.56
250.765	63.56
250.998	81.56
251.231	66.56
251.465	67.56
251.698	81.56
251.931	95.56
252.164	77.56
252.397	83.56
252.63	86.56
252.863	69.56
253.096	74.56
253.329	75.56
253.562	86.56
253.795	70.56
254.028	67.56
254.261	85.56
254.494	72.56
254.727	75.56
254.96	75.56
255.193	80.56
255.426	87.56
255.659	75.56
255.892	70.56
256.124	76.56
256.357	86.56
256.59	85.56
256.823	67.56
257.056	81.56
257.289	87.56
257.521	90.56
257.754	67.56
257.987	80.56
258.22	83.56
258.452	84.56
258.685	83.56
258.918	91.56
259.151	69.56
259.383	80.56
259.616	80.56
259.849	77.56
260.081	88.56
260.314	73.56
260.547	82.56
260.779	70.56
261.012	82.56
261.244	73.56
261.477	85.56
261.71	91.56
261.942	105.56
262.175	97.56
262.407	85.56
262.64	86.56
262.872	79.56
263.105	87.56
263.337	86.56
263.57	87.56
263.802	88.56
264.035	77.56
264.267	82.56
264.499	77.56
264.732	81.56
264.964	74.56
265.197	86.56
265.429	75.56
265.661	86.56
265.894	73.56
266.126	84.56
266.358	87.56
266.591	87.56
266.823	84.56
267.055	82.56
267.287	77.56
267.52	81.56
267.752	88.56
267.984	78.56
268.216	84.56
268.448	86.56
268.681	79.56
268.913	74.56
269.145	86.56
269.377	66.56
269.609	74.56
269.841	93.56
270.073	67.56
270.306	75.56
270.538	82.56
270.77	71.56
271.002	86.56
271.234	78.56
271.466	84.56
271.698	76.56
271.93	82.56
272.162	80.56
272.394	98.56
272.626	78.56
272.858	89.56
273.09	86.56
273.322	82.56
273.553	74.56
273.785	91.56
274.017	88.56
274.249	78.56
274.481	97.56
274.713	81.56
274.945	81.56
275.176	87.56
275.408	85.56
275.64	91.56
275.872	79.56
276.104	96.56
276.335	89.56
276.567	97.56
276.799	101.56
277.031	101.56
277.262	89.56
277.494	82.56
277.726	85.56
277.957	99.56
278.189	79.56
278.421	77.56
278.652	85.56
278.884	85.56
279.115	76.56
279.347	88.56
279.579	90.56
279.81	82.56
280.042	78.56
280.273	90.56
280.505	88.56
280.736	105.56
280.968	86.56
281.199	78.56
281.431	84.56
281.662	85.56
281.894	89.56
282.125	90.56
282.356	102.56
282.588	128.56
282.819	106.56
283.051	74.56
283.282	79.56
283.513	82.56
283.745	79.56
283.976	87.56
284.207	82.56
284.439	78.56
284.67	95.56
284.901	69.56
285.132	67.56
285.364	83.56
285.595	77.56
285.826	83.56
286.057	93.56
286.288	89.56
286.52	87.56
286.751	86.56
286.982	77.56
287.213	90.56
287.444	94.56
287.675	82.56
287.906	89.56
288.138	88.56
288.369	107.56
288.6	83.56
288.831	91.56
289.062	78.56
289.293	94.56
289.524	91.56
289.755	77.56
289.986	85.56
290.217	67.56
290.448	86.56
290.679	90.56
290.91	92.56
291.141	98.56
291.371	97.56
291.602	95.56
291.833	86.56
292.064	91.56
292.295	94.56
292.526	85.56
292.757	95.56
292.987	101.56
293.218	87.56
293.449	77.56
293.68	83.56
293.91	106.56
294.141	79.56
294.372	85.56
294.603	85.56
294.833	85.56
295.064	94.56
295.295	80.56
295.525	68.56
295.756	99.56
295.987	115.56
296.217	117.56
296.448	126.56
296.679	97.56
296.909	101.56
297.14	87.56
297.37	88.56
297.601	84.56
297.831	97.56
298.062	97.56
298.292	86.56
298.523	89.56
298.753	87.56
298.984	86.56
299.214	96.56
299.445	85.56
299.675	96.56
299.905	85.56
300.136	85.56
300.366	82.56
300.597	98.56
300.827	99.56
301.057	99.56
301.288	102.56
301.518	95.56
301.748	89.56
301.979	89.56
302.209	91.56
302.439	94.56
302.669	97.56
302.9	95.56
303.13	78.56
303.36	96.56
303.59	77.56
303.82	105.56
304.051	87.56
304.281	79.56
304.511	75.56
304.741	86.56
304.971	89.56
305.201	80.56
305.431	84.56
305.661	88.56
305.891	90.56
306.121	95.56
306.352	95.56
306.582	99.56
306.812	87.56
307.042	91.56
307.272	85.56
307.502	85.56
307.731	83.56
307.961	86.56
308.191	94.56
308.421	79.56
308.651	92.56
308.881	85.56
309.111	97.56
309.341	81.56
309.571	99.56
309.8	96.56
310.03	75.56
310.26	98.56
310.49	98.56
310.72	90.56
310.949	99.56
311.179	88.56
311.409	97.56
311.639	88.56
311.868	97.56
312.098	98.56
312.328	97.56
312.557	94.56
312.787	82.56
313.017	84.56
313.246	89.56
313.476	105.56
313.706	91.56
313.935	95.56
314.165	99.56
314.394	101.56
314.624	112.56
314.853	103.56
315.083	84.56
315.312	96.56
315.542	95.56
315.771	92.56
316.001	88.56
316.23	91.56
316.46	88.56
316.689	94.56
316.919	101.56
317.148	86.56
317.377	80.56
317.607	99.56
317.836	89.56
318.065	90.56
318.295	86.56
318.524	86.56
318.753	88.56
318.983	84.56
319.212	98.56
319.441	97.56
319.67	92.56
319.9	104.56
320.129	92.56
320.358	100.56
320.587	95.56
320.816	76.56
321.046	101.56
321.275	85.56
321.504	93.56
321.733	94.56
321.962	102.56
322.191	99.56
322.42	102.56
322.649	107.56
322.878	96.56
323.108	107.56
323.337	114.56
323.566	121.56
323.795	141.56
324.024	191.56
324.253	318.56
324.482	685.56
324.71	1341.56
324.939	1781.56
325.168	667.56
325.397	207.56
325.626	139.56
325.855	122.56
326.084	116.56
326.313	115.56
326.542	151.56
326.77	223.56
326.999	374.56
327.228	807.56
327.457	1402.56
327.686	1093.56
327.914	316.56
328.143	170.56
328.372	143.56
328.6	110.56
328.829	116.56
329.058	127.56
329.287	114.56
329.515	101.56
329.744	105.56
329.972	104.56
330.201	100.56
330.43	110.56
330.658	100.56
330.887	127.56
331.115	110.56
331.344	103.56
331.572	101.56
331.801	89.56
332.03	95.56
332.258	100.56
332.486	72.56
332.715	92.56
332.943	88.56
333.172	101.56
333.4	107.56
333.629	105.56
333.857	101.56
334.085	86.56
334.314	93.56
334.542	107.56
334.771	93.56
334.999	90.56
335.227	88.56
335.455	111.56
335.684	89.56
335.912	96.56
336.14	81.56
336.369	107.56
336.597	88.56
336.825	88.56
337.053	97.56
337.281	98.56
337.51	84.56
337.738	90.56
337.966	100.56
338.194	86.56
338.422	113.56
338.65	98.56
338.878	104.56
339.106	95.56
339.334	100.56
339.562	70.56
339.79	89.56
340.018	78.56
340.246	103.56
340.474	83.56
340.702	99.56
340.93	87.56
341.158	76.56
341.386	90.56
341.614	88.56
341.842	101.56
342.07	92.56
342.298	79.56
342.526	89.56
342.754	95.56
342.981	83.56
343.209	80.56
343.437	96.56
343.665	88.56
343.893	89.56
344.12	95.56
344.348	96.56
344.576	82.56
344.804	102.56
345.031	92.56
345.259	98.56
345.487	86.56
345.714	93.56
345.942	96.56
346.17	91.56
346.397	83.56
346.625	94.56
346.853	62.56
347.08	83.56
347.308	95.56
347.535	91.56
347.763	91.56
347.99	88.56
348.218	97.56
348.445	101.56
348.673	86.56
348.9	103.56
349.128	112.56
349.355	110.56
349.583	99.56
349.81	105.56
350.037	93.56
350.265	114.56
350.492	80.56
350.72	95.56
350.947	94.56
351.174	112.56
351.402	97.56
351.629	95.56
351.856	95.56
352.083	101.56
352.311	105.56
352.538	104.56
352.765	127.56
352.992	105.56
353.22	110.56
353.447	93.56
353.674	94.56
353.901	95.56
354.128	113.56
354.355	79.56
354.583	94.56
354.81	90.56
355.037	97.56
355.264	97.56
355.491	97.56
355.718	92.56
355.945	101.56
356.172	85.56
356.399	97.56
356.626	111.56
356.853	84.56
357.08	100.56
357.307	84.56
357.534	94.56
357.761	92.56
357.988	110.56
358.215	95.56
358.441	64.56
358.668	85.56
358.895	95.56
359.122	86.56
359.349	91.56
359.576	98.56
359.802	106.56
360.029	96.56
360.256	101.56
360.483	101.56
360.709	87.56
360.936	99.56
361.163	92.56
361.39	79.56
361.616	90.56
361.843	91.56
362.07	83.56
362.296	95.56
362.523	88.56
362.749	103.56
362.976	90.56
363.203	99.56
363.429	98.56
363.656	96.56
363.882	99.56
364.109	86.56
364.335	83.56
364.562	80.56
364.788	98.56
365.015	104.56
365.241	87.56
365.468	105.56
365.694	105.56
365.92	87.56
366.147	71.56
366.373	87.56
366.599	90.56
366.826	96.56
367.052	96.56
367.278	85.56
367.505	96.56
367.731	101.56
367.957	86.56
368.184	93.56
368.41	91.56
368.636	104.56
368.862	119.56
369.089	110.56
369.315	83.56
369.541	85.56
369.767	90.56
369.993	91.56
370.219	84.56
370.445	103.56
370.672	99.56
370.898	80.56
371.124	88.56
371.35	74.56
371.576	78.56
371.802	104.56
372.028	92.56
372.254	90.56
372.48	74.56
372.706	80.56
372.932	78.56
373.158	87.56
373.384	92.56
373.61	77.56
373.835	101.56
374.061	100.56
374.287	78.56
374.513	89.56
374.739	80.56
374.965	99.56
375.191	101.56
375.416	101.56
375.642	101.56
375.868	88.56
376.094	94.56
376.319	89.56
376.545	85.56
376.771	85.56
376.997	97.56
377.222	102.56
377.448	99.56
377.674	74.56
377.899	91.56
378.125	91.56
378.35	70.56
378.576	88.56
378.802	82.56
379.027	86.56
379.253	104.56
379.478	96.56
379.704	87.56
379.929	91.56
380.155	78.56
380.38	83.56
380.606	91.56
380.831	81.56
381.057	101.56
381.282	103.56
381.507	90.56
381.733	87.56
381.958	85.56
382.184	92.56
382.409	98.56
382.634	97.56
382.86	96.56
383.085	96.56
383.31	91.56
383.535	99.56
383.761	85.56
383.986	113.56
384.211	98.56
384.436	80.56
384.662	101.56
384.887	109.56
385.112	116.56
385.337	96.56
385.562	104.56
385.787	101.56
386.013	105.56
386.238	105.56
386.463	90.56
386.688	97.56
386.913	102.56
387.138	108.56
387.363	106.56
387.588	93.56
387.813	101.56
388.038	94.56
388.263	109.56
388.488	97.56
388.713	85.56
388.938	92.56
389.163	94.56
389.387	89.56
389.612	99.56
389.837	95.56
390.062	82.56
390.287	99.56
390.512	95.56
390.736	95.56
390.961	93.56
391.186	96.56
391.411	99.56
391.636	79.56
391.86	99.56
392.085	80.56
392.31	92.56
392.534	90.56
392.759	86.56
392.984	99.56
393.208	85.56
393.433	89.56
393.658	88.56
393.882	82.56
394.107	80.56
394.331	85.56
394.556	94.56
394.78	91.56
395.005	84.56
395.229	95.56
395.454	89.56
395.678	82.56
395.903	78.56
396.127	86.56
396.352	79.56
396.576	89.56
396.801	94.56
397.025	113.56
397.249	95.56
397.474	95.56
397.698	89.56
397.922	94.56
398.147	99.56
398.371	86.56
398.595	89.56
398.82	80.56
399.044	85.56
399.268	86.56
399.492	76.56
399.717	97.56
399.941	95.56
400.165	95.56
400.389	93.56
400.613	90.56
400.837	82.56
401.062	82.56
401.286	92.56
401.51	92.56
401.734	80.56
401.958	97.56
402.182	102.56
402.406	164.56
402.63	117.56
402.854	95.56
403.078	90.56
403.302	79.56
403.526	81.56
403.75	83.56
403.974	93.56
404.198	96.56
404.422	96.56
404.645	83.56
404.869	97.56
405.093	92.56
405.317	81.56
405.541	72.56
405.765	79.56
405.988	107.56
406.212	149.56
406.436	189.56
406.66	137.56
406.883	93.56
407.107	84.56
407.331	94.56
407.555	97.56
407.778	88.56
408.002	75.56
408.226	87.56
408.449	87.56
408.673	106.56
408.896	95.56
409.12	104.56
409.344	85.56
409.567	85.56
409.791	89.56
410.014	93.56
410.238	97.56
410.461	80.56
410.685	77.56
410.908	89.56
411.132	98.56
411.355	84.56
411.578	93.56
411.802	91.56
412.025	80.56
412.249	93.56
412.472	79.56
412.695	85.56
412.919	98.56
413.142	96.56
413.365	83.56
413.589	81.56
413.812	88.56
414.035	90.56
414.258	87.56
414.482	92.56
414.705	102.56
414.928	79.56
415.151	81.56
415.374	74.56
415.597	88.56
415.821	75.56
416.044	75.56
416.267	94.56
416.49	88.56
416.713	74.56
416.936	79.56
417.159	81.56
417.382	84.56
417.605	91.56
417.828	90.56
418.051	86.56
418.274	86.56
418.497	88.56
418.72	81.56
418.943	85.56
419.166	85.56
419.389	84.56
419.611	95.56
419.834	75.56
420.057	75.56
420.28	100.56
420.503	96.56
420.726	90.56
420.948	89.56
421.171	99.56
421.394	91.56
421.617	83.56
421.839	90.56
422.062	86.56
422.285	74.56
422.507	106.56
422.73	87.56
422.953	82.56
423.175	103.56
423.398	106.56
423.621	87.56
423.843	109.56
424.066	90.56
424.288	96.56
424.511	95.56
424.733	95.56
424.956	107.56
425.178	96.56
425.401	78.56
425.623	95.56
425.846	86.56
426.068	81.56
426.291	75.56
426.513	77.56
426.735	91.56
426.958	88.56
427.18	86.56
427.402	118.56
427.625	146.56
427.847	125.56
428.069	91.56
428.292	97.56
428.514	91.56
428.736	96.56
428.958	93.56
429.181	90.56
429.403	79.56
429.625	110.56
429.847	73.56
430.069	93.56
430.292	83.56
430.514	81.56
430.736	89.56
430.958	77.56
431.18	79.56
431.402	80.56
431.624	81.56
431.846	82.56
432.068	92.56
432.29	88.56
432.512	86.56
432.734	82.56
432.956	86.56
433.178	99.56
433.4	88.56
433.622	94.56
433.844	86.56
434.066	86.56
434.287	89.56
434.509	97.56
434.731	88.56
434.953	86.56
435.175	86.56
435.397	92.56
435.618	90.56
435.84	111.56
436.062	120.56
436.284	105.56
436.505	91.56
436.727	102.56
436.949	88.56
437.17	83.56
437.392	72.56
437.614	87.56
437.835	96.56
438.057	117.56
438.278	97.56
438.5	82.56
438.721	116.56
438.943	84.56
439.165	94.56
439.386	97.56
439.608	89.56
439.829	94.56
440.05	99.56
440.272	123.56
440.493	91.56
440.715	82.56
440.936	97.56
441.158	86.56
441.379	85.56
441.6	88.56
441.822	91.56
442.043	88.56
442.264	103.56
442.486	98.56
442.707	86.56
442.928	95.56
443.149	104.56
443.371	121.56
443.592	111.56
443.813	104.56
444.034	96.56
444.255	98.56
444.476	89.56
444.698	100.56
444.919	98.56
445.14	140.56
445.361	117.56
445.582	93.56
445.803	109.56
446.024	130.56
446.245	105.56
446.466	97.56
446.687	90.56
446.908	82.56
447.129	89.56
447.35	80.56
447.571	94.56
447.792	93.56
448.013	99.56
448.234	103.56
448.455	99.56
448.675	94.56
448.896	103.56
449.117	98.56
449.338	89.56
449.559	100.56
449.779	103.56
450	86.56
450.221	73.56
450.442	78.56
450.662	89.56
450.883	103.56
451.104	95.56
451.324	85.56
451.545	79.56
451.766	92.56
451.986	86.56
452.207	84.56
452.428	98.56
452.648	101.56
452.869	88.56
453.089	109.56
453.31	114.56
453.53	85.56
453.751	94.56
453.971	97.56
454.192	111.56
454.412	106.56
454.633	79.56
454.853	81.56
455.073	92.56
455.294	87.56
455.514	95.56
455.734	99.56
455.955	97.56
456.175	90.56
456.395	91.56
456.616	83.56
456.836	90.56
457.056	92.56
457.276	94.56
457.497	94.56
457.717	68.56
457.937	74.56
458.157	92.56
458.377	79.56
458.598	107.56
458.818	126.56
459.038	141.56
459.258	102.56
459.478	81.56
459.698	87.56
459.918	89.56
460.138	77.56
460.358	82.56
460.578	87.56
460.798	92.56
461.018	89.56
461.238	79.56
461.458	73.56
461.678	94.56
461.898	86.56
462.118	84.56
462.338	103.56
462.558	84.56
462.777	86.56
462.997	94.56
463.217	90.56
463.437	92.56
463.657	95.56
463.876	86.56
464.096	78.56
464.316	84.56
464.536	95.56
464.755	77.56
464.975	96.56
465.195	128.56
465.414	137.56
465.634	106.56
465.854	92.56
466.073	90.56
466.293	95.56
466.512	108.56
466.732	82.56
466.951	72.56
467.171	85.56
467.391	97.56
467.61	105.56
467.829	96.56
468.049	86.56
468.268	85.56
468.488	78.56
468.707	88.56
468.927	85.56
469.146	90.56
469.365	86.56
469.585	85.56
469.804	91.56
470.023	94.56
470.243	93.56
470.462	96.56
470.681	106.56
470.901	86.56
471.12	87.56
471.339	94.56
471.558	82.56
471.777	94.56
471.997	84.56
472.216	93.56
472.435	96.56
472.654	89.56
472.873	82.56
473.092	89.56
473.311	95.56
473.53	84.56
473.749	105.56
473.968	84.56
474.187	98.56
474.406	75.56
474.625	82.56
474.844	75.56
475.063	90.56
475.282	89.56
475.501	80.56
475.72	91.56
475.939	77.56
476.158	85.56
476.377	70.56
476.596	88.56
476.814	69.56
477.033	101.56
477.252	95.56
477.471	83.56
477.69	81.56
477.908	96.56
478.127	92.56
478.346	88.56
478.564	83.56
478.783	96.56
479.002	90.56
479.22	94.56
479.439	104.56
479.658	95.56
479.876	99.56
480.095	102.56
480.313	96.56
480.532	93.56
480.751	83.56
480.969	110.56
481.188	101.56
481.406	94.56
481.624	85.56
481.843	85.56
482.061	86.56
482.28	98.56
482.498	85.56
482.717	98.56
482.935	96.56
483.153	101.56
483.372	89.56
483.59	90.56
483.808	86.56
484.027	89.56
484.245	95.56
484.463	89.56
484.681	93.56
484.9	95.56
485.118	94.56
485.336	94.56
485.554	82.56
485.772	109.56
485.99	122.56
486.209	95.56
486.427	99.56
486.645	103.56
486.863	111.56
487.081	100.56
487.299	86.56
487.517	98.56
487.735	104.56
487.953	86.56
488.171	74.56
488.389	103.56
488.607	99.56
488.825	86.56
489.043	85.56
489.261	89.56
489.479	79.56
489.696	88.56
489.914	83.56
490.132	81.56
490.35	91.56
490.568	85.56
490.786	82.56
491.003	78.56
491.221	86.56
491.439	91.56
491.657	89.56
491.874	99.56
492.092	92.56
492.31	90.56
492.527	78.56
492.745	91.56
492.963	74.56
493.18	84.56
493.398	102.56
493.615	95.56
493.833	89.56
494.05	92.56
494.268	73.56
494.485	77.56
494.703	86.56
494.92	83.56
495.138	89.56
495.355	87.56
495.573	82.56
495.79	89.56
496.008	85.56
496.225	76.56
496.442	95.56
496.66	100.56
496.877	94.56
497.094	106.56
497.312	82.56
497.529	92.56
497.746	87.56
497.963	79.56
498.181	84.56
498.398	99.56
498.615	110.56
498.832	95.56
499.049	77.56
499.267	92.56
499.484	81.56
499.701	90.56
499.918	88.56
500.135	79.56
500.352	85.56
500.569	88.56
500.786	93.56
501.003	88.56
501.22	83.56
501.437	84.56
501.654	91.56
501.871	118.56
502.088	103.56
502.305	83.56
502.522	82.56
502.739	72.56
502.956	81.56
503.172	80.56
503.389	94.56
503.606	95.56
503.823	99.56
504.04	97.56
504.256	92.56
504.473	85.56
504.69	83.56
504.907	92.56
505.123	83.56
505.34	86.56
505.557	94.56
505.773	93.56
505.99	96.56
506.207	84.56
506.423	97.56
506.64	91.56
506.856	93.56
507.073	76.56
507.289	88.56
507.506	86.56
507.722	101.56
507.939	104.56
508.155	82.56
508.372	87.56
508.588	88.56
508.805	81.56
509.021	100.56
509.238	109.56
509.454	85.56
509.67	93.56
509.887	110.56
510.103	143.56
510.319	198.56
510.536	665.56
510.752	2013.56
510.968	567.56
511.184	127.56
511.401	101.56
511.617	98.56
511.833	91.56
512.049	81.56
512.265	88.56
512.481	99.56
512.698	87.56
512.914	80.56
513.13	79.56
513.346	89.56
513.562	111.56
513.778	108.56
513.994	107.56
514.21	89.56
514.426	115.56
514.642	118.56
514.858	114.56
515.074	148.56
515.29	388.56
515.506	1183.56
515.721	456.56
515.937	127.56
516.153	91.56
516.369	94.56
516.585	95.56
516.801	88.56
