Data from Uncirc_2002_H10_HRD10591_00064.txt Node
Date: Wed Jan 03 10:39:54 EST 2024
User: Yrep
Spectrometer: HR+D1059
Trigger mode: 1
Integration Time (sec): 1.000000E-1
Scans to average: 1
Electric dark correction enabled: true
Nonlinearity correction enabled: false
Boxcar width: 0
XAxis mode: Wavelengths
Number of Pixels in Spectrum: 2048
>>>>>Begin Spectral Data<<<<<
223.165	-12.75
223.4	-12.75
223.635	-12.75
223.869	-12.75
224.104	-21.75
224.338	-14.75
224.573	-0.75
224.808	-7.75
225.042	-16.75
225.277	-11.75
225.511	-6.75
225.746	-2.75
225.98	-0.75
226.215	14.25
226.449	17.25
226.683	18.25
226.918	32.25
227.152	27.25
227.387	38.25
227.621	36.25
227.856	32.25
228.09	50.25
228.324	37.25
228.559	63.25
228.793	61.25
229.027	55.25
229.262	68.25
229.496	79.25
229.73	71.25
229.964	72.25
230.199	80.25
230.433	80.25
230.667	71.25
230.901	74.25
231.136	77.25
231.37	69.25
231.604	66.25
231.838	80.25
232.072	72.25
232.306	74.25
232.541	83.25
232.775	73.25
233.009	88.25
233.243	82.25
233.477	78.25
233.711	87.25
233.945	78.25
234.179	76.25
234.413	79.25
234.647	87.25
234.881	94.25
235.115	77.25
235.349	82.25
235.583	81.25
235.817	83.25
236.051	79.25
236.285	66.25
236.519	76.25
236.753	86.25
236.987	77.25
237.221	77.25
237.455	82.25
237.689	56.25
237.922	73.25
238.156	81.25
238.39	91.25
238.624	81.25
238.858	92.25
239.091	70.25
239.325	66.25
239.559	74.25
239.793	79.25
240.027	73.25
240.26	74.25
240.494	74.25
240.728	76.25
240.961	72.25
241.195	85.25
241.429	67.25
241.662	74.25
241.896	74.25
242.13	57.25
242.363	69.25
242.597	78.25
242.83	78.25
243.064	71.25
243.298	67.25
243.531	54.25
243.765	81.25
243.998	84.25
244.232	78.25
244.465	65.25
244.699	90.25
244.932	84.25
245.166	71.25
245.399	76.25
245.633	76.25
245.866	75.25
246.099	75.25
246.333	75.25
246.566	72.25
246.8	73.25
247.033	71.25
247.266	78.25
247.5	88.25
247.733	69.25
247.966	73.25
248.2	90.25
248.433	76.25
248.666	73.25
248.899	82.25
249.133	76.25
249.366	78.25
249.599	87.25
249.832	71.25
250.066	79.25
250.299	76.25
250.532	80.25
250.765	74.25
250.998	94.25
251.231	90.25
251.465	70.25
251.698	83.25
251.931	75.25
252.164	70.25
252.397	72.25
252.63	75.25
252.863	80.25
253.096	82.25
253.329	82.25
253.562	68.25
253.795	86.25
254.028	72.25
254.261	69.25
254.494	69.25
254.727	77.25
254.96	84.25
255.193	89.25
255.426	71.25
255.659	85.25
255.892	79.25
256.124	86.25
256.357	80.25
256.59	87.25
256.823	87.25
257.056	79.25
257.289	84.25
257.521	86.25
257.754	81.25
257.987	69.25
258.22	73.25
258.452	83.25
258.685	81.25
258.918	78.25
259.151	73.25
259.383	87.25
259.616	76.25
259.849	82.25
260.081	82.25
260.314	77.25
260.547	90.25
260.779	82.25
261.012	86.25
261.244	78.25
261.477	88.25
261.71	97.25
261.942	93.25
262.175	109.25
262.407	96.25
262.64	86.25
262.872	90.25
263.105	81.25
263.337	83.25
263.57	74.25
263.802	86.25
264.035	82.25
264.267	80.25
264.499	84.25
264.732	84.25
264.964	88.25
265.197	80.25
265.429	77.25
265.661	92.25
265.894	68.25
266.126	85.25
266.358	80.25
266.591	91.25
266.823	79.25
267.055	81.25
267.287	69.25
267.52	85.25
267.752	79.25
267.984	90.25
268.216	78.25
268.448	76.25
268.681	64.25
268.913	94.25
269.145	68.25
269.377	78.25
269.609	85.25
269.841	83.25
270.073	86.25
270.306	91.25
270.538	84.25
270.77	76.25
271.002	78.25
271.234	89.25
271.466	69.25
271.698	87.25
271.93	80.25
272.162	81.25
272.394	84.25
272.626	78.25
272.858	90.25
273.09	92.25
273.322	97.25
273.553	90.25
273.785	96.25
274.017	80.25
274.249	87.25
274.481	89.25
274.713	70.25
274.945	81.25
275.176	83.25
275.408	85.25
275.64	69.25
275.872	75.25
276.104	75.25
276.335	88.25
276.567	88.25
276.799	105.25
277.031	98.25
277.262	94.25
277.494	87.25
277.726	87.25
277.957	77.25
278.189	79.25
278.421	97.25
278.652	79.25
278.884	90.25
279.115	89.25
279.347	87.25
279.579	82.25
279.81	73.25
280.042	89.25
280.273	87.25
280.505	69.25
280.736	72.25
280.968	81.25
281.199	83.25
281.431	96.25
281.662	77.25
281.894	100.25
282.125	86.25
282.356	104.25
282.588	120.25
282.819	113.25
283.051	103.25
283.282	79.25
283.513	80.25
283.745	79.25
283.976	80.25
284.207	86.25
284.439	80.25
284.67	83.25
284.901	94.25
285.132	98.25
285.364	94.25
285.595	85.25
285.826	86.25
286.057	88.25
286.288	81.25
286.52	98.25
286.751	93.25
286.982	94.25
287.213	78.25
287.444	85.25
287.675	81.25
287.906	82.25
288.138	83.25
288.369	97.25
288.6	88.25
288.831	85.25
289.062	97.25
289.293	79.25
289.524	80.25
289.755	74.25
289.986	76.25
290.217	91.25
290.448	100.25
290.679	89.25
290.91	91.25
291.141	85.25
291.371	86.25
291.602	82.25
291.833	72.25
292.064	88.25
292.295	77.25
292.526	81.25
292.757	79.25
292.987	94.25
293.218	86.25
293.449	74.25
293.68	90.25
293.91	80.25
294.141	76.25
294.372	99.25
294.603	95.25
294.833	90.25
295.064	88.25
295.295	96.25
295.525	96.25
295.756	96.25
295.987	114.25
296.217	131.25
296.448	107.25
296.679	84.25
296.909	85.25
297.14	96.25
297.37	80.25
297.601	84.25
297.831	83.25
298.062	93.25
298.292	94.25
298.523	96.25
298.753	89.25
298.984	84.25
299.214	80.25
299.445	87.25
299.675	91.25
299.905	88.25
300.136	87.25
300.366	75.25
300.597	78.25
300.827	91.25
301.057	81.25
301.288	97.25
301.518	92.25
301.748	77.25
301.979	99.25
302.209	95.25
302.439	72.25
302.669	81.25
302.9	89.25
303.13	88.25
303.36	103.25
303.59	81.25
303.82	88.25
304.051	96.25
304.281	78.25
304.511	70.25
304.741	76.25
304.971	89.25
305.201	88.25
305.431	91.25
305.661	99.25
305.891	80.25
306.121	94.25
306.352	91.25
306.582	92.25
306.812	91.25
307.042	90.25
307.272	94.25
307.502	95.25
307.731	86.25
307.961	85.25
308.191	78.25
308.421	79.25
308.651	79.25
308.881	96.25
309.111	93.25
309.341	96.25
309.571	92.25
309.8	79.25
310.03	73.25
310.26	88.25
310.49	90.25
310.72	99.25
310.949	94.25
311.179	109.25
311.409	98.25
311.639	92.25
311.868	98.25
312.098	94.25
312.328	89.25
312.557	78.25
312.787	96.25
313.017	90.25
313.246	86.25
313.476	92.25
313.706	90.25
313.935	81.25
314.165	89.25
314.394	102.25
314.624	85.25
314.853	103.25
315.083	90.25
315.312	85.25
315.542	80.25
315.771	79.25
316.001	74.25
316.23	84.25
316.46	107.25
316.689	88.25
316.919	84.25
317.148	84.25
317.377	93.25
317.607	86.25
317.836	96.25
318.065	92.25
318.295	91.25
318.524	83.25
318.753	91.25
318.983	106.25
319.212	93.25
319.441	114.25
319.67	92.25
319.9	82.25
320.129	66.25
320.358	86.25
320.587	97.25
320.816	91.25
321.046	108.25
321.275	78.25
321.504	87.25
321.733	87.25
321.962	93.25
322.191	95.25
322.42	112.25
322.649	100.25
322.878	123.25
323.108	112.25
323.337	106.25
323.566	109.25
323.795	140.25
324.024	190.25
324.253	319.25
324.482	693.25
324.71	1394.25
324.939	1858.25
325.168	689.25
325.397	218.25
325.626	137.25
325.855	121.25
326.084	125.25
326.313	109.25
326.542	142.25
326.77	202.25
326.999	402.25
327.228	825.25
327.457	1364.25
327.686	1125.25
327.914	322.25
328.143	176.25
328.372	142.25
328.6	112.25
328.829	112.25
329.058	115.25
329.287	112.25
329.515	107.25
329.744	80.25
329.972	107.25
330.201	97.25
330.43	107.25
330.658	99.25
330.887	126.25
331.115	126.25
331.344	101.25
331.572	91.25
331.801	103.25
332.03	106.25
332.258	102.25
332.486	88.25
332.715	105.25
332.943	95.25
333.172	94.25
333.4	90.25
333.629	104.25
333.857	110.25
334.085	98.25
334.314	86.25
334.542	90.25
334.771	106.25
334.999	94.25
335.227	88.25
335.455	86.25
335.684	100.25
335.912	91.25
336.14	106.25
336.369	95.25
336.597	92.25
336.825	91.25
337.053	100.25
337.281	93.25
337.51	105.25
337.738	87.25
337.966	88.25
338.194	87.25
338.422	89.25
338.65	85.25
338.878	103.25
339.106	88.25
339.334	110.25
339.562	90.25
339.79	95.25
340.018	108.25
340.246	90.25
340.474	84.25
340.702	89.25
340.93	79.25
341.158	80.25
341.386	98.25
341.614	93.25
341.842	103.25
342.07	87.25
342.298	96.25
342.526	89.25
342.754	85.25
342.981	88.25
343.209	82.25
343.437	87.25
343.665	87.25
343.893	74.25
344.12	89.25
344.348	96.25
344.576	80.25
344.804	88.25
345.031	86.25
345.259	93.25
345.487	90.25
345.714	83.25
345.942	90.25
346.17	87.25
346.397	78.25
346.625	105.25
346.853	73.25
347.08	93.25
347.308	79.25
347.535	83.25
347.763	104.25
347.99	91.25
348.218	101.25
348.445	102.25
348.673	100.25
348.9	103.25
349.128	94.25
349.355	73.25
349.583	108.25
349.81	98.25
350.037	91.25
350.265	115.25
350.492	90.25
350.72	80.25
350.947	96.25
351.174	100.25
351.402	109.25
351.629	97.25
351.856	93.25
352.083	93.25
352.311	95.25
352.538	101.25
352.765	111.25
352.992	104.25
353.22	110.25
353.447	92.25
353.674	90.25
353.901	90.25
354.128	90.25
354.355	97.25
354.583	99.25
354.81	81.25
355.037	86.25
355.264	94.25
355.491	90.25
355.718	88.25
355.945	97.25
356.172	76.25
356.399	80.25
356.626	83.25
356.853	96.25
357.08	85.25
357.307	92.25
357.534	88.25
357.761	92.25
357.988	95.25
358.215	80.25
358.441	90.25
358.668	92.25
358.895	83.25
359.122	94.25
359.349	91.25
359.576	91.25
359.802	77.25
360.029	98.25
360.256	99.25
360.483	93.25
360.709	72.25
360.936	90.25
361.163	88.25
361.39	82.25
361.616	94.25
361.843	96.25
362.07	93.25
362.296	91.25
362.523	88.25
362.749	76.25
362.976	86.25
363.203	72.25
363.429	90.25
363.656	93.25
363.882	92.25
364.109	86.25
364.335	103.25
364.562	85.25
364.788	78.25
365.015	93.25
365.241	96.25
365.468	101.25
365.694	98.25
365.92	91.25
366.147	84.25
366.373	92.25
366.599	90.25
366.826	79.25
367.052	83.25
367.278	82.25
367.505	81.25
367.731	86.25
367.957	85.25
368.184	89.25
368.41	89.25
368.636	92.25
368.862	109.25
369.089	104.25
369.315	93.25
369.541	89.25
369.767	72.25
369.993	94.25
370.219	85.25
370.445	81.25
370.672	91.25
370.898	80.25
371.124	85.25
371.35	88.25
371.576	76.25
371.802	79.25
372.028	87.25
372.254	86.25
372.48	91.25
372.706	79.25
372.932	78.25
373.158	101.25
373.384	85.25
373.61	87.25
373.835	87.25
374.061	95.25
374.287	87.25
374.513	76.25
374.739	81.25
374.965	89.25
375.191	101.25
375.416	104.25
375.642	84.25
375.868	79.25
376.094	96.25
376.319	94.25
376.545	79.25
376.771	88.25
376.997	85.25
377.222	86.25
377.448	84.25
377.674	70.25
377.899	79.25
378.125	93.25
378.35	65.25
378.576	84.25
378.802	92.25
379.027	71.25
379.253	86.25
379.478	96.25
379.704	86.25
379.929	77.25
380.155	92.25
380.38	83.25
380.606	80.25
380.831	87.25
381.057	77.25
381.282	105.25
381.507	83.25
381.733	94.25
381.958	93.25
382.184	115.25
382.409	95.25
382.634	93.25
382.86	97.25
383.085	101.25
383.31	100.25
383.535	92.25
383.761	96.25
383.986	97.25
384.211	101.25
384.436	96.25
384.662	80.25
384.887	89.25
385.112	103.25
385.337	100.25
385.562	106.25
385.787	106.25
386.013	108.25
386.238	121.25
386.463	108.25
386.688	90.25
386.913	106.25
387.138	99.25
387.363	109.25
387.588	95.25
387.813	110.25
388.038	108.25
388.263	90.25
388.488	104.25
388.713	85.25
388.938	93.25
389.163	96.25
389.387	95.25
389.612	87.25
389.837	85.25
390.062	83.25
390.287	84.25
390.512	91.25
390.736	101.25
390.961	96.25
391.186	81.25
391.411	102.25
391.636	90.25
391.86	99.25
392.085	82.25
392.31	82.25
392.534	80.25
392.759	82.25
392.984	70.25
393.208	85.25
393.433	89.25
393.658	87.25
393.882	86.25
394.107	92.25
394.331	94.25
394.556	78.25
394.78	100.25
395.005	93.25
395.229	86.25
395.454	85.25
395.678	87.25
395.903	86.25
396.127	90.25
396.352	87.25
396.576	91.25
396.801	73.25
397.025	93.25
397.249	106.25
397.474	69.25
397.698	88.25
397.922	99.25
398.147	82.25
398.371	85.25
398.595	79.25
398.82	77.25
399.044	85.25
399.268	94.25
399.492	80.25
399.717	89.25
399.941	77.25
400.165	83.25
400.389	74.25
400.613	98.25
400.837	108.25
401.062	87.25
401.286	80.25
401.51	82.25
401.734	91.25
401.958	89.25
402.182	106.25
402.406	145.25
402.63	118.25
402.854	88.25
403.078	80.25
403.302	74.25
403.526	81.25
403.75	87.25
403.974	92.25
404.198	86.25
404.422	79.25
404.645	86.25
404.869	89.25
405.093	96.25
405.317	100.25
405.541	94.25
405.765	95.25
405.988	104.25
406.212	151.25
406.436	206.25
406.66	127.25
406.883	90.25
407.107	94.25
407.331	90.25
407.555	106.25
407.778	95.25
408.002	81.25
408.226	92.25
408.449	82.25
408.673	95.25
408.896	89.25
409.12	94.25
409.344	87.25
409.567	87.25
409.791	84.25
410.014	80.25
410.238	87.25
410.461	97.25
410.685	99.25
410.908	87.25
411.132	96.25
411.355	100.25
411.578	86.25
411.802	92.25
412.025	85.25
412.249	70.25
412.472	85.25
412.695	93.25
412.919	89.25
413.142	73.25
413.365	91.25
413.589	88.25
413.812	92.25
414.035	85.25
414.258	62.25
414.482	86.25
414.705	76.25
414.928	102.25
415.151	106.25
415.374	79.25
415.597	95.25
415.821	80.25
416.044	74.25
416.267	91.25
416.49	91.25
416.713	86.25
416.936	97.25
417.159	85.25
417.382	79.25
417.605	86.25
417.828	88.25
418.051	86.25
418.274	72.25
418.497	85.25
418.72	91.25
418.943	86.25
419.166	81.25
419.389	86.25
419.611	101.25
419.834	95.25
420.057	80.25
420.28	72.25
420.503	94.25
420.726	84.25
420.948	89.25
421.171	85.25
421.394	81.25
421.617	108.25
421.839	82.25
422.062	77.25
422.285	84.25
422.507	103.25
422.73	93.25
422.953	92.25
423.175	82.25
423.398	80.25
423.621	90.25
423.843	78.25
424.066	67.25
424.288	73.25
424.511	86.25
424.733	96.25
424.956	90.25
425.178	96.25
425.401	96.25
425.623	88.25
425.846	87.25
426.068	86.25
426.291	88.25
426.513	80.25
426.735	88.25
426.958	89.25
427.18	96.25
427.402	131.25
427.625	129.25
427.847	125.25
428.069	87.25
428.292	90.25
428.514	88.25
428.736	80.25
428.958	79.25
429.181	75.25
429.403	86.25
429.625	81.25
429.847	84.25
430.069	82.25
430.292	97.25
430.514	87.25
430.736	82.25
430.958	82.25
431.18	83.25
431.402	87.25
431.624	84.25
431.846	80.25
432.068	71.25
432.29	74.25
432.512	85.25
432.734	89.25
432.956	94.25
433.178	90.25
433.4	92.25
433.622	69.25
433.844	96.25
434.066	92.25
434.287	88.25
434.509	80.25
434.731	97.25
434.953	76.25
435.175	93.25
435.397	74.25
435.618	86.25
435.84	91.25
436.062	111.25
436.284	107.25
436.505	96.25
436.727	103.25
436.949	82.25
437.17	84.25
437.392	88.25
437.614	89.25
437.835	109.25
438.057	99.25
438.278	97.25
438.5	92.25
438.721	124.25
438.943	90.25
439.165	84.25
439.386	70.25
439.608	80.25
439.829	90.25
440.05	109.25
440.272	118.25
440.493	109.25
440.715	82.25
440.936	96.25
441.158	80.25
441.379	83.25
441.6	103.25
441.822	81.25
442.043	92.25
442.264	82.25
442.486	100.25
442.707	92.25
442.928	92.25
443.149	118.25
443.371	120.25
443.592	97.25
443.813	90.25
444.034	98.25
444.255	94.25
444.476	93.25
444.698	89.25
444.919	83.25
445.14	125.25
445.361	124.25
445.582	120.25
445.803	136.25
446.024	112.25
446.245	115.25
446.466	96.25
446.687	75.25
446.908	73.25
447.129	78.25
447.35	87.25
447.571	92.25
447.792	88.25
448.013	97.25
448.234	98.25
448.455	85.25
448.675	100.25
448.896	95.25
449.117	94.25
449.338	110.25
449.559	121.25
449.779	125.25
450	84.25
450.221	89.25
450.442	79.25
450.662	80.25
450.883	98.25
451.104	100.25
451.324	74.25
451.545	84.25
451.766	92.25
451.986	69.25
452.207	73.25
452.428	85.25
452.648	84.25
452.869	94.25
453.089	102.25
453.31	109.25
453.53	88.25
453.751	90.25
453.971	102.25
454.192	102.25
454.412	98.25
454.633	80.25
454.853	73.25
455.073	89.25
455.294	84.25
455.514	84.25
455.734	87.25
455.955	71.25
456.175	80.25
456.395	65.25
456.616	82.25
456.836	96.25
457.056	77.25
457.276	79.25
457.497	92.25
457.717	86.25
457.937	90.25
458.157	77.25
458.377	80.25
458.598	101.25
458.818	120.25
459.038	126.25
459.258	113.25
459.478	86.25
459.698	79.25
459.918	87.25
460.138	81.25
460.358	89.25
460.578	68.25
460.798	84.25
461.018	76.25
461.238	76.25
461.458	60.25
461.678	77.25
461.898	96.25
462.118	57.25
462.338	78.25
462.558	85.25
462.777	85.25
462.997	93.25
463.217	66.25
463.437	69.25
463.657	74.25
463.876	82.25
464.096	87.25
464.316	96.25
464.536	92.25
464.755	97.25
464.975	94.25
465.195	137.25
465.414	136.25
465.634	96.25
465.854	98.25
466.073	75.25
466.293	83.25
466.512	79.25
466.732	97.25
466.951	85.25
467.171	95.25
467.391	96.25
467.61	101.25
467.829	87.25
468.049	76.25
468.268	89.25
468.488	90.25
468.707	82.25
468.927	97.25
469.146	84.25
469.365	82.25
469.585	88.25
469.804	91.25
470.023	81.25
470.243	97.25
470.462	88.25
470.681	106.25
470.901	76.25
471.12	94.25
471.339	84.25
471.558	74.25
471.777	95.25
471.997	96.25
472.216	87.25
472.435	108.25
472.654	89.25
472.873	76.25
473.092	100.25
473.311	85.25
473.53	64.25
473.749	70.25
473.968	87.25
474.187	105.25
474.406	97.25
474.625	87.25
474.844	81.25
475.063	99.25
475.282	84.25
475.501	96.25
475.72	100.25
475.939	82.25
476.158	91.25
476.377	95.25
476.596	89.25
476.814	92.25
477.033	101.25
477.252	89.25
477.471	86.25
477.69	86.25
477.908	80.25
478.127	84.25
478.346	98.25
478.564	85.25
478.783	92.25
479.002	87.25
479.22	100.25
479.439	85.25
479.658	117.25
479.876	88.25
480.095	98.25
480.313	101.25
480.532	90.25
480.751	91.25
480.969	86.25
481.188	111.25
481.406	100.25
481.624	81.25
481.843	102.25
482.061	85.25
482.28	86.25
482.498	91.25
482.717	80.25
482.935	84.25
483.153	74.25
483.372	81.25
483.59	89.25
483.808	96.25
484.027	92.25
484.245	100.25
484.463	88.25
484.681	97.25
484.9	88.25
485.118	80.25
485.336	93.25
485.554	96.25
485.772	93.25
485.99	113.25
486.209	99.25
486.427	88.25
486.645	88.25
486.863	96.25
487.081	103.25
487.299	86.25
487.517	98.25
487.735	96.25
487.953	105.25
488.171	105.25
488.389	84.25
488.607	81.25
488.825	87.25
489.043	105.25
489.261	89.25
489.479	78.25
489.696	81.25
489.914	87.25
490.132	84.25
490.35	80.25
490.568	93.25
490.786	91.25
491.003	88.25
491.221	88.25
491.439	78.25
491.657	87.25
491.874	98.25
492.092	89.25
492.31	94.25
492.527	80.25
492.745	79.25
492.963	80.25
493.18	98.25
493.398	83.25
493.615	78.25
493.833	84.25
494.05	90.25
494.268	92.25
494.485	87.25
494.703	89.25
494.92	90.25
495.138	101.25
495.355	80.25
495.573	86.25
495.79	90.25
496.008	89.25
496.225	78.25
496.442	84.25
496.66	79.25
496.877	82.25
497.094	93.25
497.312	99.25
497.529	79.25
497.746	96.25
497.963	94.25
498.181	83.25
498.398	90.25
498.615	85.25
498.832	93.25
499.049	84.25
499.267	101.25
499.484	86.25
499.701	84.25
499.918	88.25
500.135	78.25
500.352	72.25
500.569	74.25
500.786	86.25
501.003	97.25
501.22	87.25
501.437	89.25
501.654	96.25
501.871	85.25
502.088	93.25
502.305	85.25
502.522	82.25
502.739	80.25
502.956	77.25
503.172	96.25
503.389	78.25
503.606	120.25
503.823	96.25
504.04	72.25
504.256	77.25
504.473	88.25
504.69	97.25
504.907	106.25
505.123	101.25
505.34	85.25
505.557	95.25
505.773	84.25
505.99	86.25
506.207	66.25
506.423	90.25
506.64	84.25
506.856	76.25
507.073	92.25
507.289	90.25
507.506	90.25
507.722	93.25
507.939	102.25
508.155	85.25
508.372	89.25
508.588	91.25
508.805	103.25
509.021	97.25
509.238	96.25
509.454	86.25
509.67	106.25
509.887	104.25
510.103	128.25
510.319	210.25
510.536	678.25
510.752	2114.25
510.968	602.25
511.184	144.25
511.401	97.25
511.617	103.25
511.833	81.25
512.049	92.25
512.265	85.25
512.481	80.25
512.698	98.25
512.914	95.25
513.13	88.25
513.346	82.25
513.562	93.25
513.778	86.25
513.994	88.25
514.21	112.25
514.426	100.25
514.642	117.25
514.858	127.25
515.074	157.25
515.29	385.25
515.506	1229.25
515.721	461.25
515.937	138.25
516.153	116.25
516.369	82.25
516.585	88.25
516.801	81.25
517.016	90.25
