Data from Uncirc_2002_H10_HRD10591_00008.txt Node
Date: Wed Jan 03 10:39:42 EST 2024
User: Yrep
Spectrometer: HR+D1059
Trigger mode: 1
Integration Time (sec): 1.000000E-1
Scans to average: 1
Electric dark correction enabled: true
Nonlinearity correction enabled: false
Boxcar width: 0
XAxis mode: Wavelengths
Number of Pixels in Spectrum: 2048
>>>>>Begin Spectral Data<<<<<
223.165	-17.88
223.4	-17.88
223.635	-17.88
223.869	-37.88
224.104	-34.88
224.338	-4.88
224.573	-8.88
224.808	-11.88
225.042	4.12
225.277	-2.88
225.511	-10.88
225.746	10.12
225.98	9.12
226.215	7.12
226.449	11.12
226.683	23.12
226.918	27.12
227.152	38.12
227.387	29.12
227.621	52.12
227.856	47.12
228.09	48.12
228.324	52.12
228.559	55.12
228.793	49.12
229.027	44.12
229.262	66.12
229.496	77.12
229.73	78.12
229.964	69.12
230.199	68.12
230.433	86.12
230.667	78.12
230.901	86.12
231.136	85.12
231.37	86.12
231.604	84.12
231.838	72.12
232.072	82.12
232.306	84.12
232.541	86.12
232.775	88.12
233.009	93.12
233.243	76.12
233.477	81.12
233.711	75.12
233.945	87.12
234.179	81.12
234.413	72.12
234.647	93.12
234.881	83.12
235.115	97.12
235.349	71.12
235.583	94.12
235.817	96.12
236.051	74.12
236.285	65.12
236.519	82.12
236.753	89.12
236.987	64.12
237.221	86.12
237.455	87.12
237.689	82.12
237.922	85.12
238.156	79.12
238.39	73.12
238.624	79.12
238.858	72.12
239.091	81.12
239.325	75.12
239.559	72.12
239.793	71.12
240.027	82.12
240.26	72.12
240.494	74.12
240.728	80.12
240.961	74.12
241.195	91.12
241.429	67.12
241.662	66.12
241.896	85.12
242.13	83.12
242.363	87.12
242.597	80.12
242.83	69.12
243.064	81.12
243.298	82.12
243.531	98.12
243.765	79.12
243.998	75.12
244.232	82.12
244.465	69.12
244.699	89.12
244.932	85.12
245.166	79.12
245.399	80.12
245.633	66.12
245.866	90.12
246.099	89.12
246.333	72.12
246.566	80.12
246.8	87.12
247.033	84.12
247.266	86.12
247.5	75.12
247.733	76.12
247.966	67.12
248.2	85.12
248.433	92.12
248.666	87.12
248.899	80.12
249.133	74.12
249.366	90.12
249.599	113.12
249.832	79.12
250.066	77.12
250.299	79.12
250.532	77.12
250.765	84.12
250.998	81.12
251.231	81.12
251.465	81.12
251.698	80.12
251.931	92.12
252.164	97.12
252.397	75.12
252.63	82.12
252.863	94.12
253.096	73.12
253.329	72.12
253.562	84.12
253.795	92.12
254.028	84.12
254.261	76.12
254.494	69.12
254.727	88.12
254.96	78.12
255.193	89.12
255.426	80.12
255.659	92.12
255.892	92.12
256.124	91.12
256.357	79.12
256.59	80.12
256.823	76.12
257.056	91.12
257.289	88.12
257.521	83.12
257.754	88.12
257.987	82.12
258.22	85.12
258.452	77.12
258.685	94.12
258.918	78.12
259.151	94.12
259.383	96.12
259.616	83.12
259.849	80.12
260.081	96.12
260.314	103.12
260.547	84.12
260.779	77.12
261.012	83.12
261.244	76.12
261.477	85.12
261.71	93.12
261.942	105.12
262.175	102.12
262.407	91.12
262.64	70.12
262.872	85.12
263.105	96.12
263.337	82.12
263.57	83.12
263.802	89.12
264.035	79.12
264.267	86.12
264.499	77.12
264.732	97.12
264.964	81.12
265.197	83.12
265.429	84.12
265.661	88.12
265.894	73.12
266.126	82.12
266.358	90.12
266.591	84.12
266.823	85.12
267.055	78.12
267.287	89.12
267.52	78.12
267.752	100.12
267.984	86.12
268.216	81.12
268.448	93.12
268.681	92.12
268.913	70.12
269.145	95.12
269.377	89.12
269.609	87.12
269.841	93.12
270.073	81.12
270.306	85.12
270.538	88.12
270.77	96.12
271.002	91.12
271.234	97.12
271.466	93.12
271.698	83.12
271.93	85.12
272.162	87.12
272.394	81.12
272.626	82.12
272.858	90.12
273.09	86.12
273.322	85.12
273.553	93.12
273.785	87.12
274.017	90.12
274.249	92.12
274.481	76.12
274.713	83.12
274.945	80.12
275.176	89.12
275.408	101.12
275.64	100.12
275.872	80.12
276.104	88.12
276.335	97.12
276.567	93.12
276.799	93.12
277.031	106.12
277.262	99.12
277.494	95.12
277.726	95.12
277.957	69.12
278.189	77.12
278.421	82.12
278.652	90.12
278.884	96.12
279.115	82.12
279.347	82.12
279.579	84.12
279.81	82.12
280.042	80.12
280.273	81.12
280.505	95.12
280.736	91.12
280.968	87.12
281.199	89.12
281.431	84.12
281.662	91.12
281.894	96.12
282.125	92.12
282.356	99.12
282.588	113.12
282.819	92.12
283.051	92.12
283.282	91.12
283.513	104.12
283.745	100.12
283.976	82.12
284.207	84.12
284.439	80.12
284.67	87.12
284.901	77.12
285.132	90.12
285.364	90.12
285.595	80.12
285.826	90.12
286.057	96.12
286.288	89.12
286.52	89.12
286.751	90.12
286.982	94.12
287.213	95.12
287.444	96.12
287.675	86.12
287.906	100.12
288.138	88.12
288.369	101.12
288.6	96.12
288.831	89.12
289.062	87.12
289.293	92.12
289.524	101.12
289.755	86.12
289.986	81.12
290.217	75.12
290.448	96.12
290.679	92.12
290.91	91.12
291.141	88.12
291.371	79.12
291.602	89.12
291.833	74.12
292.064	86.12
292.295	84.12
292.526	86.12
292.757	101.12
292.987	82.12
293.218	82.12
293.449	88.12
293.68	106.12
293.91	81.12
294.141	87.12
294.372	82.12
294.603	87.12
294.833	91.12
295.064	101.12
295.295	97.12
295.525	89.12
295.756	89.12
295.987	98.12
296.217	129.12
296.448	104.12
296.679	88.12
296.909	86.12
297.14	95.12
297.37	95.12
297.601	88.12
297.831	95.12
298.062	85.12
298.292	91.12
298.523	80.12
298.753	95.12
298.984	103.12
299.214	102.12
299.445	91.12
299.675	108.12
299.905	98.12
300.136	94.12
300.366	86.12
300.597	87.12
300.827	102.12
301.057	86.12
301.288	88.12
301.518	103.12
301.748	85.12
301.979	91.12
302.209	87.12
302.439	108.12
302.669	84.12
302.9	89.12
303.13	83.12
303.36	95.12
303.59	96.12
303.82	99.12
304.051	91.12
304.281	89.12
304.511	78.12
304.741	98.12
304.971	77.12
305.201	82.12
305.431	86.12
305.661	108.12
305.891	90.12
306.121	93.12
306.352	103.12
306.582	100.12
306.812	91.12
307.042	88.12
307.272	93.12
307.502	93.12
307.731	94.12
307.961	107.12
308.191	92.12
308.421	92.12
308.651	87.12
308.881	83.12
309.111	91.12
309.341	98.12
309.571	94.12
309.8	113.12
310.03	101.12
310.26	72.12
310.49	77.12
310.72	110.12
310.949	94.12
311.179	90.12
311.409	90.12
311.639	106.12
311.868	103.12
312.098	95.12
312.328	104.12
312.557	102.12
312.787	98.12
313.017	93.12
313.246	101.12
313.476	87.12
313.706	115.12
313.935	92.12
314.165	98.12
314.394	98.12
314.624	104.12
314.853	103.12
315.083	107.12
315.312	91.12
315.542	85.12
315.771	106.12
316.001	92.12
316.23	84.12
316.46	87.12
316.689	83.12
316.919	91.12
317.148	79.12
317.377	85.12
317.607	97.12
317.836	100.12
318.065	98.12
318.295	83.12
318.524	100.12
318.753	90.12
318.983	97.12
319.212	93.12
319.441	99.12
319.67	105.12
319.9	102.12
320.129	97.12
320.358	91.12
320.587	82.12
320.816	92.12
321.046	115.12
321.275	101.12
321.504	101.12
321.733	98.12
321.962	94.12
322.191	102.12
322.42	111.12
322.649	107.12
322.878	94.12
323.108	112.12
323.337	125.12
323.566	117.12
323.795	142.12
324.024	163.12
324.253	309.12
324.482	608.12
324.71	1197.12
324.939	1597.12
325.168	616.12
325.397	203.12
325.626	127.12
325.855	97.12
326.084	97.12
326.313	119.12
326.542	132.12
326.77	189.12
326.999	345.12
327.228	726.12
327.457	1256.12
327.686	1000.12
327.914	279.12
328.143	152.12
328.372	117.12
328.6	111.12
328.829	98.12
329.058	112.12
329.287	105.12
329.515	105.12
329.744	99.12
329.972	103.12
330.201	95.12
330.43	104.12
330.658	97.12
330.887	111.12
331.115	123.12
331.344	100.12
331.572	110.12
331.801	100.12
332.03	103.12
332.258	84.12
332.486	82.12
332.715	82.12
332.943	84.12
333.172	98.12
333.4	89.12
333.629	107.12
333.857	114.12
334.085	107.12
334.314	90.12
334.542	95.12
334.771	90.12
334.999	99.12
335.227	88.12
335.455	112.12
335.684	107.12
335.912	92.12
336.14	93.12
336.369	80.12
336.597	100.12
336.825	93.12
337.053	100.12
337.281	102.12
337.51	106.12
337.738	95.12
337.966	93.12
338.194	103.12
338.422	86.12
338.65	92.12
338.878	92.12
339.106	91.12
339.334	98.12
339.562	98.12
339.79	85.12
340.018	94.12
340.246	106.12
340.474	90.12
340.702	82.12
340.93	99.12
341.158	88.12
341.386	86.12
341.614	112.12
341.842	97.12
342.07	91.12
342.298	90.12
342.526	80.12
342.754	93.12
342.981	94.12
343.209	97.12
343.437	109.12
343.665	98.12
343.893	80.12
344.12	90.12
344.348	88.12
344.576	88.12
344.804	105.12
345.031	102.12
345.259	89.12
345.487	87.12
345.714	104.12
345.942	93.12
346.17	89.12
346.397	101.12
346.625	79.12
346.853	98.12
347.08	91.12
347.308	99.12
347.535	91.12
347.763	115.12
347.99	96.12
348.218	98.12
348.445	94.12
348.673	110.12
348.9	94.12
349.128	88.12
349.355	100.12
349.583	104.12
349.81	104.12
350.037	87.12
350.265	87.12
350.492	81.12
350.72	99.12
350.947	123.12
351.174	87.12
351.402	112.12
351.629	104.12
351.856	108.12
352.083	89.12
352.311	94.12
352.538	104.12
352.765	109.12
352.992	99.12
353.22	107.12
353.447	115.12
353.674	104.12
353.901	102.12
354.128	92.12
354.355	102.12
354.583	113.12
354.81	108.12
355.037	99.12
355.264	96.12
355.491	81.12
355.718	92.12
355.945	94.12
356.172	107.12
356.399	99.12
356.626	94.12
356.853	102.12
357.08	100.12
357.307	86.12
357.534	92.12
357.761	109.12
357.988	98.12
358.215	104.12
358.441	108.12
358.668	81.12
358.895	98.12
359.122	93.12
359.349	88.12
359.576	89.12
359.802	92.12
360.029	90.12
360.256	102.12
360.483	94.12
360.709	94.12
360.936	98.12
361.163	101.12
361.39	85.12
361.616	76.12
361.843	87.12
362.07	90.12
362.296	109.12
362.523	99.12
362.749	86.12
362.976	87.12
363.203	93.12
363.429	98.12
363.656	95.12
363.882	100.12
364.109	101.12
364.335	105.12
364.562	82.12
364.788	89.12
365.015	98.12
365.241	108.12
365.468	106.12
365.694	89.12
365.92	102.12
366.147	87.12
366.373	91.12
366.599	82.12
366.826	88.12
367.052	80.12
367.278	92.12
367.505	97.12
367.731	92.12
367.957	96.12
368.184	86.12
368.41	100.12
368.636	120.12
368.862	108.12
369.089	98.12
369.315	103.12
369.541	86.12
369.767	76.12
369.993	92.12
370.219	102.12
370.445	95.12
370.672	87.12
370.898	101.12
371.124	84.12
371.35	88.12
371.576	93.12
371.802	78.12
372.028	94.12
372.254	72.12
372.48	81.12
372.706	84.12
372.932	84.12
373.158	86.12
373.384	96.12
373.61	90.12
373.835	84.12
374.061	101.12
374.287	86.12
374.513	82.12
374.739	74.12
374.965	97.12
375.191	93.12
375.416	84.12
375.642	88.12
375.868	83.12
376.094	86.12
376.319	82.12
376.545	83.12
376.771	97.12
376.997	83.12
377.222	96.12
377.448	92.12
377.674	98.12
377.899	96.12
378.125	94.12
378.35	99.12
378.576	100.12
378.802	94.12
379.027	103.12
379.253	84.12
379.478	98.12
379.704	94.12
379.929	94.12
380.155	101.12
380.38	101.12
380.606	95.12
380.831	98.12
381.057	93.12
381.282	95.12
381.507	89.12
381.733	103.12
381.958	100.12
382.184	84.12
382.409	114.12
382.634	96.12
382.86	98.12
383.085	94.12
383.31	119.12
383.535	100.12
383.761	102.12
383.986	100.12
384.211	116.12
384.436	103.12
384.662	89.12
384.887	98.12
385.112	93.12
385.337	107.12
385.562	107.12
385.787	100.12
386.013	119.12
386.238	113.12
386.463	122.12
386.688	118.12
386.913	98.12
387.138	99.12
387.363	104.12
387.588	110.12
387.813	89.12
388.038	98.12
388.263	113.12
388.488	118.12
388.713	104.12
388.938	101.12
389.163	94.12
389.387	101.12
389.612	93.12
389.837	86.12
390.062	112.12
390.287	82.12
390.512	91.12
390.736	109.12
390.961	91.12
391.186	88.12
391.411	90.12
391.636	96.12
391.86	84.12
392.085	98.12
392.31	70.12
392.534	82.12
392.759	87.12
392.984	105.12
393.208	93.12
393.433	130.12
393.658	110.12
393.882	94.12
394.107	98.12
394.331	89.12
394.556	83.12
394.78	101.12
395.005	81.12
395.229	84.12
395.454	93.12
395.678	92.12
395.903	92.12
396.127	102.12
396.352	98.12
396.576	97.12
396.801	99.12
397.025	117.12
397.249	90.12
397.474	86.12
397.698	89.12
397.922	81.12
398.147	111.12
398.371	93.12
398.595	85.12
398.82	82.12
399.044	81.12
399.268	69.12
399.492	99.12
399.717	79.12
399.941	92.12
400.165	87.12
400.389	88.12
400.613	88.12
400.837	80.12
401.062	76.12
401.286	77.12
401.51	101.12
401.734	102.12
401.958	109.12
402.182	114.12
402.406	145.12
402.63	92.12
402.854	81.12
403.078	94.12
403.302	80.12
403.526	99.12
403.75	93.12
403.974	90.12
404.198	95.12
404.422	86.12
404.645	92.12
404.869	91.12
405.093	98.12
405.317	109.12
405.541	97.12
405.765	89.12
405.988	100.12
406.212	156.12
406.436	183.12
406.66	134.12
406.883	98.12
407.107	105.12
407.331	104.12
407.555	109.12
407.778	109.12
408.002	83.12
408.226	87.12
408.449	79.12
408.673	91.12
408.896	84.12
409.12	91.12
409.344	93.12
409.567	89.12
409.791	79.12
410.014	96.12
410.238	89.12
410.461	90.12
410.685	105.12
410.908	99.12
411.132	94.12
411.355	86.12
411.578	104.12
411.802	88.12
412.025	97.12
412.249	85.12
412.472	96.12
412.695	102.12
412.919	79.12
413.142	89.12
413.365	103.12
413.589	101.12
413.812	90.12
414.035	96.12
414.258	98.12
414.482	86.12
414.705	104.12
414.928	97.12
415.151	82.12
415.374	91.12
415.597	88.12
415.821	90.12
416.044	98.12
416.267	97.12
416.49	85.12
416.713	92.12
416.936	96.12
417.159	86.12
417.382	77.12
417.605	104.12
417.828	102.12
418.051	90.12
418.274	97.12
418.497	81.12
418.72	83.12
418.943	88.12
419.166	90.12
419.389	83.12
419.611	95.12
419.834	99.12
420.057	97.12
420.28	83.12
420.503	76.12
420.726	93.12
420.948	85.12
421.171	93.12
421.394	93.12
421.617	95.12
421.839	76.12
422.062	100.12
422.285	84.12
422.507	105.12
422.73	113.12
422.953	89.12
423.175	103.12
423.398	90.12
423.621	97.12
423.843	93.12
424.066	81.12
424.288	91.12
424.511	104.12
424.733	82.12
424.956	90.12
425.178	84.12
425.401	94.12
425.623	92.12
425.846	93.12
426.068	104.12
426.291	80.12
426.513	91.12
426.735	96.12
426.958	97.12
427.18	88.12
427.402	117.12
427.625	140.12
427.847	103.12
428.069	106.12
428.292	94.12
428.514	98.12
428.736	94.12
428.958	88.12
429.181	93.12
429.403	82.12
429.625	82.12
429.847	101.12
430.069	100.12
430.292	98.12
430.514	98.12
430.736	100.12
430.958	101.12
431.18	84.12
431.402	69.12
431.624	101.12
431.846	96.12
432.068	82.12
432.29	98.12
432.512	100.12
432.734	97.12
432.956	102.12
433.178	85.12
433.4	97.12
433.622	92.12
433.844	88.12
434.066	92.12
434.287	90.12
434.509	82.12
434.731	90.12
434.953	93.12
435.175	113.12
435.397	87.12
435.618	84.12
435.84	107.12
436.062	105.12
436.284	100.12
436.505	104.12
436.727	117.12
436.949	84.12
437.17	95.12
437.392	108.12
437.614	86.12
437.835	98.12
438.057	111.12
438.278	97.12
438.5	93.12
438.721	108.12
438.943	89.12
439.165	98.12
439.386	90.12
439.608	83.12
439.829	83.12
440.05	117.12
440.272	114.12
440.493	104.12
440.715	83.12
440.936	82.12
441.158	102.12
441.379	101.12
441.6	78.12
441.822	86.12
442.043	83.12
442.264	98.12
442.486	97.12
442.707	91.12
442.928	106.12
443.149	113.12
443.371	110.12
443.592	72.12
443.813	116.12
444.034	94.12
444.255	110.12
444.476	88.12
444.698	89.12
444.919	95.12
445.14	138.12
445.361	119.12
445.582	104.12
445.803	100.12
446.024	114.12
446.245	96.12
446.466	100.12
446.687	88.12
446.908	89.12
447.129	102.12
447.35	78.12
447.571	92.12
447.792	98.12
448.013	86.12
448.234	94.12
448.455	89.12
448.675	110.12
448.896	106.12
449.117	100.12
449.338	110.12
449.559	110.12
449.779	121.12
450	91.12
450.221	88.12
450.442	76.12
450.662	88.12
450.883	94.12
451.104	94.12
451.324	90.12
451.545	76.12
451.766	94.12
451.986	96.12
452.207	81.12
452.428	114.12
452.648	98.12
452.869	114.12
453.089	96.12
453.31	99.12
453.53	94.12
453.751	101.12
453.971	81.12
454.192	100.12
454.412	91.12
454.633	93.12
454.853	93.12
455.073	82.12
455.294	65.12
455.514	96.12
455.734	96.12
455.955	96.12
456.175	88.12
456.395	91.12
456.616	90.12
456.836	100.12
457.056	89.12
457.276	80.12
457.497	82.12
457.717	80.12
457.937	84.12
458.157	93.12
458.377	92.12
458.598	87.12
458.818	131.12
459.038	117.12
459.258	104.12
459.478	85.12
459.698	82.12
459.918	93.12
460.138	80.12
460.358	94.12
460.578	93.12
460.798	91.12
461.018	90.12
461.238	78.12
461.458	75.12
461.678	92.12
461.898	83.12
462.118	93.12
462.338	88.12
462.558	86.12
462.777	78.12
462.997	82.12
463.217	78.12
463.437	90.12
463.657	89.12
463.876	69.12
464.096	104.12
464.316	95.12
464.536	84.12
464.755	102.12
464.975	118.12
465.195	126.12
465.414	129.12
465.634	99.12
465.854	92.12
466.073	98.12
466.293	70.12
466.512	92.12
466.732	98.12
466.951	86.12
467.171	95.12
467.391	86.12
467.61	110.12
467.829	92.12
468.049	100.12
468.268	83.12
468.488	84.12
468.707	76.12
468.927	94.12
469.146	90.12
469.365	102.12
469.585	98.12
469.804	94.12
470.023	84.12
470.243	101.12
470.462	109.12
470.681	92.12
470.901	98.12
471.12	89.12
471.339	103.12
471.558	83.12
471.777	80.12
471.997	90.12
472.216	85.12
472.435	80.12
472.654	93.12
472.873	82.12
473.092	78.12
473.311	80.12
473.53	98.12
473.749	87.12
473.968	86.12
474.187	93.12
474.406	99.12
474.625	98.12
474.844	88.12
475.063	88.12
475.282	98.12
475.501	96.12
475.72	84.12
475.939	83.12
476.158	76.12
476.377	99.12
476.596	90.12
476.814	96.12
477.033	97.12
477.252	98.12
477.471	85.12
477.69	85.12
477.908	93.12
478.127	87.12
478.346	84.12
478.564	91.12
478.783	77.12
479.002	93.12
479.22	92.12
479.439	87.12
479.658	92.12
479.876	78.12
480.095	101.12
480.313	88.12
480.532	84.12
480.751	101.12
480.969	98.12
481.188	98.12
481.406	92.12
481.624	93.12
481.843	93.12
482.061	91.12
482.28	85.12
482.498	88.12
482.717	97.12
482.935	85.12
483.153	102.12
483.372	101.12
483.59	78.12
483.808	90.12
484.027	86.12
484.245	84.12
484.463	91.12
484.681	110.12
484.9	90.12
485.118	101.12
485.336	90.12
485.554	98.12
485.772	87.12
485.99	102.12
486.209	100.12
486.427	108.12
486.645	103.12
486.863	100.12
487.081	88.12
487.299	96.12
487.517	84.12
487.735	109.12
487.953	91.12
488.171	105.12
488.389	105.12
488.607	107.12
488.825	97.12
489.043	74.12
489.261	72.12
489.479	99.12
489.696	88.12
489.914	83.12
490.132	82.12
490.35	85.12
490.568	95.12
490.786	81.12
491.003	78.12
491.221	94.12
491.439	103.12
491.657	88.12
491.874	104.12
492.092	84.12
492.31	98.12
492.527	89.12
492.745	88.12
492.963	88.12
493.18	91.12
493.398	85.12
493.615	101.12
493.833	94.12
494.05	90.12
494.268	99.12
494.485	94.12
494.703	98.12
494.92	97.12
495.138	87.12
495.355	88.12
495.573	102.12
495.79	89.12
496.008	97.12
496.225	92.12
496.442	97.12
496.66	101.12
496.877	98.12
497.094	97.12
497.312	93.12
497.529	91.12
497.746	93.12
497.963	100.12
498.181	96.12
498.398	101.12
498.615	107.12
498.832	101.12
499.049	83.12
499.267	82.12
499.484	92.12
499.701	81.12
499.918	92.12
500.135	106.12
500.352	98.12
500.569	87.12
500.786	90.12
501.003	94.12
501.22	90.12
501.437	91.12
501.654	94.12
501.871	108.12
502.088	76.12
502.305	101.12
502.522	95.12
502.739	82.12
502.956	85.12
503.172	84.12
503.389	96.12
503.606	100.12
503.823	97.12
504.04	92.12
504.256	98.12
504.473	85.12
504.69	84.12
504.907	98.12
505.123	96.12
505.34	88.12
505.557	105.12
505.773	93.12
505.99	88.12
506.207	108.12
506.423	85.12
506.64	94.12
506.856	78.12
507.073	84.12
507.289	85.12
507.506	97.12
507.722	104.12
507.939	112.12
508.155	105.12
508.372	91.12
508.588	94.12
508.805	91.12
509.021	87.12
509.238	89.12
509.454	108.12
509.67	109.12
509.887	110.12
510.103	108.12
510.319	188.12
510.536	603.12
510.752	1755.12
510.968	496.12
511.184	146.12
511.401	104.12
511.617	77.12
511.833	89.12
512.049	80.12
512.265	87.12
512.481	75.12
512.698	86.12
512.914	90.12
513.13	100.12
513.346	105.12
513.562	90.12
513.778	87.12
513.994	89.12
514.21	99.12
514.426	120.12
514.642	128.12
514.858	117.12
515.074	138.12
515.29	335.12
515.506	1010.12
