Data from Uncirc_2002_H10_HRD10591_00058.txt Node
Date: Wed Jan 03 10:39:52 EST 2024
User: Yrep
Spectrometer: HR+D1059
Trigger mode: 1
Integration Time (sec): 1.000000E-1
Scans to average: 1
Electric dark correction enabled: true
Nonlinearity correction enabled: false
Boxcar width: 0
XAxis mode: Wavelengths
Number of Pixels in Spectrum: 2048
>>>>>Begin Spectral Data<<<<<
223.165	-14.25
223.4	-14.25
223.635	-14.25
223.869	-34.25
224.104	-12.25
224.338	-16.25
224.573	-10.25
224.808	-12.25
225.042	-0.25
225.277	-13.25
225.511	6.75
225.746	-0.25
225.98	5.75
226.215	0.75
226.449	13.75
226.683	33.75
226.918	30.75
227.152	21.75
227.387	27.75
227.621	49.75
227.856	30.75
228.09	44.75
228.324	53.75
228.559	67.75
228.793	59.75
229.027	61.75
229.262	59.75
229.496	76.75
229.73	73.75
229.964	75.75
230.199	66.75
230.433	83.75
230.667	66.75
230.901	73.75
231.136	85.75
231.37	97.75
231.604	86.75
231.838	66.75
232.072	74.75
232.306	85.75
232.541	73.75
232.775	75.75
233.009	86.75
233.243	80.75
233.477	86.75
233.711	86.75
233.945	65.75
234.179	78.75
234.413	86.75
234.647	85.75
234.881	73.75
235.115	79.75
235.349	80.75
235.583	71.75
235.817	72.75
236.051	84.75
236.285	66.75
236.519	84.75
236.753	87.75
236.987	81.75
237.221	84.75
237.455	77.75
237.689	59.75
237.922	76.75
238.156	86.75
238.39	72.75
238.624	67.75
238.858	78.75
239.091	63.75
239.325	65.75
239.559	89.75
239.793	86.75
240.027	73.75
240.26	73.75
240.494	78.75
240.728	76.75
240.961	72.75
241.195	85.75
241.429	70.75
241.662	78.75
241.896	81.75
242.13	76.75
242.363	73.75
242.597	67.75
242.83	70.75
243.064	82.75
243.298	90.75
243.531	85.75
243.765	72.75
243.998	69.75
244.232	80.75
244.465	95.75
244.699	87.75
244.932	89.75
245.166	86.75
245.399	83.75
245.633	73.75
245.866	78.75
246.099	79.75
246.333	70.75
246.566	72.75
246.8	70.75
247.033	83.75
247.266	86.75
247.5	70.75
247.733	62.75
247.966	83.75
248.2	73.75
248.433	87.75
248.666	75.75
248.899	71.75
249.133	83.75
249.366	91.75
249.599	103.75
249.832	82.75
250.066	76.75
250.299	83.75
250.532	86.75
250.765	75.75
250.998	86.75
251.231	91.75
251.465	67.75
251.698	81.75
251.931	71.75
252.164	70.75
252.397	73.75
252.63	82.75
252.863	90.75
253.096	84.75
253.329	81.75
253.562	82.75
253.795	78.75
254.028	87.75
254.261	97.75
254.494	87.75
254.727	76.75
254.96	72.75
255.193	70.75
255.426	78.75
255.659	65.75
255.892	94.75
256.124	64.75
256.357	88.75
256.59	78.75
256.823	78.75
257.056	94.75
257.289	85.75
257.521	94.75
257.754	83.75
257.987	85.75
258.22	99.75
258.452	85.75
258.685	79.75
258.918	86.75
259.151	67.75
259.383	93.75
259.616	85.75
259.849	77.75
260.081	83.75
260.314	82.75
260.547	72.75
260.779	74.75
261.012	75.75
261.244	85.75
261.477	82.75
261.71	88.75
261.942	97.75
262.175	109.75
262.407	101.75
262.64	82.75
262.872	81.75
263.105	82.75
263.337	76.75
263.57	78.75
263.802	77.75
264.035	66.75
264.267	73.75
264.499	81.75
264.732	87.75
264.964	74.75
265.197	82.75
265.429	80.75
265.661	89.75
265.894	80.75
266.126	79.75
266.358	89.75
266.591	84.75
266.823	83.75
267.055	89.75
267.287	78.75
267.52	74.75
267.752	86.75
267.984	79.75
268.216	90.75
268.448	78.75
268.681	94.75
268.913	83.75
269.145	71.75
269.377	84.75
269.609	81.75
269.841	91.75
270.073	88.75
270.306	90.75
270.538	67.75
270.77	87.75
271.002	74.75
271.234	77.75
271.466	80.75
271.698	83.75
271.93	85.75
272.162	84.75
272.394	94.75
272.626	93.75
272.858	99.75
273.09	80.75
273.322	85.75
273.553	74.75
273.785	95.75
274.017	84.75
274.249	81.75
274.481	93.75
274.713	89.75
274.945	87.75
275.176	67.75
275.408	91.75
275.64	83.75
275.872	71.75
276.104	81.75
276.335	80.75
276.567	87.75
276.799	96.75
277.031	97.75
277.262	85.75
277.494	72.75
277.726	84.75
277.957	86.75
278.189	87.75
278.421	94.75
278.652	79.75
278.884	87.75
279.115	99.75
279.347	93.75
279.579	85.75
279.81	85.75
280.042	79.75
280.273	79.75
280.505	94.75
280.736	69.75
280.968	77.75
281.199	65.75
281.431	83.75
281.662	98.75
281.894	91.75
282.125	100.75
282.356	113.75
282.588	146.75
282.819	114.75
283.051	94.75
283.282	88.75
283.513	88.75
283.745	63.75
283.976	88.75
284.207	81.75
284.439	90.75
284.67	86.75
284.901	94.75
285.132	76.75
285.364	78.75
285.595	104.75
285.826	81.75
286.057	89.75
286.288	79.75
286.52	82.75
286.751	89.75
286.982	77.75
287.213	69.75
287.444	87.75
287.675	83.75
287.906	75.75
288.138	89.75
288.369	86.75
288.6	74.75
288.831	78.75
289.062	78.75
289.293	89.75
289.524	76.75
289.755	86.75
289.986	87.75
290.217	88.75
290.448	74.75
290.679	99.75
290.91	81.75
291.141	102.75
291.371	90.75
291.602	81.75
291.833	97.75
292.064	95.75
292.295	88.75
292.526	87.75
292.757	91.75
292.987	91.75
293.218	90.75
293.449	81.75
293.68	91.75
293.91	95.75
294.141	87.75
294.372	83.75
294.603	80.75
294.833	90.75
295.064	94.75
295.295	81.75
295.525	88.75
295.756	107.75
295.987	114.75
296.217	122.75
296.448	111.75
296.679	96.75
296.909	96.75
297.14	88.75
297.37	100.75
297.601	73.75
297.831	79.75
298.062	94.75
298.292	76.75
298.523	104.75
298.753	83.75
298.984	93.75
299.214	90.75
299.445	79.75
299.675	93.75
299.905	96.75
300.136	82.75
300.366	95.75
300.597	95.75
300.827	98.75
301.057	83.75
301.288	105.75
301.518	81.75
301.748	80.75
301.979	109.75
302.209	85.75
302.439	82.75
302.669	84.75
302.9	82.75
303.13	78.75
303.36	103.75
303.59	98.75
303.82	97.75
304.051	86.75
304.281	93.75
304.511	93.75
304.741	94.75
304.971	98.75
305.201	69.75
305.431	88.75
305.661	85.75
305.891	98.75
306.121	94.75
306.352	90.75
306.582	111.75
306.812	89.75
307.042	94.75
307.272	81.75
307.502	91.75
307.731	86.75
307.961	102.75
308.191	85.75
308.421	78.75
308.651	98.75
308.881	85.75
309.111	85.75
309.341	93.75
309.571	97.75
309.8	104.75
310.03	84.75
310.26	80.75
310.49	95.75
310.72	91.75
310.949	101.75
311.179	96.75
311.409	88.75
311.639	90.75
311.868	99.75
312.098	80.75
312.328	115.75
312.557	106.75
312.787	96.75
313.017	84.75
313.246	93.75
313.476	91.75
313.706	92.75
313.935	89.75
314.165	95.75
314.394	91.75
314.624	97.75
314.853	89.75
315.083	94.75
315.312	89.75
315.542	80.75
315.771	87.75
316.001	86.75
316.23	99.75
316.46	91.75
316.689	91.75
316.919	99.75
317.148	100.75
317.377	97.75
317.607	93.75
317.836	95.75
318.065	86.75
318.295	98.75
318.524	101.75
318.753	90.75
318.983	94.75
319.212	97.75
319.441	98.75
319.67	104.75
319.9	92.75
320.129	91.75
320.358	93.75
320.587	96.75
320.816	99.75
321.046	99.75
321.275	88.75
321.504	87.75
321.733	109.75
321.962	89.75
322.191	97.75
322.42	91.75
322.649	103.75
322.878	95.75
323.108	109.75
323.337	119.75
323.566	126.75
323.795	150.75
324.024	171.75
324.253	348.75
324.482	707.75
324.71	1441.75
324.939	1900.75
325.168	685.75
325.397	214.75
325.626	154.75
325.855	128.75
326.084	118.75
326.313	108.75
326.542	139.75
326.77	219.75
326.999	389.75
327.228	799.75
327.457	1453.75
327.686	1172.75
327.914	325.75
328.143	161.75
328.372	128.75
328.6	124.75
328.829	118.75
329.058	106.75
329.287	135.75
329.515	93.75
329.744	110.75
329.972	114.75
330.201	96.75
330.43	117.75
330.658	117.75
330.887	133.75
331.115	116.75
331.344	91.75
331.572	98.75
331.801	105.75
332.03	97.75
332.258	98.75
332.486	80.75
332.715	95.75
332.943	103.75
333.172	99.75
333.4	97.75
333.629	97.75
333.857	97.75
334.085	105.75
334.314	101.75
334.542	99.75
334.771	101.75
334.999	93.75
335.227	97.75
335.455	95.75
335.684	81.75
335.912	82.75
336.14	102.75
336.369	98.75
336.597	107.75
336.825	111.75
337.053	83.75
337.281	95.75
337.51	91.75
337.738	94.75
337.966	96.75
338.194	85.75
338.422	88.75
338.65	77.75
338.878	86.75
339.106	82.75
339.334	76.75
339.562	77.75
339.79	94.75
340.018	89.75
340.246	90.75
340.474	86.75
340.702	92.75
340.93	71.75
341.158	71.75
341.386	83.75
341.614	86.75
341.842	91.75
342.07	96.75
342.298	94.75
342.526	81.75
342.754	88.75
342.981	95.75
343.209	81.75
343.437	86.75
343.665	102.75
343.893	78.75
344.12	83.75
344.348	99.75
344.576	95.75
344.804	81.75
345.031	90.75
345.259	95.75
345.487	77.75
345.714	101.75
345.942	91.75
346.17	104.75
346.397	79.75
346.625	90.75
346.853	91.75
347.08	88.75
347.308	90.75
347.535	100.75
347.763	105.75
347.99	104.75
348.218	102.75
348.445	105.75
348.673	93.75
348.9	89.75
349.128	105.75
349.355	102.75
349.583	87.75
349.81	94.75
350.037	93.75
350.265	98.75
350.492	88.75
350.72	80.75
350.947	104.75
351.174	98.75
351.402	96.75
351.629	79.75
351.856	91.75
352.083	104.75
352.311	102.75
352.538	108.75
352.765	118.75
352.992	104.75
353.22	106.75
353.447	106.75
353.674	94.75
353.901	107.75
354.128	90.75
354.355	91.75
354.583	91.75
354.81	104.75
355.037	85.75
355.264	88.75
355.491	90.75
355.718	84.75
355.945	89.75
356.172	85.75
356.399	93.75
356.626	79.75
356.853	77.75
357.08	82.75
357.307	87.75
357.534	88.75
357.761	93.75
357.988	99.75
358.215	85.75
358.441	91.75
358.668	98.75
358.895	76.75
359.122	85.75
359.349	93.75
359.576	89.75
359.802	106.75
360.029	122.75
360.256	109.75
360.483	95.75
360.709	77.75
360.936	100.75
361.163	91.75
361.39	93.75
361.616	91.75
361.843	96.75
362.07	98.75
362.296	102.75
362.523	82.75
362.749	93.75
362.976	97.75
363.203	103.75
363.429	85.75
363.656	86.75
363.882	96.75
364.109	99.75
364.335	89.75
364.562	88.75
364.788	105.75
365.015	95.75
365.241	98.75
365.468	117.75
365.694	102.75
365.92	97.75
366.147	89.75
366.373	88.75
366.599	91.75
366.826	95.75
367.052	80.75
367.278	98.75
367.505	101.75
367.731	85.75
367.957	91.75
368.184	96.75
368.41	91.75
368.636	115.75
368.862	127.75
369.089	104.75
369.315	87.75
369.541	91.75
369.767	88.75
369.993	85.75
370.219	76.75
370.445	82.75
370.672	86.75
370.898	89.75
371.124	97.75
371.35	99.75
371.576	90.75
371.802	98.75
372.028	95.75
372.254	84.75
372.48	93.75
372.706	77.75
372.932	88.75
373.158	86.75
373.384	89.75
373.61	104.75
373.835	90.75
374.061	96.75
374.287	94.75
374.513	101.75
374.739	93.75
374.965	89.75
375.191	91.75
375.416	89.75
375.642	118.75
375.868	102.75
376.094	94.75
376.319	85.75
376.545	91.75
376.771	78.75
376.997	84.75
377.222	82.75
377.448	81.75
377.674	96.75
377.899	85.75
378.125	81.75
378.35	84.75
378.576	87.75
378.802	87.75
379.027	87.75
379.253	95.75
379.478	84.75
379.704	97.75
379.929	99.75
380.155	89.75
380.38	90.75
380.606	82.75
380.831	87.75
381.057	91.75
381.282	103.75
381.507	87.75
381.733	92.75
381.958	93.75
382.184	92.75
382.409	98.75
382.634	91.75
382.86	99.75
383.085	97.75
383.31	96.75
383.535	89.75
383.761	95.75
383.986	89.75
384.211	91.75
384.436	101.75
384.662	88.75
384.887	93.75
385.112	99.75
385.337	102.75
385.562	114.75
385.787	90.75
386.013	122.75
386.238	114.75
386.463	101.75
386.688	102.75
386.913	100.75
387.138	89.75
387.363	96.75
387.588	106.75
387.813	113.75
388.038	94.75
388.263	100.75
388.488	112.75
388.713	91.75
388.938	81.75
389.163	94.75
389.387	102.75
389.612	93.75
389.837	83.75
390.062	80.75
390.287	78.75
390.512	76.75
390.736	89.75
390.961	102.75
391.186	84.75
391.411	90.75
391.636	101.75
391.86	90.75
392.085	84.75
392.31	88.75
392.534	84.75
392.759	84.75
392.984	82.75
393.208	106.75
393.433	91.75
393.658	91.75
393.882	90.75
394.107	85.75
394.331	84.75
394.556	84.75
394.78	103.75
395.005	103.75
395.229	95.75
395.454	87.75
395.678	86.75
395.903	83.75
396.127	106.75
396.352	81.75
396.576	91.75
396.801	89.75
397.025	98.75
397.249	89.75
397.474	82.75
397.698	96.75
397.922	93.75
398.147	95.75
398.371	81.75
398.595	86.75
398.82	75.75
399.044	101.75
399.268	93.75
399.492	86.75
399.717	87.75
399.941	89.75
400.165	85.75
400.389	75.75
400.613	81.75
400.837	89.75
401.062	93.75
401.286	82.75
401.51	74.75
401.734	89.75
401.958	100.75
402.182	128.75
402.406	131.75
402.63	105.75
402.854	87.75
403.078	65.75
403.302	84.75
403.526	92.75
403.75	95.75
403.974	91.75
404.198	89.75
404.422	102.75
404.645	91.75
404.869	92.75
405.093	98.75
405.317	99.75
405.541	95.75
405.765	82.75
405.988	99.75
406.212	154.75
406.436	200.75
406.66	135.75
406.883	107.75
407.107	101.75
407.331	81.75
407.555	98.75
407.778	95.75
408.002	93.75
408.226	96.75
408.449	91.75
408.673	109.75
408.896	79.75
409.12	84.75
409.344	98.75
409.567	88.75
409.791	90.75
410.014	99.75
410.238	89.75
410.461	89.75
410.685	88.75
410.908	99.75
411.132	90.75
411.355	91.75
411.578	98.75
411.802	99.75
412.025	89.75
412.249	85.75
412.472	94.75
412.695	95.75
412.919	100.75
413.142	94.75
413.365	80.75
413.589	84.75
413.812	89.75
414.035	93.75
414.258	80.75
414.482	100.75
414.705	90.75
414.928	96.75
415.151	106.75
415.374	93.75
415.597	104.75
415.821	85.75
416.044	71.75
416.267	93.75
416.49	89.75
416.713	102.75
416.936	79.75
417.159	92.75
417.382	88.75
417.605	73.75
417.828	90.75
418.051	95.75
418.274	91.75
418.497	89.75
418.72	93.75
418.943	82.75
419.166	89.75
419.389	79.75
419.611	87.75
419.834	100.75
420.057	91.75
420.28	78.75
420.503	95.75
420.726	90.75
420.948	87.75
421.171	90.75
421.394	81.75
421.617	90.75
421.839	81.75
422.062	106.75
422.285	83.75
422.507	93.75
422.73	84.75
422.953	78.75
423.175	82.75
423.398	103.75
423.621	90.75
423.843	99.75
424.066	84.75
424.288	88.75
424.511	102.75
424.733	81.75
424.956	97.75
425.178	103.75
425.401	96.75
425.623	91.75
425.846	94.75
426.068	90.75
426.291	87.75
426.513	101.75
426.735	94.75
426.958	89.75
427.18	99.75
427.402	121.75
427.625	143.75
427.847	109.75
428.069	95.75
428.292	91.75
428.514	79.75
428.736	90.75
428.958	86.75
429.181	72.75
429.403	82.75
429.625	92.75
429.847	98.75
430.069	99.75
430.292	89.75
430.514	79.75
430.736	87.75
430.958	86.75
431.18	74.75
431.402	87.75
431.624	85.75
431.846	76.75
432.068	80.75
432.29	89.75
432.512	81.75
432.734	90.75
432.956	82.75
433.178	86.75
433.4	89.75
433.622	86.75
433.844	96.75
434.066	99.75
434.287	86.75
434.509	83.75
434.731	90.75
434.953	80.75
435.175	79.75
435.397	91.75
435.618	85.75
435.84	90.75
436.062	115.75
436.284	113.75
436.505	99.75
436.727	90.75
436.949	85.75
437.17	96.75
437.392	88.75
437.614	89.75
437.835	95.75
438.057	115.75
438.278	99.75
438.5	103.75
438.721	108.75
438.943	115.75
439.165	94.75
439.386	86.75
439.608	73.75
439.829	94.75
440.05	130.75
440.272	119.75
440.493	114.75
440.715	89.75
440.936	83.75
441.158	85.75
441.379	82.75
441.6	95.75
441.822	97.75
442.043	97.75
442.264	108.75
442.486	92.75
442.707	89.75
442.928	92.75
443.149	119.75
443.371	136.75
443.592	104.75
443.813	96.75
444.034	114.75
444.255	89.75
444.476	77.75
444.698	91.75
444.919	78.75
445.14	114.75
445.361	128.75
445.582	129.75
445.803	120.75
446.024	136.75
446.245	136.75
446.466	91.75
446.687	91.75
446.908	101.75
447.129	98.75
447.35	96.75
447.571	95.75
447.792	94.75
448.013	108.75
448.234	94.75
448.455	103.75
448.675	106.75
448.896	127.75
449.117	77.75
449.338	112.75
449.559	126.75
449.779	125.75
450	96.75
450.221	74.75
450.442	90.75
450.662	88.75
450.883	82.75
451.104	99.75
451.324	84.75
451.545	90.75
451.766	95.75
451.986	88.75
452.207	90.75
452.428	85.75
452.648	99.75
452.869	111.75
453.089	103.75
453.31	95.75
453.53	99.75
453.751	85.75
453.971	94.75
454.192	98.75
454.412	87.75
454.633	83.75
454.853	101.75
455.073	91.75
455.294	95.75
455.514	88.75
455.734	91.75
455.955	97.75
456.175	80.75
456.395	94.75
456.616	74.75
456.836	89.75
457.056	85.75
457.276	77.75
457.497	79.75
457.717	88.75
457.937	81.75
458.157	102.75
458.377	97.75
458.598	98.75
458.818	131.75
459.038	122.75
459.258	109.75
459.478	89.75
459.698	90.75
459.918	81.75
460.138	82.75
460.358	84.75
460.578	88.75
460.798	84.75
461.018	85.75
461.238	97.75
461.458	82.75
461.678	94.75
461.898	82.75
462.118	79.75
462.338	79.75
462.558	93.75
462.777	95.75
462.997	87.75
463.217	94.75
463.437	95.75
463.657	84.75
463.876	81.75
464.096	91.75
464.316	80.75
464.536	100.75
464.755	97.75
464.975	105.75
465.195	143.75
465.414	144.75
465.634	107.75
465.854	89.75
466.073	90.75
466.293	95.75
466.512	86.75
466.732	82.75
466.951	84.75
467.171	89.75
467.391	97.75
467.61	93.75
467.829	97.75
468.049	94.75
468.268	85.75
468.488	86.75
468.707	90.75
468.927	74.75
469.146	89.75
469.365	84.75
469.585	86.75
469.804	88.75
470.023	104.75
470.243	98.75
470.462	88.75
470.681	100.75
470.901	82.75
471.12	97.75
471.339	91.75
471.558	85.75
471.777	90.75
471.997	90.75
472.216	88.75
472.435	96.75
472.654	98.75
472.873	89.75
473.092	89.75
473.311	88.75
473.53	88.75
473.749	85.75
473.968	93.75
474.187	107.75
474.406	90.75
474.625	89.75
474.844	89.75
475.063	87.75
475.282	95.75
475.501	91.75
475.72	91.75
475.939	80.75
476.158	83.75
476.377	103.75
476.596	80.75
476.814	97.75
477.033	85.75
477.252	90.75
477.471	77.75
477.69	96.75
477.908	87.75
478.127	82.75
478.346	95.75
478.564	94.75
478.783	89.75
479.002	92.75
479.22	101.75
479.439	94.75
479.658	90.75
479.876	103.75
480.095	93.75
480.313	88.75
480.532	84.75
480.751	84.75
480.969	89.75
481.188	110.75
481.406	107.75
481.624	94.75
481.843	85.75
482.061	75.75
482.28	85.75
482.498	88.75
482.717	79.75
482.935	89.75
483.153	94.75
483.372	100.75
483.59	77.75
483.808	88.75
484.027	88.75
484.245	81.75
484.463	105.75
484.681	90.75
484.9	90.75
485.118	99.75
485.336	103.75
485.554	107.75
485.772	112.75
485.99	102.75
486.209	85.75
486.427	107.75
486.645	95.75
486.863	110.75
487.081	95.75
487.299	96.75
487.517	99.75
487.735	91.75
487.953	87.75
488.171	80.75
488.389	85.75
488.607	87.75
488.825	89.75
489.043	107.75
489.261	84.75
489.479	82.75
489.696	96.75
489.914	79.75
490.132	97.75
490.35	92.75
490.568	81.75
490.786	89.75
491.003	86.75
491.221	83.75
491.439	94.75
491.657	89.75
491.874	90.75
492.092	97.75
492.31	93.75
492.527	85.75
492.745	81.75
492.963	98.75
493.18	85.75
493.398	81.75
493.615	90.75
493.833	98.75
494.05	94.75
494.268	96.75
494.485	90.75
494.703	101.75
494.92	93.75
495.138	79.75
495.355	85.75
495.573	89.75
495.79	86.75
496.008	79.75
496.225	96.75
496.442	91.75
496.66	79.75
496.877	93.75
497.094	96.75
497.312	84.75
497.529	95.75
497.746	90.75
497.963	80.75
498.181	97.75
498.398	102.75
498.615	96.75
498.832	102.75
499.049	85.75
499.267	104.75
499.484	94.75
499.701	77.75
499.918	95.75
500.135	99.75
500.352	78.75
500.569	89.75
500.786	97.75
501.003	88.75
501.22	90.75
501.437	96.75
501.654	91.75
501.871	109.75
502.088	96.75
502.305	95.75
502.522	90.75
502.739	92.75
502.956	99.75
503.172	89.75
503.389	91.75
503.606	97.75
503.823	89.75
504.04	95.75
504.256	81.75
504.473	95.75
504.69	85.75
504.907	83.75
505.123	86.75
505.34	79.75
505.557	97.75
505.773	72.75
505.99	98.75
506.207	94.75
506.423	78.75
506.64	97.75
506.856	81.75
507.073	102.75
507.289	98.75
507.506	92.75
507.722	97.75
507.939	104.75
508.155	105.75
508.372	87.75
508.588	101.75
508.805	105.75
509.021	104.75
509.238	105.75
509.454	104.75
509.67	106.75
509.887	105.75
510.103	129.75
510.319	222.75
510.536	686.75
510.752	2164.75
510.968	628.75
511.184	151.75
511.401	104.75
511.617	97.75
511.833	91.75
512.049	93.75
512.265	93.75
512.481	77.75
512.698	87.75
512.914	102.75
513.13	84.75
513.346	100.75
513.562	93.75
513.778	95.75
513.994	94.75
514.21	101.75
514.426	112.75
514.642	122.75
514.858	127.75
515.074	135.75
515.29	392.75
515.506	1301.75
515.721	493.75
515.937	151.75
516.153	107.75
516.369	77.75
516.585	99.75
