Data from Uncirc_2002_H10_HRD10591_00047.txt Node
Date: Wed Jan 03 10:39:50 EST 2024
User: Yrep
Spectrometer: HR+D1059
Trigger mode: 1
Integration Time (sec): 1.000000E-1
Scans to average: 1
Electric dark correction enabled: true
Nonlinearity correction enabled: false
Boxcar width: 0
XAxis mode: Wavelengths
Number of Pixels in Spectrum: 2048
>>>>>Begin Spectral Data<<<<<
223.165	-21.94
223.4	-21.94
223.635	-21.94
223.869	-28.94
224.104	-13.94
224.338	-10.94
224.573	-25.94
224.808	-8.94
225.042	11.06
225.277	-2.94
225.511	5.06
225.746	-3.94
225.98	-0.94
226.215	1.06
226.449	13.06
226.683	19.06
226.918	30.06
227.152	39.06
227.387	34.06
227.621	42.06
227.856	40.06
228.09	37.06
228.324	48.06
228.559	52.06
228.793	50.06
229.027	67.06
229.262	60.06
229.496	53.06
229.73	94.06
229.964	77.06
230.199	63.06
230.433	77.06
230.667	83.06
230.901	67.06
231.136	81.06
231.37	73.06
231.604	82.06
231.838	77.06
232.072	79.06
232.306	84.06
232.541	89.06
232.775	82.06
233.009	90.06
233.243	69.06
233.477	68.06
233.711	77.06
233.945	84.06
234.179	87.06
234.413	82.06
234.647	71.06
234.881	68.06
235.115	76.06
235.349	76.06
235.583	82.06
235.817	96.06
236.051	77.06
236.285	80.06
236.519	74.06
236.753	79.06
236.987	87.06
237.221	65.06
237.455	71.06
237.689	66.06
237.922	83.06
238.156	81.06
238.39	57.06
238.624	73.06
238.858	74.06
239.091	61.06
239.325	71.06
239.559	82.06
239.793	94.06
240.027	80.06
240.26	81.06
240.494	79.06
240.728	75.06
240.961	76.06
241.195	67.06
241.429	66.06
241.662	70.06
241.896	64.06
242.13	77.06
242.363	82.06
242.597	70.06
242.83	68.06
243.064	69.06
243.298	64.06
243.531	79.06
243.765	73.06
243.998	74.06
244.232	67.06
244.465	64.06
244.699	94.06
244.932	74.06
245.166	78.06
245.399	77.06
245.633	80.06
245.866	76.06
246.099	78.06
246.333	76.06
246.566	73.06
246.8	72.06
247.033	84.06
247.266	68.06
247.5	81.06
247.733	90.06
247.966	65.06
248.2	71.06
248.433	78.06
248.666	85.06
248.899	68.06
249.133	82.06
249.366	99.06
249.599	84.06
249.832	86.06
250.066	77.06
250.299	78.06
250.532	91.06
250.765	81.06
250.998	74.06
251.231	63.06
251.465	74.06
251.698	84.06
251.931	69.06
252.164	90.06
252.397	78.06
252.63	76.06
252.863	70.06
253.096	88.06
253.329	77.06
253.562	88.06
253.795	81.06
254.028	82.06
254.261	80.06
254.494	75.06
254.727	78.06
254.96	77.06
255.193	84.06
255.426	76.06
255.659	104.06
255.892	70.06
256.124	87.06
256.357	87.06
256.59	90.06
256.823	77.06
257.056	75.06
257.289	68.06
257.521	76.06
257.754	78.06
257.987	66.06
258.22	80.06
258.452	74.06
258.685	82.06
258.918	94.06
259.151	84.06
259.383	70.06
259.616	83.06
259.849	69.06
260.081	83.06
260.314	87.06
260.547	91.06
260.779	76.06
261.012	81.06
261.244	76.06
261.477	99.06
261.71	91.06
261.942	109.06
262.175	116.06
262.407	90.06
262.64	77.06
262.872	86.06
263.105	81.06
263.337	80.06
263.57	69.06
263.802	78.06
264.035	68.06
264.267	84.06
264.499	86.06
264.732	86.06
264.964	82.06
265.197	79.06
265.429	74.06
265.661	76.06
265.894	71.06
266.126	96.06
266.358	90.06
266.591	81.06
266.823	92.06
267.055	55.06
267.287	88.06
267.52	80.06
267.752	79.06
267.984	94.06
268.216	81.06
268.448	83.06
268.681	73.06
268.913	76.06
269.145	78.06
269.377	83.06
269.609	83.06
269.841	99.06
270.073	85.06
270.306	93.06
270.538	73.06
270.77	78.06
271.002	78.06
271.234	86.06
271.466	82.06
271.698	92.06
271.93	89.06
272.162	83.06
272.394	85.06
272.626	78.06
272.858	77.06
273.09	87.06
273.322	82.06
273.553	86.06
273.785	71.06
274.017	80.06
274.249	90.06
274.481	89.06
274.713	80.06
274.945	77.06
275.176	81.06
275.408	68.06
275.64	79.06
275.872	86.06
276.104	67.06
276.335	92.06
276.567	95.06
276.799	95.06
277.031	98.06
277.262	95.06
277.494	78.06
277.726	87.06
277.957	94.06
278.189	78.06
278.421	80.06
278.652	78.06
278.884	81.06
279.115	97.06
279.347	97.06
279.579	71.06
279.81	79.06
280.042	98.06
280.273	90.06
280.505	83.06
280.736	90.06
280.968	80.06
281.199	79.06
281.431	93.06
281.662	72.06
281.894	79.06
282.125	89.06
282.356	91.06
282.588	119.06
282.819	101.06
283.051	72.06
283.282	78.06
283.513	83.06
283.745	72.06
283.976	76.06
284.207	79.06
284.439	90.06
284.67	84.06
284.901	92.06
285.132	92.06
285.364	86.06
285.595	86.06
285.826	81.06
286.057	73.06
286.288	86.06
286.52	77.06
286.751	73.06
286.982	74.06
287.213	83.06
287.444	90.06
287.675	82.06
287.906	84.06
288.138	80.06
288.369	82.06
288.6	100.06
288.831	89.06
289.062	83.06
289.293	74.06
289.524	90.06
289.755	82.06
289.986	62.06
290.217	75.06
290.448	100.06
290.679	64.06
290.91	78.06
291.141	78.06
291.371	81.06
291.602	86.06
291.833	89.06
292.064	90.06
292.295	81.06
292.526	87.06
292.757	89.06
292.987	105.06
293.218	89.06
293.449	93.06
293.68	80.06
293.91	95.06
294.141	83.06
294.372	75.06
294.603	83.06
294.833	90.06
295.064	90.06
295.295	73.06
295.525	84.06
295.756	89.06
295.987	111.06
296.217	121.06
296.448	106.06
296.679	92.06
296.909	93.06
297.14	91.06
297.37	87.06
297.601	90.06
297.831	91.06
298.062	90.06
298.292	82.06
298.523	93.06
298.753	103.06
298.984	85.06
299.214	82.06
299.445	96.06
299.675	85.06
299.905	98.06
300.136	82.06
300.366	96.06
300.597	79.06
300.827	91.06
301.057	90.06
301.288	101.06
301.518	96.06
301.748	108.06
301.979	99.06
302.209	98.06
302.439	87.06
302.669	82.06
302.9	98.06
303.13	87.06
303.36	103.06
303.59	105.06
303.82	101.06
304.051	102.06
304.281	94.06
304.511	77.06
304.741	86.06
304.971	80.06
305.201	93.06
305.431	92.06
305.661	100.06
305.891	82.06
306.121	97.06
306.352	85.06
306.582	95.06
306.812	95.06
307.042	85.06
307.272	89.06
307.502	91.06
307.731	78.06
307.961	83.06
308.191	87.06
308.421	84.06
308.651	103.06
308.881	97.06
309.111	96.06
309.341	90.06
309.571	97.06
309.8	88.06
310.03	84.06
310.26	89.06
310.49	79.06
310.72	95.06
310.949	100.06
311.179	85.06
311.409	87.06
311.639	84.06
311.868	95.06
312.098	90.06
312.328	86.06
312.557	106.06
312.787	103.06
313.017	98.06
313.246	101.06
313.476	72.06
313.706	81.06
313.935	93.06
314.165	75.06
314.394	84.06
314.624	89.06
314.853	83.06
315.083	87.06
315.312	93.06
315.542	83.06
315.771	101.06
316.001	99.06
316.23	92.06
316.46	80.06
316.689	96.06
316.919	77.06
317.148	94.06
317.377	83.06
317.607	81.06
317.836	90.06
318.065	88.06
318.295	81.06
318.524	90.06
318.753	86.06
318.983	96.06
319.212	102.06
319.441	116.06
319.67	99.06
319.9	87.06
320.129	95.06
320.358	94.06
320.587	103.06
320.816	90.06
321.046	92.06
321.275	101.06
321.504	89.06
321.733	86.06
321.962	92.06
322.191	79.06
322.42	88.06
322.649	106.06
322.878	116.06
323.108	104.06
323.337	111.06
323.566	129.06
323.795	146.06
324.024	191.06
324.253	354.06
324.482	732.06
324.71	1534.06
324.939	1981.06
325.168	749.06
325.397	236.06
325.626	146.06
325.855	124.06
326.084	117.06
326.313	127.06
326.542	158.06
326.77	204.06
326.999	401.06
327.228	819.06
327.457	1515.06
327.686	1214.06
327.914	335.06
328.143	175.06
328.372	122.06
328.6	94.06
328.829	104.06
329.058	119.06
329.287	121.06
329.515	92.06
329.744	108.06
329.972	106.06
330.201	105.06
330.43	105.06
330.658	104.06
330.887	134.06
331.115	117.06
331.344	103.06
331.572	104.06
331.801	89.06
332.03	87.06
332.258	93.06
332.486	84.06
332.715	86.06
332.943	106.06
333.172	101.06
333.4	86.06
333.629	88.06
333.857	105.06
334.085	116.06
334.314	110.06
334.542	94.06
334.771	93.06
334.999	90.06
335.227	98.06
335.455	101.06
335.684	89.06
335.912	83.06
336.14	93.06
336.369	88.06
336.597	89.06
336.825	96.06
337.053	94.06
337.281	79.06
337.51	85.06
337.738	94.06
337.966	82.06
338.194	83.06
338.422	88.06
338.65	89.06
338.878	95.06
339.106	74.06
339.334	94.06
339.562	83.06
339.79	82.06
340.018	90.06
340.246	94.06
340.474	93.06
340.702	94.06
340.93	91.06
341.158	91.06
341.386	83.06
341.614	95.06
341.842	102.06
342.07	98.06
342.298	99.06
342.526	99.06
342.754	95.06
342.981	75.06
343.209	89.06
343.437	90.06
343.665	87.06
343.893	90.06
344.12	78.06
344.348	91.06
344.576	94.06
344.804	99.06
345.031	92.06
345.259	84.06
345.487	94.06
345.714	93.06
345.942	95.06
346.17	95.06
346.397	85.06
346.625	100.06
346.853	98.06
347.08	69.06
347.308	88.06
347.535	100.06
347.763	103.06
347.99	88.06
348.218	104.06
348.445	100.06
348.673	95.06
348.9	102.06
349.128	91.06
349.355	78.06
349.583	87.06
349.81	81.06
350.037	88.06
350.265	92.06
350.492	81.06
350.72	94.06
350.947	96.06
351.174	93.06
351.402	110.06
351.629	112.06
351.856	96.06
352.083	100.06
352.311	107.06
352.538	109.06
352.765	116.06
352.992	112.06
353.22	113.06
353.447	108.06
353.674	94.06
353.901	82.06
354.128	85.06
354.355	90.06
354.583	100.06
354.81	99.06
355.037	89.06
355.264	96.06
355.491	88.06
355.718	85.06
355.945	84.06
356.172	87.06
356.399	86.06
356.626	79.06
356.853	80.06
357.08	91.06
357.307	81.06
357.534	86.06
357.761	79.06
357.988	92.06
358.215	89.06
358.441	87.06
358.668	98.06
358.895	78.06
359.122	96.06
359.349	86.06
359.576	96.06
359.802	90.06
360.029	88.06
360.256	94.06
360.483	94.06
360.709	101.06
360.936	104.06
361.163	101.06
361.39	92.06
361.616	99.06
361.843	103.06
362.07	97.06
362.296	89.06
362.523	94.06
362.749	92.06
362.976	90.06
363.203	88.06
363.429	83.06
363.656	72.06
363.882	98.06
364.109	75.06
364.335	102.06
364.562	95.06
364.788	97.06
365.015	89.06
365.241	94.06
365.468	79.06
365.694	78.06
365.92	101.06
366.147	94.06
366.373	85.06
366.599	105.06
366.826	91.06
367.052	85.06
367.278	97.06
367.505	81.06
367.731	88.06
367.957	88.06
368.184	97.06
368.41	91.06
368.636	99.06
368.862	110.06
369.089	109.06
369.315	88.06
369.541	79.06
369.767	96.06
369.993	104.06
370.219	95.06
370.445	93.06
370.672	84.06
370.898	85.06
371.124	86.06
371.35	113.06
371.576	92.06
371.802	72.06
372.028	82.06
372.254	93.06
372.48	68.06
372.706	73.06
372.932	90.06
373.158	82.06
373.384	101.06
373.61	85.06
373.835	104.06
374.061	85.06
374.287	96.06
374.513	77.06
374.739	81.06
374.965	75.06
375.191	92.06
375.416	88.06
375.642	93.06
375.868	96.06
376.094	82.06
376.319	80.06
376.545	86.06
376.771	64.06
376.997	87.06
377.222	92.06
377.448	86.06
377.674	88.06
377.899	83.06
378.125	83.06
378.35	89.06
378.576	92.06
378.802	84.06
379.027	81.06
379.253	86.06
379.478	83.06
379.704	86.06
379.929	86.06
380.155	89.06
380.38	100.06
380.606	93.06
380.831	96.06
381.057	99.06
381.282	93.06
381.507	94.06
381.733	101.06
381.958	91.06
382.184	85.06
382.409	100.06
382.634	108.06
382.86	89.06
383.085	92.06
383.31	97.06
383.535	93.06
383.761	94.06
383.986	88.06
384.211	102.06
384.436	76.06
384.662	87.06
384.887	78.06
385.112	95.06
385.337	89.06
385.562	98.06
385.787	95.06
386.013	87.06
386.238	111.06
386.463	102.06
386.688	98.06
386.913	104.06
387.138	99.06
387.363	89.06
387.588	96.06
387.813	94.06
388.038	101.06
388.263	93.06
388.488	93.06
388.713	94.06
388.938	101.06
389.163	83.06
389.387	89.06
389.612	91.06
389.837	85.06
390.062	97.06
390.287	97.06
390.512	89.06
390.736	114.06
390.961	90.06
391.186	90.06
391.411	101.06
391.636	82.06
391.86	90.06
392.085	74.06
392.31	83.06
392.534	87.06
392.759	81.06
392.984	87.06
393.208	103.06
393.433	95.06
393.658	94.06
393.882	85.06
394.107	78.06
394.331	96.06
394.556	96.06
394.78	73.06
395.005	79.06
395.229	93.06
395.454	81.06
395.678	90.06
395.903	76.06
396.127	85.06
396.352	88.06
396.576	72.06
396.801	95.06
397.025	103.06
397.249	98.06
397.474	78.06
397.698	90.06
397.922	84.06
398.147	75.06
398.371	78.06
398.595	85.06
398.82	79.06
399.044	78.06
399.268	80.06
399.492	81.06
399.717	97.06
399.941	78.06
400.165	92.06
400.389	103.06
400.613	98.06
400.837	84.06
401.062	86.06
401.286	71.06
401.51	89.06
401.734	100.06
401.958	95.06
402.182	100.06
402.406	149.06
402.63	98.06
402.854	82.06
403.078	78.06
403.302	85.06
403.526	85.06
403.75	86.06
403.974	102.06
404.198	76.06
404.422	72.06
404.645	90.06
404.869	93.06
405.093	80.06
405.317	97.06
405.541	90.06
405.765	103.06
405.988	112.06
406.212	174.06
406.436	199.06
406.66	140.06
406.883	100.06
407.107	91.06
407.331	84.06
407.555	97.06
407.778	100.06
408.002	97.06
408.226	94.06
408.449	81.06
408.673	75.06
408.896	95.06
409.12	84.06
409.344	94.06
409.567	84.06
409.791	94.06
410.014	97.06
410.238	85.06
410.461	103.06
410.685	111.06
410.908	95.06
411.132	103.06
411.355	116.06
411.578	84.06
411.802	83.06
412.025	81.06
412.249	95.06
412.472	85.06
412.695	82.06
412.919	93.06
413.142	75.06
413.365	83.06
413.589	101.06
413.812	83.06
414.035	88.06
414.258	81.06
414.482	87.06
414.705	93.06
414.928	103.06
415.151	100.06
415.374	98.06
415.597	89.06
415.821	97.06
416.044	87.06
416.267	79.06
416.49	86.06
416.713	93.06
416.936	86.06
417.159	85.06
417.382	98.06
417.605	72.06
417.828	81.06
418.051	96.06
418.274	81.06
418.497	88.06
418.72	83.06
418.943	89.06
419.166	89.06
419.389	95.06
419.611	98.06
419.834	86.06
420.057	83.06
420.28	89.06
420.503	73.06
420.726	84.06
420.948	86.06
421.171	90.06
421.394	75.06
421.617	91.06
421.839	81.06
422.062	90.06
422.285	96.06
422.507	110.06
422.73	107.06
422.953	103.06
423.175	85.06
423.398	83.06
423.621	87.06
423.843	88.06
424.066	83.06
424.288	87.06
424.511	90.06
424.733	90.06
424.956	103.06
425.178	94.06
425.401	106.06
425.623	96.06
425.846	79.06
426.068	79.06
426.291	95.06
426.513	79.06
426.735	97.06
426.958	89.06
427.18	101.06
427.402	120.06
427.625	156.06
427.847	128.06
428.069	80.06
428.292	77.06
428.514	93.06
428.736	74.06
428.958	83.06
429.181	88.06
429.403	85.06
429.625	95.06
429.847	85.06
430.069	92.06
430.292	82.06
430.514	92.06
430.736	80.06
430.958	86.06
431.18	79.06
431.402	90.06
431.624	81.06
431.846	81.06
432.068	93.06
432.29	69.06
432.512	93.06
432.734	88.06
432.956	97.06
433.178	96.06
433.4	98.06
433.622	91.06
433.844	93.06
434.066	89.06
434.287	87.06
434.509	83.06
434.731	98.06
434.953	74.06
435.175	73.06
435.397	74.06
435.618	84.06
435.84	88.06
436.062	117.06
436.284	111.06
436.505	102.06
436.727	89.06
436.949	83.06
437.17	96.06
437.392	88.06
437.614	83.06
437.835	101.06
438.057	116.06
438.278	104.06
438.5	105.06
438.721	130.06
438.943	86.06
439.165	80.06
439.386	89.06
439.608	86.06
439.829	101.06
440.05	126.06
440.272	124.06
440.493	85.06
440.715	89.06
440.936	87.06
441.158	83.06
441.379	87.06
441.6	85.06
441.822	80.06
442.043	104.06
442.264	97.06
442.486	98.06
442.707	90.06
442.928	94.06
443.149	128.06
443.371	121.06
443.592	110.06
443.813	103.06
444.034	105.06
444.255	102.06
444.476	90.06
444.698	87.06
444.919	92.06
445.14	119.06
445.361	118.06
445.582	102.06
445.803	124.06
446.024	138.06
446.245	124.06
446.466	109.06
446.687	91.06
446.908	96.06
447.129	82.06
447.35	91.06
447.571	104.06
447.792	93.06
448.013	90.06
448.234	101.06
448.455	102.06
448.675	114.06
448.896	110.06
449.117	91.06
449.338	110.06
449.559	105.06
449.779	120.06
450	83.06
450.221	82.06
450.442	75.06
450.662	100.06
450.883	89.06
451.104	101.06
451.324	86.06
451.545	73.06
451.766	90.06
451.986	84.06
452.207	83.06
452.428	79.06
452.648	87.06
452.869	95.06
453.089	102.06
453.31	113.06
453.53	90.06
453.751	77.06
453.971	100.06
454.192	102.06
454.412	82.06
454.633	82.06
454.853	95.06
455.073	97.06
455.294	82.06
455.514	94.06
455.734	92.06
455.955	90.06
456.175	82.06
456.395	89.06
456.616	77.06
456.836	70.06
457.056	85.06
457.276	82.06
457.497	90.06
457.717	73.06
457.937	76.06
458.157	96.06
458.377	73.06
458.598	106.06
458.818	140.06
459.038	145.06
459.258	106.06
459.478	85.06
459.698	85.06
459.918	91.06
460.138	92.06
460.358	75.06
460.578	77.06
460.798	88.06
461.018	92.06
461.238	96.06
461.458	93.06
461.678	71.06
461.898	87.06
462.118	84.06
462.338	88.06
462.558	86.06
462.777	76.06
462.997	91.06
463.217	96.06
463.437	78.06
463.657	86.06
463.876	82.06
464.096	83.06
464.316	91.06
464.536	84.06
464.755	95.06
464.975	93.06
465.195	117.06
465.414	129.06
465.634	98.06
465.854	76.06
466.073	87.06
466.293	79.06
466.512	81.06
466.732	82.06
466.951	89.06
467.171	77.06
467.391	90.06
467.61	96.06
467.829	92.06
468.049	85.06
468.268	97.06
468.488	88.06
468.707	81.06
468.927	87.06
469.146	78.06
469.365	89.06
469.585	87.06
469.804	76.06
470.023	101.06
470.243	90.06
470.462	107.06
470.681	100.06
470.901	83.06
471.12	91.06
471.339	70.06
471.558	78.06
471.777	89.06
471.997	95.06
472.216	88.06
472.435	91.06
472.654	89.06
472.873	87.06
473.092	80.06
473.311	87.06
473.53	67.06
473.749	88.06
473.968	102.06
474.187	91.06
474.406	89.06
474.625	85.06
474.844	75.06
475.063	71.06
475.282	86.06
475.501	87.06
475.72	84.06
475.939	91.06
476.158	87.06
476.377	77.06
476.596	89.06
476.814	89.06
477.033	98.06
477.252	81.06
477.471	78.06
477.69	70.06
477.908	84.06
478.127	96.06
478.346	76.06
478.564	83.06
478.783	98.06
479.002	95.06
479.22	80.06
479.439	92.06
479.658	93.06
479.876	78.06
480.095	79.06
480.313	85.06
480.532	80.06
480.751	69.06
480.969	79.06
481.188	110.06
481.406	90.06
481.624	91.06
481.843	81.06
482.061	80.06
482.28	101.06
482.498	85.06
482.717	67.06
482.935	87.06
483.153	100.06
483.372	78.06
483.59	91.06
483.808	95.06
484.027	89.06
484.245	93.06
484.463	93.06
484.681	83.06
484.9	93.06
485.118	81.06
485.336	87.06
485.554	102.06
485.772	93.06
485.99	93.06
486.209	103.06
486.427	87.06
486.645	99.06
486.863	109.06
487.081	103.06
487.299	87.06
487.517	88.06
487.735	86.06
487.953	91.06
488.171	80.06
488.389	94.06
488.607	93.06
488.825	82.06
489.043	87.06
489.261	85.06
489.479	78.06
489.696	82.06
489.914	88.06
490.132	91.06
490.35	92.06
490.568	88.06
490.786	74.06
491.003	86.06
491.221	94.06
491.439	84.06
491.657	97.06
491.874	85.06
492.092	89.06
492.31	97.06
492.527	84.06
492.745	67.06
492.963	83.06
493.18	93.06
493.398	86.06
493.615	100.06
493.833	95.06
494.05	81.06
494.268	96.06
494.485	97.06
494.703	89.06
494.92	93.06
495.138	93.06
495.355	102.06
495.573	85.06
495.79	75.06
496.008	92.06
496.225	82.06
496.442	97.06
496.66	73.06
496.877	94.06
497.094	96.06
497.312	82.06
497.529	90.06
497.746	94.06
497.963	89.06
498.181	90.06
498.398	87.06
498.615	94.06
498.832	92.06
499.049	94.06
499.267	94.06
499.484	92.06
499.701	78.06
499.918	85.06
500.135	90.06
500.352	92.06
500.569	83.06
500.786	84.06
501.003	101.06
501.22	83.06
501.437	91.06
501.654	96.06
501.871	98.06
502.088	76.06
502.305	87.06
502.522	87.06
502.739	78.06
502.956	96.06
503.172	80.06
503.389	85.06
503.606	89.06
503.823	80.06
504.04	84.06
504.256	93.06
504.473	81.06
504.69	83.06
504.907	92.06
505.123	68.06
505.34	82.06
505.557	84.06
505.773	86.06
505.99	83.06
506.207	89.06
506.423	98.06
506.64	78.06
506.856	93.06
507.073	80.06
507.289	80.06
507.506	100.06
507.722	110.06
507.939	103.06
508.155	81.06
508.372	94.06
508.588	90.06
508.805	78.06
509.021	87.06
509.238	105.06
509.454	94.06
509.67	98.06
509.887	115.06
510.103	131.06
510.319	193.06
510.536	689.06
510.752	2136.06
510.968	593.06
511.184	150.06
511.401	100.06
511.617	101.06
511.833	103.06
512.049	112.06
512.265	88.06
512.481	85.06
512.698	88.06
512.914	88.06
513.13	93.06
513.346	76.06
513.562	90.06
513.778	92.06
513.994	100.06
514.21	100.06
514.426	117.06
514.642	124.06
514.858	111.06
515.074	154.06
515.29	388.06
515.506	1286.06
515.721	483.06
515.937	146.06
516.153	92.06
516.369	104.06
516.585	95.06
516.801	89.06
