Data from Uncirc_2002_H10_HRD10591_00002.txt Node
Date: Wed Jan 03 10:39:41 EST 2024
User: Yrep
Spectrometer: HR+D1059
Trigger mode: 1
Integration Time (sec): 1.000000E-1
Scans to average: 1
Electric dark correction enabled: true
Nonlinearity correction enabled: false
Boxcar width: 0
XAxis mode: Wavelengths
Number of Pixels in Spectrum: 2048
>>>>>Begin Spectral Data<<<<<
223.165	-29.31
223.4	-29.31
223.635	-29.31
223.869	-12.31
224.104	-23.31
224.338	-12.31
224.573	-16.31
224.808	-4.31
225.042	-6.31
225.277	4.69
225.511	-8.31
225.746	-2.31
225.98	6.69
226.215	15.69
226.449	13.69
226.683	16.69
226.918	20.69
227.152	36.69
227.387	36.69
227.621	29.69
227.856	48.69
228.09	40.69
228.324	43.69
228.559	54.69
228.793	45.69
229.027	57.69
229.262	69.69
229.496	64.69
229.73	82.69
229.964	81.69
230.199	81.69
230.433	74.69
230.667	69.69
230.901	63.69
231.136	70.69
231.37	77.69
231.604	70.69
231.838	85.69
232.072	85.69
232.306	92.69
232.541	85.69
232.775	83.69
233.009	70.69
233.243	90.69
233.477	83.69
233.711	73.69
233.945	71.69
234.179	69.69
234.413	89.69
234.647	82.69
234.881	85.69
235.115	71.69
235.349	82.69
235.583	80.69
235.817	75.69
236.051	68.69
236.285	63.69
236.519	73.69
236.753	85.69
236.987	77.69
237.221	71.69
237.455	87.69
237.689	69.69
237.922	80.69
238.156	76.69
238.39	66.69
238.624	72.69
238.858	78.69
239.091	63.69
239.325	81.69
239.559	86.69
239.793	86.69
240.027	64.69
240.26	74.69
240.494	71.69
240.728	73.69
240.961	65.69
241.195	62.69
241.429	73.69
241.662	88.69
241.896	66.69
242.13	78.69
242.363	79.69
242.597	76.69
242.83	83.69
243.064	82.69
243.298	77.69
243.531	59.69
243.765	74.69
243.998	94.69
244.232	72.69
244.465	83.69
244.699	86.69
244.932	69.69
245.166	79.69
245.399	65.69
245.633	77.69
245.866	81.69
246.099	70.69
246.333	86.69
246.566	81.69
246.8	70.69
247.033	74.69
247.266	88.69
247.5	79.69
247.733	72.69
247.966	80.69
248.2	70.69
248.433	78.69
248.666	86.69
248.899	76.69
249.133	52.69
249.366	87.69
249.599	101.69
249.832	66.69
250.066	86.69
250.299	90.69
250.532	83.69
250.765	78.69
250.998	89.69
251.231	69.69
251.465	72.69
251.698	67.69
251.931	66.69
252.164	73.69
252.397	66.69
252.63	69.69
252.863	74.69
253.096	85.69
253.329	71.69
253.562	77.69
253.795	83.69
254.028	73.69
254.261	79.69
254.494	71.69
254.727	73.69
254.96	83.69
255.193	72.69
255.426	75.69
255.659	78.69
255.892	95.69
256.124	79.69
256.357	80.69
256.59	86.69
256.823	80.69
257.056	69.69
257.289	80.69
257.521	72.69
257.754	65.69
257.987	83.69
258.22	84.69
258.452	71.69
258.685	76.69
258.918	83.69
259.151	84.69
259.383	71.69
259.616	82.69
259.849	86.69
260.081	70.69
260.314	83.69
260.547	77.69
260.779	79.69
261.012	71.69
261.244	72.69
261.477	96.69
261.71	66.69
261.942	102.69
262.175	99.69
262.407	84.69
262.64	74.69
262.872	68.69
263.105	88.69
263.337	79.69
263.57	80.69
263.802	83.69
264.035	72.69
264.267	75.69
264.499	75.69
264.732	89.69
264.964	85.69
265.197	89.69
265.429	70.69
265.661	88.69
265.894	76.69
266.126	94.69
266.358	83.69
266.591	83.69
266.823	79.69
267.055	77.69
267.287	72.69
267.52	86.69
267.752	86.69
267.984	72.69
268.216	79.69
268.448	81.69
268.681	89.69
268.913	97.69
269.145	80.69
269.377	75.69
269.609	79.69
269.841	94.69
270.073	83.69
270.306	69.69
270.538	94.69
270.77	87.69
271.002	79.69
271.234	84.69
271.466	90.69
271.698	82.69
271.93	75.69
272.162	72.69
272.394	76.69
272.626	85.69
272.858	73.69
273.09	75.69
273.322	72.69
273.553	93.69
273.785	75.69
274.017	72.69
274.249	77.69
274.481	79.69
274.713	70.69
274.945	87.69
275.176	76.69
275.408	87.69
275.64	75.69
275.872	76.69
276.104	72.69
276.335	81.69
276.567	98.69
276.799	87.69
277.031	91.69
277.262	84.69
277.494	80.69
277.726	87.69
277.957	77.69
278.189	74.69
278.421	91.69
278.652	82.69
278.884	75.69
279.115	68.69
279.347	87.69
279.579	77.69
279.81	82.69
280.042	84.69
280.273	81.69
280.505	85.69
280.736	72.69
280.968	86.69
281.199	79.69
281.431	92.69
281.662	86.69
281.894	92.69
282.125	94.69
282.356	113.69
282.588	107.69
282.819	102.69
283.051	78.69
283.282	89.69
283.513	77.69
283.745	81.69
283.976	73.69
284.207	94.69
284.439	90.69
284.67	88.69
284.901	97.69
285.132	93.69
285.364	88.69
285.595	69.69
285.826	82.69
286.057	87.69
286.288	80.69
286.52	85.69
286.751	83.69
286.982	84.69
287.213	91.69
287.444	93.69
287.675	87.69
287.906	109.69
288.138	87.69
288.369	85.69
288.6	80.69
288.831	80.69
289.062	86.69
289.293	101.69
289.524	76.69
289.755	92.69
289.986	83.69
290.217	73.69
290.448	83.69
290.679	85.69
290.91	75.69
291.141	83.69
291.371	92.69
291.602	83.69
291.833	77.69
292.064	79.69
292.295	82.69
292.526	75.69
292.757	86.69
292.987	78.69
293.218	73.69
293.449	94.69
293.68	79.69
293.91	76.69
294.141	78.69
294.372	80.69
294.603	98.69
294.833	81.69
295.064	79.69
295.295	96.69
295.525	96.69
295.756	86.69
295.987	108.69
296.217	126.69
296.448	98.69
296.679	91.69
296.909	87.69
297.14	96.69
297.37	89.69
297.601	81.69
297.831	71.69
298.062	77.69
298.292	80.69
298.523	80.69
298.753	79.69
298.984	79.69
299.214	77.69
299.445	83.69
299.675	85.69
299.905	92.69
300.136	73.69
300.366	77.69
300.597	72.69
300.827	70.69
301.057	96.69
301.288	91.69
301.518	85.69
301.748	74.69
301.979	96.69
302.209	95.69
302.439	89.69
302.669	92.69
302.9	90.69
303.13	87.69
303.36	75.69
303.59	88.69
303.82	90.69
304.051	96.69
304.281	79.69
304.511	93.69
304.741	75.69
304.971	70.69
305.201	76.69
305.431	94.69
305.661	91.69
305.891	94.69
306.121	95.69
306.352	88.69
306.582	97.69
306.812	94.69
307.042	87.69
307.272	91.69
307.502	85.69
307.731	99.69
307.961	91.69
308.191	101.69
308.421	96.69
308.651	84.69
308.881	92.69
309.111	86.69
309.341	93.69
309.571	100.69
309.8	83.69
310.03	88.69
310.26	100.69
310.49	70.69
310.72	86.69
310.949	100.69
311.179	92.69
311.409	87.69
311.639	87.69
311.868	101.69
312.098	85.69
312.328	93.69
312.557	97.69
312.787	97.69
313.017	103.69
313.246	96.69
313.476	85.69
313.706	78.69
313.935	95.69
314.165	76.69
314.394	90.69
314.624	97.69
314.853	93.69
315.083	93.69
315.312	77.69
315.542	77.69
315.771	87.69
316.001	94.69
316.23	87.69
316.46	84.69
316.689	102.69
316.919	99.69
317.148	94.69
317.377	106.69
317.607	78.69
317.836	98.69
318.065	99.69
318.295	80.69
318.524	88.69
318.753	83.69
318.983	94.69
319.212	87.69
319.441	95.69
319.67	98.69
319.9	86.69
320.129	101.69
320.358	89.69
320.587	91.69
320.816	106.69
321.046	93.69
321.275	97.69
321.504	85.69
321.733	72.69
321.962	75.69
322.191	84.69
322.42	97.69
322.649	104.69
322.878	115.69
323.108	112.69
323.337	111.69
323.566	124.69
323.795	129.69
324.024	177.69
324.253	321.69
324.482	709.69
324.71	1445.69
324.939	1878.69
325.168	695.69
325.397	217.69
325.626	128.69
325.855	114.69
326.084	119.69
326.313	129.69
326.542	129.69
326.77	196.69
326.999	397.69
327.228	827.69
327.457	1424.69
327.686	1171.69
327.914	321.69
328.143	165.69
328.372	135.69
328.6	116.69
328.829	125.69
329.058	111.69
329.287	121.69
329.515	96.69
329.744	108.69
329.972	92.69
330.201	93.69
330.43	100.69
330.658	104.69
330.887	119.69
331.115	117.69
331.344	97.69
331.572	97.69
331.801	97.69
332.03	89.69
332.258	89.69
332.486	85.69
332.715	78.69
332.943	85.69
333.172	93.69
333.4	97.69
333.629	81.69
333.857	112.69
334.085	93.69
334.314	93.69
334.542	100.69
334.771	108.69
334.999	88.69
335.227	87.69
335.455	95.69
335.684	94.69
335.912	90.69
336.14	85.69
336.369	98.69
336.597	93.69
336.825	94.69
337.053	88.69
337.281	75.69
337.51	91.69
337.738	86.69
337.966	75.69
338.194	85.69
338.422	88.69
338.65	107.69
338.878	80.69
339.106	91.69
339.334	106.69
339.562	89.69
339.79	77.69
340.018	102.69
340.246	89.69
340.474	91.69
340.702	87.69
340.93	94.69
341.158	109.69
341.386	94.69
341.614	90.69
341.842	100.69
342.07	92.69
342.298	82.69
342.526	83.69
342.754	85.69
342.981	101.69
343.209	84.69
343.437	105.69
343.665	79.69
343.893	95.69
344.12	94.69
344.348	87.69
344.576	89.69
344.804	89.69
345.031	105.69
345.259	112.69
345.487	99.69
345.714	87.69
345.942	94.69
346.17	97.69
346.397	90.69
346.625	95.69
346.853	88.69
347.08	72.69
347.308	96.69
347.535	104.69
347.763	91.69
347.99	94.69
348.218	105.69
348.445	93.69
348.673	99.69
348.9	101.69
349.128	98.69
349.355	89.69
349.583	88.69
349.81	76.69
350.037	92.69
350.265	89.69
350.492	89.69
350.72	93.69
350.947	99.69
351.174	99.69
351.402	117.69
351.629	110.69
351.856	100.69
352.083	104.69
352.311	91.69
352.538	92.69
352.765	108.69
352.992	113.69
353.22	103.69
353.447	109.69
353.674	96.69
353.901	101.69
354.128	83.69
354.355	85.69
354.583	95.69
354.81	92.69
355.037	102.69
355.264	82.69
355.491	88.69
355.718	93.69
355.945	81.69
356.172	95.69
356.399	98.69
356.626	85.69
356.853	94.69
357.08	88.69
357.307	95.69
357.534	84.69
357.761	86.69
357.988	86.69
358.215	99.69
358.441	89.69
358.668	95.69
358.895	85.69
359.122	95.69
359.349	96.69
359.576	82.69
359.802	104.69
360.029	99.69
360.256	98.69
360.483	87.69
360.709	81.69
360.936	85.69
361.163	78.69
361.39	80.69
361.616	84.69
361.843	79.69
362.07	94.69
362.296	96.69
362.523	81.69
362.749	93.69
362.976	91.69
363.203	73.69
363.429	94.69
363.656	82.69
363.882	86.69
364.109	87.69
364.335	79.69
364.562	81.69
364.788	89.69
365.015	87.69
365.241	89.69
365.468	101.69
365.694	108.69
365.92	83.69
366.147	80.69
366.373	85.69
366.599	78.69
366.826	88.69
367.052	89.69
367.278	95.69
367.505	74.69
367.731	92.69
367.957	89.69
368.184	94.69
368.41	89.69
368.636	114.69
368.862	108.69
369.089	104.69
369.315	80.69
369.541	84.69
369.767	79.69
369.993	78.69
370.219	96.69
370.445	80.69
370.672	81.69
370.898	98.69
371.124	88.69
371.35	95.69
371.576	88.69
371.802	80.69
372.028	73.69
372.254	100.69
372.48	85.69
372.706	81.69
372.932	69.69
373.158	87.69
373.384	74.69
373.61	89.69
373.835	103.69
374.061	93.69
374.287	79.69
374.513	96.69
374.739	85.69
374.965	88.69
375.191	92.69
375.416	100.69
375.642	81.69
375.868	91.69
376.094	80.69
376.319	91.69
376.545	83.69
376.771	81.69
376.997	102.69
377.222	82.69
377.448	83.69
377.674	95.69
377.899	90.69
378.125	81.69
378.35	91.69
378.576	82.69
378.802	76.69
379.027	85.69
379.253	92.69
379.478	88.69
379.704	91.69
379.929	101.69
380.155	95.69
380.38	88.69
380.606	99.69
380.831	94.69
381.057	105.69
381.282	93.69
381.507	100.69
381.733	107.69
381.958	95.69
382.184	105.69
382.409	112.69
382.634	92.69
382.86	102.69
383.085	101.69
383.31	86.69
383.535	102.69
383.761	98.69
383.986	86.69
384.211	87.69
384.436	91.69
384.662	94.69
384.887	99.69
385.112	112.69
385.337	95.69
385.562	99.69
385.787	103.69
386.013	117.69
386.238	111.69
386.463	110.69
386.688	104.69
386.913	100.69
387.138	112.69
387.363	109.69
387.588	98.69
387.813	96.69
388.038	97.69
388.263	111.69
388.488	99.69
388.713	103.69
388.938	103.69
389.163	93.69
389.387	95.69
389.612	92.69
389.837	96.69
390.062	93.69
390.287	97.69
390.512	92.69
390.736	91.69
390.961	99.69
391.186	95.69
391.411	98.69
391.636	104.69
391.86	91.69
392.085	94.69
392.31	93.69
392.534	78.69
392.759	93.69
392.984	96.69
393.208	110.69
393.433	135.69
393.658	109.69
393.882	94.69
394.107	81.69
394.331	81.69
394.556	76.69
394.78	92.69
395.005	90.69
395.229	86.69
395.454	87.69
395.678	99.69
395.903	85.69
396.127	90.69
396.352	94.69
396.576	90.69
396.801	80.69
397.025	94.69
397.249	72.69
397.474	83.69
397.698	87.69
397.922	85.69
398.147	64.69
398.371	72.69
398.595	89.69
398.82	86.69
399.044	85.69
399.268	83.69
399.492	93.69
399.717	92.69
399.941	87.69
400.165	74.69
400.389	85.69
400.613	77.69
400.837	85.69
401.062	100.69
401.286	88.69
401.51	70.69
401.734	88.69
401.958	95.69
402.182	116.69
402.406	140.69
402.63	104.69
402.854	79.69
403.078	93.69
403.302	75.69
403.526	76.69
403.75	95.69
403.974	86.69
404.198	81.69
404.422	87.69
404.645	82.69
404.869	77.69
405.093	93.69
405.317	107.69
405.541	82.69
405.765	96.69
405.988	110.69
406.212	145.69
406.436	192.69
406.66	143.69
406.883	85.69
407.107	93.69
407.331	97.69
407.555	95.69
407.778	94.69
408.002	92.69
408.226	76.69
408.449	91.69
408.673	92.69
408.896	93.69
409.12	86.69
409.344	78.69
409.567	91.69
409.791	100.69
410.014	83.69
410.238	99.69
410.461	77.69
410.685	95.69
410.908	92.69
411.132	91.69
411.355	90.69
411.578	91.69
411.802	86.69
412.025	71.69
412.249	79.69
412.472	89.69
412.695	85.69
412.919	90.69
413.142	82.69
413.365	104.69
413.589	77.69
413.812	89.69
414.035	93.69
414.258	95.69
414.482	89.69
414.705	104.69
414.928	91.69
415.151	102.69
415.374	101.69
415.597	89.69
415.821	86.69
416.044	87.69
416.267	92.69
416.49	93.69
416.713	90.69
416.936	83.69
417.159	93.69
417.382	84.69
417.605	89.69
417.828	92.69
418.051	86.69
418.274	93.69
418.497	84.69
418.72	74.69
418.943	87.69
419.166	92.69
419.389	85.69
419.611	83.69
419.834	88.69
420.057	78.69
420.28	92.69
420.503	95.69
420.726	75.69
420.948	78.69
421.171	73.69
421.394	86.69
421.617	92.69
421.839	86.69
422.062	99.69
422.285	87.69
422.507	107.69
422.73	96.69
422.953	98.69
423.175	90.69
423.398	81.69
423.621	91.69
423.843	92.69
424.066	89.69
424.288	82.69
424.511	90.69
424.733	91.69
424.956	101.69
425.178	97.69
425.401	98.69
425.623	88.69
425.846	98.69
426.068	76.69
426.291	86.69
426.513	88.69
426.735	85.69
426.958	91.69
427.18	87.69
427.402	141.69
427.625	143.69
427.847	107.69
428.069	110.69
428.292	85.69
428.514	93.69
428.736	87.69
428.958	83.69
429.181	91.69
429.403	80.69
429.625	81.69
429.847	92.69
430.069	95.69
430.292	91.69
430.514	87.69
430.736	92.69
430.958	88.69
431.18	77.69
431.402	71.69
431.624	71.69
431.846	84.69
432.068	84.69
432.29	87.69
432.512	87.69
432.734	78.69
432.956	109.69
433.178	101.69
433.4	76.69
433.622	91.69
433.844	87.69
434.066	87.69
434.287	98.69
434.509	71.69
434.731	75.69
434.953	95.69
435.175	74.69
435.397	94.69
435.618	97.69
435.84	93.69
436.062	127.69
436.284	101.69
436.505	101.69
436.727	102.69
436.949	93.69
437.17	85.69
437.392	77.69
437.614	80.69
437.835	98.69
438.057	114.69
438.278	87.69
438.5	95.69
438.721	117.69
438.943	96.69
439.165	76.69
439.386	83.69
439.608	97.69
439.829	99.69
440.05	106.69
440.272	122.69
440.493	93.69
440.715	82.69
440.936	76.69
441.158	76.69
441.379	84.69
441.6	99.69
441.822	77.69
442.043	71.69
442.264	100.69
442.486	92.69
442.707	89.69
442.928	95.69
443.149	107.69
443.371	123.69
443.592	107.69
443.813	112.69
444.034	107.69
444.255	92.69
444.476	88.69
444.698	85.69
444.919	83.69
445.14	123.69
445.361	132.69
445.582	104.69
445.803	110.69
446.024	129.69
446.245	127.69
446.466	108.69
446.687	62.69
446.908	89.69
447.129	67.69
447.35	92.69
447.571	92.69
447.792	72.69
448.013	89.69
448.234	92.69
448.455	100.69
448.675	94.69
448.896	107.69
449.117	92.69
449.338	88.69
449.559	117.69
449.779	133.69
450	97.69
450.221	85.69
450.442	90.69
450.662	86.69
450.883	97.69
451.104	109.69
451.324	90.69
451.545	85.69
451.766	74.69
451.986	92.69
452.207	83.69
452.428	77.69
452.648	91.69
452.869	96.69
453.089	94.69
453.31	111.69
453.53	89.69
453.751	80.69
453.971	98.69
454.192	108.69
454.412	78.69
454.633	75.69
454.853	90.69
455.073	88.69
455.294	85.69
455.514	94.69
455.734	97.69
455.955	86.69
456.175	84.69
456.395	86.69
456.616	71.69
456.836	92.69
457.056	79.69
457.276	79.69
457.497	94.69
457.717	85.69
457.937	88.69
458.157	72.69
458.377	94.69
458.598	96.69
458.818	117.69
459.038	144.69
459.258	88.69
459.478	94.69
459.698	80.69
459.918	84.69
460.138	89.69
460.358	86.69
460.578	76.69
460.798	87.69
461.018	95.69
461.238	84.69
461.458	95.69
461.678	84.69
461.898	84.69
462.118	81.69
462.338	87.69
462.558	71.69
462.777	71.69
462.997	83.69
463.217	88.69
463.437	77.69
463.657	93.69
463.876	94.69
464.096	89.69
464.316	96.69
464.536	106.69
464.755	95.69
464.975	96.69
465.195	149.69
465.414	138.69
465.634	103.69
465.854	85.69
466.073	88.69
466.293	92.69
466.512	83.69
466.732	77.69
466.951	89.69
467.171	84.69
467.391	101.69
467.61	95.69
467.829	89.69
468.049	87.69
468.268	81.69
468.488	92.69
468.707	82.69
468.927	93.69
469.146	86.69
469.365	83.69
469.585	93.69
469.804	84.69
470.023	78.69
470.243	101.69
470.462	90.69
470.681	102.69
470.901	82.69
471.12	94.69
471.339	77.69
471.558	88.69
471.777	80.69
471.997	74.69
472.216	81.69
472.435	104.69
472.654	89.69
472.873	80.69
473.092	81.69
473.311	84.69
473.53	75.69
473.749	85.69
473.968	91.69
474.187	96.69
474.406	89.69
474.625	95.69
474.844	88.69
475.063	74.69
475.282	78.69
475.501	88.69
475.72	77.69
475.939	81.69
476.158	82.69
476.377	86.69
476.596	87.69
476.814	85.69
477.033	99.69
477.252	79.69
477.471	72.69
477.69	101.69
477.908	76.69
478.127	84.69
478.346	89.69
478.564	96.69
478.783	92.69
479.002	81.69
479.22	84.69
479.439	86.69
479.658	99.69
479.876	91.69
480.095	77.69
480.313	89.69
480.532	89.69
480.751	76.69
480.969	93.69
481.188	110.69
481.406	93.69
481.624	96.69
481.843	95.69
482.061	77.69
482.28	88.69
482.498	80.69
482.717	86.69
482.935	88.69
483.153	81.69
483.372	77.69
483.59	77.69
483.808	87.69
484.027	103.69
484.245	93.69
484.463	86.69
484.681	80.69
484.9	90.69
485.118	79.69
485.336	100.69
485.554	87.69
485.772	100.69
485.99	100.69
486.209	99.69
486.427	113.69
486.645	115.69
486.863	103.69
487.081	107.69
487.299	99.69
487.517	98.69
487.735	81.69
487.953	73.69
488.171	89.69
488.389	94.69
488.607	95.69
488.825	99.69
489.043	89.69
489.261	93.69
489.479	92.69
489.696	82.69
489.914	82.69
490.132	82.69
490.35	93.69
490.568	92.69
490.786	74.69
491.003	77.69
491.221	84.69
491.439	83.69
491.657	101.69
491.874	95.69
492.092	94.69
492.31	72.69
492.527	87.69
492.745	88.69
492.963	88.69
493.18	78.69
493.398	92.69
493.615	92.69
493.833	87.69
494.05	88.69
494.268	92.69
494.485	92.69
494.703	93.69
494.92	96.69
495.138	87.69
495.355	87.69
495.573	92.69
495.79	93.69
496.008	84.69
496.225	79.69
496.442	88.69
496.66	74.69
496.877	79.69
497.094	92.69
497.312	88.69
497.529	95.69
497.746	76.69
497.963	92.69
498.181	87.69
498.398	93.69
498.615	95.69
498.832	97.69
499.049	92.69
499.267	89.69
499.484	95.69
499.701	96.69
499.918	82.69
500.135	98.69
500.352	88.69
500.569	76.69
500.786	83.69
501.003	84.69
501.22	88.69
501.437	92.69
501.654	94.69
501.871	105.69
502.088	85.69
502.305	80.69
502.522	84.69
502.739	88.69
502.956	84.69
503.172	98.69
503.389	84.69
503.606	92.69
503.823	95.69
504.04	87.69
504.256	92.69
504.473	87.69
504.69	79.69
504.907	88.69
505.123	97.69
505.34	88.69
505.557	104.69
505.773	82.69
505.99	69.69
506.207	94.69
506.423	107.69
506.64	81.69
506.856	69.69
507.073	88.69
507.289	96.69
507.506	96.69
507.722	107.69
507.939	99.69
508.155	79.69
508.372	73.69
508.588	88.69
508.805	94.69
509.021	116.69
509.238	93.69
509.454	95.69
509.67	100.69
509.887	97.69
510.103	123.69
510.319	191.69
510.536	648.69
510.752	1928.69
510.968	558.69
511.184	143.69
511.401	95.69
511.617	96.69
511.833	87.69
512.049	79.69
512.265	89.69
512.481	104.69
512.698	85.69
512.914	88.69
513.13	109.69
513.346	93.69
513.562	89.69
513.778	98.69
513.994	100.69
514.21	94.69
514.426	111.69
514.642	132.69
514.858	115.69
515.074	160.69
515.29	391.69
515.506	1269.69
515.721	469.69
515.937	126.69
516.153	101.69
516.369	84.69
516.585	108.69
516.801	102.69
517.016	85.69
