Data from Uncirc_2002_H10_HRD10591_00083.txt Node
Date: Wed Jan 03 10:39:57 EST 2024
User: Yrep
Spectrometer: HR+D1059
Trigger mode: 1
Integration Time (sec): 1.000000E-1
Scans to average: 1
Electric dark correction enabled: true
Nonlinearity correction enabled: false
Boxcar width: 0
XAxis mode: Wavelengths
Number of Pixels in Spectrum: 2048
>>>>>Begin Spectral Data<<<<<
223.165	-7.25
223.4	-7.25
223.635	-7.25
223.869	-17.25
224.104	-30.25
224.338	-18.25
224.573	-3.25
224.808	-25.25
225.042	-9.25
225.277	3.75
225.511	-7.25
225.746	1.75
225.98	7.75
226.215	12.75
226.449	9.75
226.683	26.75
226.918	25.75
227.152	29.75
227.387	35.75
227.621	46.75
227.856	36.75
228.09	64.75
228.324	63.75
228.559	61.75
228.793	42.75
229.027	54.75
229.262	66.75
229.496	67.75
229.73	75.75
229.964	70.75
230.199	85.75
230.433	95.75
230.667	85.75
230.901	87.75
231.136	75.75
231.37	75.75
231.604	87.75
231.838	72.75
232.072	88.75
232.306	72.75
232.541	87.75
232.775	78.75
233.009	82.75
233.243	74.75
233.477	88.75
233.711	86.75
233.945	82.75
234.179	71.75
234.413	77.75
234.647	78.75
234.881	75.75
235.115	77.75
235.349	96.75
235.583	78.75
235.817	81.75
236.051	74.75
236.285	71.75
236.519	81.75
236.753	73.75
236.987	75.75
237.221	83.75
237.455	80.75
237.689	92.75
237.922	71.75
238.156	78.75
238.39	82.75
238.624	77.75
238.858	71.75
239.091	67.75
239.325	75.75
239.559	77.75
239.793	66.75
240.027	73.75
240.26	73.75
240.494	65.75
240.728	71.75
240.961	74.75
241.195	77.75
241.429	88.75
241.662	71.75
241.896	87.75
242.13	72.75
242.363	75.75
242.597	76.75
242.83	77.75
243.064	85.75
243.298	95.75
243.531	81.75
243.765	83.75
243.998	71.75
244.232	86.75
244.465	88.75
244.699	74.75
244.932	76.75
245.166	76.75
245.399	75.75
245.633	59.75
245.866	73.75
246.099	83.75
246.333	79.75
246.566	64.75
246.8	80.75
247.033	70.75
247.266	83.75
247.5	72.75
247.733	91.75
247.966	74.75
248.2	86.75
248.433	79.75
248.666	73.75
248.899	75.75
249.133	78.75
249.366	85.75
249.599	97.75
249.832	75.75
250.066	87.75
250.299	69.75
250.532	80.75
250.765	83.75
250.998	88.75
251.231	84.75
251.465	84.75
251.698	83.75
251.931	85.75
252.164	84.75
252.397	74.75
252.63	83.75
252.863	63.75
253.096	89.75
253.329	92.75
253.562	66.75
253.795	74.75
254.028	84.75
254.261	68.75
254.494	90.75
254.727	86.75
254.96	81.75
255.193	77.75
255.426	88.75
255.659	82.75
255.892	85.75
256.124	76.75
256.357	82.75
256.59	88.75
256.823	75.75
257.056	77.75
257.289	74.75
257.521	89.75
257.754	76.75
257.987	91.75
258.22	88.75
258.452	73.75
258.685	75.75
258.918	73.75
259.151	77.75
259.383	80.75
259.616	91.75
259.849	65.75
260.081	90.75
260.314	79.75
260.547	79.75
260.779	91.75
261.012	93.75
261.244	95.75
261.477	95.75
261.71	90.75
261.942	109.75
262.175	104.75
262.407	93.75
262.64	87.75
262.872	69.75
263.105	87.75
263.337	75.75
263.57	72.75
263.802	78.75
264.035	84.75
264.267	70.75
264.499	86.75
264.732	80.75
264.964	75.75
265.197	77.75
265.429	96.75
265.661	89.75
265.894	81.75
266.126	90.75
266.358	75.75
266.591	81.75
266.823	88.75
267.055	83.75
267.287	83.75
267.52	95.75
267.752	80.75
267.984	90.75
268.216	84.75
268.448	60.75
268.681	96.75
268.913	78.75
269.145	85.75
269.377	85.75
269.609	81.75
269.841	76.75
270.073	90.75
270.306	71.75
270.538	84.75
270.77	86.75
271.002	79.75
271.234	84.75
271.466	89.75
271.698	72.75
271.93	84.75
272.162	92.75
272.394	83.75
272.626	77.75
272.858	83.75
273.09	76.75
273.322	82.75
273.553	87.75
273.785	81.75
274.017	91.75
274.249	83.75
274.481	84.75
274.713	79.75
274.945	83.75
275.176	87.75
275.408	76.75
275.64	85.75
275.872	82.75
276.104	87.75
276.335	83.75
276.567	88.75
276.799	106.75
277.031	94.75
277.262	89.75
277.494	101.75
277.726	92.75
277.957	87.75
278.189	90.75
278.421	95.75
278.652	75.75
278.884	68.75
279.115	86.75
279.347	71.75
279.579	82.75
279.81	84.75
280.042	85.75
280.273	81.75
280.505	99.75
280.736	106.75
280.968	93.75
281.199	81.75
281.431	90.75
281.662	80.75
281.894	85.75
282.125	90.75
282.356	119.75
282.588	123.75
282.819	116.75
283.051	95.75
283.282	81.75
283.513	100.75
283.745	79.75
283.976	78.75
284.207	84.75
284.439	95.75
284.67	86.75
284.901	93.75
285.132	84.75
285.364	85.75
285.595	90.75
285.826	88.75
286.057	84.75
286.288	84.75
286.52	87.75
286.751	80.75
286.982	83.75
287.213	73.75
287.444	85.75
287.675	87.75
287.906	88.75
288.138	90.75
288.369	79.75
288.6	84.75
288.831	98.75
289.062	88.75
289.293	89.75
289.524	87.75
289.755	85.75
289.986	87.75
290.217	87.75
290.448	80.75
290.679	83.75
290.91	98.75
291.141	78.75
291.371	91.75
291.602	90.75
291.833	82.75
292.064	87.75
292.295	83.75
292.526	92.75
292.757	97.75
292.987	77.75
293.218	79.75
293.449	89.75
293.68	88.75
293.91	85.75
294.141	88.75
294.372	74.75
294.603	84.75
294.833	86.75
295.064	100.75
295.295	91.75
295.525	89.75
295.756	87.75
295.987	106.75
296.217	135.75
296.448	115.75
296.679	89.75
296.909	96.75
297.14	85.75
297.37	93.75
297.601	114.75
297.831	96.75
298.062	96.75
298.292	74.75
298.523	85.75
298.753	95.75
298.984	99.75
299.214	96.75
299.445	92.75
299.675	87.75
299.905	110.75
300.136	84.75
300.366	96.75
300.597	96.75
300.827	87.75
301.057	97.75
301.288	97.75
301.518	91.75
301.748	67.75
301.979	95.75
302.209	80.75
302.439	73.75
302.669	97.75
302.9	92.75
303.13	88.75
303.36	100.75
303.59	83.75
303.82	100.75
304.051	98.75
304.281	88.75
304.511	98.75
304.741	85.75
304.971	102.75
305.201	100.75
305.431	93.75
305.661	84.75
305.891	84.75
306.121	93.75
306.352	105.75
306.582	98.75
306.812	88.75
307.042	92.75
307.272	92.75
307.502	88.75
307.731	96.75
307.961	74.75
308.191	93.75
308.421	95.75
308.651	97.75
308.881	94.75
309.111	90.75
309.341	77.75
309.571	98.75
309.8	84.75
310.03	91.75
310.26	91.75
310.49	90.75
310.72	99.75
310.949	101.75
311.179	96.75
311.409	95.75
311.639	81.75
311.868	94.75
312.098	98.75
312.328	89.75
312.557	91.75
312.787	105.75
313.017	96.75
313.246	101.75
313.476	103.75
313.706	94.75
313.935	87.75
314.165	89.75
314.394	101.75
314.624	97.75
314.853	100.75
315.083	99.75
315.312	84.75
315.542	79.75
315.771	99.75
316.001	88.75
316.23	101.75
316.46	91.75
316.689	93.75
316.919	101.75
317.148	99.75
317.377	99.75
317.607	87.75
317.836	96.75
318.065	81.75
318.295	89.75
318.524	98.75
318.753	88.75
318.983	91.75
319.212	90.75
319.441	99.75
319.67	99.75
319.9	95.75
320.129	103.75
320.358	104.75
320.587	104.75
320.816	111.75
321.046	97.75
321.275	99.75
321.504	91.75
321.733	97.75
321.962	86.75
322.191	94.75
322.42	90.75
322.649	119.75
322.878	104.75
323.108	117.75
323.337	127.75
323.566	123.75
323.795	135.75
324.024	189.75
324.253	364.75
324.482	700.75
324.71	1468.75
324.939	1869.75
325.168	721.75
325.397	239.75
325.626	147.75
325.855	129.75
326.084	111.75
326.313	120.75
326.542	143.75
326.77	197.75
326.999	407.75
327.228	829.75
327.457	1475.75
327.686	1196.75
327.914	343.75
328.143	195.75
328.372	142.75
328.6	99.75
328.829	125.75
329.058	119.75
329.287	106.75
329.515	108.75
329.744	95.75
329.972	91.75
330.201	102.75
330.43	107.75
330.658	111.75
330.887	141.75
331.115	134.75
331.344	99.75
331.572	93.75
331.801	82.75
332.03	92.75
332.258	92.75
332.486	99.75
332.715	94.75
332.943	94.75
333.172	86.75
333.4	101.75
333.629	109.75
333.857	108.75
334.085	109.75
334.314	105.75
334.542	104.75
334.771	96.75
334.999	100.75
335.227	89.75
335.455	97.75
335.684	92.75
335.912	94.75
336.14	97.75
336.369	79.75
336.597	96.75
336.825	97.75
337.053	96.75
337.281	96.75
337.51	84.75
337.738	90.75
337.966	86.75
338.194	103.75
338.422	86.75
338.65	78.75
338.878	106.75
339.106	89.75
339.334	95.75
339.562	97.75
339.79	103.75
340.018	86.75
340.246	92.75
340.474	96.75
340.702	99.75
340.93	86.75
341.158	105.75
341.386	88.75
341.614	90.75
341.842	97.75
342.07	96.75
342.298	102.75
342.526	83.75
342.754	88.75
342.981	78.75
343.209	85.75
343.437	110.75
343.665	96.75
343.893	89.75
344.12	111.75
344.348	96.75
344.576	87.75
344.804	78.75
345.031	92.75
345.259	93.75
345.487	98.75
345.714	82.75
345.942	95.75
346.17	98.75
346.397	97.75
346.625	97.75
346.853	100.75
347.08	84.75
347.308	93.75
347.535	97.75
347.763	77.75
347.99	95.75
348.218	102.75
348.445	98.75
348.673	99.75
348.9	103.75
349.128	95.75
349.355	97.75
349.583	104.75
349.81	91.75
350.037	101.75
350.265	88.75
350.492	99.75
350.72	108.75
350.947	111.75
351.174	96.75
351.402	108.75
351.629	95.75
351.856	103.75
352.083	104.75
352.311	101.75
352.538	105.75
352.765	97.75
352.992	116.75
353.22	99.75
353.447	107.75
353.674	104.75
353.901	100.75
354.128	98.75
354.355	102.75
354.583	87.75
354.81	91.75
355.037	89.75
355.264	104.75
355.491	103.75
355.718	92.75
355.945	102.75
356.172	97.75
356.399	90.75
356.626	86.75
356.853	102.75
357.08	102.75
357.307	88.75
357.534	83.75
357.761	89.75
357.988	102.75
358.215	103.75
358.441	90.75
358.668	99.75
358.895	85.75
359.122	90.75
359.349	95.75
359.576	77.75
359.802	91.75
360.029	116.75
360.256	111.75
360.483	99.75
360.709	101.75
360.936	101.75
361.163	91.75
361.39	88.75
361.616	100.75
361.843	94.75
362.07	93.75
362.296	82.75
362.523	98.75
362.749	85.75
362.976	73.75
363.203	86.75
363.429	88.75
363.656	90.75
363.882	81.75
364.109	93.75
364.335	99.75
364.562	98.75
364.788	103.75
365.015	97.75
365.241	95.75
365.468	103.75
365.694	111.75
365.92	101.75
366.147	92.75
366.373	90.75
366.599	90.75
366.826	94.75
367.052	85.75
367.278	92.75
367.505	83.75
367.731	93.75
367.957	83.75
368.184	89.75
368.41	91.75
368.636	98.75
368.862	118.75
369.089	91.75
369.315	107.75
369.541	95.75
369.767	100.75
369.993	83.75
370.219	93.75
370.445	86.75
370.672	84.75
370.898	82.75
371.124	102.75
371.35	94.75
371.576	88.75
371.802	85.75
372.028	64.75
372.254	83.75
372.48	106.75
372.706	87.75
372.932	94.75
373.158	92.75
373.384	96.75
373.61	90.75
373.835	87.75
374.061	88.75
374.287	88.75
374.513	95.75
374.739	93.75
374.965	101.75
375.191	98.75
375.416	92.75
375.642	89.75
375.868	96.75
376.094	92.75
376.319	105.75
376.545	89.75
376.771	76.75
376.997	111.75
377.222	87.75
377.448	91.75
377.674	93.75
377.899	96.75
378.125	89.75
378.35	97.75
378.576	97.75
378.802	102.75
379.027	96.75
379.253	98.75
379.478	83.75
379.704	87.75
379.929	90.75
380.155	96.75
380.38	87.75
380.606	102.75
380.831	84.75
381.057	95.75
381.282	87.75
381.507	85.75
381.733	89.75
381.958	95.75
382.184	96.75
382.409	89.75
382.634	94.75
382.86	91.75
383.085	88.75
383.31	87.75
383.535	113.75
383.761	97.75
383.986	85.75
384.211	96.75
384.436	87.75
384.662	95.75
384.887	103.75
385.112	104.75
385.337	91.75
385.562	111.75
385.787	104.75
386.013	98.75
386.238	102.75
386.463	97.75
386.688	103.75
386.913	101.75
387.138	104.75
387.363	101.75
387.588	91.75
387.813	90.75
388.038	107.75
388.263	111.75
388.488	91.75
388.713	93.75
388.938	92.75
389.163	97.75
389.387	105.75
389.612	82.75
389.837	79.75
390.062	92.75
390.287	87.75
390.512	102.75
390.736	97.75
390.961	97.75
391.186	88.75
391.411	83.75
391.636	97.75
391.86	95.75
392.085	71.75
392.31	71.75
392.534	97.75
392.759	79.75
392.984	89.75
393.208	90.75
393.433	97.75
393.658	94.75
393.882	89.75
394.107	85.75
394.331	79.75
394.556	82.75
394.78	98.75
395.005	91.75
395.229	84.75
395.454	89.75
395.678	85.75
395.903	81.75
396.127	79.75
396.352	104.75
396.576	85.75
396.801	84.75
397.025	87.75
397.249	88.75
397.474	89.75
397.698	94.75
397.922	100.75
398.147	86.75
398.371	87.75
398.595	93.75
398.82	87.75
399.044	89.75
399.268	87.75
399.492	80.75
399.717	91.75
399.941	102.75
400.165	91.75
400.389	86.75
400.613	100.75
400.837	89.75
401.062	91.75
401.286	77.75
401.51	104.75
401.734	94.75
401.958	105.75
402.182	119.75
402.406	148.75
402.63	119.75
402.854	93.75
403.078	88.75
403.302	86.75
403.526	87.75
403.75	80.75
403.974	89.75
404.198	83.75
404.422	85.75
404.645	82.75
404.869	102.75
405.093	104.75
405.317	95.75
405.541	98.75
405.765	83.75
405.988	122.75
406.212	171.75
406.436	187.75
406.66	143.75
406.883	98.75
407.107	98.75
407.331	96.75
407.555	90.75
407.778	93.75
408.002	121.75
408.226	90.75
408.449	91.75
408.673	85.75
408.896	85.75
409.12	106.75
409.344	85.75
409.567	97.75
409.791	92.75
410.014	96.75
410.238	89.75
410.461	84.75
410.685	82.75
410.908	105.75
411.132	101.75
411.355	99.75
411.578	94.75
411.802	91.75
412.025	84.75
412.249	90.75
412.472	91.75
412.695	75.75
412.919	82.75
413.142	88.75
413.365	82.75
413.589	91.75
413.812	82.75
414.035	92.75
414.258	85.75
414.482	85.75
414.705	87.75
414.928	90.75
415.151	98.75
415.374	91.75
415.597	88.75
415.821	99.75
416.044	82.75
416.267	101.75
416.49	76.75
416.713	76.75
416.936	89.75
417.159	103.75
417.382	92.75
417.605	77.75
417.828	93.75
418.051	82.75
418.274	98.75
418.497	84.75
418.72	97.75
418.943	95.75
419.166	90.75
419.389	87.75
419.611	82.75
419.834	87.75
420.057	84.75
420.28	89.75
420.503	88.75
420.726	91.75
420.948	87.75
421.171	86.75
421.394	91.75
421.617	91.75
421.839	83.75
422.062	87.75
422.285	75.75
422.507	89.75
422.73	85.75
422.953	83.75
423.175	77.75
423.398	93.75
423.621	96.75
423.843	103.75
424.066	98.75
424.288	83.75
424.511	102.75
424.733	103.75
424.956	94.75
425.178	96.75
425.401	77.75
425.623	97.75
425.846	99.75
426.068	96.75
426.291	83.75
426.513	105.75
426.735	100.75
426.958	98.75
427.18	103.75
427.402	130.75
427.625	157.75
427.847	119.75
428.069	113.75
428.292	93.75
428.514	105.75
428.736	90.75
428.958	97.75
429.181	84.75
429.403	84.75
429.625	81.75
429.847	77.75
430.069	87.75
430.292	83.75
430.514	77.75
430.736	81.75
430.958	83.75
431.18	88.75
431.402	93.75
431.624	87.75
431.846	87.75
432.068	87.75
432.29	72.75
432.512	76.75
432.734	83.75
432.956	100.75
433.178	109.75
433.4	96.75
433.622	73.75
433.844	99.75
434.066	105.75
434.287	102.75
434.509	81.75
434.731	94.75
434.953	81.75
435.175	91.75
435.397	89.75
435.618	83.75
435.84	92.75
436.062	117.75
436.284	107.75
436.505	99.75
436.727	108.75
436.949	99.75
437.17	91.75
437.392	91.75
437.614	93.75
437.835	100.75
438.057	102.75
438.278	93.75
438.5	83.75
438.721	104.75
438.943	97.75
439.165	95.75
439.386	88.75
439.608	90.75
439.829	95.75
440.05	117.75
440.272	134.75
440.493	79.75
440.715	89.75
440.936	82.75
441.158	92.75
441.379	84.75
441.6	97.75
441.822	89.75
442.043	98.75
442.264	99.75
442.486	93.75
442.707	96.75
442.928	104.75
443.149	116.75
443.371	112.75
443.592	109.75
443.813	104.75
444.034	105.75
444.255	89.75
444.476	98.75
444.698	72.75
444.919	83.75
445.14	150.75
445.361	116.75
445.582	119.75
445.803	133.75
446.024	110.75
446.245	115.75
446.466	108.75
446.687	91.75
446.908	106.75
447.129	91.75
447.35	97.75
447.571	86.75
447.792	93.75
448.013	111.75
448.234	112.75
448.455	101.75
448.675	115.75
448.896	94.75
449.117	89.75
449.338	95.75
449.559	122.75
449.779	129.75
450	98.75
450.221	81.75
450.442	93.75
450.662	104.75
450.883	106.75
451.104	102.75
451.324	92.75
451.545	99.75
451.766	88.75
451.986	97.75
452.207	89.75
452.428	96.75
452.648	102.75
452.869	106.75
453.089	99.75
453.31	98.75
453.53	97.75
453.751	95.75
453.971	101.75
454.192	124.75
454.412	100.75
454.633	94.75
454.853	93.75
455.073	90.75
455.294	84.75
455.514	98.75
455.734	96.75
455.955	91.75
456.175	87.75
456.395	87.75
456.616	77.75
456.836	93.75
457.056	86.75
457.276	88.75
457.497	93.75
457.717	98.75
457.937	82.75
458.157	65.75
458.377	89.75
458.598	94.75
458.818	147.75
459.038	147.75
459.258	113.75
459.478	100.75
459.698	89.75
459.918	93.75
460.138	84.75
460.358	92.75
460.578	88.75
460.798	88.75
461.018	101.75
461.238	84.75
461.458	87.75
461.678	85.75
461.898	83.75
462.118	94.75
462.338	95.75
462.558	81.75
462.777	94.75
462.997	95.75
463.217	74.75
463.437	92.75
463.657	85.75
463.876	84.75
464.096	88.75
464.316	89.75
464.536	96.75
464.755	89.75
464.975	92.75
465.195	158.75
465.414	151.75
465.634	106.75
465.854	86.75
466.073	74.75
466.293	96.75
466.512	80.75
466.732	77.75
466.951	95.75
467.171	93.75
467.391	106.75
467.61	100.75
467.829	88.75
468.049	100.75
468.268	93.75
468.488	94.75
468.707	79.75
468.927	85.75
469.146	89.75
469.365	78.75
469.585	83.75
469.804	87.75
470.023	97.75
470.243	85.75
470.462	89.75
470.681	123.75
470.901	97.75
471.12	90.75
471.339	81.75
471.558	92.75
471.777	91.75
471.997	106.75
472.216	96.75
472.435	95.75
472.654	91.75
472.873	93.75
473.092	97.75
473.311	99.75
473.53	91.75
473.749	94.75
473.968	98.75
474.187	91.75
474.406	85.75
474.625	90.75
474.844	78.75
475.063	89.75
475.282	82.75
475.501	85.75
475.72	72.75
475.939	85.75
476.158	87.75
476.377	79.75
476.596	96.75
476.814	89.75
477.033	95.75
477.252	93.75
477.471	81.75
477.69	78.75
477.908	85.75
478.127	76.75
478.346	89.75
478.564	96.75
478.783	92.75
479.002	87.75
479.22	92.75
479.439	82.75
479.658	100.75
479.876	86.75
480.095	96.75
480.313	90.75
480.532	85.75
480.751	89.75
480.969	113.75
481.188	99.75
481.406	103.75
481.624	92.75
481.843	68.75
482.061	90.75
482.28	87.75
482.498	95.75
482.717	98.75
482.935	89.75
483.153	83.75
483.372	90.75
483.59	92.75
483.808	82.75
484.027	73.75
484.245	81.75
484.463	83.75
484.681	104.75
484.9	90.75
485.118	86.75
485.336	106.75
485.554	99.75
485.772	92.75
485.99	93.75
486.209	104.75
486.427	104.75
486.645	103.75
486.863	104.75
487.081	105.75
487.299	92.75
487.517	87.75
487.735	100.75
487.953	87.75
488.171	105.75
488.389	85.75
488.607	101.75
488.825	100.75
489.043	98.75
489.261	99.75
489.479	81.75
489.696	98.75
489.914	71.75
490.132	97.75
490.35	90.75
490.568	73.75
490.786	99.75
491.003	84.75
491.221	90.75
491.439	82.75
491.657	89.75
491.874	90.75
492.092	78.75
492.31	83.75
492.527	87.75
492.745	85.75
492.963	88.75
493.18	89.75
493.398	104.75
493.615	104.75
493.833	90.75
494.05	83.75
494.268	109.75
494.485	95.75
494.703	88.75
494.92	91.75
495.138	88.75
495.355	96.75
495.573	99.75
495.79	92.75
496.008	103.75
496.225	95.75
496.442	84.75
496.66	92.75
496.877	102.75
497.094	96.75
497.312	97.75
497.529	86.75
497.746	83.75
497.963	82.75
498.181	76.75
498.398	94.75
498.615	103.75
498.832	113.75
499.049	105.75
499.267	95.75
499.484	87.75
499.701	96.75
499.918	76.75
500.135	89.75
500.352	101.75
500.569	86.75
500.786	90.75
501.003	91.75
501.22	79.75
501.437	88.75
501.654	97.75
501.871	111.75
502.088	80.75
502.305	97.75
502.522	92.75
502.739	88.75
502.956	76.75
503.172	83.75
503.389	88.75
503.606	94.75
503.823	91.75
504.04	83.75
504.256	80.75
504.473	85.75
504.69	86.75
504.907	91.75
505.123	98.75
505.34	82.75
505.557	72.75
505.773	83.75
505.99	91.75
506.207	92.75
506.423	100.75
506.64	102.75
506.856	92.75
507.073	97.75
507.289	112.75
507.506	100.75
507.722	117.75
507.939	88.75
508.155	96.75
508.372	99.75
508.588	93.75
508.805	85.75
509.021	93.75
509.238	99.75
509.454	97.75
509.67	100.75
509.887	95.75
510.103	130.75
510.319	216.75
510.536	719.75
510.752	2261.75
510.968	639.75
511.184	151.75
511.401	113.75
511.617	95.75
511.833	88.75
512.049	92.75
512.265	88.75
512.481	92.75
512.698	91.75
512.914	87.75
513.13	82.75
513.346	84.75
513.562	112.75
513.778	110.75
513.994	81.75
514.21	96.75
514.426	104.75
514.642	132.75
514.858	126.75
515.074	164.75
515.29	445.75
515.506	1402.75
515.721	519.75
515.937	159.75
516.153	112.75
516.369	96.75
