Data from Uncirc_2002_H10_HRD10591_00027.txt Node
Date: Wed Jan 03 10:39:46 EST 2024
User: Yrep
Spectrometer: HR+D1059
Trigger mode: 1
Integration Time (sec): 1.000000E-1
Scans to average: 1
Electric dark correction enabled: true
Nonlinearity correction enabled: false
Boxcar width: 0
XAxis mode: Wavelengths
Number of Pixels in Spectrum: 2048
>>>>>Begin Spectral Data<<<<<
223.165	-10.88
223.4	-10.88
223.635	-10.88
223.869	-18.88
224.104	-29.88
224.338	-10.88
224.573	-2.88
224.808	-9.88
225.042	-14.88
225.277	-10.88
225.511	-6.88
225.746	12.12
225.98	9.12
226.215	12.12
226.449	6.12
226.683	23.12
226.918	26.12
227.152	27.12
227.387	37.12
227.621	37.12
227.856	50.12
228.09	44.12
228.324	27.12
228.559	54.12
228.793	61.12
229.027	65.12
229.262	75.12
229.496	70.12
229.73	91.12
229.964	98.12
230.199	85.12
230.433	69.12
230.667	71.12
230.901	79.12
231.136	78.12
231.37	90.12
231.604	70.12
231.838	87.12
232.072	94.12
232.306	74.12
232.541	85.12
232.775	73.12
233.009	93.12
233.243	78.12
233.477	81.12
233.711	91.12
233.945	85.12
234.179	92.12
234.413	86.12
234.647	73.12
234.881	73.12
235.115	88.12
235.349	97.12
235.583	83.12
235.817	85.12
236.051	102.12
236.285	80.12
236.519	89.12
236.753	86.12
236.987	85.12
237.221	92.12
237.455	86.12
237.689	89.12
237.922	93.12
238.156	80.12
238.39	70.12
238.624	79.12
238.858	79.12
239.091	81.12
239.325	87.12
239.559	85.12
239.793	79.12
240.027	78.12
240.26	73.12
240.494	74.12
240.728	88.12
240.961	91.12
241.195	83.12
241.429	79.12
241.662	83.12
241.896	73.12
242.13	81.12
242.363	79.12
242.597	81.12
242.83	74.12
243.064	68.12
243.298	77.12
243.531	86.12
243.765	87.12
243.998	88.12
244.232	71.12
244.465	90.12
244.699	84.12
244.932	85.12
245.166	86.12
245.399	87.12
245.633	100.12
245.866	80.12
246.099	82.12
246.333	93.12
246.566	91.12
246.8	78.12
247.033	81.12
247.266	81.12
247.5	79.12
247.733	99.12
247.966	86.12
248.2	77.12
248.433	75.12
248.666	82.12
248.899	84.12
249.133	85.12
249.366	109.12
249.599	92.12
249.832	83.12
250.066	85.12
250.299	73.12
250.532	93.12
250.765	69.12
250.998	90.12
251.231	86.12
251.465	74.12
251.698	82.12
251.931	90.12
252.164	85.12
252.397	84.12
252.63	87.12
252.863	72.12
253.096	85.12
253.329	83.12
253.562	84.12
253.795	75.12
254.028	93.12
254.261	86.12
254.494	88.12
254.727	82.12
254.96	86.12
255.193	96.12
255.426	77.12
255.659	82.12
255.892	94.12
256.124	77.12
256.357	93.12
256.59	81.12
256.823	70.12
257.056	78.12
257.289	73.12
257.521	87.12
257.754	85.12
257.987	94.12
258.22	74.12
258.452	86.12
258.685	71.12
258.918	74.12
259.151	83.12
259.383	100.12
259.616	90.12
259.849	66.12
260.081	69.12
260.314	89.12
260.547	77.12
260.779	90.12
261.012	76.12
261.244	84.12
261.477	107.12
261.71	97.12
261.942	104.12
262.175	118.12
262.407	102.12
262.64	81.12
262.872	85.12
263.105	75.12
263.337	83.12
263.57	86.12
263.802	80.12
264.035	91.12
264.267	86.12
264.499	74.12
264.732	83.12
264.964	89.12
265.197	76.12
265.429	85.12
265.661	99.12
265.894	83.12
266.126	84.12
266.358	80.12
266.591	90.12
266.823	83.12
267.055	95.12
267.287	88.12
267.52	87.12
267.752	81.12
267.984	86.12
268.216	78.12
268.448	91.12
268.681	95.12
268.913	103.12
269.145	87.12
269.377	93.12
269.609	91.12
269.841	81.12
270.073	86.12
270.306	85.12
270.538	89.12
270.77	88.12
271.002	89.12
271.234	87.12
271.466	89.12
271.698	73.12
271.93	101.12
272.162	100.12
272.394	83.12
272.626	87.12
272.858	82.12
273.09	96.12
273.322	96.12
273.553	86.12
273.785	98.12
274.017	73.12
274.249	90.12
274.481	93.12
274.713	81.12
274.945	83.12
275.176	83.12
275.408	86.12
275.64	86.12
275.872	99.12
276.104	93.12
276.335	81.12
276.567	95.12
276.799	102.12
277.031	94.12
277.262	92.12
277.494	108.12
277.726	100.12
277.957	94.12
278.189	88.12
278.421	76.12
278.652	81.12
278.884	82.12
279.115	86.12
279.347	101.12
279.579	92.12
279.81	85.12
280.042	84.12
280.273	85.12
280.505	91.12
280.736	101.12
280.968	79.12
281.199	93.12
281.431	79.12
281.662	83.12
281.894	85.12
282.125	96.12
282.356	111.12
282.588	147.12
282.819	112.12
283.051	103.12
283.282	83.12
283.513	97.12
283.745	91.12
283.976	91.12
284.207	91.12
284.439	91.12
284.67	93.12
284.901	82.12
285.132	92.12
285.364	88.12
285.595	103.12
285.826	97.12
286.057	82.12
286.288	92.12
286.52	86.12
286.751	89.12
286.982	86.12
287.213	86.12
287.444	103.12
287.675	100.12
287.906	97.12
288.138	75.12
288.369	105.12
288.6	94.12
288.831	86.12
289.062	93.12
289.293	97.12
289.524	103.12
289.755	103.12
289.986	92.12
290.217	95.12
290.448	90.12
290.679	85.12
290.91	90.12
291.141	87.12
291.371	83.12
291.602	90.12
291.833	78.12
292.064	94.12
292.295	91.12
292.526	89.12
292.757	94.12
292.987	94.12
293.218	90.12
293.449	85.12
293.68	87.12
293.91	96.12
294.141	108.12
294.372	106.12
294.603	82.12
294.833	86.12
295.064	86.12
295.295	87.12
295.525	87.12
295.756	107.12
295.987	115.12
296.217	151.12
296.448	108.12
296.679	106.12
296.909	91.12
297.14	89.12
297.37	100.12
297.601	83.12
297.831	90.12
298.062	94.12
298.292	100.12
298.523	99.12
298.753	85.12
298.984	83.12
299.214	84.12
299.445	100.12
299.675	94.12
299.905	110.12
300.136	92.12
300.366	83.12
300.597	77.12
300.827	92.12
301.057	100.12
301.288	120.12
301.518	93.12
301.748	77.12
301.979	107.12
302.209	77.12
302.439	95.12
302.669	109.12
302.9	103.12
303.13	94.12
303.36	91.12
303.59	90.12
303.82	96.12
304.051	98.12
304.281	84.12
304.511	91.12
304.741	94.12
304.971	85.12
305.201	93.12
305.431	82.12
305.661	92.12
305.891	86.12
306.121	85.12
306.352	105.12
306.582	118.12
306.812	79.12
307.042	94.12
307.272	95.12
307.502	86.12
307.731	89.12
307.961	95.12
308.191	96.12
308.421	91.12
308.651	88.12
308.881	76.12
309.111	91.12
309.341	90.12
309.571	92.12
309.8	103.12
310.03	94.12
310.26	99.12
310.49	94.12
310.72	97.12
310.949	105.12
311.179	112.12
311.409	85.12
311.639	85.12
311.868	105.12
312.098	92.12
312.328	102.12
312.557	106.12
312.787	95.12
313.017	99.12
313.246	113.12
313.476	93.12
313.706	88.12
313.935	95.12
314.165	88.12
314.394	94.12
314.624	101.12
314.853	102.12
315.083	100.12
315.312	75.12
315.542	98.12
315.771	93.12
316.001	96.12
316.23	95.12
316.46	87.12
316.689	86.12
316.919	82.12
317.148	100.12
317.377	102.12
317.607	94.12
317.836	99.12
318.065	99.12
318.295	98.12
318.524	95.12
318.753	100.12
318.983	84.12
319.212	93.12
319.441	93.12
319.67	105.12
319.9	97.12
320.129	88.12
320.358	99.12
320.587	101.12
320.816	89.12
321.046	98.12
321.275	89.12
321.504	81.12
321.733	103.12
321.962	105.12
322.191	111.12
322.42	111.12
322.649	116.12
322.878	104.12
323.108	112.12
323.337	111.12
323.566	133.12
323.795	149.12
324.024	191.12
324.253	392.12
324.482	755.12
324.71	1540.12
324.939	2021.12
325.168	764.12
325.397	242.12
325.626	139.12
325.855	122.12
326.084	117.12
326.313	137.12
326.542	147.12
326.77	221.12
326.999	438.12
327.228	849.12
327.457	1629.12
327.686	1299.12
327.914	340.12
328.143	194.12
328.372	132.12
328.6	113.12
328.829	111.12
329.058	125.12
329.287	124.12
329.515	122.12
329.744	103.12
329.972	92.12
330.201	101.12
330.43	114.12
330.658	118.12
330.887	125.12
331.115	119.12
331.344	110.12
331.572	102.12
331.801	95.12
332.03	97.12
332.258	92.12
332.486	76.12
332.715	94.12
332.943	110.12
333.172	98.12
333.4	102.12
333.629	120.12
333.857	116.12
334.085	114.12
334.314	95.12
334.542	108.12
334.771	91.12
334.999	97.12
335.227	109.12
335.455	97.12
335.684	93.12
335.912	99.12
336.14	94.12
336.369	100.12
336.597	99.12
336.825	89.12
337.053	96.12
337.281	89.12
337.51	95.12
337.738	107.12
337.966	102.12
338.194	113.12
338.422	93.12
338.65	85.12
338.878	88.12
339.106	87.12
339.334	95.12
339.562	89.12
339.79	105.12
340.018	92.12
340.246	107.12
340.474	97.12
340.702	100.12
340.93	93.12
341.158	97.12
341.386	99.12
341.614	95.12
341.842	100.12
342.07	93.12
342.298	95.12
342.526	94.12
342.754	83.12
342.981	92.12
343.209	94.12
343.437	94.12
343.665	86.12
343.893	85.12
344.12	90.12
344.348	76.12
344.576	101.12
344.804	93.12
345.031	78.12
345.259	97.12
345.487	95.12
345.714	102.12
345.942	97.12
346.17	92.12
346.397	104.12
346.625	94.12
346.853	87.12
347.08	92.12
347.308	98.12
347.535	89.12
347.763	107.12
347.99	92.12
348.218	102.12
348.445	114.12
348.673	98.12
348.9	104.12
349.128	105.12
349.355	96.12
349.583	101.12
349.81	107.12
350.037	86.12
350.265	101.12
350.492	107.12
350.72	101.12
350.947	120.12
351.174	99.12
351.402	117.12
351.629	106.12
351.856	98.12
352.083	115.12
352.311	95.12
352.538	92.12
352.765	107.12
352.992	123.12
353.22	110.12
353.447	101.12
353.674	118.12
353.901	99.12
354.128	98.12
354.355	96.12
354.583	102.12
354.81	104.12
355.037	103.12
355.264	85.12
355.491	89.12
355.718	99.12
355.945	104.12
356.172	105.12
356.399	102.12
356.626	94.12
356.853	106.12
357.08	113.12
357.307	107.12
357.534	90.12
357.761	79.12
357.988	82.12
358.215	87.12
358.441	86.12
358.668	80.12
358.895	94.12
359.122	88.12
359.349	108.12
359.576	101.12
359.802	109.12
360.029	109.12
360.256	119.12
360.483	101.12
360.709	93.12
360.936	99.12
361.163	90.12
361.39	95.12
361.616	97.12
361.843	102.12
362.07	89.12
362.296	106.12
362.523	93.12
362.749	81.12
362.976	84.12
363.203	102.12
363.429	91.12
363.656	80.12
363.882	107.12
364.109	101.12
364.335	104.12
364.562	107.12
364.788	94.12
365.015	105.12
365.241	111.12
365.468	117.12
365.694	102.12
365.92	113.12
366.147	97.12
366.373	108.12
366.599	102.12
366.826	90.12
367.052	78.12
367.278	88.12
367.505	78.12
367.731	100.12
367.957	97.12
368.184	100.12
368.41	98.12
368.636	110.12
368.862	132.12
369.089	96.12
369.315	95.12
369.541	100.12
369.767	101.12
369.993	100.12
370.219	95.12
370.445	86.12
370.672	85.12
370.898	87.12
371.124	76.12
371.35	90.12
371.576	90.12
371.802	92.12
372.028	93.12
372.254	88.12
372.48	92.12
372.706	83.12
372.932	92.12
373.158	95.12
373.384	84.12
373.61	89.12
373.835	102.12
374.061	111.12
374.287	105.12
374.513	100.12
374.739	79.12
374.965	78.12
375.191	84.12
375.416	102.12
375.642	103.12
375.868	99.12
376.094	98.12
376.319	101.12
376.545	91.12
376.771	80.12
376.997	105.12
377.222	90.12
377.448	102.12
377.674	93.12
377.899	88.12
378.125	104.12
378.35	88.12
378.576	79.12
378.802	76.12
379.027	89.12
379.253	96.12
379.478	91.12
379.704	83.12
379.929	101.12
380.155	97.12
380.38	102.12
380.606	86.12
380.831	104.12
381.057	109.12
381.282	107.12
381.507	103.12
381.733	96.12
381.958	113.12
382.184	93.12
382.409	89.12
382.634	92.12
382.86	105.12
383.085	79.12
383.31	95.12
383.535	106.12
383.761	94.12
383.986	103.12
384.211	92.12
384.436	99.12
384.662	113.12
384.887	111.12
385.112	115.12
385.337	101.12
385.562	114.12
385.787	102.12
386.013	107.12
386.238	103.12
386.463	99.12
386.688	112.12
386.913	104.12
387.138	92.12
387.363	108.12
387.588	102.12
387.813	100.12
388.038	106.12
388.263	100.12
388.488	103.12
388.713	99.12
388.938	105.12
389.163	96.12
389.387	101.12
389.612	91.12
389.837	91.12
390.062	112.12
390.287	90.12
390.512	109.12
390.736	94.12
390.961	93.12
391.186	92.12
391.411	99.12
391.636	95.12
391.86	81.12
392.085	84.12
392.31	88.12
392.534	85.12
392.759	86.12
392.984	99.12
393.208	109.12
393.433	100.12
393.658	106.12
393.882	93.12
394.107	79.12
394.331	78.12
394.556	88.12
394.78	85.12
395.005	92.12
395.229	94.12
395.454	94.12
395.678	96.12
395.903	87.12
396.127	98.12
396.352	86.12
396.576	93.12
396.801	104.12
397.025	105.12
397.249	92.12
397.474	94.12
397.698	86.12
397.922	75.12
398.147	79.12
398.371	93.12
398.595	97.12
398.82	107.12
399.044	105.12
399.268	82.12
399.492	90.12
399.717	92.12
399.941	85.12
400.165	94.12
400.389	102.12
400.613	98.12
400.837	84.12
401.062	103.12
401.286	87.12
401.51	102.12
401.734	100.12
401.958	99.12
402.182	134.12
402.406	156.12
402.63	119.12
402.854	96.12
403.078	106.12
403.302	104.12
403.526	85.12
403.75	94.12
403.974	89.12
404.198	84.12
404.422	85.12
404.645	103.12
404.869	98.12
405.093	93.12
405.317	101.12
405.541	91.12
405.765	101.12
405.988	112.12
406.212	165.12
406.436	217.12
406.66	136.12
406.883	105.12
407.107	87.12
407.331	113.12
407.555	99.12
407.778	90.12
408.002	85.12
408.226	99.12
408.449	102.12
408.673	85.12
408.896	94.12
409.12	109.12
409.344	81.12
409.567	80.12
409.791	87.12
410.014	86.12
410.238	99.12
410.461	94.12
410.685	102.12
410.908	105.12
411.132	94.12
411.355	124.12
411.578	83.12
411.802	91.12
412.025	98.12
412.249	90.12
412.472	77.12
412.695	94.12
412.919	89.12
413.142	84.12
413.365	83.12
413.589	90.12
413.812	118.12
414.035	98.12
414.258	102.12
414.482	95.12
414.705	90.12
414.928	88.12
415.151	95.12
415.374	90.12
415.597	85.12
415.821	90.12
416.044	101.12
416.267	99.12
416.49	88.12
416.713	101.12
416.936	78.12
417.159	78.12
417.382	85.12
417.605	89.12
417.828	94.12
418.051	98.12
418.274	101.12
418.497	95.12
418.72	85.12
418.943	100.12
419.166	85.12
419.389	84.12
419.611	93.12
419.834	78.12
420.057	79.12
420.28	95.12
420.503	92.12
420.726	93.12
420.948	89.12
421.171	94.12
421.394	95.12
421.617	91.12
421.839	90.12
422.062	86.12
422.285	94.12
422.507	96.12
422.73	94.12
422.953	104.12
423.175	99.12
423.398	84.12
423.621	93.12
423.843	86.12
424.066	80.12
424.288	94.12
424.511	100.12
424.733	92.12
424.956	96.12
425.178	82.12
425.401	109.12
425.623	99.12
425.846	88.12
426.068	92.12
426.291	109.12
426.513	90.12
426.735	87.12
426.958	84.12
427.18	89.12
427.402	135.12
427.625	168.12
427.847	126.12
428.069	108.12
428.292	89.12
428.514	94.12
428.736	88.12
428.958	87.12
429.181	84.12
429.403	91.12
429.625	89.12
429.847	96.12
430.069	105.12
430.292	95.12
430.514	99.12
430.736	78.12
430.958	89.12
431.18	99.12
431.402	80.12
431.624	81.12
431.846	96.12
432.068	93.12
432.29	83.12
432.512	99.12
432.734	98.12
432.956	90.12
433.178	105.12
433.4	90.12
433.622	87.12
433.844	91.12
434.066	107.12
434.287	93.12
434.509	90.12
434.731	95.12
434.953	90.12
435.175	101.12
435.397	86.12
435.618	106.12
435.84	103.12
436.062	109.12
436.284	105.12
436.505	101.12
436.727	107.12
436.949	88.12
437.17	85.12
437.392	89.12
437.614	81.12
437.835	104.12
438.057	117.12
438.278	92.12
438.5	118.12
438.721	131.12
438.943	104.12
439.165	98.12
439.386	88.12
439.608	101.12
439.829	97.12
440.05	120.12
440.272	127.12
440.493	100.12
440.715	97.12
440.936	98.12
441.158	90.12
441.379	94.12
441.6	90.12
441.822	87.12
442.043	99.12
442.264	103.12
442.486	98.12
442.707	112.12
442.928	108.12
443.149	124.12
443.371	127.12
443.592	107.12
443.813	119.12
444.034	105.12
444.255	106.12
444.476	90.12
444.698	90.12
444.919	90.12
445.14	135.12
445.361	124.12
445.582	122.12
445.803	140.12
446.024	114.12
446.245	125.12
446.466	106.12
446.687	88.12
446.908	95.12
447.129	88.12
447.35	88.12
447.571	88.12
447.792	97.12
448.013	93.12
448.234	106.12
448.455	103.12
448.675	114.12
448.896	114.12
449.117	106.12
449.338	95.12
449.559	119.12
449.779	135.12
450	98.12
450.221	78.12
450.442	90.12
450.662	93.12
450.883	92.12
451.104	110.12
451.324	111.12
451.545	100.12
451.766	87.12
451.986	98.12
452.207	88.12
452.428	101.12
452.648	87.12
452.869	100.12
453.089	106.12
453.31	108.12
453.53	95.12
453.751	77.12
453.971	92.12
454.192	115.12
454.412	108.12
454.633	92.12
454.853	95.12
455.073	94.12
455.294	83.12
455.514	85.12
455.734	94.12
455.955	93.12
456.175	94.12
456.395	92.12
456.616	77.12
456.836	92.12
457.056	83.12
457.276	90.12
457.497	78.12
457.717	84.12
457.937	89.12
458.157	87.12
458.377	91.12
458.598	109.12
458.818	121.12
459.038	152.12
459.258	105.12
459.478	92.12
459.698	86.12
459.918	98.12
460.138	94.12
460.358	98.12
460.578	86.12
460.798	89.12
461.018	94.12
461.238	92.12
461.458	84.12
461.678	89.12
461.898	90.12
462.118	83.12
462.338	101.12
462.558	95.12
462.777	101.12
462.997	79.12
463.217	86.12
463.437	95.12
463.657	95.12
463.876	83.12
464.096	88.12
464.316	97.12
464.536	100.12
464.755	84.12
464.975	125.12
465.195	153.12
465.414	134.12
465.634	107.12
465.854	84.12
466.073	83.12
466.293	93.12
466.512	93.12
466.732	107.12
466.951	87.12
467.171	81.12
467.391	107.12
467.61	106.12
467.829	96.12
468.049	98.12
468.268	96.12
468.488	92.12
468.707	92.12
468.927	88.12
469.146	74.12
469.365	80.12
469.585	93.12
469.804	102.12
470.023	90.12
470.243	106.12
470.462	88.12
470.681	111.12
470.901	104.12
471.12	97.12
471.339	101.12
471.558	95.12
471.777	89.12
471.997	91.12
472.216	85.12
472.435	107.12
472.654	93.12
472.873	88.12
473.092	88.12
473.311	87.12
473.53	98.12
473.749	90.12
473.968	100.12
474.187	93.12
474.406	104.12
474.625	100.12
474.844	90.12
475.063	88.12
475.282	74.12
475.501	101.12
475.72	91.12
475.939	100.12
476.158	79.12
476.377	91.12
476.596	79.12
476.814	88.12
477.033	86.12
477.252	94.12
477.471	81.12
477.69	93.12
477.908	100.12
478.127	95.12
478.346	86.12
478.564	86.12
478.783	108.12
479.002	91.12
479.22	99.12
479.439	101.12
479.658	106.12
479.876	91.12
480.095	96.12
480.313	80.12
480.532	89.12
480.751	102.12
480.969	92.12
481.188	109.12
481.406	101.12
481.624	100.12
481.843	82.12
482.061	89.12
482.28	82.12
482.498	87.12
482.717	80.12
482.935	90.12
483.153	88.12
483.372	82.12
483.59	95.12
483.808	105.12
484.027	89.12
484.245	86.12
484.463	99.12
484.681	93.12
484.9	93.12
485.118	103.12
485.336	104.12
485.554	92.12
485.772	93.12
485.99	101.12
486.209	110.12
486.427	121.12
486.645	104.12
486.863	105.12
487.081	99.12
487.299	102.12
487.517	105.12
487.735	87.12
487.953	96.12
488.171	107.12
488.389	86.12
488.607	95.12
488.825	85.12
489.043	101.12
489.261	103.12
489.479	96.12
489.696	82.12
489.914	75.12
490.132	83.12
490.35	88.12
490.568	91.12
490.786	98.12
491.003	83.12
491.221	91.12
491.439	101.12
491.657	91.12
491.874	89.12
492.092	89.12
492.31	99.12
492.527	92.12
492.745	93.12
492.963	105.12
493.18	93.12
493.398	104.12
493.615	111.12
493.833	95.12
494.05	98.12
494.268	95.12
494.485	95.12
494.703	93.12
494.92	101.12
495.138	89.12
495.355	97.12
495.573	84.12
495.79	85.12
496.008	97.12
496.225	102.12
496.442	93.12
496.66	101.12
496.877	108.12
497.094	93.12
497.312	87.12
497.529	104.12
497.746	85.12
497.963	94.12
498.181	110.12
498.398	91.12
498.615	103.12
498.832	91.12
499.049	97.12
499.267	83.12
499.484	84.12
499.701	103.12
499.918	94.12
500.135	96.12
500.352	75.12
500.569	99.12
500.786	106.12
501.003	104.12
501.22	95.12
501.437	94.12
501.654	95.12
501.871	91.12
502.088	93.12
502.305	103.12
502.522	97.12
502.739	82.12
502.956	87.12
503.172	106.12
503.389	99.12
503.606	105.12
503.823	100.12
504.04	102.12
504.256	87.12
504.473	82.12
504.69	93.12
504.907	110.12
505.123	94.12
505.34	93.12
505.557	90.12
505.773	91.12
505.99	87.12
506.207	86.12
506.423	83.12
506.64	93.12
506.856	91.12
507.073	77.12
507.289	87.12
507.506	98.12
507.722	103.12
507.939	100.12
508.155	91.12
508.372	97.12
508.588	99.12
508.805	109.12
509.021	95.12
509.238	94.12
509.454	94.12
509.67	114.12
509.887	108.12
510.103	129.12
510.319	202.12
510.536	693.12
510.752	2037.12
510.968	593.12
511.184	150.12
511.401	114.12
511.617	101.12
511.833	94.12
512.049	92.12
512.265	105.12
512.481	89.12
512.698	106.12
512.914	98.12
513.13	106.12
513.346	107.12
513.562	89.12
513.778	112.12
513.994	102.12
514.21	84.12
514.426	116.12
