Data from Uncirc_2002_H10_HRD10591_00066.txt Node
Date: Wed Jan 03 10:39:54 EST 2024
User: Yrep
Spectrometer: HR+D1059
Trigger mode: 1
Integration Time (sec): 1.000000E-1
Scans to average: 1
Electric dark correction enabled: true
Nonlinearity correction enabled: false
Boxcar width: 0
XAxis mode: Wavelengths
Number of Pixels in Spectrum: 2048
>>>>>Begin Spectral Data<<<<<
223.165	-22
223.4	-22
223.635	-22
223.869	-10
224.104	-23
224.338	-28
224.573	-14
224.808	-7
225.042	-4
225.277	1
225.511	-2
225.746	22
225.98	8
226.215	7
226.449	7
226.683	17
226.918	26
227.152	22
227.387	45
227.621	44
227.856	47
228.09	56
228.324	52
228.559	63
228.793	59
229.027	75
229.262	79
229.496	90
229.73	85
229.964	79
230.199	69
230.433	81
230.667	93
230.901	77
231.136	64
231.37	70
231.604	86
231.838	84
232.072	78
232.306	68
232.541	79
232.775	85
233.009	85
233.243	73
233.477	84
233.711	86
233.945	83
234.179	85
234.413	87
234.647	91
234.881	74
235.115	67
235.349	82
235.583	74
235.817	83
236.051	75
236.285	74
236.519	69
236.753	71
236.987	81
237.221	78
237.455	83
237.689	83
237.922	83
238.156	85
238.39	73
238.624	80
238.858	78
239.091	72
239.325	83
239.559	74
239.793	86
240.027	80
240.26	63
240.494	66
240.728	90
240.961	73
241.195	67
241.429	80
241.662	76
241.896	74
242.13	79
242.363	82
242.597	74
242.83	82
243.064	73
243.298	81
243.531	72
243.765	70
243.998	89
244.232	70
244.465	95
244.699	75
244.932	72
245.166	82
245.399	74
245.633	83
245.866	77
246.099	71
246.333	78
246.566	68
246.8	86
247.033	80
247.266	76
247.5	76
247.733	80
247.966	85
248.2	69
248.433	91
248.666	74
248.899	81
249.133	79
249.366	82
249.599	82
249.832	89
250.066	96
250.299	86
250.532	72
250.765	78
250.998	79
251.231	81
251.465	84
251.698	72
251.931	74
252.164	73
252.397	82
252.63	72
252.863	92
253.096	55
253.329	82
253.562	74
253.795	66
254.028	78
254.261	93
254.494	84
254.727	83
254.96	90
255.193	78
255.426	91
255.659	82
255.892	85
256.124	79
256.357	87
256.59	83
256.823	75
257.056	85
257.289	97
257.521	99
257.754	75
257.987	87
258.22	90
258.452	85
258.685	95
258.918	88
259.151	65
259.383	74
259.616	91
259.849	82
260.081	81
260.314	91
260.547	68
260.779	83
261.012	80
261.244	80
261.477	79
261.71	84
261.942	113
262.175	96
262.407	102
262.64	96
262.872	102
263.105	89
263.337	77
263.57	78
263.802	91
264.035	87
264.267	85
264.499	96
264.732	82
264.964	66
265.197	94
265.429	81
265.661	80
265.894	89
266.126	89
266.358	83
266.591	87
266.823	84
267.055	74
267.287	78
267.52	71
267.752	79
267.984	83
268.216	85
268.448	99
268.681	80
268.913	91
269.145	75
269.377	81
269.609	83
269.841	94
270.073	76
270.306	98
270.538	81
270.77	87
271.002	72
271.234	85
271.466	88
271.698	87
271.93	101
272.162	83
272.394	89
272.626	87
272.858	81
273.09	95
273.322	84
273.553	80
273.785	89
274.017	75
274.249	88
274.481	97
274.713	83
274.945	80
275.176	89
275.408	92
275.64	84
275.872	78
276.104	78
276.335	73
276.567	108
276.799	104
277.031	95
277.262	88
277.494	92
277.726	99
277.957	94
278.189	83
278.421	79
278.652	73
278.884	94
279.115	73
279.347	71
279.579	80
279.81	88
280.042	102
280.273	94
280.505	94
280.736	92
280.968	83
281.199	90
281.431	104
281.662	98
281.894	100
282.125	110
282.356	115
282.588	131
282.819	98
283.051	85
283.282	78
283.513	80
283.745	91
283.976	87
284.207	88
284.439	85
284.67	73
284.901	90
285.132	86
285.364	80
285.595	90
285.826	75
286.057	76
286.288	76
286.52	92
286.751	89
286.982	81
287.213	96
287.444	83
287.675	79
287.906	86
288.138	91
288.369	93
288.6	106
288.831	93
289.062	86
289.293	91
289.524	80
289.755	102
289.986	86
290.217	81
290.448	69
290.679	91
290.91	94
291.141	106
291.371	93
291.602	99
291.833	90
292.064	86
292.295	93
292.526	99
292.757	96
292.987	82
293.218	87
293.449	107
293.68	85
293.91	90
294.141	101
294.372	90
294.603	78
294.833	98
295.064	82
295.295	81
295.525	90
295.756	86
295.987	122
296.217	128
296.448	119
296.679	88
296.909	87
297.14	89
297.37	66
297.601	105
297.831	87
298.062	94
298.292	86
298.523	83
298.753	73
298.984	91
299.214	94
299.445	94
299.675	67
299.905	95
300.136	93
300.366	82
300.597	104
300.827	81
301.057	85
301.288	93
301.518	87
301.748	79
301.979	97
302.209	101
302.439	103
302.669	101
302.9	96
303.13	92
303.36	105
303.59	97
303.82	102
304.051	89
304.281	102
304.511	99
304.741	86
304.971	92
305.201	88
305.431	89
305.661	97
305.891	83
306.121	88
306.352	97
306.582	85
306.812	88
307.042	94
307.272	82
307.502	97
307.731	89
307.961	82
308.191	112
308.421	97
308.651	90
308.881	78
309.111	94
309.341	94
309.571	100
309.8	91
310.03	94
310.26	90
310.49	87
310.72	87
310.949	96
311.179	110
311.409	88
311.639	97
311.868	89
312.098	97
312.328	88
312.557	88
312.787	116
313.017	86
313.246	108
313.476	105
313.706	84
313.935	98
314.165	107
314.394	106
314.624	98
314.853	100
315.083	89
315.312	94
315.542	92
315.771	86
316.001	92
316.23	92
316.46	88
316.689	97
316.919	84
317.148	92
317.377	98
317.607	84
317.836	77
318.065	87
318.295	105
318.524	88
318.753	98
318.983	102
319.212	91
319.441	104
319.67	104
319.9	90
320.129	110
320.358	94
320.587	82
320.816	98
321.046	99
321.275	85
321.504	96
321.733	99
321.962	91
322.191	99
322.42	107
322.649	93
322.878	105
323.108	107
323.337	103
323.566	113
323.795	152
324.024	176
324.253	333
324.482	672
324.71	1334
324.939	1773
325.168	689
325.397	214
325.626	146
325.855	125
326.084	119
326.313	128
326.542	142
326.77	215
326.999	405
327.228	771
327.457	1378
327.686	1070
327.914	316
328.143	173
328.372	121
328.6	131
328.829	119
329.058	97
329.287	118
329.515	102
329.744	99
329.972	95
330.201	108
330.43	104
330.658	114
330.887	134
331.115	110
331.344	97
331.572	85
331.801	93
332.03	96
332.258	103
332.486	83
332.715	101
332.943	114
333.172	99
333.4	89
333.629	101
333.857	108
334.085	104
334.314	83
334.542	84
334.771	92
334.999	88
335.227	105
335.455	96
335.684	100
335.912	91
336.14	103
336.369	95
336.597	94
336.825	93
337.053	91
337.281	98
337.51	78
337.738	98
337.966	95
338.194	93
338.422	96
338.65	93
338.878	88
339.106	78
339.334	83
339.562	93
339.79	89
340.018	94
340.246	98
340.474	88
340.702	82
340.93	91
341.158	86
341.386	105
341.614	100
341.842	99
342.07	98
342.298	78
342.526	86
342.754	86
342.981	98
343.209	87
343.437	100
343.665	91
343.893	96
344.12	98
344.348	88
344.576	96
344.804	101
345.031	95
345.259	96
345.487	81
345.714	95
345.942	102
346.17	92
346.397	86
346.625	87
346.853	84
347.08	87
347.308	74
347.535	100
347.763	97
347.99	97
348.218	104
348.445	86
348.673	101
348.9	94
349.128	114
349.355	104
349.583	93
349.81	87
350.037	99
350.265	91
350.492	98
350.72	103
350.947	80
351.174	109
351.402	109
351.629	108
351.856	96
352.083	91
352.311	118
352.538	112
352.765	100
352.992	115
353.22	109
353.447	95
353.674	108
353.901	88
354.128	92
354.355	96
354.583	109
354.81	105
355.037	92
355.264	95
355.491	84
355.718	91
355.945	103
356.172	88
356.399	108
356.626	78
356.853	76
357.08	91
357.307	94
357.534	87
357.761	93
357.988	94
358.215	106
358.441	90
358.668	100
358.895	71
359.122	87
359.349	79
359.576	92
359.802	95
360.029	100
360.256	105
360.483	96
360.709	96
360.936	93
361.163	88
361.39	88
361.616	90
361.843	94
362.07	86
362.296	90
362.523	85
362.749	76
362.976	78
363.203	93
363.429	74
363.656	80
363.882	89
364.109	91
364.335	96
364.562	94
364.788	89
365.015	92
365.241	92
365.468	88
365.694	98
365.92	84
366.147	93
366.373	82
366.599	94
366.826	80
367.052	96
367.278	91
367.505	85
367.731	92
367.957	86
368.184	97
368.41	95
368.636	108
368.862	118
369.089	109
369.315	94
369.541	84
369.767	79
369.993	71
370.219	95
370.445	88
370.672	81
370.898	81
371.124	81
371.35	86
371.576	83
371.802	89
372.028	92
372.254	92
372.48	76
372.706	84
372.932	98
373.158	88
373.384	95
373.61	86
373.835	108
374.061	88
374.287	100
374.513	90
374.739	91
374.965	82
375.191	89
375.416	95
375.642	88
375.868	91
376.094	80
376.319	113
376.545	82
376.771	94
376.997	85
377.222	83
377.448	81
377.674	87
377.899	85
378.125	86
378.35	87
378.576	104
378.802	88
379.027	88
379.253	95
379.478	103
379.704	89
379.929	89
380.155	101
380.38	97
380.606	98
380.831	84
381.057	104
381.282	108
381.507	103
381.733	101
381.958	99
382.184	91
382.409	97
382.634	100
382.86	87
383.085	95
383.31	98
383.535	101
383.761	108
383.986	98
384.211	93
384.436	90
384.662	87
384.887	108
385.112	100
385.337	105
385.562	98
385.787	92
386.013	99
386.238	105
386.463	98
386.688	109
386.913	101
387.138	105
387.363	106
387.588	111
387.813	98
388.038	96
388.263	115
388.488	110
388.713	99
388.938	88
389.163	93
389.387	101
389.612	97
389.837	93
390.062	73
390.287	90
390.512	92
390.736	77
390.961	91
391.186	99
391.411	99
391.636	72
391.86	86
392.085	86
392.31	81
392.534	99
392.759	84
392.984	93
393.208	95
393.433	93
393.658	87
393.882	96
394.107	94
394.331	89
394.556	97
394.78	91
395.005	86
395.229	73
395.454	95
395.678	96
395.903	80
396.127	98
396.352	86
396.576	88
396.801	78
397.025	84
397.249	95
397.474	87
397.698	95
397.922	95
398.147	97
398.371	90
398.595	87
398.82	85
399.044	79
399.268	106
399.492	91
399.717	82
399.941	78
400.165	91
400.389	73
400.613	75
400.837	97
401.062	82
401.286	86
401.51	103
401.734	91
401.958	96
402.182	112
402.406	139
402.63	110
402.854	89
403.078	70
403.302	72
403.526	82
403.75	80
403.974	85
404.198	80
404.422	94
404.645	96
404.869	94
405.093	89
405.317	97
405.541	100
405.765	94
405.988	86
406.212	160
406.436	210
406.66	130
406.883	110
407.107	91
407.331	86
407.555	98
407.778	87
408.002	117
408.226	89
408.449	70
408.673	90
408.896	105
409.12	90
409.344	92
409.567	77
409.791	81
410.014	75
410.238	102
410.461	93
410.685	93
410.908	97
411.132	90
411.355	91
411.578	93
411.802	81
412.025	92
412.249	79
412.472	89
412.695	87
412.919	86
413.142	84
413.365	74
413.589	85
413.812	94
414.035	83
414.258	92
414.482	91
414.705	86
414.928	87
415.151	84
415.374	105
415.597	91
415.821	82
416.044	98
416.267	92
416.49	91
416.713	83
416.936	102
417.159	87
417.382	78
417.605	82
417.828	83
418.051	88
418.274	89
418.497	102
418.72	83
418.943	102
419.166	103
419.389	75
419.611	96
419.834	83
420.057	91
420.28	89
420.503	102
420.726	91
420.948	86
421.171	100
421.394	96
421.617	89
421.839	92
422.062	98
422.285	94
422.507	99
422.73	100
422.953	105
423.175	97
423.398	85
423.621	88
423.843	90
424.066	85
424.288	82
424.511	98
424.733	91
424.956	88
425.178	103
425.401	92
425.623	95
425.846	85
426.068	99
426.291	87
426.513	91
426.735	82
426.958	87
427.18	105
427.402	118
427.625	133
427.847	121
428.069	99
428.292	102
428.514	76
428.736	79
428.958	73
429.181	85
429.403	83
429.625	77
429.847	97
430.069	97
430.292	105
430.514	87
430.736	77
430.958	79
431.18	81
431.402	92
431.624	97
431.846	86
432.068	92
432.29	78
432.512	98
432.734	88
432.956	89
433.178	111
433.4	105
433.622	82
433.844	107
434.066	85
434.287	91
434.509	88
434.731	88
434.953	82
435.175	78
435.397	94
435.618	95
435.84	91
436.062	108
436.284	111
436.505	100
436.727	102
436.949	100
437.17	92
437.392	79
437.614	90
437.835	114
438.057	128
438.278	116
438.5	100
438.721	100
438.943	93
439.165	102
439.386	91
439.608	102
439.829	98
440.05	115
440.272	117
440.493	100
440.715	98
440.936	100
441.158	101
441.379	87
441.6	82
441.822	91
442.043	98
442.264	94
442.486	78
442.707	91
442.928	104
443.149	121
443.371	120
443.592	107
443.813	98
444.034	100
444.255	92
444.476	88
444.698	91
444.919	94
445.14	125
445.361	139
445.582	122
445.803	128
446.024	126
446.245	119
446.466	106
446.687	87
446.908	92
447.129	89
447.35	93
447.571	94
447.792	82
448.013	99
448.234	91
448.455	102
448.675	108
448.896	99
449.117	98
449.338	79
449.559	120
449.779	120
450	91
450.221	90
450.442	94
450.662	88
450.883	104
451.104	95
451.324	94
451.545	87
451.766	82
451.986	72
452.207	79
452.428	73
452.648	96
452.869	105
453.089	104
453.31	105
453.53	82
453.751	84
453.971	84
454.192	87
454.412	96
454.633	80
454.853	101
455.073	93
455.294	87
455.514	83
455.734	95
455.955	85
456.175	87
456.395	85
456.616	79
456.836	91
457.056	94
457.276	86
457.497	95
457.717	91
457.937	96
458.157	102
458.377	95
458.598	112
458.818	146
459.038	143
459.258	106
459.478	92
459.698	107
459.918	82
460.138	81
460.358	84
460.578	98
460.798	103
461.018	86
461.238	90
461.458	82
461.678	82
461.898	90
462.118	84
462.338	96
462.558	90
462.777	94
462.997	91
463.217	75
463.437	94
463.657	98
463.876	85
464.096	87
464.316	103
464.536	103
464.755	97
464.975	99
465.195	138
465.414	121
465.634	101
465.854	85
466.073	80
466.293	96
466.512	111
466.732	89
466.951	88
467.171	80
467.391	98
467.61	111
467.829	89
468.049	89
468.268	103
468.488	86
468.707	83
468.927	88
469.146	85
469.365	75
469.585	92
469.804	108
470.023	88
470.243	80
470.462	96
470.681	106
470.901	84
471.12	89
471.339	81
471.558	76
471.777	94
471.997	82
472.216	66
472.435	80
472.654	91
472.873	78
473.092	78
473.311	97
473.53	94
473.749	96
473.968	90
474.187	98
474.406	95
474.625	87
474.844	84
475.063	94
475.282	94
475.501	89
475.72	95
475.939	86
476.158	85
476.377	89
476.596	98
476.814	95
477.033	92
477.252	98
477.471	82
477.69	73
477.908	106
478.127	85
478.346	87
478.564	90
478.783	88
479.002	75
479.22	97
479.439	97
479.658	108
479.876	82
480.095	88
480.313	100
480.532	83
480.751	97
480.969	94
481.188	93
481.406	89
481.624	98
481.843	83
482.061	81
482.28	92
482.498	91
482.717	104
482.935	85
483.153	98
483.372	92
483.59	90
483.808	104
484.027	91
484.245	96
484.463	90
484.681	104
484.9	84
485.118	102
485.336	98
485.554	95
485.772	102
485.99	106
486.209	105
486.427	106
486.645	101
486.863	114
487.081	116
487.299	97
487.517	106
487.735	89
487.953	93
488.171	94
488.389	106
488.607	105
488.825	90
489.043	87
489.261	97
489.479	79
489.696	83
489.914	98
490.132	78
490.35	74
490.568	95
490.786	105
491.003	83
491.221	96
491.439	109
491.657	90
491.874	93
492.092	83
492.31	87
492.527	91
492.745	88
492.963	89
493.18	101
493.398	101
493.615	95
493.833	82
494.05	96
494.268	101
494.485	92
494.703	95
494.92	91
495.138	95
495.355	84
495.573	98
495.79	94
496.008	81
496.225	88
496.442	80
496.66	100
496.877	85
497.094	86
497.312	85
497.529	97
497.746	103
497.963	96
498.181	92
498.398	95
498.615	98
498.832	108
499.049	93
499.267	75
499.484	98
499.701	99
499.918	98
500.135	81
500.352	97
500.569	98
500.786	87
501.003	90
501.22	86
501.437	78
501.654	92
501.871	102
502.088	103
502.305	95
502.522	90
502.739	94
502.956	84
503.172	92
503.389	90
503.606	83
503.823	101
504.04	91
504.256	102
504.473	89
504.69	108
504.907	94
505.123	85
505.34	103
505.557	90
505.773	73
505.99	92
506.207	92
506.423	93
506.64	98
506.856	89
507.073	82
507.289	92
507.506	88
507.722	95
507.939	99
508.155	91
508.372	93
508.588	91
508.805	101
509.021	102
509.238	101
509.454	93
509.67	119
509.887	107
510.103	126
510.319	198
510.536	669
510.752	2018
510.968	579
511.184	134
511.401	110
511.617	90
511.833	102
512.049	108
512.265	96
512.481	91
512.698	95
512.914	93
513.13	97
513.346	91
513.562	103
513.778	88
513.994	105
514.21	102
514.426	114
514.642	127
514.858	125
515.074	148
515.29	375
515.506	1186
515.721	477
515.937	138
516.153	120
516.369	101
516.585	91
516.801	92
517.016	109
517.232	88
517.448	98
517.664	103
517.879	103
518.095	92
518.311	94
518.527	99
518.742	104
518.958	110
519.173	107
519.389	97
519.605	98
519.82	96
520.036	109
520.251	107
520.467	92
520.682	97
520.898	106
521.113	100
521.329	131
521.544	176
521.76	467
521.975	1944
522.19	1169
522.406	272
522.621	132
522.836	96
523.052	102
523.267	91
523.482	101
523.698	108
523.913	100
524.128	103
524.343	88
524.559	96
524.774	89
524.989	97
525.204	93
525.419	111
525.634	88
525.849	99
526.064	96
526.28	91
526.495	90
526.71	90
526.925	89
527.14	98
527.355	83
527.57	86
527.785	85
527.999	93
528.214	94
528.429	108
528.644	91
528.859	98
529.074	82
529.289	103
529.503	162
529.718	100
529.933	95
530.148	98
530.363	98
530.577	65
530.792	97
531.007	100
531.221	98
531.436	96
531.651	98
531.865	95
532.08	95
532.295	103
532.509	99
532.724	97
532.938	108
533.153	92
533.367	93
533.582	101
533.796	106
534.011	87
534.225	83
534.44	86
534.654	110
534.868	90
535.083	80
535.297	100
535.511	93
535.726	104
535.94	104
536.154	86
536.369	96
536.583	90
536.797	104
537.011	78
537.225	104
537.44	109
537.654	98
537.868	99
538.082	95
538.296	91
538.51	89
538.724	93
538.938	83
539.153	93
539.367	107
539.581	92
539.795	104
540.009	99
540.222	92
540.436	84
540.65	87
540.864	88
541.078	79
541.292	82
541.506	99
541.72	87
541.934	91
542.147	94
542.361	77
542.575	98
542.789	98
543.002	87
543.216	89
543.43	99
543.644	96
543.857	78
544.071	102
544.285	92
544.498	83
544.712	92
544.925	101
545.139	90
545.352	96
545.566	94
545.779	93
545.993	88
546.206	78
546.42	73
546.633	89
546.847	105
547.06	97
547.274	89
547.487	89
547.7	72
547.914	98
548.127	93
548.34	88
548.554	80
548.767	86
548.98	100
549.193	101
549.407	93
549.62	77
549.833	89
550.046	102
550.259	90
550.473	95
550.686	97
550.899	99
551.112	84
551.325	93
551.538	112
551.751	92
551.964	96
552.177	81
552.39	94
552.603	90
552.816	103
553.029	102
553.242	93
553.455	95
553.667	107
553.88	111
554.093	92
554.306	90
554.519	103
554.732	95
554.944	96
555.157	95
555.37	87
555.583	97
555.795	88
556.008	86
556.221	93
556.433	111
556.646	104
556.859	110
557.071	103
557.284	79
557.496	88
557.709	90
557.921	96
558.134	104
558.346	81
558.559	84
558.771	89
558.984	84
559.196	71
559.409	87
559.621	82
559.833	92
560.046	96
560.258	86
560.47	80
560.683	82
560.895	83
561.107	98
561.32	86
561.532	88
561.744	100
561.956	94
562.168	88
562.381	92
562.593	91
562.805	111
563.017	105
563.229	99
563.441	76
563.653	72
563.865	87
564.077	88
564.289	92
564.501	90
564.713	92
564.925	96
565.137	95
565.349	82
565.561	89
565.773	78
565.985	96
566.197	97
566.408	92
566.62	90
566.832	87
567.044	99
567.255	93
567.467	95
567.679	91
567.891	90
568.102	91
568.314	86
568.526	94
568.737	87
568.949	87
569.161	85
569.372	87
569.584	100
569.795	100
570.007	119
570.218	213
570.43	126
570.641	105
570.853	87
571.064	85
571.276	101
571.487	88
571.698	87
571.91	91
572.121	96
572.333	92
572.544	86
572.755	92
572.966	94
573.178	90
573.389	103
573.6	99
573.811	80
574.023	85
574.234	96
574.445	96
574.656	102
574.867	95
575.078	83
575.289	84
575.501	91
575.712	89
575.923	102
576.134	92
576.345	98
576.556	99
576.767	97
576.978	100
577.188	94
577.399	100
577.61	100
577.821	96
578.032	119
578.243	246
578.454	658
578.665	204
578.875	110
579.086	86
579.297	88
579.508	91
579.718	81
579.929	91
580.14	90
580.35	85
580.561	91
580.772	97
580.982	95
581.193	75
581.403	90
581.614	89
581.825	84
582.035	96
582.246	98
582.456	95
582.667	87
582.877	90
583.087	73
583.298	79
583.508	86
583.719	92
583.929	91
584.139	94
584.35	90
