Data from Uncirc_2002_H10_HRD10591_00019.txt Node
Date: Wed Jan 03 10:39:45 EST 2024
User: Yrep
Spectrometer: HR+D1059
Trigger mode: 1
Integration Time (sec): 1.000000E-1
Scans to average: 1
Electric dark correction enabled: true
Nonlinearity correction enabled: false
Boxcar width: 0
XAxis mode: Wavelengths
Number of Pixels in Spectrum: 2048
>>>>>Begin Spectral Data<<<<<
223.165	-21.5
223.4	-21.5
223.635	-21.5
223.869	-14.5
224.104	-20.5
224.338	-17.5
224.573	-17.5
224.808	-7.5
225.042	-8.5
225.277	-4.5
225.511	2.5
225.746	-1.5
225.98	16.5
226.215	11.5
226.449	21.5
226.683	13.5
226.918	16.5
227.152	31.5
227.387	16.5
227.621	33.5
227.856	33.5
228.09	40.5
228.324	72.5
228.559	56.5
228.793	45.5
229.027	55.5
229.262	66.5
229.496	56.5
229.73	69.5
229.964	79.5
230.199	72.5
230.433	72.5
230.667	83.5
230.901	82.5
231.136	83.5
231.37	76.5
231.604	57.5
231.838	76.5
232.072	80.5
232.306	79.5
232.541	85.5
232.775	75.5
233.009	74.5
233.243	82.5
233.477	79.5
233.711	88.5
233.945	85.5
234.179	76.5
234.413	91.5
234.647	81.5
234.881	83.5
235.115	87.5
235.349	85.5
235.583	75.5
235.817	76.5
236.051	80.5
236.285	70.5
236.519	81.5
236.753	69.5
236.987	77.5
237.221	73.5
237.455	97.5
237.689	93.5
237.922	86.5
238.156	79.5
238.39	77.5
238.624	72.5
238.858	74.5
239.091	64.5
239.325	69.5
239.559	79.5
239.793	77.5
240.027	80.5
240.26	83.5
240.494	66.5
240.728	87.5
240.961	81.5
241.195	78.5
241.429	76.5
241.662	78.5
241.896	78.5
242.13	73.5
242.363	82.5
242.597	87.5
242.83	86.5
243.064	83.5
243.298	86.5
243.531	81.5
243.765	75.5
243.998	78.5
244.232	81.5
244.465	87.5
244.699	86.5
244.932	75.5
245.166	81.5
245.399	69.5
245.633	86.5
245.866	67.5
246.099	67.5
246.333	67.5
246.566	80.5
246.8	89.5
247.033	78.5
247.266	72.5
247.5	82.5
247.733	77.5
247.966	78.5
248.2	73.5
248.433	77.5
248.666	83.5
248.899	82.5
249.133	85.5
249.366	94.5
249.599	82.5
249.832	79.5
250.066	76.5
250.299	57.5
250.532	81.5
250.765	93.5
250.998	71.5
251.231	78.5
251.465	81.5
251.698	85.5
251.931	75.5
252.164	72.5
252.397	89.5
252.63	86.5
252.863	56.5
253.096	72.5
253.329	79.5
253.562	74.5
253.795	82.5
254.028	99.5
254.261	75.5
254.494	69.5
254.727	94.5
254.96	85.5
255.193	78.5
255.426	81.5
255.659	75.5
255.892	87.5
256.124	74.5
256.357	89.5
256.59	86.5
256.823	83.5
257.056	70.5
257.289	85.5
257.521	75.5
257.754	87.5
257.987	83.5
258.22	75.5
258.452	82.5
258.685	80.5
258.918	77.5
259.151	82.5
259.383	86.5
259.616	93.5
259.849	79.5
260.081	84.5
260.314	80.5
260.547	71.5
260.779	65.5
261.012	81.5
261.244	67.5
261.477	79.5
261.71	92.5
261.942	99.5
262.175	107.5
262.407	90.5
262.64	86.5
262.872	72.5
263.105	90.5
263.337	73.5
263.57	81.5
263.802	93.5
264.035	80.5
264.267	72.5
264.499	79.5
264.732	79.5
264.964	86.5
265.197	98.5
265.429	81.5
265.661	87.5
265.894	95.5
266.126	71.5
266.358	85.5
266.591	73.5
266.823	86.5
267.055	86.5
267.287	80.5
267.52	81.5
267.752	82.5
267.984	83.5
268.216	88.5
268.448	78.5
268.681	74.5
268.913	85.5
269.145	83.5
269.377	87.5
269.609	91.5
269.841	74.5
270.073	75.5
270.306	70.5
270.538	83.5
270.77	81.5
271.002	92.5
271.234	98.5
271.466	79.5
271.698	98.5
271.93	81.5
272.162	84.5
272.394	84.5
272.626	82.5
272.858	89.5
273.09	90.5
273.322	88.5
273.553	89.5
273.785	81.5
274.017	82.5
274.249	86.5
274.481	82.5
274.713	94.5
274.945	90.5
275.176	98.5
275.408	92.5
275.64	91.5
275.872	80.5
276.104	97.5
276.335	81.5
276.567	99.5
276.799	86.5
277.031	90.5
277.262	92.5
277.494	86.5
277.726	85.5
277.957	93.5
278.189	87.5
278.421	73.5
278.652	86.5
278.884	81.5
279.115	85.5
279.347	81.5
279.579	82.5
279.81	87.5
280.042	88.5
280.273	95.5
280.505	98.5
280.736	85.5
280.968	87.5
281.199	92.5
281.431	86.5
281.662	79.5
281.894	88.5
282.125	95.5
282.356	122.5
282.588	126.5
282.819	96.5
283.051	79.5
283.282	87.5
283.513	91.5
283.745	95.5
283.976	89.5
284.207	84.5
284.439	89.5
284.67	104.5
284.901	71.5
285.132	83.5
285.364	91.5
285.595	78.5
285.826	85.5
286.057	90.5
286.288	80.5
286.52	90.5
286.751	74.5
286.982	100.5
287.213	85.5
287.444	74.5
287.675	84.5
287.906	85.5
288.138	102.5
288.369	91.5
288.6	80.5
288.831	89.5
289.062	83.5
289.293	90.5
289.524	75.5
289.755	86.5
289.986	93.5
290.217	81.5
290.448	78.5
290.679	87.5
290.91	104.5
291.141	85.5
291.371	82.5
291.602	83.5
291.833	82.5
292.064	81.5
292.295	85.5
292.526	77.5
292.757	82.5
292.987	95.5
293.218	79.5
293.449	95.5
293.68	87.5
293.91	82.5
294.141	77.5
294.372	90.5
294.603	87.5
294.833	81.5
295.064	82.5
295.295	83.5
295.525	79.5
295.756	89.5
295.987	106.5
296.217	132.5
296.448	113.5
296.679	92.5
296.909	87.5
297.14	88.5
297.37	81.5
297.601	78.5
297.831	85.5
298.062	74.5
298.292	101.5
298.523	86.5
298.753	100.5
298.984	99.5
299.214	98.5
299.445	100.5
299.675	86.5
299.905	84.5
300.136	103.5
300.366	85.5
300.597	91.5
300.827	86.5
301.057	91.5
301.288	107.5
301.518	99.5
301.748	79.5
301.979	87.5
302.209	97.5
302.439	90.5
302.669	86.5
302.9	86.5
303.13	85.5
303.36	83.5
303.59	105.5
303.82	89.5
304.051	102.5
304.281	104.5
304.511	93.5
304.741	91.5
304.971	90.5
305.201	92.5
305.431	90.5
305.661	83.5
305.891	90.5
306.121	98.5
306.352	101.5
306.582	93.5
306.812	99.5
307.042	85.5
307.272	79.5
307.502	92.5
307.731	78.5
307.961	79.5
308.191	83.5
308.421	88.5
308.651	80.5
308.881	79.5
309.111	96.5
309.341	90.5
309.571	82.5
309.8	88.5
310.03	75.5
310.26	95.5
310.49	111.5
310.72	99.5
310.949	101.5
311.179	101.5
311.409	93.5
311.639	92.5
311.868	111.5
312.098	105.5
312.328	96.5
312.557	95.5
312.787	114.5
313.017	101.5
313.246	108.5
313.476	94.5
313.706	89.5
313.935	92.5
314.165	89.5
314.394	82.5
314.624	96.5
314.853	94.5
315.083	93.5
315.312	83.5
315.542	79.5
315.771	92.5
316.001	103.5
316.23	86.5
316.46	87.5
316.689	74.5
316.919	92.5
317.148	93.5
317.377	93.5
317.607	110.5
317.836	100.5
318.065	86.5
318.295	88.5
318.524	102.5
318.753	82.5
318.983	95.5
319.212	110.5
319.441	103.5
319.67	96.5
319.9	95.5
320.129	98.5
320.358	92.5
320.587	85.5
320.816	95.5
321.046	85.5
321.275	102.5
321.504	80.5
321.733	106.5
321.962	97.5
322.191	87.5
322.42	96.5
322.649	96.5
322.878	99.5
323.108	113.5
323.337	99.5
323.566	115.5
323.795	152.5
324.024	195.5
324.253	349.5
324.482	728.5
324.71	1440.5
324.939	1897.5
325.168	697.5
325.397	218.5
325.626	141.5
325.855	114.5
326.084	118.5
326.313	117.5
326.542	151.5
326.77	213.5
326.999	408.5
327.228	831.5
327.457	1485.5
327.686	1203.5
327.914	333.5
328.143	186.5
328.372	122.5
328.6	117.5
328.829	101.5
329.058	124.5
329.287	116.5
329.515	97.5
329.744	97.5
329.972	94.5
330.201	96.5
330.43	91.5
330.658	111.5
330.887	116.5
331.115	129.5
331.344	96.5
331.572	85.5
331.801	94.5
332.03	90.5
332.258	101.5
332.486	105.5
332.715	98.5
332.943	92.5
333.172	97.5
333.4	99.5
333.629	100.5
333.857	109.5
334.085	97.5
334.314	103.5
334.542	103.5
334.771	90.5
334.999	95.5
335.227	90.5
335.455	82.5
335.684	94.5
335.912	91.5
336.14	101.5
336.369	93.5
336.597	80.5
336.825	90.5
337.053	94.5
337.281	75.5
337.51	85.5
337.738	77.5
337.966	77.5
338.194	87.5
338.422	93.5
338.65	94.5
338.878	81.5
339.106	90.5
339.334	87.5
339.562	96.5
339.79	88.5
340.018	88.5
340.246	86.5
340.474	84.5
340.702	79.5
340.93	83.5
341.158	78.5
341.386	96.5
341.614	105.5
341.842	103.5
342.07	88.5
342.298	83.5
342.526	98.5
342.754	101.5
342.981	90.5
343.209	78.5
343.437	91.5
343.665	98.5
343.893	82.5
344.12	93.5
344.348	86.5
344.576	98.5
344.804	81.5
345.031	88.5
345.259	98.5
345.487	97.5
345.714	99.5
345.942	84.5
346.17	95.5
346.397	105.5
346.625	90.5
346.853	95.5
347.08	83.5
347.308	82.5
347.535	82.5
347.763	98.5
347.99	90.5
348.218	100.5
348.445	101.5
348.673	97.5
348.9	92.5
349.128	101.5
349.355	87.5
349.583	97.5
349.81	72.5
350.037	75.5
350.265	91.5
350.492	95.5
350.72	93.5
350.947	101.5
351.174	107.5
351.402	93.5
351.629	91.5
351.856	94.5
352.083	89.5
352.311	100.5
352.538	96.5
352.765	91.5
352.992	97.5
353.22	105.5
353.447	95.5
353.674	102.5
353.901	103.5
354.128	82.5
354.355	78.5
354.583	98.5
354.81	108.5
355.037	108.5
355.264	84.5
355.491	95.5
355.718	85.5
355.945	100.5
356.172	73.5
356.399	76.5
356.626	95.5
356.853	79.5
357.08	88.5
357.307	94.5
357.534	98.5
357.761	89.5
357.988	99.5
358.215	96.5
358.441	99.5
358.668	83.5
358.895	88.5
359.122	93.5
359.349	96.5
359.576	83.5
359.802	100.5
360.029	108.5
360.256	110.5
360.483	85.5
360.709	87.5
360.936	89.5
361.163	93.5
361.39	88.5
361.616	91.5
361.843	96.5
362.07	85.5
362.296	80.5
362.523	87.5
362.749	101.5
362.976	88.5
363.203	103.5
363.429	91.5
363.656	82.5
363.882	79.5
364.109	101.5
364.335	91.5
364.562	95.5
364.788	93.5
365.015	108.5
365.241	109.5
365.468	102.5
365.694	94.5
365.92	94.5
366.147	94.5
366.373	79.5
366.599	85.5
366.826	98.5
367.052	90.5
367.278	87.5
367.505	85.5
367.731	96.5
367.957	80.5
368.184	85.5
368.41	104.5
368.636	94.5
368.862	114.5
369.089	101.5
369.315	91.5
369.541	100.5
369.767	93.5
369.993	99.5
370.219	85.5
370.445	76.5
370.672	78.5
370.898	81.5
371.124	92.5
371.35	84.5
371.576	89.5
371.802	89.5
372.028	88.5
372.254	79.5
372.48	86.5
372.706	78.5
372.932	89.5
373.158	84.5
373.384	94.5
373.61	93.5
373.835	82.5
374.061	94.5
374.287	89.5
374.513	88.5
374.739	80.5
374.965	100.5
375.191	90.5
375.416	86.5
375.642	79.5
375.868	97.5
376.094	86.5
376.319	88.5
376.545	91.5
376.771	92.5
376.997	90.5
377.222	93.5
377.448	82.5
377.674	79.5
377.899	93.5
378.125	81.5
378.35	103.5
378.576	90.5
378.802	85.5
379.027	90.5
379.253	104.5
379.478	93.5
379.704	89.5
379.929	91.5
380.155	92.5
380.38	93.5
380.606	90.5
380.831	93.5
381.057	109.5
381.282	85.5
381.507	81.5
381.733	91.5
381.958	96.5
382.184	98.5
382.409	89.5
382.634	101.5
382.86	96.5
383.085	97.5
383.31	89.5
383.535	88.5
383.761	99.5
383.986	89.5
384.211	99.5
384.436	106.5
384.662	102.5
384.887	107.5
385.112	96.5
385.337	99.5
385.562	103.5
385.787	100.5
386.013	112.5
386.238	116.5
386.463	113.5
386.688	106.5
386.913	108.5
387.138	99.5
387.363	106.5
387.588	103.5
387.813	112.5
388.038	101.5
388.263	88.5
388.488	102.5
388.713	93.5
388.938	101.5
389.163	104.5
389.387	89.5
389.612	86.5
389.837	100.5
390.062	99.5
390.287	88.5
390.512	97.5
390.736	86.5
390.961	102.5
391.186	103.5
391.411	62.5
391.636	79.5
391.86	75.5
392.085	86.5
392.31	88.5
392.534	92.5
392.759	84.5
392.984	90.5
393.208	95.5
393.433	120.5
393.658	111.5
393.882	95.5
394.107	83.5
394.331	84.5
394.556	87.5
394.78	83.5
395.005	72.5
395.229	81.5
395.454	77.5
395.678	89.5
395.903	85.5
396.127	90.5
396.352	99.5
396.576	78.5
396.801	97.5
397.025	113.5
397.249	95.5
397.474	81.5
397.698	95.5
397.922	92.5
398.147	94.5
398.371	85.5
398.595	93.5
398.82	89.5
399.044	101.5
399.268	86.5
399.492	75.5
399.717	90.5
399.941	86.5
400.165	82.5
400.389	78.5
400.613	84.5
400.837	81.5
401.062	71.5
401.286	85.5
401.51	76.5
401.734	93.5
401.958	98.5
402.182	121.5
402.406	137.5
402.63	98.5
402.854	95.5
403.078	87.5
403.302	89.5
403.526	86.5
403.75	83.5
403.974	72.5
404.198	82.5
404.422	85.5
404.645	86.5
404.869	80.5
405.093	86.5
405.317	88.5
405.541	84.5
405.765	85.5
405.988	116.5
406.212	135.5
406.436	186.5
406.66	128.5
406.883	95.5
407.107	95.5
407.331	84.5
407.555	115.5
407.778	96.5
408.002	79.5
408.226	97.5
408.449	89.5
408.673	98.5
408.896	97.5
409.12	90.5
409.344	85.5
409.567	90.5
409.791	89.5
410.014	93.5
410.238	91.5
410.461	100.5
410.685	85.5
410.908	92.5
411.132	97.5
411.355	92.5
411.578	79.5
411.802	94.5
412.025	81.5
412.249	86.5
412.472	83.5
412.695	77.5
412.919	81.5
413.142	93.5
413.365	107.5
413.589	91.5
413.812	89.5
414.035	79.5
414.258	87.5
414.482	82.5
414.705	88.5
414.928	90.5
415.151	89.5
415.374	81.5
415.597	82.5
415.821	88.5
416.044	91.5
416.267	86.5
416.49	81.5
416.713	96.5
416.936	90.5
417.159	80.5
417.382	90.5
417.605	81.5
417.828	91.5
418.051	97.5
418.274	85.5
418.497	79.5
418.72	90.5
418.943	98.5
419.166	85.5
419.389	86.5
419.611	83.5
419.834	105.5
420.057	94.5
420.28	77.5
420.503	79.5
420.726	73.5
420.948	88.5
421.171	91.5
421.394	78.5
421.617	92.5
421.839	97.5
422.062	95.5
422.285	74.5
422.507	102.5
422.73	110.5
422.953	88.5
423.175	99.5
423.398	84.5
423.621	89.5
423.843	87.5
424.066	85.5
424.288	92.5
424.511	97.5
424.733	90.5
424.956	118.5
425.178	94.5
425.401	94.5
425.623	103.5
425.846	89.5
426.068	89.5
426.291	84.5
426.513	89.5
426.735	84.5
426.958	94.5
427.18	107.5
427.402	135.5
427.625	140.5
427.847	114.5
428.069	102.5
428.292	92.5
428.514	81.5
428.736	87.5
428.958	81.5
429.181	89.5
429.403	87.5
429.625	82.5
429.847	87.5
430.069	79.5
430.292	83.5
430.514	77.5
430.736	81.5
430.958	88.5
431.18	95.5
431.402	80.5
431.624	87.5
431.846	94.5
432.068	95.5
432.29	89.5
432.512	105.5
432.734	76.5
432.956	93.5
433.178	100.5
433.4	103.5
433.622	95.5
433.844	78.5
434.066	83.5
434.287	80.5
434.509	84.5
434.731	90.5
434.953	85.5
435.175	90.5
435.397	90.5
435.618	99.5
435.84	85.5
436.062	119.5
436.284	109.5
436.505	105.5
436.727	95.5
436.949	102.5
437.17	86.5
437.392	86.5
437.614	86.5
437.835	90.5
438.057	89.5
438.278	120.5
438.5	107.5
438.721	108.5
438.943	100.5
439.165	81.5
439.386	81.5
439.608	79.5
439.829	94.5
440.05	108.5
440.272	136.5
440.493	95.5
440.715	85.5
440.936	72.5
441.158	89.5
441.379	66.5
441.6	88.5
441.822	91.5
442.043	93.5
442.264	101.5
442.486	86.5
442.707	91.5
442.928	102.5
443.149	117.5
443.371	118.5
443.592	103.5
443.813	95.5
444.034	113.5
444.255	96.5
444.476	85.5
444.698	72.5
444.919	89.5
445.14	136.5
445.361	119.5
445.582	122.5
445.803	117.5
446.024	129.5
446.245	127.5
446.466	104.5
446.687	87.5
446.908	91.5
447.129	98.5
447.35	85.5
447.571	102.5
447.792	80.5
448.013	93.5
448.234	97.5
448.455	96.5
448.675	100.5
448.896	111.5
449.117	89.5
449.338	82.5
449.559	146.5
449.779	137.5
450	85.5
450.221	74.5
450.442	87.5
450.662	100.5
450.883	98.5
451.104	100.5
451.324	90.5
451.545	99.5
451.766	93.5
451.986	87.5
452.207	77.5
452.428	88.5
452.648	94.5
452.869	118.5
453.089	107.5
453.31	109.5
453.53	85.5
453.751	101.5
453.971	105.5
454.192	116.5
454.412	91.5
454.633	82.5
454.853	98.5
455.073	85.5
455.294	95.5
455.514	104.5
455.734	77.5
455.955	98.5
456.175	88.5
456.395	85.5
456.616	91.5
456.836	82.5
457.056	86.5
457.276	86.5
457.497	85.5
457.717	89.5
457.937	84.5
458.157	80.5
458.377	90.5
458.598	106.5
458.818	115.5
459.038	142.5
459.258	102.5
459.478	109.5
459.698	89.5
459.918	90.5
460.138	101.5
460.358	85.5
460.578	85.5
460.798	80.5
461.018	76.5
461.238	80.5
461.458	84.5
461.678	99.5
461.898	92.5
462.118	106.5
462.338	95.5
462.558	83.5
462.777	81.5
462.997	73.5
463.217	89.5
463.437	82.5
463.657	91.5
463.876	96.5
464.096	94.5
464.316	89.5
464.536	94.5
464.755	101.5
464.975	113.5
465.195	134.5
465.414	135.5
465.634	93.5
465.854	87.5
466.073	87.5
466.293	86.5
466.512	81.5
466.732	79.5
466.951	90.5
467.171	83.5
467.391	91.5
467.61	104.5
467.829	102.5
468.049	100.5
468.268	80.5
468.488	85.5
468.707	81.5
468.927	88.5
469.146	92.5
469.365	76.5
469.585	88.5
469.804	107.5
470.023	80.5
470.243	98.5
470.462	85.5
470.681	105.5
470.901	85.5
471.12	83.5
471.339	82.5
471.558	65.5
471.777	89.5
471.997	82.5
472.216	88.5
472.435	93.5
472.654	85.5
472.873	84.5
473.092	87.5
473.311	86.5
473.53	71.5
473.749	79.5
473.968	93.5
474.187	93.5
474.406	89.5
474.625	90.5
474.844	93.5
475.063	86.5
475.282	97.5
475.501	95.5
475.72	88.5
475.939	91.5
476.158	90.5
476.377	94.5
476.596	77.5
476.814	89.5
477.033	91.5
477.252	84.5
477.471	90.5
477.69	91.5
477.908	91.5
478.127	80.5
478.346	86.5
478.564	87.5
478.783	99.5
479.002	96.5
479.22	96.5
479.439	85.5
479.658	98.5
479.876	86.5
480.095	73.5
480.313	91.5
480.532	82.5
480.751	85.5
480.969	79.5
481.188	110.5
481.406	102.5
481.624	89.5
481.843	94.5
482.061	81.5
482.28	89.5
482.498	90.5
482.717	75.5
482.935	95.5
483.153	79.5
483.372	91.5
483.59	80.5
483.808	94.5
484.027	92.5
484.245	87.5
484.463	106.5
484.681	89.5
484.9	91.5
485.118	94.5
485.336	95.5
485.554	92.5
485.772	105.5
485.99	102.5
486.209	106.5
486.427	100.5
486.645	88.5
486.863	95.5
487.081	101.5
487.299	92.5
487.517	91.5
487.735	98.5
487.953	90.5
488.171	93.5
488.389	92.5
488.607	108.5
488.825	94.5
489.043	89.5
489.261	83.5
489.479	82.5
489.696	81.5
489.914	98.5
490.132	82.5
490.35	83.5
490.568	88.5
490.786	104.5
491.003	105.5
491.221	104.5
491.439	77.5
491.657	86.5
491.874	95.5
492.092	82.5
492.31	90.5
492.527	83.5
492.745	95.5
492.963	91.5
493.18	80.5
493.398	89.5
493.615	97.5
493.833	99.5
494.05	86.5
494.268	94.5
494.485	94.5
494.703	86.5
494.92	93.5
495.138	89.5
495.355	81.5
495.573	78.5
495.79	90.5
496.008	95.5
496.225	74.5
496.442	94.5
496.66	102.5
496.877	87.5
497.094	105.5
497.312	100.5
497.529	94.5
497.746	95.5
497.963	99.5
498.181	70.5
498.398	90.5
498.615	95.5
498.832	89.5
499.049	84.5
499.267	103.5
499.484	100.5
499.701	96.5
499.918	85.5
500.135	83.5
500.352	84.5
500.569	96.5
500.786	96.5
501.003	88.5
501.22	83.5
501.437	78.5
501.654	99.5
501.871	110.5
502.088	82.5
502.305	90.5
502.522	89.5
502.739	82.5
502.956	101.5
503.172	93.5
503.389	89.5
503.606	100.5
503.823	97.5
504.04	103.5
504.256	80.5
504.473	85.5
504.69	100.5
504.907	87.5
505.123	68.5
505.34	102.5
505.557	90.5
505.773	87.5
505.99	97.5
506.207	74.5
506.423	69.5
506.64	99.5
506.856	100.5
507.073	109.5
507.289	99.5
507.506	88.5
507.722	102.5
507.939	101.5
508.155	73.5
508.372	85.5
508.588	100.5
508.805	92.5
509.021	94.5
509.238	98.5
509.454	99.5
509.67	100.5
509.887	107.5
510.103	119.5
510.319	192.5
510.536	614.5
510.752	1911.5
510.968	548.5
511.184	152.5
511.401	99.5
511.617	76.5
511.833	85.5
512.049	99.5
512.265	101.5
512.481	98.5
512.698	95.5
512.914	86.5
513.13	86.5
513.346	80.5
513.562	86.5
513.778	91.5
513.994	92.5
514.21	97.5
514.426	119.5
514.642	114.5
514.858	103.5
515.074	122.5
515.29	370.5
515.506	1144.5
515.721	447.5
515.937	133.5
516.153	112.5
516.369	91.5
516.585	88.5
516.801	96.5
517.016	99.5
517.232	97.5
517.448	92.5
517.664	92.5
517.879	90.5
518.095	93.5
518.311	91.5
518.527	90.5
518.742	87.5
518.958	99.5
519.173	90.5
519.389	88.5
519.605	95.5
519.82	94.5
520.036	93.5
520.251	122.5
520.467	101.5
520.682	99.5
520.898	98.5
521.113	107.5
521.329	131.5
521.544	191.5
521.76	450.5
521.975	1879.5
522.19	1159.5
522.406	254.5
522.621	130.5
522.836	98.5
523.052	97.5
523.267	88.5
523.482	86.5
523.698	100.5
523.913	110.5
524.128	109.5
524.343	87.5
524.559	87.5
524.774	84.5
524.989	92.5
525.204	100.5
525.419	100.5
525.634	100.5
525.849	85.5
526.064	90.5
526.28	92.5
526.495	83.5
526.71	84.5
526.925	86.5
527.14	94.5
527.355	64.5
527.57	83.5
527.785	74.5
527.999	93.5
528.214	102.5
528.429	104.5
528.644	99.5
528.859	84.5
529.074	94.5
529.289	113.5
529.503	141.5
529.718	92.5
529.933	81.5
530.148	101.5
530.363	78.5
530.577	76.5
530.792	88.5
531.007	85.5
531.221	80.5
531.436	95.5
531.651	87.5
531.865	90.5
532.08	88.5
532.295	95.5
532.509	97.5
532.724	112.5
532.938	102.5
533.153	99.5
533.367	97.5
533.582	110.5
533.796	94.5
534.011	84.5
534.225	93.5
534.44	89.5
534.654	97.5
534.868	93.5
535.083	82.5
535.297	83.5
535.511	108.5
535.726	99.5
535.94	103.5
536.154	104.5
