Data from Uncirc_2002_H10_HRD10591_00026.txt Node
Date: Wed Jan 03 10:39:46 EST 2024
User: Yrep
Spectrometer: HR+D1059
Trigger mode: 1
Integration Time (sec): 1.000000E-1
Scans to average: 1
Electric dark correction enabled: true
Nonlinearity correction enabled: false
Boxcar width: 0
XAxis mode: Wavelengths
Number of Pixels in Spectrum: 2048
>>>>>Begin Spectral Data<<<<<
223.165	-22.75
223.4	-22.75
223.635	-22.75
223.869	-18.75
224.104	-17.75
224.338	-3.75
224.573	-23.75
224.808	-27.75
225.042	-2.75
225.277	-14.75
225.511	-0.75
225.746	-8.75
225.98	22.25
226.215	22.25
226.449	15.25
226.683	18.25
226.918	30.25
227.152	33.25
227.387	30.25
227.621	29.25
227.856	31.25
228.09	42.25
228.324	46.25
228.559	48.25
228.793	49.25
229.027	60.25
229.262	60.25
229.496	80.25
229.73	85.25
229.964	62.25
230.199	84.25
230.433	74.25
230.667	62.25
230.901	70.25
231.136	70.25
231.37	81.25
231.604	82.25
231.838	94.25
232.072	85.25
232.306	80.25
232.541	81.25
232.775	75.25
233.009	73.25
233.243	85.25
233.477	85.25
233.711	82.25
233.945	87.25
234.179	72.25
234.413	85.25
234.647	87.25
234.881	86.25
235.115	67.25
235.349	82.25
235.583	74.25
235.817	65.25
236.051	79.25
236.285	74.25
236.519	74.25
236.753	72.25
236.987	68.25
237.221	71.25
237.455	80.25
237.689	80.25
237.922	85.25
238.156	80.25
238.39	66.25
238.624	62.25
238.858	79.25
239.091	79.25
239.325	66.25
239.559	78.25
239.793	71.25
240.027	86.25
240.26	68.25
240.494	76.25
240.728	67.25
240.961	74.25
241.195	74.25
241.429	86.25
241.662	70.25
241.896	77.25
242.13	88.25
242.363	66.25
242.597	72.25
242.83	76.25
243.064	78.25
243.298	74.25
243.531	71.25
243.765	64.25
243.998	65.25
244.232	65.25
244.465	88.25
244.699	75.25
244.932	91.25
245.166	67.25
245.399	72.25
245.633	75.25
245.866	61.25
246.099	81.25
246.333	80.25
246.566	82.25
246.8	71.25
247.033	65.25
247.266	70.25
247.5	74.25
247.733	85.25
247.966	89.25
248.2	83.25
248.433	76.25
248.666	88.25
248.899	66.25
249.133	85.25
249.366	83.25
249.599	80.25
249.832	92.25
250.066	68.25
250.299	90.25
250.532	82.25
250.765	65.25
250.998	85.25
251.231	70.25
251.465	75.25
251.698	70.25
251.931	65.25
252.164	78.25
252.397	71.25
252.63	79.25
252.863	87.25
253.096	77.25
253.329	81.25
253.562	67.25
253.795	81.25
254.028	70.25
254.261	63.25
254.494	82.25
254.727	69.25
254.96	73.25
255.193	69.25
255.426	93.25
255.659	74.25
255.892	76.25
256.124	70.25
256.357	71.25
256.59	83.25
256.823	74.25
257.056	82.25
257.289	76.25
257.521	83.25
257.754	76.25
257.987	82.25
258.22	92.25
258.452	84.25
258.685	69.25
258.918	83.25
259.151	68.25
259.383	73.25
259.616	70.25
259.849	84.25
260.081	63.25
260.314	76.25
260.547	68.25
260.779	63.25
261.012	81.25
261.244	81.25
261.477	80.25
261.71	81.25
261.942	106.25
262.175	115.25
262.407	91.25
262.64	79.25
262.872	82.25
263.105	87.25
263.337	66.25
263.57	82.25
263.802	69.25
264.035	84.25
264.267	79.25
264.499	76.25
264.732	80.25
264.964	62.25
265.197	86.25
265.429	82.25
265.661	78.25
265.894	86.25
266.126	82.25
266.358	79.25
266.591	66.25
266.823	78.25
267.055	71.25
267.287	73.25
267.52	83.25
267.752	72.25
267.984	75.25
268.216	69.25
268.448	77.25
268.681	88.25
268.913	83.25
269.145	91.25
269.377	73.25
269.609	76.25
269.841	67.25
270.073	74.25
270.306	99.25
270.538	86.25
270.77	77.25
271.002	80.25
271.234	73.25
271.466	92.25
271.698	64.25
271.93	68.25
272.162	81.25
272.394	95.25
272.626	81.25
272.858	83.25
273.09	74.25
273.322	71.25
273.553	65.25
273.785	81.25
274.017	83.25
274.249	77.25
274.481	90.25
274.713	82.25
274.945	78.25
275.176	78.25
275.408	76.25
275.64	75.25
275.872	81.25
276.104	76.25
276.335	90.25
276.567	91.25
276.799	100.25
277.031	94.25
277.262	82.25
277.494	67.25
277.726	79.25
277.957	87.25
278.189	80.25
278.421	63.25
278.652	90.25
278.884	87.25
279.115	86.25
279.347	90.25
279.579	82.25
279.81	92.25
280.042	97.25
280.273	99.25
280.505	93.25
280.736	82.25
280.968	67.25
281.199	75.25
281.431	82.25
281.662	80.25
281.894	80.25
282.125	90.25
282.356	107.25
282.588	123.25
282.819	99.25
283.051	87.25
283.282	83.25
283.513	69.25
283.745	82.25
283.976	87.25
284.207	79.25
284.439	96.25
284.67	79.25
284.901	88.25
285.132	83.25
285.364	81.25
285.595	76.25
285.826	79.25
286.057	84.25
286.288	86.25
286.52	89.25
286.751	77.25
286.982	74.25
287.213	88.25
287.444	83.25
287.675	91.25
287.906	88.25
288.138	81.25
288.369	85.25
288.6	78.25
288.831	98.25
289.062	87.25
289.293	95.25
289.524	76.25
289.755	88.25
289.986	91.25
290.217	83.25
290.448	94.25
290.679	84.25
290.91	92.25
291.141	76.25
291.371	92.25
291.602	75.25
291.833	87.25
292.064	87.25
292.295	78.25
292.526	83.25
292.757	85.25
292.987	75.25
293.218	96.25
293.449	89.25
293.68	74.25
293.91	93.25
294.141	90.25
294.372	80.25
294.603	87.25
294.833	74.25
295.064	78.25
295.295	76.25
295.525	74.25
295.756	96.25
295.987	100.25
296.217	120.25
296.448	105.25
296.679	97.25
296.909	82.25
297.14	95.25
297.37	79.25
297.601	88.25
297.831	89.25
298.062	81.25
298.292	82.25
298.523	86.25
298.753	76.25
298.984	99.25
299.214	71.25
299.445	82.25
299.675	87.25
299.905	85.25
300.136	94.25
300.366	88.25
300.597	82.25
300.827	86.25
301.057	92.25
301.288	90.25
301.518	83.25
301.748	74.25
301.979	99.25
302.209	79.25
302.439	83.25
302.669	85.25
302.9	88.25
303.13	75.25
303.36	99.25
303.59	83.25
303.82	99.25
304.051	86.25
304.281	80.25
304.511	98.25
304.741	84.25
304.971	69.25
305.201	83.25
305.431	79.25
305.661	77.25
305.891	79.25
306.121	77.25
306.352	93.25
306.582	106.25
306.812	82.25
307.042	75.25
307.272	82.25
307.502	88.25
307.731	78.25
307.961	86.25
308.191	79.25
308.421	79.25
308.651	91.25
308.881	100.25
309.111	100.25
309.341	85.25
309.571	85.25
309.8	92.25
310.03	82.25
310.26	71.25
310.49	95.25
310.72	99.25
310.949	92.25
311.179	91.25
311.409	85.25
311.639	93.25
311.868	91.25
312.098	88.25
312.328	77.25
312.557	99.25
312.787	103.25
313.017	99.25
313.246	84.25
313.476	91.25
313.706	72.25
313.935	95.25
314.165	86.25
314.394	85.25
314.624	109.25
314.853	81.25
315.083	98.25
315.312	93.25
315.542	98.25
315.771	88.25
316.001	101.25
316.23	91.25
316.46	82.25
316.689	86.25
316.919	92.25
317.148	88.25
317.377	98.25
317.607	104.25
317.836	84.25
318.065	85.25
318.295	87.25
318.524	94.25
318.753	82.25
318.983	82.25
319.212	99.25
319.441	98.25
319.67	95.25
319.9	92.25
320.129	86.25
320.358	96.25
320.587	93.25
320.816	95.25
321.046	85.25
321.275	85.25
321.504	96.25
321.733	88.25
321.962	93.25
322.191	105.25
322.42	101.25
322.649	116.25
322.878	109.25
323.108	106.25
323.337	88.25
323.566	123.25
323.795	150.25
324.024	195.25
324.253	362.25
324.482	784.25
324.71	1575.25
324.939	2085.25
325.168	751.25
325.397	221.25
325.626	133.25
325.855	120.25
326.084	123.25
326.313	118.25
326.542	142.25
326.77	234.25
326.999	423.25
327.228	874.25
327.457	1611.25
327.686	1246.25
327.914	338.25
328.143	176.25
328.372	127.25
328.6	110.25
328.829	103.25
329.058	109.25
329.287	112.25
329.515	98.25
329.744	107.25
329.972	91.25
330.201	95.25
330.43	86.25
330.658	119.25
330.887	129.25
331.115	120.25
331.344	86.25
331.572	98.25
331.801	96.25
332.03	91.25
332.258	105.25
332.486	85.25
332.715	86.25
332.943	86.25
333.172	76.25
333.4	89.25
333.629	98.25
333.857	103.25
334.085	82.25
334.314	102.25
334.542	101.25
334.771	107.25
334.999	87.25
335.227	82.25
335.455	95.25
335.684	102.25
335.912	104.25
336.14	93.25
336.369	98.25
336.597	88.25
336.825	102.25
337.053	96.25
337.281	91.25
337.51	79.25
337.738	81.25
337.966	90.25
338.194	84.25
338.422	95.25
338.65	94.25
338.878	82.25
339.106	86.25
339.334	88.25
339.562	91.25
339.79	84.25
340.018	79.25
340.246	63.25
340.474	89.25
340.702	91.25
340.93	89.25
341.158	95.25
341.386	93.25
341.614	82.25
341.842	97.25
342.07	93.25
342.298	92.25
342.526	90.25
342.754	70.25
342.981	87.25
343.209	76.25
343.437	98.25
343.665	87.25
343.893	90.25
344.12	88.25
344.348	83.25
344.576	80.25
344.804	89.25
345.031	80.25
345.259	77.25
345.487	90.25
345.714	88.25
345.942	86.25
346.17	95.25
346.397	87.25
346.625	77.25
346.853	90.25
347.08	69.25
347.308	83.25
347.535	105.25
347.763	95.25
347.99	95.25
348.218	101.25
348.445	95.25
348.673	90.25
348.9	95.25
349.128	86.25
349.355	97.25
349.583	91.25
349.81	99.25
350.037	96.25
350.265	84.25
350.492	97.25
350.72	101.25
350.947	94.25
351.174	110.25
351.402	91.25
351.629	104.25
351.856	81.25
352.083	87.25
352.311	99.25
352.538	103.25
352.765	99.25
352.992	83.25
353.22	103.25
353.447	109.25
353.674	94.25
353.901	106.25
354.128	85.25
354.355	83.25
354.583	90.25
354.81	76.25
355.037	102.25
355.264	96.25
355.491	75.25
355.718	87.25
355.945	75.25
356.172	105.25
356.399	87.25
356.626	83.25
356.853	71.25
357.08	78.25
357.307	84.25
357.534	84.25
357.761	88.25
357.988	87.25
358.215	87.25
358.441	89.25
358.668	83.25
358.895	83.25
359.122	92.25
359.349	77.25
359.576	83.25
359.802	88.25
360.029	103.25
360.256	107.25
360.483	78.25
360.709	89.25
360.936	95.25
361.163	91.25
361.39	88.25
361.616	102.25
361.843	90.25
362.07	86.25
362.296	88.25
362.523	91.25
362.749	94.25
362.976	82.25
363.203	96.25
363.429	92.25
363.656	89.25
363.882	86.25
364.109	78.25
364.335	84.25
364.562	92.25
364.788	91.25
365.015	79.25
365.241	87.25
365.468	86.25
365.694	104.25
365.92	95.25
366.147	107.25
366.373	94.25
366.599	82.25
366.826	92.25
367.052	83.25
367.278	78.25
367.505	90.25
367.731	108.25
367.957	78.25
368.184	77.25
368.41	98.25
368.636	98.25
368.862	110.25
369.089	101.25
369.315	94.25
369.541	82.25
369.767	67.25
369.993	88.25
370.219	82.25
370.445	78.25
370.672	66.25
370.898	76.25
371.124	93.25
371.35	83.25
371.576	81.25
371.802	81.25
372.028	85.25
372.254	88.25
372.48	85.25
372.706	92.25
372.932	78.25
373.158	81.25
373.384	75.25
373.61	87.25
373.835	99.25
374.061	83.25
374.287	94.25
374.513	94.25
374.739	83.25
374.965	78.25
375.191	90.25
375.416	89.25
375.642	85.25
375.868	91.25
376.094	78.25
376.319	74.25
376.545	81.25
376.771	86.25
376.997	94.25
377.222	87.25
377.448	99.25
377.674	90.25
377.899	83.25
378.125	87.25
378.35	83.25
378.576	78.25
378.802	69.25
379.027	84.25
379.253	92.25
379.478	79.25
379.704	82.25
379.929	100.25
380.155	90.25
380.38	99.25
380.606	82.25
380.831	82.25
381.057	100.25
381.282	87.25
381.507	102.25
381.733	90.25
381.958	82.25
382.184	88.25
382.409	81.25
382.634	92.25
382.86	81.25
383.085	86.25
383.31	94.25
383.535	85.25
383.761	98.25
383.986	93.25
384.211	92.25
384.436	78.25
384.662	78.25
384.887	94.25
385.112	118.25
385.337	101.25
385.562	94.25
385.787	102.25
386.013	99.25
386.238	106.25
386.463	105.25
386.688	105.25
386.913	99.25
387.138	91.25
387.363	102.25
387.588	106.25
387.813	87.25
388.038	101.25
388.263	101.25
388.488	125.25
388.713	110.25
388.938	84.25
389.163	92.25
389.387	84.25
389.612	90.25
389.837	78.25
390.062	86.25
390.287	87.25
390.512	77.25
390.736	88.25
390.961	91.25
391.186	99.25
391.411	104.25
391.636	88.25
391.86	85.25
392.085	79.25
392.31	87.25
392.534	83.25
392.759	86.25
392.984	91.25
393.208	98.25
393.433	116.25
393.658	100.25
393.882	85.25
394.107	72.25
394.331	80.25
394.556	86.25
394.78	89.25
395.005	88.25
395.229	75.25
395.454	84.25
395.678	80.25
395.903	80.25
396.127	89.25
396.352	85.25
396.576	90.25
396.801	95.25
397.025	103.25
397.249	92.25
397.474	86.25
397.698	88.25
397.922	81.25
398.147	75.25
398.371	86.25
398.595	78.25
398.82	79.25
399.044	82.25
399.268	79.25
399.492	81.25
399.717	76.25
399.941	96.25
400.165	85.25
400.389	101.25
400.613	102.25
400.837	72.25
401.062	83.25
401.286	86.25
401.51	79.25
401.734	94.25
401.958	91.25
402.182	122.25
402.406	148.25
402.63	106.25
402.854	85.25
403.078	81.25
403.302	84.25
403.526	81.25
403.75	80.25
403.974	79.25
404.198	87.25
404.422	91.25
404.645	90.25
404.869	89.25
405.093	91.25
405.317	114.25
405.541	98.25
405.765	90.25
405.988	108.25
406.212	148.25
406.436	200.25
406.66	134.25
406.883	96.25
407.107	92.25
407.331	99.25
407.555	98.25
407.778	86.25
408.002	88.25
408.226	82.25
408.449	97.25
408.673	86.25
408.896	92.25
409.12	81.25
409.344	91.25
409.567	87.25
409.791	98.25
410.014	76.25
410.238	99.25
410.461	88.25
410.685	86.25
410.908	93.25
411.132	108.25
411.355	93.25
411.578	102.25
411.802	79.25
412.025	92.25
412.249	78.25
412.472	88.25
412.695	74.25
412.919	90.25
413.142	85.25
413.365	69.25
413.589	85.25
413.812	78.25
414.035	88.25
414.258	91.25
414.482	86.25
414.705	78.25
414.928	91.25
415.151	86.25
415.374	77.25
415.597	98.25
415.821	82.25
416.044	74.25
416.267	91.25
416.49	81.25
416.713	99.25
416.936	83.25
417.159	84.25
417.382	78.25
417.605	95.25
417.828	83.25
418.051	82.25
418.274	75.25
418.497	84.25
418.72	79.25
418.943	76.25
419.166	91.25
419.389	82.25
419.611	87.25
419.834	85.25
420.057	88.25
420.28	87.25
420.503	83.25
420.726	74.25
420.948	80.25
421.171	92.25
421.394	76.25
421.617	75.25
421.839	80.25
422.062	74.25
422.285	94.25
422.507	98.25
422.73	100.25
422.953	99.25
423.175	100.25
423.398	83.25
423.621	93.25
423.843	78.25
424.066	86.25
424.288	81.25
424.511	67.25
424.733	94.25
424.956	95.25
425.178	85.25
425.401	98.25
425.623	98.25
425.846	98.25
426.068	102.25
426.291	87.25
426.513	95.25
426.735	74.25
426.958	79.25
427.18	94.25
427.402	128.25
427.625	154.25
427.847	128.25
428.069	90.25
428.292	92.25
428.514	97.25
428.736	88.25
428.958	73.25
429.181	82.25
429.403	80.25
429.625	86.25
429.847	88.25
430.069	87.25
430.292	98.25
430.514	92.25
430.736	77.25
430.958	78.25
431.18	87.25
431.402	79.25
431.624	85.25
431.846	88.25
432.068	71.25
432.29	77.25
432.512	85.25
432.734	80.25
432.956	85.25
433.178	98.25
433.4	108.25
433.622	88.25
433.844	83.25
434.066	96.25
434.287	86.25
434.509	80.25
434.731	82.25
434.953	78.25
435.175	78.25
435.397	95.25
435.618	90.25
435.84	97.25
436.062	128.25
436.284	102.25
436.505	101.25
436.727	90.25
436.949	94.25
437.17	89.25
437.392	84.25
437.614	107.25
437.835	98.25
438.057	99.25
438.278	104.25
438.5	94.25
438.721	121.25
438.943	97.25
439.165	82.25
439.386	88.25
439.608	96.25
439.829	90.25
440.05	117.25
440.272	142.25
440.493	89.25
440.715	77.25
440.936	88.25
441.158	78.25
441.379	74.25
441.6	90.25
441.822	80.25
442.043	85.25
442.264	107.25
442.486	90.25
442.707	87.25
442.928	102.25
443.149	126.25
443.371	116.25
443.592	100.25
443.813	100.25
444.034	98.25
444.255	83.25
444.476	83.25
444.698	78.25
444.919	83.25
445.14	127.25
445.361	124.25
445.582	114.25
445.803	131.25
446.024	129.25
446.245	118.25
446.466	126.25
446.687	94.25
446.908	78.25
447.129	77.25
447.35	88.25
447.571	96.25
447.792	101.25
448.013	91.25
448.234	107.25
448.455	98.25
448.675	114.25
448.896	113.25
449.117	96.25
449.338	101.25
449.559	122.25
449.779	129.25
450	78.25
450.221	81.25
450.442	76.25
450.662	85.25
450.883	92.25
451.104	109.25
451.324	94.25
451.545	93.25
451.766	80.25
451.986	78.25
452.207	79.25
452.428	80.25
452.648	80.25
452.869	94.25
453.089	106.25
453.31	124.25
453.53	85.25
453.751	94.25
453.971	94.25
454.192	85.25
454.412	75.25
454.633	71.25
454.853	86.25
455.073	85.25
455.294	88.25
455.514	83.25
455.734	87.25
455.955	76.25
456.175	67.25
456.395	89.25
456.616	82.25
456.836	76.25
457.056	81.25
457.276	90.25
457.497	91.25
457.717	80.25
457.937	80.25
458.157	89.25
458.377	85.25
458.598	99.25
458.818	127.25
459.038	152.25
459.258	107.25
459.478	87.25
459.698	81.25
459.918	75.25
460.138	85.25
460.358	78.25
460.578	83.25
460.798	90.25
461.018	93.25
461.238	84.25
461.458	66.25
461.678	81.25
461.898	80.25
462.118	76.25
462.338	88.25
462.558	94.25
462.777	86.25
462.997	85.25
463.217	92.25
463.437	87.25
463.657	82.25
463.876	78.25
464.096	82.25
464.316	83.25
464.536	82.25
464.755	85.25
464.975	92.25
465.195	148.25
465.414	143.25
465.634	100.25
465.854	91.25
466.073	87.25
466.293	91.25
466.512	76.25
466.732	83.25
466.951	85.25
467.171	98.25
467.391	74.25
467.61	94.25
467.829	91.25
468.049	82.25
468.268	84.25
468.488	92.25
468.707	87.25
468.927	72.25
469.146	75.25
469.365	85.25
469.585	86.25
469.804	75.25
470.023	85.25
470.243	100.25
470.462	101.25
470.681	100.25
470.901	90.25
471.12	85.25
471.339	84.25
471.558	74.25
471.777	72.25
471.997	93.25
472.216	84.25
472.435	98.25
472.654	71.25
472.873	76.25
473.092	74.25
473.311	82.25
473.53	70.25
473.749	72.25
473.968	92.25
474.187	97.25
474.406	82.25
474.625	88.25
474.844	88.25
475.063	82.25
475.282	78.25
475.501	95.25
475.72	102.25
475.939	95.25
476.158	97.25
476.377	78.25
476.596	75.25
476.814	80.25
477.033	86.25
477.252	72.25
477.471	86.25
477.69	99.25
477.908	96.25
478.127	81.25
478.346	78.25
478.564	90.25
478.783	98.25
479.002	88.25
479.22	69.25
479.439	94.25
479.658	102.25
479.876	86.25
480.095	100.25
480.313	82.25
480.532	93.25
480.751	71.25
480.969	97.25
481.188	98.25
481.406	94.25
481.624	102.25
481.843	86.25
482.061	89.25
482.28	91.25
482.498	90.25
482.717	78.25
482.935	84.25
483.153	85.25
483.372	86.25
483.59	91.25
483.808	92.25
484.027	87.25
484.245	88.25
484.463	84.25
484.681	84.25
484.9	87.25
485.118	92.25
485.336	99.25
485.554	82.25
485.772	97.25
485.99	95.25
486.209	90.25
486.427	103.25
486.645	96.25
486.863	96.25
487.081	87.25
487.299	101.25
487.517	77.25
487.735	85.25
487.953	78.25
488.171	88.25
488.389	81.25
488.607	86.25
488.825	85.25
489.043	92.25
489.261	98.25
489.479	82.25
489.696	85.25
489.914	74.25
490.132	63.25
490.35	84.25
490.568	87.25
490.786	91.25
491.003	83.25
491.221	90.25
491.439	92.25
491.657	103.25
491.874	79.25
492.092	80.25
492.31	84.25
492.527	97.25
492.745	90.25
492.963	88.25
493.18	90.25
493.398	82.25
493.615	96.25
493.833	103.25
494.05	87.25
494.268	92.25
494.485	79.25
494.703	87.25
494.92	90.25
495.138	92.25
495.355	74.25
495.573	78.25
495.79	66.25
496.008	77.25
496.225	97.25
496.442	79.25
496.66	88.25
496.877	87.25
497.094	91.25
497.312	79.25
497.529	72.25
497.746	75.25
497.963	81.25
498.181	84.25
498.398	86.25
498.615	114.25
498.832	89.25
499.049	77.25
499.267	77.25
499.484	95.25
499.701	81.25
499.918	77.25
500.135	76.25
500.352	88.25
500.569	91.25
500.786	84.25
501.003	85.25
501.22	84.25
501.437	81.25
501.654	85.25
501.871	87.25
502.088	82.25
502.305	84.25
502.522	89.25
502.739	79.25
502.956	73.25
503.172	88.25
503.389	70.25
503.606	104.25
503.823	92.25
504.04	84.25
504.256	95.25
504.473	84.25
504.69	95.25
504.907	86.25
505.123	86.25
505.34	93.25
505.557	88.25
505.773	65.25
505.99	83.25
506.207	72.25
506.423	82.25
506.64	68.25
506.856	85.25
507.073	90.25
507.289	71.25
507.506	91.25
507.722	100.25
507.939	99.25
508.155	99.25
508.372	78.25
508.588	87.25
508.805	79.25
509.021	78.25
509.238	98.25
509.454	94.25
509.67	86.25
509.887	100.25
510.103	117.25
510.319	214.25
510.536	690.25
510.752	2258.25
510.968	636.25
511.184	147.25
511.401	94.25
511.617	99.25
511.833	81.25
512.049	93.25
512.265	83.25
512.481	83.25
512.698	75.25
512.914	85.25
513.13	91.25
513.346	82.25
513.562	104.25
513.778	105.25
513.994	78.25
514.21	116.25
514.426	115.25
514.642	113.25
514.858	126.25
515.074	155.25
515.29	431.25
515.506	1392.25
515.721	520.25
515.937	145.25
516.153	99.25
516.369	93.25
516.585	90.25
516.801	75.25
517.016	88.25
517.232	77.25
517.448	91.25
