Data from Uncirc_2002_H10_HRD10591_00005.txt Node
Date: Wed Jan 03 10:39:42 EST 2024
User: Yrep
Spectrometer: HR+D1059
Trigger mode: 1
Integration Time (sec): 1.000000E-1
Scans to average: 1
Electric dark correction enabled: true
Nonlinearity correction enabled: false
Boxcar width: 0
XAxis mode: Wavelengths
Number of Pixels in Spectrum: 2048
>>>>>Begin Spectral Data<<<<<
223.165	-12.56
223.4	-12.56
223.635	-12.56
223.869	-19.56
224.104	-9.56
224.338	-11.56
224.573	-18.56
224.808	-16.56
225.042	-6.56
225.277	-8.56
225.511	-8.56
225.746	7.44
225.98	1.44
226.215	8.44
226.449	16.44
226.683	21.44
226.918	19.44
227.152	37.44
227.387	31.44
227.621	35.44
227.856	47.44
228.09	49.44
228.324	56.44
228.559	56.44
228.793	54.44
229.027	57.44
229.262	75.44
229.496	73.44
229.73	89.44
229.964	96.44
230.199	88.44
230.433	75.44
230.667	74.44
230.901	84.44
231.136	84.44
231.37	88.44
231.604	92.44
231.838	70.44
232.072	88.44
232.306	77.44
232.541	95.44
232.775	91.44
233.009	82.44
233.243	80.44
233.477	81.44
233.711	77.44
233.945	82.44
234.179	78.44
234.413	74.44
234.647	73.44
234.881	69.44
235.115	92.44
235.349	89.44
235.583	74.44
235.817	76.44
236.051	80.44
236.285	75.44
236.519	82.44
236.753	80.44
236.987	75.44
237.221	97.44
237.455	80.44
237.689	57.44
237.922	86.44
238.156	76.44
238.39	74.44
238.624	82.44
238.858	78.44
239.091	91.44
239.325	89.44
239.559	84.44
239.793	71.44
240.027	77.44
240.26	82.44
240.494	89.44
240.728	82.44
240.961	80.44
241.195	96.44
241.429	82.44
241.662	80.44
241.896	85.44
242.13	74.44
242.363	79.44
242.597	87.44
242.83	73.44
243.064	74.44
243.298	86.44
243.531	84.44
243.765	68.44
243.998	87.44
244.232	83.44
244.465	93.44
244.699	85.44
244.932	74.44
245.166	89.44
245.399	69.44
245.633	74.44
245.866	88.44
246.099	54.44
246.333	76.44
246.566	78.44
246.8	84.44
247.033	86.44
247.266	88.44
247.5	80.44
247.733	80.44
247.966	85.44
248.2	72.44
248.433	86.44
248.666	77.44
248.899	89.44
249.133	91.44
249.366	105.44
249.599	92.44
249.832	94.44
250.066	85.44
250.299	78.44
250.532	89.44
250.765	74.44
250.998	92.44
251.231	100.44
251.465	77.44
251.698	89.44
251.931	102.44
252.164	75.44
252.397	79.44
252.63	83.44
252.863	87.44
253.096	70.44
253.329	89.44
253.562	73.44
253.795	91.44
254.028	94.44
254.261	89.44
254.494	87.44
254.727	92.44
254.96	97.44
255.193	101.44
255.426	89.44
255.659	86.44
255.892	88.44
256.124	86.44
256.357	92.44
256.59	84.44
256.823	83.44
257.056	89.44
257.289	96.44
257.521	70.44
257.754	85.44
257.987	97.44
258.22	81.44
258.452	87.44
258.685	77.44
258.918	69.44
259.151	86.44
259.383	91.44
259.616	96.44
259.849	90.44
260.081	76.44
260.314	84.44
260.547	96.44
260.779	83.44
261.012	86.44
261.244	89.44
261.477	95.44
261.71	103.44
261.942	92.44
262.175	112.44
262.407	99.44
262.64	93.44
262.872	77.44
263.105	83.44
263.337	77.44
263.57	79.44
263.802	94.44
264.035	77.44
264.267	77.44
264.499	60.44
264.732	79.44
264.964	92.44
265.197	88.44
265.429	88.44
265.661	98.44
265.894	96.44
266.126	87.44
266.358	92.44
266.591	88.44
266.823	78.44
267.055	85.44
267.287	89.44
267.52	83.44
267.752	81.44
267.984	72.44
268.216	90.44
268.448	80.44
268.681	78.44
268.913	80.44
269.145	86.44
269.377	91.44
269.609	92.44
269.841	82.44
270.073	95.44
270.306	93.44
270.538	98.44
270.77	98.44
271.002	87.44
271.234	86.44
271.466	92.44
271.698	81.44
271.93	90.44
272.162	80.44
272.394	93.44
272.626	86.44
272.858	77.44
273.09	90.44
273.322	78.44
273.553	83.44
273.785	91.44
274.017	76.44
274.249	91.44
274.481	82.44
274.713	103.44
274.945	79.44
275.176	94.44
275.408	100.44
275.64	93.44
275.872	91.44
276.104	91.44
276.335	71.44
276.567	101.44
276.799	104.44
277.031	91.44
277.262	88.44
277.494	90.44
277.726	101.44
277.957	91.44
278.189	88.44
278.421	78.44
278.652	85.44
278.884	82.44
279.115	92.44
279.347	95.44
279.579	95.44
279.81	86.44
280.042	93.44
280.273	92.44
280.505	86.44
280.736	89.44
280.968	80.44
281.199	86.44
281.431	88.44
281.662	72.44
281.894	91.44
282.125	103.44
282.356	115.44
282.588	147.44
282.819	129.44
283.051	89.44
283.282	96.44
283.513	96.44
283.745	97.44
283.976	92.44
284.207	86.44
284.439	93.44
284.67	90.44
284.901	89.44
285.132	80.44
285.364	83.44
285.595	104.44
285.826	86.44
286.057	85.44
286.288	92.44
286.52	81.44
286.751	76.44
286.982	89.44
287.213	98.44
287.444	77.44
287.675	89.44
287.906	75.44
288.138	97.44
288.369	89.44
288.6	90.44
288.831	98.44
289.062	101.44
289.293	108.44
289.524	96.44
289.755	93.44
289.986	93.44
290.217	89.44
290.448	90.44
290.679	94.44
290.91	73.44
291.141	86.44
291.371	81.44
291.602	88.44
291.833	92.44
292.064	86.44
292.295	82.44
292.526	93.44
292.757	98.44
292.987	86.44
293.218	88.44
293.449	92.44
293.68	100.44
293.91	88.44
294.141	93.44
294.372	84.44
294.603	89.44
294.833	90.44
295.064	87.44
295.295	81.44
295.525	99.44
295.756	96.44
295.987	99.44
296.217	134.44
296.448	117.44
296.679	93.44
296.909	97.44
297.14	93.44
297.37	86.44
297.601	88.44
297.831	92.44
298.062	108.44
298.292	99.44
298.523	98.44
298.753	100.44
298.984	94.44
299.214	93.44
299.445	92.44
299.675	96.44
299.905	93.44
300.136	92.44
300.366	106.44
300.597	94.44
300.827	93.44
301.057	96.44
301.288	99.44
301.518	98.44
301.748	92.44
301.979	86.44
302.209	101.44
302.439	94.44
302.669	107.44
302.9	101.44
303.13	100.44
303.36	92.44
303.59	107.44
303.82	93.44
304.051	94.44
304.281	110.44
304.511	81.44
304.741	92.44
304.971	88.44
305.201	91.44
305.431	103.44
305.661	101.44
305.891	86.44
306.121	80.44
306.352	106.44
306.582	101.44
306.812	87.44
307.042	88.44
307.272	97.44
307.502	85.44
307.731	116.44
307.961	91.44
308.191	92.44
308.421	101.44
308.651	83.44
308.881	94.44
309.111	97.44
309.341	96.44
309.571	100.44
309.8	82.44
310.03	89.44
310.26	108.44
310.49	96.44
310.72	91.44
310.949	100.44
311.179	101.44
311.409	89.44
311.639	105.44
311.868	101.44
312.098	109.44
312.328	97.44
312.557	112.44
312.787	105.44
313.017	104.44
313.246	93.44
313.476	98.44
313.706	98.44
313.935	85.44
314.165	95.44
314.394	95.44
314.624	98.44
314.853	102.44
315.083	110.44
315.312	103.44
315.542	96.44
315.771	82.44
316.001	87.44
316.23	89.44
316.46	82.44
316.689	85.44
316.919	88.44
317.148	94.44
317.377	90.44
317.607	98.44
317.836	86.44
318.065	98.44
318.295	82.44
318.524	90.44
318.753	93.44
318.983	110.44
319.212	104.44
319.441	111.44
319.67	121.44
319.9	103.44
320.129	90.44
320.358	87.44
320.587	97.44
320.816	96.44
321.046	90.44
321.275	107.44
321.504	111.44
321.733	109.44
321.962	103.44
322.191	91.44
322.42	103.44
322.649	110.44
322.878	120.44
323.108	115.44
323.337	137.44
323.566	141.44
323.795	138.44
324.024	205.44
324.253	373.44
324.482	772.44
324.71	1592.44
324.939	2121.44
325.168	804.44
325.397	232.44
325.626	148.44
325.855	143.44
326.084	115.44
326.313	141.44
326.542	151.44
326.77	237.44
326.999	429.44
327.228	899.44
327.457	1678.44
327.686	1330.44
327.914	356.44
328.143	190.44
328.372	142.44
328.6	134.44
328.829	106.44
329.058	110.44
329.287	111.44
329.515	104.44
329.744	111.44
329.972	109.44
330.201	108.44
330.43	110.44
330.658	113.44
330.887	136.44
331.115	117.44
331.344	79.44
331.572	81.44
331.801	88.44
332.03	94.44
332.258	113.44
332.486	103.44
332.715	88.44
332.943	84.44
333.172	91.44
333.4	109.44
333.629	105.44
333.857	116.44
334.085	94.44
334.314	88.44
334.542	107.44
334.771	106.44
334.999	105.44
335.227	108.44
335.455	96.44
335.684	89.44
335.912	106.44
336.14	85.44
336.369	101.44
336.597	94.44
336.825	110.44
337.053	103.44
337.281	95.44
337.51	93.44
337.738	90.44
337.966	92.44
338.194	86.44
338.422	100.44
338.65	97.44
338.878	85.44
339.106	94.44
339.334	100.44
339.562	98.44
339.79	100.44
340.018	86.44
340.246	96.44
340.474	96.44
340.702	90.44
340.93	93.44
341.158	97.44
341.386	95.44
341.614	110.44
341.842	118.44
342.07	100.44
342.298	97.44
342.526	89.44
342.754	101.44
342.981	93.44
343.209	98.44
343.437	93.44
343.665	110.44
343.893	98.44
344.12	90.44
344.348	87.44
344.576	90.44
344.804	102.44
345.031	86.44
345.259	91.44
345.487	111.44
345.714	109.44
345.942	106.44
346.17	101.44
346.397	96.44
346.625	92.44
346.853	92.44
347.08	97.44
347.308	92.44
347.535	93.44
347.763	107.44
347.99	108.44
348.218	97.44
348.445	109.44
348.673	96.44
348.9	93.44
349.128	108.44
349.355	96.44
349.583	110.44
349.81	103.44
350.037	99.44
350.265	100.44
350.492	91.44
350.72	86.44
350.947	99.44
351.174	112.44
351.402	121.44
351.629	100.44
351.856	84.44
352.083	99.44
352.311	105.44
352.538	114.44
352.765	108.44
352.992	119.44
353.22	112.44
353.447	109.44
353.674	91.44
353.901	90.44
354.128	87.44
354.355	106.44
354.583	101.44
354.81	97.44
355.037	89.44
355.264	93.44
355.491	91.44
355.718	96.44
355.945	97.44
356.172	97.44
356.399	99.44
356.626	91.44
356.853	107.44
357.08	100.44
357.307	99.44
357.534	100.44
357.761	86.44
357.988	90.44
358.215	92.44
358.441	99.44
358.668	106.44
358.895	85.44
359.122	105.44
359.349	78.44
359.576	106.44
359.802	100.44
360.029	113.44
360.256	117.44
360.483	113.44
360.709	95.44
360.936	98.44
361.163	94.44
361.39	93.44
361.616	98.44
361.843	104.44
362.07	107.44
362.296	93.44
362.523	98.44
362.749	91.44
362.976	92.44
363.203	94.44
363.429	86.44
363.656	96.44
363.882	89.44
364.109	95.44
364.335	90.44
364.562	99.44
364.788	87.44
365.015	102.44
365.241	92.44
365.468	91.44
365.694	94.44
365.92	98.44
366.147	95.44
366.373	94.44
366.599	86.44
366.826	71.44
367.052	104.44
367.278	106.44
367.505	98.44
367.731	100.44
367.957	89.44
368.184	94.44
368.41	92.44
368.636	89.44
368.862	128.44
369.089	112.44
369.315	94.44
369.541	86.44
369.767	98.44
369.993	93.44
370.219	98.44
370.445	93.44
370.672	98.44
370.898	89.44
371.124	80.44
371.35	84.44
371.576	90.44
371.802	99.44
372.028	89.44
372.254	104.44
372.48	109.44
372.706	89.44
372.932	86.44
373.158	83.44
373.384	100.44
373.61	86.44
373.835	100.44
374.061	87.44
374.287	117.44
374.513	94.44
374.739	113.44
374.965	99.44
375.191	101.44
375.416	92.44
375.642	89.44
375.868	88.44
376.094	99.44
376.319	108.44
376.545	86.44
376.771	91.44
376.997	87.44
377.222	82.44
377.448	86.44
377.674	101.44
377.899	100.44
378.125	103.44
378.35	96.44
378.576	92.44
378.802	94.44
379.027	88.44
379.253	86.44
379.478	85.44
379.704	97.44
379.929	99.44
380.155	83.44
380.38	87.44
380.606	107.44
380.831	94.44
381.057	98.44
381.282	90.44
381.507	87.44
381.733	99.44
381.958	105.44
382.184	103.44
382.409	98.44
382.634	114.44
382.86	86.44
383.085	100.44
383.31	106.44
383.535	97.44
383.761	98.44
383.986	104.44
384.211	116.44
384.436	116.44
384.662	115.44
384.887	109.44
385.112	92.44
385.337	101.44
385.562	110.44
385.787	103.44
386.013	119.44
386.238	132.44
386.463	119.44
386.688	126.44
386.913	112.44
387.138	113.44
387.363	94.44
387.588	94.44
387.813	88.44
388.038	114.44
388.263	141.44
388.488	118.44
388.713	105.44
388.938	94.44
389.163	95.44
389.387	102.44
389.612	95.44
389.837	102.44
390.062	86.44
390.287	90.44
390.512	90.44
390.736	98.44
390.961	103.44
391.186	103.44
391.411	108.44
391.636	80.44
391.86	101.44
392.085	85.44
392.31	110.44
392.534	88.44
392.759	100.44
392.984	94.44
393.208	114.44
393.433	136.44
393.658	132.44
393.882	92.44
394.107	84.44
394.331	67.44
394.556	93.44
394.78	84.44
395.005	76.44
395.229	101.44
395.454	93.44
395.678	88.44
395.903	86.44
396.127	97.44
396.352	93.44
396.576	89.44
396.801	108.44
397.025	122.44
397.249	94.44
397.474	106.44
397.698	76.44
397.922	92.44
398.147	98.44
398.371	90.44
398.595	75.44
398.82	81.44
399.044	81.44
399.268	76.44
399.492	78.44
399.717	88.44
399.941	87.44
400.165	79.44
400.389	94.44
400.613	82.44
400.837	97.44
401.062	93.44
401.286	94.44
401.51	101.44
401.734	89.44
401.958	97.44
402.182	127.44
402.406	154.44
402.63	122.44
402.854	72.44
403.078	91.44
403.302	94.44
403.526	94.44
403.75	93.44
403.974	79.44
404.198	91.44
404.422	86.44
404.645	80.44
404.869	97.44
405.093	98.44
405.317	85.44
405.541	100.44
405.765	87.44
405.988	114.44
406.212	171.44
406.436	224.44
406.66	154.44
406.883	103.44
407.107	100.44
407.331	101.44
407.555	94.44
407.778	96.44
408.002	99.44
408.226	82.44
408.449	93.44
408.673	100.44
408.896	99.44
409.12	108.44
409.344	89.44
409.567	84.44
409.791	91.44
410.014	88.44
410.238	84.44
410.461	89.44
410.685	94.44
410.908	102.44
411.132	102.44
411.355	99.44
411.578	95.44
411.802	82.44
412.025	92.44
412.249	95.44
412.472	98.44
412.695	96.44
412.919	92.44
413.142	97.44
413.365	94.44
413.589	88.44
413.812	104.44
414.035	82.44
414.258	102.44
414.482	90.44
414.705	89.44
414.928	97.44
415.151	97.44
415.374	89.44
415.597	94.44
415.821	99.44
416.044	86.44
416.267	95.44
416.49	89.44
416.713	80.44
416.936	94.44
417.159	96.44
417.382	88.44
417.605	91.44
417.828	95.44
418.051	89.44
418.274	85.44
418.497	92.44
418.72	92.44
418.943	93.44
419.166	89.44
419.389	80.44
419.611	81.44
419.834	87.44
420.057	93.44
420.28	97.44
420.503	81.44
420.726	91.44
420.948	86.44
421.171	97.44
421.394	87.44
421.617	105.44
421.839	87.44
422.062	90.44
422.285	90.44
422.507	113.44
422.73	129.44
422.953	105.44
423.175	98.44
423.398	100.44
423.621	94.44
423.843	89.44
424.066	93.44
424.288	83.44
424.511	81.44
424.733	91.44
424.956	104.44
425.178	98.44
425.401	101.44
425.623	106.44
425.846	96.44
426.068	89.44
426.291	95.44
426.513	90.44
426.735	84.44
426.958	93.44
427.18	100.44
427.402	149.44
427.625	179.44
427.847	136.44
428.069	99.44
428.292	103.44
428.514	82.44
428.736	91.44
428.958	92.44
429.181	90.44
429.403	82.44
429.625	83.44
429.847	102.44
430.069	98.44
430.292	87.44
430.514	79.44
430.736	97.44
430.958	93.44
431.18	96.44
431.402	88.44
431.624	78.44
431.846	93.44
432.068	91.44
432.29	92.44
432.512	88.44
432.734	78.44
432.956	107.44
433.178	90.44
433.4	94.44
433.622	93.44
433.844	89.44
434.066	96.44
434.287	100.44
434.509	95.44
434.731	83.44
434.953	94.44
435.175	77.44
435.397	73.44
435.618	85.44
435.84	89.44
436.062	113.44
436.284	115.44
436.505	97.44
436.727	102.44
436.949	91.44
437.17	89.44
437.392	88.44
437.614	96.44
437.835	101.44
438.057	129.44
438.278	100.44
438.5	100.44
438.721	139.44
438.943	111.44
439.165	84.44
439.386	93.44
439.608	86.44
439.829	102.44
440.05	127.44
440.272	141.44
440.493	100.44
440.715	89.44
440.936	87.44
441.158	80.44
441.379	93.44
441.6	93.44
441.822	107.44
442.043	99.44
442.264	99.44
442.486	108.44
442.707	100.44
442.928	85.44
443.149	142.44
443.371	145.44
443.592	105.44
443.813	115.44
444.034	107.44
444.255	93.44
444.476	108.44
444.698	93.44
444.919	85.44
445.14	128.44
445.361	110.44
445.582	113.44
445.803	136.44
446.024	140.44
446.245	144.44
446.466	101.44
446.687	96.44
446.908	90.44
447.129	101.44
447.35	94.44
447.571	85.44
447.792	90.44
448.013	91.44
448.234	112.44
448.455	94.44
448.675	119.44
448.896	128.44
449.117	101.44
449.338	102.44
449.559	122.44
449.779	143.44
450	87.44
450.221	92.44
450.442	91.44
450.662	91.44
450.883	112.44
451.104	112.44
451.324	90.44
451.545	94.44
451.766	80.44
451.986	93.44
452.207	89.44
452.428	84.44
452.648	105.44
452.869	107.44
453.089	122.44
453.31	122.44
453.53	103.44
453.751	105.44
453.971	107.44
454.192	110.44
454.412	95.44
454.633	89.44
454.853	98.44
455.073	93.44
455.294	91.44
455.514	93.44
455.734	108.44
455.955	84.44
456.175	84.44
456.395	88.44
456.616	89.44
456.836	97.44
457.056	85.44
457.276	93.44
457.497	102.44
457.717	79.44
457.937	87.44
458.157	105.44
458.377	102.44
458.598	106.44
458.818	141.44
459.038	157.44
459.258	115.44
459.478	85.44
459.698	85.44
459.918	84.44
460.138	83.44
460.358	100.44
460.578	80.44
460.798	98.44
461.018	106.44
461.238	92.44
461.458	84.44
461.678	94.44
461.898	80.44
462.118	84.44
462.338	99.44
462.558	79.44
462.777	89.44
462.997	91.44
463.217	84.44
463.437	74.44
463.657	82.44
463.876	97.44
464.096	94.44
464.316	96.44
464.536	98.44
464.755	105.44
464.975	108.44
465.195	164.44
465.414	161.44
465.634	106.44
465.854	96.44
466.073	98.44
466.293	80.44
466.512	76.44
466.732	100.44
466.951	97.44
467.171	98.44
467.391	92.44
467.61	101.44
467.829	103.44
468.049	102.44
468.268	70.44
468.488	85.44
468.707	88.44
468.927	85.44
469.146	97.44
469.365	87.44
469.585	91.44
469.804	89.44
470.023	99.44
470.243	102.44
470.462	110.44
470.681	116.44
470.901	103.44
471.12	78.44
471.339	90.44
471.558	85.44
471.777	89.44
471.997	78.44
472.216	100.44
472.435	90.44
472.654	85.44
472.873	86.44
473.092	104.44
473.311	98.44
473.53	90.44
473.749	101.44
473.968	92.44
474.187	107.44
474.406	102.44
474.625	92.44
474.844	93.44
475.063	90.44
475.282	87.44
475.501	97.44
475.72	93.44
475.939	93.44
476.158	74.44
476.377	91.44
476.596	96.44
476.814	94.44
477.033	87.44
477.252	77.44
477.471	91.44
477.69	100.44
477.908	84.44
478.127	93.44
478.346	91.44
478.564	99.44
478.783	91.44
479.002	105.44
479.22	98.44
479.439	102.44
479.658	108.44
479.876	93.44
480.095	91.44
480.313	105.44
480.532	89.44
480.751	87.44
480.969	98.44
481.188	114.44
481.406	88.44
481.624	99.44
481.843	92.44
482.061	83.44
482.28	86.44
482.498	90.44
482.717	88.44
482.935	83.44
483.153	83.44
483.372	78.44
483.59	95.44
483.808	93.44
484.027	91.44
484.245	82.44
484.463	88.44
484.681	95.44
484.9	100.44
485.118	104.44
485.336	84.44
485.554	95.44
485.772	78.44
485.99	107.44
486.209	106.44
486.427	111.44
486.645	110.44
486.863	118.44
487.081	105.44
487.299	90.44
487.517	89.44
487.735	94.44
487.953	99.44
488.171	105.44
488.389	104.44
488.607	102.44
488.825	89.44
489.043	86.44
489.261	75.44
489.479	88.44
489.696	78.44
489.914	80.44
490.132	99.44
490.35	92.44
490.568	95.44
490.786	91.44
491.003	93.44
491.221	78.44
491.439	88.44
491.657	97.44
491.874	92.44
492.092	84.44
492.31	93.44
492.527	92.44
492.745	93.44
492.963	84.44
493.18	95.44
493.398	89.44
493.615	120.44
493.833	109.44
494.05	89.44
494.268	92.44
494.485	86.44
494.703	83.44
494.92	93.44
495.138	103.44
495.355	99.44
495.573	97.44
495.79	106.44
496.008	97.44
496.225	90.44
496.442	88.44
496.66	89.44
496.877	94.44
497.094	97.44
497.312	103.44
497.529	99.44
497.746	97.44
497.963	115.44
498.181	83.44
498.398	106.44
498.615	109.44
498.832	101.44
499.049	93.44
499.267	76.44
499.484	81.44
499.701	93.44
499.918	96.44
500.135	87.44
500.352	85.44
500.569	99.44
500.786	87.44
501.003	86.44
501.22	95.44
501.437	103.44
501.654	115.44
501.871	114.44
502.088	98.44
502.305	91.44
502.522	105.44
502.739	95.44
502.956	91.44
503.172	100.44
503.389	90.44
503.606	110.44
503.823	93.44
504.04	82.44
504.256	101.44
504.473	96.44
504.69	94.44
504.907	84.44
505.123	101.44
505.34	104.44
505.557	99.44
505.773	97.44
505.99	89.44
506.207	93.44
506.423	85.44
506.64	90.44
506.856	108.44
507.073	104.44
507.289	101.44
507.506	97.44
507.722	121.44
507.939	96.44
508.155	93.44
508.372	93.44
508.588	84.44
508.805	106.44
509.021	104.44
509.238	105.44
509.454	112.44
509.67	100.44
509.887	103.44
510.103	144.44
510.319	215.44
510.536	754.44
510.752	2414.44
510.968	672.44
511.184	137.44
511.401	109.44
511.617	102.44
511.833	97.44
512.049	97.44
512.265	86.44
512.481	98.44
512.698	96.44
512.914	94.44
513.13	103.44
513.346	92.44
513.562	90.44
513.778	83.44
513.994	103.44
514.21	109.44
514.426	126.44
514.642	137.44
