Data from Uncirc_2002_H10_HRD10591_00041.txt Node
Date: Wed Jan 03 10:39:49 EST 2024
User: Yrep
Spectrometer: HR+D1059
Trigger mode: 1
Integration Time (sec): 1.000000E-1
Scans to average: 1
Electric dark correction enabled: true
Nonlinearity correction enabled: false
Boxcar width: 0
XAxis mode: Wavelengths
Number of Pixels in Spectrum: 2048
>>>>>Begin Spectral Data<<<<<
223.165	-28.75
223.4	-28.75
223.635	-28.75
223.869	-17.75
224.104	-22.75
224.338	-2.75
224.573	-19.75
224.808	-5.75
225.042	7.25
225.277	-9.75
225.511	-7.75
225.746	9.25
225.98	13.25
226.215	13.25
226.449	12.25
226.683	6.25
226.918	27.25
227.152	26.25
227.387	44.25
227.621	32.25
227.856	40.25
228.09	49.25
228.324	43.25
228.559	44.25
228.793	39.25
229.027	55.25
229.262	70.25
229.496	88.25
229.73	81.25
229.964	74.25
230.199	63.25
230.433	70.25
230.667	75.25
230.901	65.25
231.136	73.25
231.37	69.25
231.604	87.25
231.838	88.25
232.072	93.25
232.306	76.25
232.541	70.25
232.775	69.25
233.009	72.25
233.243	73.25
233.477	76.25
233.711	71.25
233.945	79.25
234.179	75.25
234.413	65.25
234.647	61.25
234.881	79.25
235.115	81.25
235.349	66.25
235.583	72.25
235.817	71.25
236.051	67.25
236.285	74.25
236.519	72.25
236.753	69.25
236.987	80.25
237.221	80.25
237.455	74.25
237.689	71.25
237.922	75.25
238.156	67.25
238.39	78.25
238.624	60.25
238.858	61.25
239.091	78.25
239.325	81.25
239.559	68.25
239.793	77.25
240.027	75.25
240.26	76.25
240.494	70.25
240.728	78.25
240.961	76.25
241.195	77.25
241.429	79.25
241.662	78.25
241.896	68.25
242.13	73.25
242.363	76.25
242.597	84.25
242.83	74.25
243.064	73.25
243.298	75.25
243.531	65.25
243.765	84.25
243.998	65.25
244.232	79.25
244.465	79.25
244.699	64.25
244.932	71.25
245.166	73.25
245.399	79.25
245.633	90.25
245.866	68.25
246.099	65.25
246.333	63.25
246.566	71.25
246.8	77.25
247.033	67.25
247.266	60.25
247.5	73.25
247.733	83.25
247.966	77.25
248.2	74.25
248.433	72.25
248.666	68.25
248.899	74.25
249.133	78.25
249.366	84.25
249.599	84.25
249.832	83.25
250.066	75.25
250.299	78.25
250.532	75.25
250.765	74.25
250.998	83.25
251.231	81.25
251.465	84.25
251.698	67.25
251.931	73.25
252.164	78.25
252.397	84.25
252.63	81.25
252.863	64.25
253.096	69.25
253.329	75.25
253.562	74.25
253.795	71.25
254.028	91.25
254.261	85.25
254.494	73.25
254.727	85.25
254.96	87.25
255.193	77.25
255.426	83.25
255.659	64.25
255.892	93.25
256.124	66.25
256.357	73.25
256.59	75.25
256.823	83.25
257.056	89.25
257.289	78.25
257.521	63.25
257.754	78.25
257.987	76.25
258.22	83.25
258.452	75.25
258.685	71.25
258.918	69.25
259.151	60.25
259.383	82.25
259.616	93.25
259.849	86.25
260.081	73.25
260.314	79.25
260.547	88.25
260.779	73.25
261.012	84.25
261.244	83.25
261.477	87.25
261.71	76.25
261.942	99.25
262.175	99.25
262.407	78.25
262.64	80.25
262.872	83.25
263.105	82.25
263.337	76.25
263.57	74.25
263.802	82.25
264.035	84.25
264.267	88.25
264.499	62.25
264.732	87.25
264.964	76.25
265.197	87.25
265.429	84.25
265.661	96.25
265.894	71.25
266.126	65.25
266.358	83.25
266.591	85.25
266.823	79.25
267.055	67.25
267.287	78.25
267.52	85.25
267.752	70.25
267.984	88.25
268.216	89.25
268.448	92.25
268.681	79.25
268.913	75.25
269.145	85.25
269.377	84.25
269.609	79.25
269.841	81.25
270.073	71.25
270.306	82.25
270.538	85.25
270.77	81.25
271.002	79.25
271.234	89.25
271.466	92.25
271.698	68.25
271.93	80.25
272.162	81.25
272.394	68.25
272.626	82.25
272.858	80.25
273.09	76.25
273.322	81.25
273.553	78.25
273.785	79.25
274.017	60.25
274.249	87.25
274.481	75.25
274.713	83.25
274.945	62.25
275.176	86.25
275.408	93.25
275.64	88.25
275.872	81.25
276.104	83.25
276.335	81.25
276.567	90.25
276.799	97.25
277.031	97.25
277.262	86.25
277.494	83.25
277.726	93.25
277.957	78.25
278.189	95.25
278.421	75.25
278.652	89.25
278.884	94.25
279.115	87.25
279.347	83.25
279.579	83.25
279.81	85.25
280.042	80.25
280.273	101.25
280.505	80.25
280.736	99.25
280.968	87.25
281.199	86.25
281.431	98.25
281.662	83.25
281.894	86.25
282.125	81.25
282.356	111.25
282.588	115.25
282.819	92.25
283.051	91.25
283.282	83.25
283.513	88.25
283.745	63.25
283.976	85.25
284.207	83.25
284.439	79.25
284.67	95.25
284.901	80.25
285.132	75.25
285.364	75.25
285.595	78.25
285.826	77.25
286.057	87.25
286.288	81.25
286.52	83.25
286.751	84.25
286.982	83.25
287.213	88.25
287.444	82.25
287.675	95.25
287.906	81.25
288.138	97.25
288.369	97.25
288.6	84.25
288.831	80.25
289.062	95.25
289.293	92.25
289.524	101.25
289.755	85.25
289.986	80.25
290.217	81.25
290.448	86.25
290.679	95.25
290.91	98.25
291.141	89.25
291.371	94.25
291.602	86.25
291.833	88.25
292.064	96.25
292.295	89.25
292.526	93.25
292.757	83.25
292.987	102.25
293.218	84.25
293.449	81.25
293.68	84.25
293.91	99.25
294.141	91.25
294.372	82.25
294.603	81.25
294.833	89.25
295.064	86.25
295.295	77.25
295.525	82.25
295.756	97.25
295.987	112.25
296.217	140.25
296.448	118.25
296.679	68.25
296.909	75.25
297.14	84.25
297.37	87.25
297.601	92.25
297.831	96.25
298.062	97.25
298.292	100.25
298.523	100.25
298.753	81.25
298.984	85.25
299.214	78.25
299.445	93.25
299.675	81.25
299.905	90.25
300.136	90.25
300.366	81.25
300.597	87.25
300.827	97.25
301.057	91.25
301.288	97.25
301.518	83.25
301.748	81.25
301.979	96.25
302.209	87.25
302.439	71.25
302.669	80.25
302.9	73.25
303.13	85.25
303.36	87.25
303.59	95.25
303.82	88.25
304.051	103.25
304.281	90.25
304.511	84.25
304.741	83.25
304.971	89.25
305.201	98.25
305.431	86.25
305.661	86.25
305.891	79.25
306.121	95.25
306.352	88.25
306.582	102.25
306.812	86.25
307.042	90.25
307.272	76.25
307.502	80.25
307.731	87.25
307.961	86.25
308.191	84.25
308.421	94.25
308.651	86.25
308.881	89.25
309.111	87.25
309.341	84.25
309.571	90.25
309.8	99.25
310.03	90.25
310.26	89.25
310.49	95.25
310.72	110.25
310.949	89.25
311.179	84.25
311.409	87.25
311.639	87.25
311.868	99.25
312.098	75.25
312.328	77.25
312.557	88.25
312.787	111.25
313.017	89.25
313.246	106.25
313.476	90.25
313.706	96.25
313.935	91.25
314.165	103.25
314.394	88.25
314.624	105.25
314.853	92.25
315.083	101.25
315.312	96.25
315.542	87.25
315.771	91.25
316.001	84.25
316.23	93.25
316.46	89.25
316.689	108.25
316.919	96.25
317.148	91.25
317.377	96.25
317.607	82.25
317.836	88.25
318.065	90.25
318.295	93.25
318.524	105.25
318.753	97.25
318.983	88.25
319.212	99.25
319.441	111.25
319.67	109.25
319.9	90.25
320.129	99.25
320.358	91.25
320.587	91.25
320.816	104.25
321.046	97.25
321.275	81.25
321.504	92.25
321.733	99.25
321.962	88.25
322.191	103.25
322.42	101.25
322.649	107.25
322.878	119.25
323.108	104.25
323.337	113.25
323.566	138.25
323.795	149.25
324.024	197.25
324.253	355.25
324.482	712.25
324.71	1448.25
324.939	1869.25
325.168	709.25
325.397	227.25
325.626	141.25
325.855	123.25
326.084	126.25
326.313	139.25
326.542	148.25
326.77	205.25
326.999	400.25
327.228	792.25
327.457	1492.25
327.686	1142.25
327.914	333.25
328.143	185.25
328.372	126.25
328.6	116.25
328.829	96.25
329.058	105.25
329.287	122.25
329.515	91.25
329.744	109.25
329.972	95.25
330.201	104.25
330.43	113.25
330.658	102.25
330.887	117.25
331.115	108.25
331.344	88.25
331.572	93.25
331.801	87.25
332.03	95.25
332.258	99.25
332.486	89.25
332.715	84.25
332.943	109.25
333.172	76.25
333.4	95.25
333.629	90.25
333.857	94.25
334.085	82.25
334.314	95.25
334.542	104.25
334.771	93.25
334.999	78.25
335.227	100.25
335.455	76.25
335.684	85.25
335.912	83.25
336.14	92.25
336.369	101.25
336.597	102.25
336.825	107.25
337.053	80.25
337.281	78.25
337.51	85.25
337.738	94.25
337.966	83.25
338.194	86.25
338.422	92.25
338.65	88.25
338.878	93.25
339.106	79.25
339.334	81.25
339.562	92.25
339.79	81.25
340.018	91.25
340.246	86.25
340.474	85.25
340.702	68.25
340.93	76.25
341.158	82.25
341.386	83.25
341.614	88.25
341.842	86.25
342.07	94.25
342.298	82.25
342.526	88.25
342.754	94.25
342.981	84.25
343.209	99.25
343.437	104.25
343.665	88.25
343.893	83.25
344.12	91.25
344.348	67.25
344.576	94.25
344.804	91.25
345.031	82.25
345.259	78.25
345.487	85.25
345.714	88.25
345.942	83.25
346.17	109.25
346.397	89.25
346.625	82.25
346.853	96.25
347.08	98.25
347.308	88.25
347.535	96.25
347.763	98.25
347.99	110.25
348.218	88.25
348.445	88.25
348.673	86.25
348.9	88.25
349.128	96.25
349.355	90.25
349.583	85.25
349.81	88.25
350.037	87.25
350.265	103.25
350.492	79.25
350.72	78.25
350.947	89.25
351.174	104.25
351.402	107.25
351.629	97.25
351.856	94.25
352.083	84.25
352.311	95.25
352.538	107.25
352.765	101.25
352.992	100.25
353.22	114.25
353.447	88.25
353.674	105.25
353.901	113.25
354.128	98.25
354.355	107.25
354.583	89.25
354.81	112.25
355.037	101.25
355.264	89.25
355.491	91.25
355.718	82.25
355.945	98.25
356.172	102.25
356.399	96.25
356.626	96.25
356.853	84.25
357.08	109.25
357.307	97.25
357.534	77.25
357.761	98.25
357.988	92.25
358.215	98.25
358.441	87.25
358.668	100.25
358.895	88.25
359.122	95.25
359.349	73.25
359.576	100.25
359.802	96.25
360.029	89.25
360.256	106.25
360.483	97.25
360.709	89.25
360.936	89.25
361.163	83.25
361.39	88.25
361.616	98.25
361.843	82.25
362.07	81.25
362.296	102.25
362.523	77.25
362.749	101.25
362.976	87.25
363.203	88.25
363.429	87.25
363.656	88.25
363.882	79.25
364.109	95.25
364.335	93.25
364.562	102.25
364.788	87.25
365.015	83.25
365.241	105.25
365.468	110.25
365.694	79.25
365.92	89.25
366.147	85.25
366.373	87.25
366.599	82.25
366.826	87.25
367.052	77.25
367.278	80.25
367.505	101.25
367.731	84.25
367.957	88.25
368.184	97.25
368.41	99.25
368.636	102.25
368.862	110.25
369.089	93.25
369.315	89.25
369.541	76.25
369.767	79.25
369.993	88.25
370.219	77.25
370.445	91.25
370.672	95.25
370.898	79.25
371.124	89.25
371.35	74.25
371.576	89.25
371.802	96.25
372.028	78.25
372.254	96.25
372.48	85.25
372.706	87.25
372.932	91.25
373.158	83.25
373.384	83.25
373.61	99.25
373.835	88.25
374.061	89.25
374.287	88.25
374.513	104.25
374.739	94.25
374.965	82.25
375.191	80.25
375.416	89.25
375.642	87.25
375.868	83.25
376.094	92.25
376.319	85.25
376.545	81.25
376.771	84.25
376.997	81.25
377.222	97.25
377.448	101.25
377.674	88.25
377.899	92.25
378.125	86.25
378.35	89.25
378.576	84.25
378.802	81.25
379.027	87.25
379.253	89.25
379.478	90.25
379.704	87.25
379.929	82.25
380.155	79.25
380.38	95.25
380.606	89.25
380.831	83.25
381.057	101.25
381.282	89.25
381.507	90.25
381.733	104.25
381.958	97.25
382.184	91.25
382.409	79.25
382.634	95.25
382.86	94.25
383.085	85.25
383.31	99.25
383.535	92.25
383.761	92.25
383.986	91.25
384.211	97.25
384.436	89.25
384.662	94.25
384.887	97.25
385.112	96.25
385.337	98.25
385.562	95.25
385.787	102.25
386.013	101.25
386.238	117.25
386.463	108.25
386.688	99.25
386.913	99.25
387.138	113.25
387.363	102.25
387.588	87.25
387.813	84.25
388.038	97.25
388.263	123.25
388.488	108.25
388.713	95.25
388.938	89.25
389.163	96.25
389.387	80.25
389.612	97.25
389.837	83.25
390.062	99.25
390.287	86.25
390.512	85.25
390.736	96.25
390.961	96.25
391.186	99.25
391.411	84.25
391.636	93.25
391.86	86.25
392.085	81.25
392.31	81.25
392.534	85.25
392.759	94.25
392.984	84.25
393.208	94.25
393.433	102.25
393.658	107.25
393.882	93.25
394.107	69.25
394.331	77.25
394.556	81.25
394.78	79.25
395.005	87.25
395.229	69.25
395.454	86.25
395.678	85.25
395.903	96.25
396.127	72.25
396.352	91.25
396.576	89.25
396.801	75.25
397.025	81.25
397.249	89.25
397.474	61.25
397.698	79.25
397.922	91.25
398.147	72.25
398.371	83.25
398.595	91.25
398.82	101.25
399.044	80.25
399.268	88.25
399.492	85.25
399.717	81.25
399.941	94.25
400.165	72.25
400.389	81.25
400.613	92.25
400.837	82.25
401.062	87.25
401.286	88.25
401.51	78.25
401.734	83.25
401.958	92.25
402.182	110.25
402.406	135.25
402.63	100.25
402.854	83.25
403.078	83.25
403.302	88.25
403.526	80.25
403.75	83.25
403.974	87.25
404.198	85.25
404.422	72.25
404.645	79.25
404.869	96.25
405.093	95.25
405.317	95.25
405.541	88.25
405.765	90.25
405.988	100.25
406.212	150.25
406.436	187.25
406.66	126.25
406.883	97.25
407.107	84.25
407.331	93.25
407.555	101.25
407.778	89.25
408.002	96.25
408.226	81.25
408.449	76.25
408.673	90.25
408.896	93.25
409.12	99.25
409.344	96.25
409.567	96.25
409.791	92.25
410.014	96.25
410.238	89.25
410.461	102.25
410.685	89.25
410.908	96.25
411.132	86.25
411.355	101.25
411.578	86.25
411.802	97.25
412.025	77.25
412.249	88.25
412.472	77.25
412.695	81.25
412.919	78.25
413.142	93.25
413.365	71.25
413.589	96.25
413.812	84.25
414.035	90.25
414.258	84.25
414.482	82.25
414.705	97.25
414.928	107.25
415.151	87.25
415.374	88.25
415.597	91.25
415.821	100.25
416.044	89.25
416.267	107.25
416.49	81.25
416.713	74.25
416.936	85.25
417.159	81.25
417.382	80.25
417.605	68.25
417.828	90.25
418.051	95.25
418.274	85.25
418.497	76.25
418.72	94.25
418.943	88.25
419.166	92.25
419.389	93.25
419.611	84.25
419.834	88.25
420.057	86.25
420.28	72.25
420.503	91.25
420.726	79.25
420.948	84.25
421.171	89.25
421.394	80.25
421.617	90.25
421.839	80.25
422.062	89.25
422.285	98.25
422.507	91.25
422.73	111.25
422.953	94.25
423.175	89.25
423.398	77.25
423.621	81.25
423.843	77.25
424.066	87.25
424.288	95.25
424.511	98.25
424.733	97.25
424.956	93.25
425.178	102.25
425.401	88.25
425.623	107.25
425.846	97.25
426.068	93.25
426.291	92.25
426.513	93.25
426.735	78.25
426.958	96.25
427.18	105.25
427.402	128.25
427.625	143.25
427.847	115.25
428.069	101.25
428.292	84.25
428.514	80.25
428.736	85.25
428.958	79.25
429.181	81.25
429.403	81.25
429.625	81.25
429.847	85.25
430.069	80.25
430.292	84.25
430.514	82.25
430.736	88.25
430.958	85.25
431.18	80.25
431.402	83.25
431.624	94.25
431.846	66.25
432.068	81.25
432.29	79.25
432.512	84.25
432.734	83.25
432.956	86.25
433.178	95.25
433.4	88.25
433.622	85.25
433.844	108.25
434.066	87.25
434.287	93.25
434.509	105.25
434.731	103.25
434.953	80.25
435.175	97.25
435.397	84.25
435.618	89.25
435.84	111.25
436.062	119.25
436.284	124.25
436.505	107.25
436.727	96.25
436.949	100.25
437.17	80.25
437.392	89.25
437.614	87.25
437.835	79.25
438.057	97.25
438.278	88.25
438.5	94.25
438.721	109.25
438.943	95.25
439.165	87.25
439.386	79.25
439.608	78.25
439.829	87.25
440.05	116.25
440.272	127.25
440.493	101.25
440.715	106.25
440.936	79.25
441.158	100.25
441.379	82.25
441.6	97.25
441.822	97.25
442.043	86.25
442.264	103.25
442.486	88.25
442.707	90.25
442.928	99.25
443.149	112.25
443.371	123.25
443.592	103.25
443.813	97.25
444.034	109.25
444.255	102.25
444.476	76.25
444.698	75.25
444.919	88.25
445.14	139.25
445.361	104.25
445.582	91.25
445.803	114.25
446.024	137.25
446.245	128.25
446.466	107.25
446.687	81.25
446.908	88.25
447.129	91.25
447.35	92.25
447.571	94.25
447.792	77.25
448.013	98.25
448.234	107.25
448.455	95.25
448.675	100.25
448.896	109.25
449.117	94.25
449.338	84.25
449.559	120.25
449.779	118.25
450	93.25
450.221	90.25
450.442	82.25
450.662	87.25
450.883	101.25
451.104	92.25
451.324	86.25
451.545	104.25
451.766	79.25
451.986	76.25
452.207	72.25
452.428	84.25
452.648	94.25
452.869	102.25
453.089	116.25
453.31	100.25
453.53	89.25
453.751	91.25
453.971	87.25
454.192	107.25
454.412	93.25
454.633	75.25
454.853	94.25
455.073	76.25
455.294	83.25
455.514	81.25
455.734	88.25
455.955	92.25
456.175	92.25
456.395	87.25
456.616	92.25
456.836	88.25
457.056	88.25
457.276	87.25
457.497	67.25
457.717	85.25
457.937	77.25
458.157	93.25
458.377	89.25
458.598	94.25
458.818	129.25
459.038	119.25
459.258	103.25
459.478	80.25
459.698	84.25
459.918	79.25
460.138	83.25
460.358	84.25
460.578	84.25
460.798	92.25
461.018	91.25
461.238	84.25
461.458	89.25
461.678	86.25
461.898	85.25
462.118	88.25
462.338	92.25
462.558	87.25
462.777	87.25
462.997	85.25
463.217	91.25
463.437	77.25
463.657	90.25
463.876	82.25
464.096	97.25
464.316	101.25
464.536	94.25
464.755	99.25
464.975	103.25
465.195	145.25
465.414	129.25
465.634	89.25
465.854	96.25
466.073	85.25
466.293	82.25
466.512	93.25
466.732	80.25
466.951	84.25
467.171	86.25
467.391	100.25
467.61	86.25
467.829	87.25
468.049	101.25
468.268	88.25
468.488	93.25
468.707	91.25
468.927	89.25
469.146	76.25
469.365	60.25
469.585	81.25
469.804	94.25
470.023	83.25
470.243	86.25
470.462	95.25
470.681	99.25
470.901	82.25
471.12	95.25
471.339	91.25
471.558	89.25
471.777	68.25
471.997	90.25
472.216	89.25
472.435	106.25
472.654	82.25
472.873	86.25
473.092	79.25
473.311	87.25
473.53	86.25
473.749	82.25
473.968	84.25
474.187	99.25
474.406	86.25
474.625	80.25
474.844	77.25
475.063	83.25
475.282	87.25
475.501	79.25
475.72	87.25
475.939	80.25
476.158	72.25
476.377	75.25
476.596	72.25
476.814	85.25
477.033	88.25
477.252	98.25
477.471	88.25
477.69	73.25
477.908	74.25
478.127	85.25
478.346	90.25
478.564	94.25
478.783	81.25
479.002	88.25
479.22	82.25
479.439	103.25
479.658	88.25
479.876	82.25
480.095	84.25
480.313	97.25
480.532	92.25
480.751	93.25
480.969	97.25
481.188	105.25
481.406	99.25
481.624	96.25
481.843	88.25
482.061	95.25
482.28	79.25
482.498	82.25
482.717	88.25
482.935	85.25
483.153	94.25
483.372	84.25
483.59	87.25
483.808	90.25
484.027	89.25
484.245	95.25
484.463	101.25
484.681	88.25
484.9	105.25
485.118	97.25
485.336	95.25
485.554	70.25
485.772	86.25
485.99	94.25
486.209	101.25
486.427	104.25
486.645	101.25
486.863	99.25
487.081	100.25
487.299	94.25
487.517	94.25
487.735	93.25
487.953	86.25
488.171	72.25
488.389	92.25
488.607	95.25
488.825	89.25
489.043	86.25
489.261	97.25
489.479	96.25
489.696	97.25
489.914	89.25
490.132	82.25
490.35	86.25
490.568	94.25
490.786	89.25
491.003	80.25
491.221	80.25
491.439	91.25
491.657	76.25
491.874	89.25
492.092	80.25
492.31	97.25
492.527	104.25
492.745	80.25
492.963	85.25
493.18	79.25
493.398	89.25
493.615	99.25
493.833	101.25
494.05	85.25
494.268	82.25
494.485	98.25
494.703	96.25
494.92	82.25
495.138	84.25
495.355	96.25
495.573	86.25
495.79	85.25
496.008	100.25
496.225	93.25
496.442	89.25
496.66	83.25
496.877	92.25
497.094	98.25
497.312	81.25
497.529	80.25
497.746	93.25
497.963	96.25
498.181	99.25
498.398	76.25
498.615	104.25
498.832	107.25
499.049	107.25
499.267	88.25
499.484	83.25
499.701	99.25
499.918	98.25
500.135	88.25
500.352	97.25
500.569	89.25
500.786	84.25
501.003	99.25
501.22	86.25
501.437	86.25
501.654	89.25
501.871	110.25
502.088	81.25
502.305	80.25
502.522	107.25
502.739	87.25
502.956	75.25
503.172	86.25
503.389	88.25
503.606	91.25
503.823	95.25
504.04	89.25
504.256	83.25
504.473	97.25
504.69	85.25
504.907	86.25
505.123	77.25
505.34	90.25
505.557	81.25
505.773	88.25
505.99	76.25
506.207	79.25
506.423	85.25
506.64	79.25
506.856	78.25
507.073	71.25
507.289	77.25
507.506	81.25
507.722	100.25
507.939	95.25
508.155	86.25
508.372	89.25
508.588	78.25
508.805	91.25
509.021	99.25
509.238	87.25
509.454	87.25
509.67	101.25
509.887	108.25
510.103	125.25
510.319	203.25
510.536	636.25
510.752	1997.25
510.968	575.25
511.184	141.25
511.401	106.25
511.617	100.25
511.833	93.25
512.049	89.25
512.265	92.25
512.481	87.25
512.698	99.25
512.914	86.25
513.13	90.25
513.346	88.25
513.562	87.25
513.778	97.25
513.994	84.25
514.21	79.25
514.426	100.25
514.642	123.25
514.858	109.25
515.074	149.25
515.29	374.25
515.506	1181.25
515.721	435.25
515.937	140.25
516.153	106.25
516.369	83.25
516.585	85.25
516.801	84.25
517.016	99.25
