Data from Uncirc_2002_H10_HRD10591_00076.txt Node
Date: Wed Jan 03 10:39:56 EST 2024
User: Yrep
Spectrometer: HR+D1059
Trigger mode: 1
Integration Time (sec): 1.000000E-1
Scans to average: 1
Electric dark correction enabled: true
Nonlinearity correction enabled: false
Boxcar width: 0
XAxis mode: Wavelengths
Number of Pixels in Spectrum: 2048
>>>>>Begin Spectral Data<<<<<
223.165	-18.25
223.4	-18.25
223.635	-18.25
223.869	-41.25
224.104	-8.25
224.338	-12.25
224.573	-23.25
224.808	-17.25
225.042	4.75
225.277	-1.25
225.511	4.75
225.746	0.75
225.98	-4.25
226.215	4.75
226.449	10.75
226.683	26.75
226.918	35.75
227.152	37.75
227.387	39.75
227.621	33.75
227.856	45.75
228.09	45.75
228.324	54.75
228.559	59.75
228.793	66.75
229.027	57.75
229.262	88.75
229.496	76.75
229.73	71.75
229.964	83.75
230.199	96.75
230.433	70.75
230.667	79.75
230.901	58.75
231.136	68.75
231.37	71.75
231.604	74.75
231.838	78.75
232.072	79.75
232.306	71.75
232.541	83.75
232.775	89.75
233.009	94.75
233.243	83.75
233.477	81.75
233.711	97.75
233.945	95.75
234.179	91.75
234.413	86.75
234.647	86.75
234.881	93.75
235.115	74.75
235.349	91.75
235.583	84.75
235.817	72.75
236.051	95.75
236.285	82.75
236.519	92.75
236.753	71.75
236.987	90.75
237.221	60.75
237.455	73.75
237.689	78.75
237.922	81.75
238.156	79.75
238.39	76.75
238.624	77.75
238.858	94.75
239.091	88.75
239.325	69.75
239.559	88.75
239.793	80.75
240.027	73.75
240.26	82.75
240.494	89.75
240.728	87.75
240.961	80.75
241.195	80.75
241.429	88.75
241.662	90.75
241.896	75.75
242.13	95.75
242.363	82.75
242.597	85.75
242.83	71.75
243.064	90.75
243.298	73.75
243.531	79.75
243.765	79.75
243.998	67.75
244.232	87.75
244.465	82.75
244.699	82.75
244.932	79.75
245.166	64.75
245.399	68.75
245.633	70.75
245.866	71.75
246.099	76.75
246.333	74.75
246.566	76.75
246.8	67.75
247.033	89.75
247.266	74.75
247.5	80.75
247.733	84.75
247.966	86.75
248.2	71.75
248.433	81.75
248.666	77.75
248.899	85.75
249.133	75.75
249.366	94.75
249.599	85.75
249.832	80.75
250.066	90.75
250.299	91.75
250.532	85.75
250.765	89.75
250.998	77.75
251.231	76.75
251.465	81.75
251.698	79.75
251.931	82.75
252.164	89.75
252.397	86.75
252.63	77.75
252.863	78.75
253.096	74.75
253.329	74.75
253.562	76.75
253.795	90.75
254.028	77.75
254.261	77.75
254.494	88.75
254.727	80.75
254.96	88.75
255.193	86.75
255.426	78.75
255.659	94.75
255.892	91.75
256.124	86.75
256.357	84.75
256.59	73.75
256.823	86.75
257.056	83.75
257.289	90.75
257.521	78.75
257.754	96.75
257.987	78.75
258.22	83.75
258.452	80.75
258.685	85.75
258.918	95.75
259.151	92.75
259.383	85.75
259.616	90.75
259.849	87.75
260.081	76.75
260.314	82.75
260.547	78.75
260.779	82.75
261.012	86.75
261.244	98.75
261.477	88.75
261.71	88.75
261.942	109.75
262.175	116.75
262.407	82.75
262.64	88.75
262.872	76.75
263.105	99.75
263.337	94.75
263.57	84.75
263.802	73.75
264.035	89.75
264.267	83.75
264.499	83.75
264.732	89.75
264.964	93.75
265.197	84.75
265.429	74.75
265.661	96.75
265.894	84.75
266.126	82.75
266.358	89.75
266.591	83.75
266.823	76.75
267.055	88.75
267.287	75.75
267.52	74.75
267.752	93.75
267.984	91.75
268.216	72.75
268.448	78.75
268.681	73.75
268.913	85.75
269.145	84.75
269.377	93.75
269.609	92.75
269.841	78.75
270.073	83.75
270.306	92.75
270.538	88.75
270.77	78.75
271.002	86.75
271.234	95.75
271.466	92.75
271.698	86.75
271.93	95.75
272.162	83.75
272.394	86.75
272.626	91.75
272.858	77.75
273.09	90.75
273.322	92.75
273.553	85.75
273.785	83.75
274.017	90.75
274.249	93.75
274.481	90.75
274.713	82.75
274.945	94.75
275.176	77.75
275.408	93.75
275.64	79.75
275.872	91.75
276.104	85.75
276.335	87.75
276.567	80.75
276.799	91.75
277.031	102.75
277.262	92.75
277.494	94.75
277.726	92.75
277.957	86.75
278.189	88.75
278.421	89.75
278.652	96.75
278.884	87.75
279.115	77.75
279.347	87.75
279.579	92.75
279.81	96.75
280.042	84.75
280.273	71.75
280.505	80.75
280.736	79.75
280.968	82.75
281.199	89.75
281.431	103.75
281.662	84.75
281.894	95.75
282.125	113.75
282.356	118.75
282.588	132.75
282.819	118.75
283.051	94.75
283.282	86.75
283.513	95.75
283.745	86.75
283.976	87.75
284.207	85.75
284.439	76.75
284.67	94.75
284.901	85.75
285.132	79.75
285.364	91.75
285.595	93.75
285.826	89.75
286.057	86.75
286.288	99.75
286.52	74.75
286.751	77.75
286.982	88.75
287.213	83.75
287.444	112.75
287.675	100.75
287.906	84.75
288.138	79.75
288.369	100.75
288.6	90.75
288.831	76.75
289.062	87.75
289.293	79.75
289.524	84.75
289.755	82.75
289.986	82.75
290.217	77.75
290.448	82.75
290.679	84.75
290.91	84.75
291.141	82.75
291.371	80.75
291.602	92.75
291.833	96.75
292.064	99.75
292.295	104.75
292.526	85.75
292.757	78.75
292.987	87.75
293.218	101.75
293.449	86.75
293.68	91.75
293.91	82.75
294.141	87.75
294.372	97.75
294.603	94.75
294.833	100.75
295.064	97.75
295.295	94.75
295.525	98.75
295.756	103.75
295.987	112.75
296.217	139.75
296.448	112.75
296.679	92.75
296.909	100.75
297.14	100.75
297.37	108.75
297.601	97.75
297.831	90.75
298.062	92.75
298.292	105.75
298.523	92.75
298.753	97.75
298.984	105.75
299.214	87.75
299.445	101.75
299.675	95.75
299.905	104.75
300.136	98.75
300.366	80.75
300.597	79.75
300.827	86.75
301.057	107.75
301.288	96.75
301.518	95.75
301.748	87.75
301.979	103.75
302.209	96.75
302.439	92.75
302.669	96.75
302.9	87.75
303.13	82.75
303.36	99.75
303.59	99.75
303.82	94.75
304.051	91.75
304.281	87.75
304.511	92.75
304.741	88.75
304.971	110.75
305.201	89.75
305.431	94.75
305.661	95.75
305.891	86.75
306.121	104.75
306.352	98.75
306.582	110.75
306.812	78.75
307.042	101.75
307.272	99.75
307.502	103.75
307.731	92.75
307.961	112.75
308.191	75.75
308.421	108.75
308.651	90.75
308.881	88.75
309.111	88.75
309.341	94.75
309.571	103.75
309.8	92.75
310.03	103.75
310.26	117.75
310.49	80.75
310.72	86.75
310.949	99.75
311.179	94.75
311.409	92.75
311.639	103.75
311.868	100.75
312.098	102.75
312.328	100.75
312.557	99.75
312.787	109.75
313.017	99.75
313.246	96.75
313.476	94.75
313.706	102.75
313.935	96.75
314.165	91.75
314.394	92.75
314.624	92.75
314.853	95.75
315.083	91.75
315.312	87.75
315.542	90.75
315.771	99.75
316.001	91.75
316.23	94.75
316.46	103.75
316.689	100.75
316.919	84.75
317.148	100.75
317.377	103.75
317.607	96.75
317.836	91.75
318.065	91.75
318.295	101.75
318.524	91.75
318.753	85.75
318.983	107.75
319.212	117.75
319.441	109.75
319.67	108.75
319.9	103.75
320.129	83.75
320.358	85.75
320.587	97.75
320.816	92.75
321.046	103.75
321.275	94.75
321.504	101.75
321.733	101.75
321.962	107.75
322.191	107.75
322.42	102.75
322.649	115.75
322.878	108.75
323.108	95.75
323.337	103.75
323.566	116.75
323.795	144.75
324.024	184.75
324.253	358.75
324.482	696.75
324.71	1442.75
324.939	1919.75
325.168	726.75
325.397	222.75
325.626	136.75
325.855	115.75
326.084	130.75
326.313	132.75
326.542	138.75
326.77	211.75
326.999	399.75
327.228	802.75
327.457	1457.75
327.686	1146.75
327.914	322.75
328.143	176.75
328.372	138.75
328.6	123.75
328.829	130.75
329.058	123.75
329.287	118.75
329.515	99.75
329.744	106.75
329.972	105.75
330.201	111.75
330.43	118.75
330.658	132.75
330.887	140.75
331.115	115.75
331.344	109.75
331.572	87.75
331.801	110.75
332.03	96.75
332.258	86.75
332.486	91.75
332.715	91.75
332.943	94.75
333.172	83.75
333.4	102.75
333.629	104.75
333.857	110.75
334.085	108.75
334.314	105.75
334.542	105.75
334.771	107.75
334.999	94.75
335.227	107.75
335.455	106.75
335.684	95.75
335.912	84.75
336.14	99.75
336.369	82.75
336.597	101.75
336.825	103.75
337.053	109.75
337.281	95.75
337.51	91.75
337.738	95.75
337.966	87.75
338.194	92.75
338.422	87.75
338.65	93.75
338.878	95.75
339.106	107.75
339.334	81.75
339.562	90.75
339.79	97.75
340.018	96.75
340.246	87.75
340.474	92.75
340.702	99.75
340.93	101.75
341.158	91.75
341.386	100.75
341.614	86.75
341.842	114.75
342.07	104.75
342.298	96.75
342.526	102.75
342.754	90.75
342.981	98.75
343.209	102.75
343.437	103.75
343.665	99.75
343.893	87.75
344.12	102.75
344.348	74.75
344.576	105.75
344.804	91.75
345.031	95.75
345.259	94.75
345.487	90.75
345.714	83.75
345.942	96.75
346.17	88.75
346.397	106.75
346.625	92.75
346.853	91.75
347.08	99.75
347.308	102.75
347.535	116.75
347.763	108.75
347.99	100.75
348.218	99.75
348.445	102.75
348.673	98.75
348.9	108.75
349.128	103.75
349.355	98.75
349.583	101.75
349.81	94.75
350.037	90.75
350.265	92.75
350.492	106.75
350.72	93.75
350.947	89.75
351.174	105.75
351.402	123.75
351.629	102.75
351.856	99.75
352.083	100.75
352.311	105.75
352.538	109.75
352.765	124.75
352.992	123.75
353.22	124.75
353.447	104.75
353.674	102.75
353.901	91.75
354.128	102.75
354.355	107.75
354.583	98.75
354.81	108.75
355.037	106.75
355.264	85.75
355.491	115.75
355.718	90.75
355.945	102.75
356.172	107.75
356.399	91.75
356.626	96.75
356.853	113.75
357.08	92.75
357.307	98.75
357.534	108.75
357.761	91.75
357.988	92.75
358.215	90.75
358.441	99.75
358.668	103.75
358.895	77.75
359.122	93.75
359.349	87.75
359.576	94.75
359.802	112.75
360.029	91.75
360.256	107.75
360.483	99.75
360.709	86.75
360.936	91.75
361.163	97.75
361.39	94.75
361.616	102.75
361.843	87.75
362.07	91.75
362.296	104.75
362.523	86.75
362.749	89.75
362.976	96.75
363.203	96.75
363.429	91.75
363.656	89.75
363.882	100.75
364.109	101.75
364.335	100.75
364.562	103.75
364.788	96.75
365.015	90.75
365.241	101.75
365.468	102.75
365.694	96.75
365.92	99.75
366.147	84.75
366.373	88.75
366.599	102.75
366.826	96.75
367.052	100.75
367.278	82.75
367.505	87.75
367.731	88.75
367.957	103.75
368.184	63.75
368.41	87.75
368.636	110.75
368.862	126.75
369.089	115.75
369.315	96.75
369.541	97.75
369.767	95.75
369.993	87.75
370.219	79.75
370.445	92.75
370.672	78.75
370.898	95.75
371.124	88.75
371.35	89.75
371.576	101.75
371.802	83.75
372.028	108.75
372.254	99.75
372.48	101.75
372.706	81.75
372.932	93.75
373.158	82.75
373.384	94.75
373.61	98.75
373.835	96.75
374.061	81.75
374.287	103.75
374.513	99.75
374.739	93.75
374.965	91.75
375.191	99.75
375.416	102.75
375.642	89.75
375.868	90.75
376.094	90.75
376.319	105.75
376.545	79.75
376.771	91.75
376.997	94.75
377.222	95.75
377.448	86.75
377.674	88.75
377.899	96.75
378.125	88.75
378.35	97.75
378.576	104.75
378.802	98.75
379.027	98.75
379.253	108.75
379.478	102.75
379.704	97.75
379.929	100.75
380.155	99.75
380.38	99.75
380.606	103.75
380.831	90.75
381.057	94.75
381.282	106.75
381.507	89.75
381.733	98.75
381.958	79.75
382.184	90.75
382.409	109.75
382.634	108.75
382.86	102.75
383.085	100.75
383.31	101.75
383.535	106.75
383.761	88.75
383.986	102.75
384.211	92.75
384.436	109.75
384.662	90.75
384.887	114.75
385.112	97.75
385.337	98.75
385.562	90.75
385.787	93.75
386.013	107.75
386.238	120.75
386.463	105.75
386.688	110.75
386.913	108.75
387.138	107.75
387.363	111.75
387.588	94.75
387.813	94.75
388.038	106.75
388.263	104.75
388.488	120.75
388.713	96.75
388.938	92.75
389.163	107.75
389.387	115.75
389.612	109.75
389.837	100.75
390.062	95.75
390.287	100.75
390.512	108.75
390.736	96.75
390.961	97.75
391.186	86.75
391.411	112.75
391.636	78.75
391.86	90.75
392.085	93.75
392.31	84.75
392.534	88.75
392.759	81.75
392.984	98.75
393.208	83.75
393.433	95.75
393.658	91.75
393.882	80.75
394.107	90.75
394.331	88.75
394.556	99.75
394.78	96.75
395.005	93.75
395.229	86.75
395.454	93.75
395.678	80.75
395.903	91.75
396.127	84.75
396.352	96.75
396.576	95.75
396.801	93.75
397.025	102.75
397.249	87.75
397.474	102.75
397.698	84.75
397.922	89.75
398.147	96.75
398.371	89.75
398.595	91.75
398.82	95.75
399.044	73.75
399.268	83.75
399.492	103.75
399.717	92.75
399.941	104.75
400.165	88.75
400.389	100.75
400.613	87.75
400.837	95.75
401.062	93.75
401.286	95.75
401.51	104.75
401.734	90.75
401.958	111.75
402.182	135.75
402.406	159.75
402.63	131.75
402.854	102.75
403.078	102.75
403.302	95.75
403.526	96.75
403.75	99.75
403.974	95.75
404.198	86.75
404.422	101.75
404.645	81.75
404.869	92.75
405.093	115.75
405.317	96.75
405.541	103.75
405.765	100.75
405.988	108.75
406.212	165.75
406.436	215.75
406.66	128.75
406.883	107.75
407.107	94.75
407.331	91.75
407.555	90.75
407.778	114.75
408.002	102.75
408.226	95.75
408.449	90.75
408.673	84.75
408.896	92.75
409.12	101.75
409.344	78.75
409.567	104.75
409.791	102.75
410.014	87.75
410.238	90.75
410.461	114.75
410.685	100.75
410.908	96.75
411.132	112.75
411.355	114.75
411.578	97.75
411.802	96.75
412.025	100.75
412.249	103.75
412.472	86.75
412.695	85.75
412.919	89.75
413.142	92.75
413.365	95.75
413.589	92.75
413.812	97.75
414.035	94.75
414.258	91.75
414.482	86.75
414.705	85.75
414.928	78.75
415.151	83.75
415.374	93.75
415.597	97.75
415.821	93.75
416.044	107.75
416.267	99.75
416.49	101.75
416.713	89.75
416.936	100.75
417.159	78.75
417.382	96.75
417.605	100.75
417.828	97.75
418.051	85.75
418.274	90.75
418.497	112.75
418.72	104.75
418.943	83.75
419.166	95.75
419.389	101.75
419.611	95.75
419.834	95.75
420.057	85.75
420.28	90.75
420.503	87.75
420.726	99.75
420.948	105.75
421.171	98.75
421.394	108.75
421.617	91.75
421.839	89.75
422.062	93.75
422.285	91.75
422.507	94.75
422.73	109.75
422.953	114.75
423.175	104.75
423.398	99.75
423.621	93.75
423.843	93.75
424.066	75.75
424.288	94.75
424.511	95.75
424.733	98.75
424.956	97.75
425.178	103.75
425.401	110.75
425.623	91.75
425.846	96.75
426.068	84.75
426.291	99.75
426.513	90.75
426.735	82.75
426.958	97.75
427.18	104.75
427.402	132.75
427.625	154.75
427.847	136.75
428.069	96.75
428.292	95.75
428.514	103.75
428.736	98.75
428.958	88.75
429.181	79.75
429.403	93.75
429.625	97.75
429.847	88.75
430.069	100.75
430.292	90.75
430.514	84.75
430.736	93.75
430.958	114.75
431.18	94.75
431.402	93.75
431.624	103.75
431.846	87.75
432.068	84.75
432.29	98.75
432.512	89.75
432.734	96.75
432.956	82.75
433.178	95.75
433.4	78.75
433.622	92.75
433.844	94.75
434.066	91.75
434.287	96.75
434.509	94.75
434.731	91.75
434.953	84.75
435.175	91.75
435.397	95.75
435.618	74.75
435.84	95.75
436.062	107.75
436.284	106.75
436.505	100.75
436.727	99.75
436.949	120.75
437.17	100.75
437.392	99.75
437.614	91.75
437.835	102.75
438.057	117.75
438.278	125.75
438.5	111.75
438.721	125.75
438.943	97.75
439.165	95.75
439.386	93.75
439.608	90.75
439.829	100.75
440.05	119.75
440.272	140.75
440.493	101.75
440.715	106.75
440.936	106.75
441.158	93.75
441.379	91.75
441.6	97.75
441.822	98.75
442.043	88.75
442.264	107.75
442.486	109.75
442.707	113.75
442.928	108.75
443.149	134.75
443.371	131.75
443.592	112.75
443.813	133.75
444.034	118.75
444.255	83.75
444.476	98.75
444.698	92.75
444.919	101.75
445.14	146.75
445.361	131.75
445.582	104.75
445.803	118.75
446.024	136.75
446.245	114.75
446.466	118.75
446.687	101.75
446.908	103.75
447.129	101.75
447.35	105.75
447.571	105.75
447.792	109.75
448.013	103.75
448.234	108.75
448.455	90.75
448.675	109.75
448.896	122.75
449.117	105.75
449.338	105.75
449.559	118.75
449.779	128.75
450	103.75
450.221	101.75
450.442	88.75
450.662	112.75
450.883	98.75
451.104	106.75
451.324	93.75
451.545	97.75
451.766	74.75
451.986	94.75
452.207	83.75
452.428	83.75
452.648	111.75
452.869	112.75
453.089	116.75
453.31	115.75
453.53	105.75
453.751	89.75
453.971	96.75
454.192	104.75
454.412	106.75
454.633	98.75
454.853	98.75
455.073	98.75
455.294	103.75
455.514	97.75
455.734	88.75
455.955	89.75
456.175	95.75
456.395	98.75
456.616	87.75
456.836	89.75
457.056	81.75
457.276	88.75
457.497	82.75
457.717	82.75
457.937	85.75
458.157	96.75
458.377	95.75
458.598	116.75
458.818	138.75
459.038	146.75
459.258	109.75
459.478	106.75
459.698	97.75
459.918	89.75
460.138	76.75
460.358	87.75
460.578	90.75
460.798	80.75
461.018	87.75
461.238	86.75
461.458	80.75
461.678	87.75
461.898	89.75
462.118	86.75
462.338	87.75
462.558	83.75
462.777	86.75
462.997	100.75
463.217	89.75
463.437	87.75
463.657	92.75
463.876	102.75
464.096	111.75
464.316	89.75
464.536	92.75
464.755	108.75
464.975	108.75
465.195	155.75
465.414	157.75
465.634	95.75
465.854	92.75
466.073	94.75
466.293	93.75
466.512	87.75
466.732	95.75
466.951	94.75
467.171	82.75
467.391	102.75
467.61	113.75
467.829	95.75
468.049	91.75
468.268	87.75
468.488	85.75
468.707	89.75
468.927	96.75
469.146	101.75
469.365	99.75
469.585	92.75
469.804	92.75
470.023	99.75
470.243	91.75
470.462	94.75
470.681	101.75
470.901	105.75
471.12	94.75
471.339	103.75
471.558	108.75
471.777	91.75
471.997	99.75
472.216	98.75
472.435	104.75
472.654	93.75
472.873	95.75
473.092	81.75
473.311	93.75
473.53	81.75
473.749	88.75
473.968	114.75
474.187	105.75
474.406	90.75
474.625	91.75
474.844	107.75
475.063	81.75
475.282	93.75
475.501	97.75
475.72	107.75
475.939	87.75
476.158	95.75
476.377	91.75
476.596	97.75
476.814	103.75
477.033	102.75
477.252	87.75
477.471	91.75
477.69	102.75
477.908	90.75
478.127	101.75
478.346	88.75
478.564	98.75
478.783	105.75
479.002	113.75
479.22	94.75
479.439	113.75
479.658	89.75
479.876	101.75
480.095	88.75
480.313	100.75
480.532	84.75
480.751	103.75
480.969	92.75
481.188	111.75
481.406	114.75
481.624	100.75
481.843	93.75
482.061	90.75
482.28	96.75
482.498	104.75
482.717	89.75
482.935	92.75
483.153	95.75
483.372	94.75
483.59	93.75
483.808	88.75
484.027	91.75
484.245	104.75
484.463	98.75
484.681	94.75
484.9	102.75
485.118	104.75
485.336	106.75
485.554	83.75
485.772	107.75
485.99	91.75
486.209	100.75
486.427	87.75
486.645	112.75
486.863	107.75
487.081	106.75
487.299	87.75
487.517	94.75
487.735	106.75
487.953	103.75
488.171	102.75
488.389	100.75
488.607	96.75
488.825	89.75
489.043	115.75
489.261	102.75
489.479	100.75
489.696	109.75
489.914	102.75
490.132	86.75
490.35	99.75
490.568	99.75
490.786	107.75
491.003	99.75
491.221	93.75
491.439	99.75
491.657	94.75
491.874	87.75
492.092	83.75
492.31	102.75
492.527	87.75
492.745	101.75
492.963	82.75
493.18	84.75
493.398	100.75
493.615	104.75
493.833	106.75
494.05	96.75
494.268	94.75
494.485	100.75
494.703	89.75
494.92	98.75
495.138	94.75
495.355	111.75
495.573	98.75
495.79	95.75
496.008	97.75
496.225	90.75
496.442	97.75
496.66	107.75
496.877	108.75
497.094	96.75
497.312	82.75
497.529	84.75
497.746	99.75
497.963	88.75
498.181	98.75
498.398	103.75
498.615	115.75
498.832	101.75
499.049	106.75
499.267	99.75
499.484	93.75
499.701	93.75
499.918	95.75
500.135	103.75
500.352	104.75
500.569	82.75
500.786	100.75
501.003	98.75
501.22	105.75
501.437	101.75
501.654	94.75
501.871	106.75
502.088	118.75
502.305	99.75
502.522	94.75
502.739	95.75
502.956	93.75
503.172	90.75
503.389	99.75
503.606	116.75
503.823	114.75
504.04	111.75
504.256	111.75
504.473	79.75
504.69	102.75
504.907	93.75
505.123	94.75
505.34	94.75
505.557	107.75
505.773	111.75
505.99	99.75
506.207	90.75
506.423	106.75
506.64	102.75
506.856	102.75
507.073	103.75
507.289	90.75
507.506	109.75
507.722	123.75
507.939	109.75
508.155	103.75
508.372	99.75
508.588	90.75
508.805	106.75
509.021	109.75
509.238	119.75
509.454	107.75
509.67	97.75
509.887	102.75
510.103	125.75
510.319	210.75
510.536	698.75
510.752	2175.75
510.968	612.75
511.184	147.75
511.401	122.75
511.617	108.75
511.833	92.75
512.049	90.75
512.265	98.75
512.481	83.75
512.698	92.75
512.914	109.75
513.13	102.75
513.346	86.75
513.562	97.75
513.778	105.75
513.994	110.75
