Data from Uncirc_2002_H10_HRD10591_00094.txt Node
Date: Wed Jan 03 10:40:00 EST 2024
User: Yrep
Spectrometer: HR+D1059
Trigger mode: 1
Integration Time (sec): 1.000000E-1
Scans to average: 1
Electric dark correction enabled: true
Nonlinearity correction enabled: false
Boxcar width: 0
XAxis mode: Wavelengths
Number of Pixels in Spectrum: 2048
>>>>>Begin Spectral Data<<<<<
223.165	-13.38
223.4	-13.38
223.635	-13.38
223.869	-35.38
224.104	-18.38
224.338	-8.38
224.573	-13.38
224.808	-19.38
225.042	-0.38
225.277	-10.38
225.511	8.62
225.746	0.62
225.98	0.62
226.215	11.62
226.449	20.62
226.683	27.62
226.918	27.62
227.152	21.62
227.387	33.62
227.621	43.62
227.856	46.62
228.09	41.62
228.324	35.62
228.559	56.62
228.793	62.62
229.027	54.62
229.262	68.62
229.496	68.62
229.73	78.62
229.964	81.62
230.199	54.62
230.433	83.62
230.667	74.62
230.901	79.62
231.136	65.62
231.37	78.62
231.604	91.62
231.838	78.62
232.072	82.62
232.306	84.62
232.541	80.62
232.775	103.62
233.009	77.62
233.243	80.62
233.477	80.62
233.711	75.62
233.945	78.62
234.179	75.62
234.413	76.62
234.647	90.62
234.881	79.62
235.115	87.62
235.349	94.62
235.583	96.62
235.817	79.62
236.051	80.62
236.285	76.62
236.519	70.62
236.753	77.62
236.987	78.62
237.221	92.62
237.455	83.62
237.689	78.62
237.922	89.62
238.156	71.62
238.39	70.62
238.624	71.62
238.858	83.62
239.091	85.62
239.325	79.62
239.559	85.62
239.793	78.62
240.027	75.62
240.26	80.62
240.494	80.62
240.728	75.62
240.961	71.62
241.195	91.62
241.429	73.62
241.662	79.62
241.896	93.62
242.13	83.62
242.363	73.62
242.597	70.62
242.83	71.62
243.064	85.62
243.298	66.62
243.531	75.62
243.765	78.62
243.998	81.62
244.232	69.62
244.465	75.62
244.699	88.62
244.932	66.62
245.166	85.62
245.399	82.62
245.633	90.62
245.866	76.62
246.099	74.62
246.333	79.62
246.566	84.62
246.8	70.62
247.033	83.62
247.266	79.62
247.5	82.62
247.733	79.62
247.966	68.62
248.2	85.62
248.433	78.62
248.666	88.62
248.899	89.62
249.133	85.62
249.366	80.62
249.599	79.62
249.832	75.62
250.066	90.62
250.299	80.62
250.532	88.62
250.765	89.62
250.998	81.62
251.231	81.62
251.465	90.62
251.698	95.62
251.931	79.62
252.164	95.62
252.397	80.62
252.63	88.62
252.863	73.62
253.096	76.62
253.329	74.62
253.562	82.62
253.795	79.62
254.028	78.62
254.261	64.62
254.494	75.62
254.727	100.62
254.96	86.62
255.193	76.62
255.426	85.62
255.659	72.62
255.892	80.62
256.124	75.62
256.357	78.62
256.59	78.62
256.823	84.62
257.056	90.62
257.289	80.62
257.521	79.62
257.754	79.62
257.987	79.62
258.22	89.62
258.452	100.62
258.685	77.62
258.918	88.62
259.151	75.62
259.383	88.62
259.616	85.62
259.849	90.62
260.081	74.62
260.314	87.62
260.547	64.62
260.779	80.62
261.012	67.62
261.244	84.62
261.477	91.62
261.71	103.62
261.942	103.62
262.175	110.62
262.407	90.62
262.64	79.62
262.872	86.62
263.105	86.62
263.337	81.62
263.57	91.62
263.802	109.62
264.035	87.62
264.267	80.62
264.499	67.62
264.732	86.62
264.964	89.62
265.197	78.62
265.429	86.62
265.661	75.62
265.894	79.62
266.126	86.62
266.358	89.62
266.591	82.62
266.823	81.62
267.055	85.62
267.287	79.62
267.52	92.62
267.752	101.62
267.984	81.62
268.216	83.62
268.448	85.62
268.681	88.62
268.913	85.62
269.145	82.62
269.377	84.62
269.609	72.62
269.841	79.62
270.073	88.62
270.306	79.62
270.538	76.62
270.77	78.62
271.002	64.62
271.234	81.62
271.466	82.62
271.698	72.62
271.93	98.62
272.162	87.62
272.394	97.62
272.626	77.62
272.858	88.62
273.09	108.62
273.322	89.62
273.553	90.62
273.785	90.62
274.017	86.62
274.249	98.62
274.481	82.62
274.713	82.62
274.945	90.62
275.176	86.62
275.408	85.62
275.64	88.62
275.872	82.62
276.104	91.62
276.335	93.62
276.567	84.62
276.799	90.62
277.031	81.62
277.262	86.62
277.494	81.62
277.726	92.62
277.957	86.62
278.189	83.62
278.421	71.62
278.652	82.62
278.884	85.62
279.115	77.62
279.347	90.62
279.579	67.62
279.81	94.62
280.042	85.62
280.273	88.62
280.505	94.62
280.736	86.62
280.968	88.62
281.199	70.62
281.431	88.62
281.662	90.62
281.894	94.62
282.125	99.62
282.356	116.62
282.588	132.62
282.819	105.62
283.051	87.62
283.282	102.62
283.513	93.62
283.745	95.62
283.976	96.62
284.207	82.62
284.439	83.62
284.67	76.62
284.901	88.62
285.132	89.62
285.364	90.62
285.595	74.62
285.826	97.62
286.057	89.62
286.288	86.62
286.52	72.62
286.751	75.62
286.982	93.62
287.213	95.62
287.444	91.62
287.675	106.62
287.906	95.62
288.138	103.62
288.369	87.62
288.6	89.62
288.831	87.62
289.062	91.62
289.293	94.62
289.524	88.62
289.755	91.62
289.986	85.62
290.217	77.62
290.448	84.62
290.679	101.62
290.91	90.62
291.141	94.62
291.371	91.62
291.602	97.62
291.833	87.62
292.064	97.62
292.295	91.62
292.526	89.62
292.757	91.62
292.987	101.62
293.218	86.62
293.449	90.62
293.68	91.62
293.91	96.62
294.141	99.62
294.372	95.62
294.603	92.62
294.833	89.62
295.064	87.62
295.295	90.62
295.525	94.62
295.756	107.62
295.987	111.62
296.217	131.62
296.448	110.62
296.679	94.62
296.909	92.62
297.14	81.62
297.37	97.62
297.601	96.62
297.831	107.62
298.062	92.62
298.292	91.62
298.523	86.62
298.753	89.62
298.984	102.62
299.214	84.62
299.445	96.62
299.675	116.62
299.905	102.62
300.136	86.62
300.366	93.62
300.597	99.62
300.827	90.62
301.057	109.62
301.288	107.62
301.518	104.62
301.748	97.62
301.979	88.62
302.209	88.62
302.439	84.62
302.669	95.62
302.9	90.62
303.13	90.62
303.36	106.62
303.59	92.62
303.82	104.62
304.051	102.62
304.281	89.62
304.511	100.62
304.741	85.62
304.971	103.62
305.201	97.62
305.431	105.62
305.661	80.62
305.891	86.62
306.121	93.62
306.352	93.62
306.582	103.62
306.812	95.62
307.042	101.62
307.272	90.62
307.502	93.62
307.731	93.62
307.961	103.62
308.191	82.62
308.421	88.62
308.651	90.62
308.881	112.62
309.111	100.62
309.341	89.62
309.571	100.62
309.8	104.62
310.03	96.62
310.26	110.62
310.49	97.62
310.72	85.62
310.949	93.62
311.179	102.62
311.409	111.62
311.639	98.62
311.868	101.62
312.098	90.62
312.328	84.62
312.557	99.62
312.787	95.62
313.017	97.62
313.246	92.62
313.476	81.62
313.706	92.62
313.935	92.62
314.165	99.62
314.394	108.62
314.624	97.62
314.853	91.62
315.083	83.62
315.312	101.62
315.542	88.62
315.771	106.62
316.001	87.62
316.23	100.62
316.46	92.62
316.689	98.62
316.919	91.62
317.148	97.62
317.377	84.62
317.607	89.62
317.836	106.62
318.065	81.62
318.295	87.62
318.524	88.62
318.753	91.62
318.983	88.62
319.212	111.62
319.441	101.62
319.67	95.62
319.9	101.62
320.129	113.62
320.358	97.62
320.587	101.62
320.816	107.62
321.046	100.62
321.275	99.62
321.504	92.62
321.733	98.62
321.962	95.62
322.191	103.62
322.42	108.62
322.649	114.62
322.878	121.62
323.108	111.62
323.337	127.62
323.566	134.62
323.795	121.62
324.024	184.62
324.253	348.62
324.482	736.62
324.71	1510.62
324.939	1943.62
325.168	730.62
325.397	208.62
325.626	146.62
325.855	119.62
326.084	122.62
326.313	131.62
326.542	150.62
326.77	208.62
326.999	416.62
327.228	842.62
327.457	1479.62
327.686	1209.62
327.914	335.62
328.143	166.62
328.372	150.62
328.6	109.62
328.829	118.62
329.058	123.62
329.287	117.62
329.515	105.62
329.744	92.62
329.972	101.62
330.201	114.62
330.43	117.62
330.658	112.62
330.887	129.62
331.115	100.62
331.344	92.62
331.572	101.62
331.801	101.62
332.03	107.62
332.258	92.62
332.486	91.62
332.715	80.62
332.943	93.62
333.172	84.62
333.4	100.62
333.629	98.62
333.857	115.62
334.085	107.62
334.314	102.62
334.542	106.62
334.771	100.62
334.999	90.62
335.227	91.62
335.455	89.62
335.684	98.62
335.912	100.62
336.14	91.62
336.369	90.62
336.597	86.62
336.825	111.62
337.053	83.62
337.281	80.62
337.51	87.62
337.738	83.62
337.966	91.62
338.194	87.62
338.422	88.62
338.65	106.62
338.878	81.62
339.106	97.62
339.334	96.62
339.562	102.62
339.79	94.62
340.018	88.62
340.246	94.62
340.474	91.62
340.702	90.62
340.93	101.62
341.158	83.62
341.386	92.62
341.614	97.62
341.842	90.62
342.07	91.62
342.298	95.62
342.526	90.62
342.754	103.62
342.981	89.62
343.209	90.62
343.437	107.62
343.665	89.62
343.893	86.62
344.12	89.62
344.348	93.62
344.576	82.62
344.804	95.62
345.031	101.62
345.259	106.62
345.487	96.62
345.714	97.62
345.942	88.62
346.17	87.62
346.397	89.62
346.625	102.62
346.853	102.62
347.08	98.62
347.308	97.62
347.535	93.62
347.763	97.62
347.99	104.62
348.218	90.62
348.445	122.62
348.673	106.62
348.9	96.62
349.128	95.62
349.355	103.62
349.583	95.62
349.81	89.62
350.037	89.62
350.265	103.62
350.492	103.62
350.72	108.62
350.947	101.62
351.174	91.62
351.402	97.62
351.629	90.62
351.856	104.62
352.083	110.62
352.311	105.62
352.538	109.62
352.765	92.62
352.992	111.62
353.22	100.62
353.447	115.62
353.674	91.62
353.901	100.62
354.128	92.62
354.355	84.62
354.583	90.62
354.81	98.62
355.037	102.62
355.264	99.62
355.491	101.62
355.718	87.62
355.945	100.62
356.172	92.62
356.399	88.62
356.626	91.62
356.853	83.62
357.08	68.62
357.307	96.62
357.534	102.62
357.761	92.62
357.988	86.62
358.215	95.62
358.441	85.62
358.668	87.62
358.895	105.62
359.122	97.62
359.349	96.62
359.576	103.62
359.802	108.62
360.029	98.62
360.256	98.62
360.483	99.62
360.709	97.62
360.936	100.62
361.163	92.62
361.39	87.62
361.616	92.62
361.843	79.62
362.07	80.62
362.296	96.62
362.523	83.62
362.749	99.62
362.976	95.62
363.203	105.62
363.429	98.62
363.656	90.62
363.882	89.62
364.109	89.62
364.335	90.62
364.562	79.62
364.788	96.62
365.015	97.62
365.241	104.62
365.468	106.62
365.694	94.62
365.92	88.62
366.147	88.62
366.373	102.62
366.599	83.62
366.826	92.62
367.052	82.62
367.278	91.62
367.505	81.62
367.731	92.62
367.957	89.62
368.184	84.62
368.41	93.62
368.636	104.62
368.862	120.62
369.089	93.62
369.315	89.62
369.541	85.62
369.767	92.62
369.993	89.62
370.219	92.62
370.445	96.62
370.672	95.62
370.898	111.62
371.124	88.62
371.35	82.62
371.576	75.62
371.802	92.62
372.028	86.62
372.254	91.62
372.48	86.62
372.706	93.62
372.932	105.62
373.158	100.62
373.384	80.62
373.61	81.62
373.835	74.62
374.061	87.62
374.287	93.62
374.513	83.62
374.739	73.62
374.965	82.62
375.191	92.62
375.416	88.62
375.642	81.62
375.868	71.62
376.094	90.62
376.319	95.62
376.545	102.62
376.771	95.62
376.997	89.62
377.222	94.62
377.448	90.62
377.674	88.62
377.899	85.62
378.125	98.62
378.35	96.62
378.576	77.62
378.802	91.62
379.027	85.62
379.253	101.62
379.478	85.62
379.704	88.62
379.929	102.62
380.155	80.62
380.38	99.62
380.606	102.62
380.831	95.62
381.057	119.62
381.282	95.62
381.507	91.62
381.733	98.62
381.958	94.62
382.184	90.62
382.409	94.62
382.634	99.62
382.86	94.62
383.085	104.62
383.31	99.62
383.535	94.62
383.761	100.62
383.986	83.62
384.211	97.62
384.436	111.62
384.662	92.62
384.887	94.62
385.112	98.62
385.337	88.62
385.562	84.62
385.787	109.62
386.013	107.62
386.238	114.62
386.463	97.62
386.688	118.62
386.913	100.62
387.138	98.62
387.363	106.62
387.588	107.62
387.813	111.62
388.038	92.62
388.263	89.62
388.488	104.62
388.713	100.62
388.938	91.62
389.163	106.62
389.387	100.62
389.612	84.62
389.837	87.62
390.062	92.62
390.287	93.62
390.512	97.62
390.736	93.62
390.961	97.62
391.186	98.62
391.411	100.62
391.636	82.62
391.86	94.62
392.085	93.62
392.31	94.62
392.534	99.62
392.759	92.62
392.984	93.62
393.208	84.62
393.433	82.62
393.658	90.62
393.882	97.62
394.107	86.62
394.331	91.62
394.556	91.62
394.78	102.62
395.005	103.62
395.229	81.62
395.454	93.62
395.678	81.62
395.903	90.62
396.127	96.62
396.352	85.62
396.576	88.62
396.801	84.62
397.025	79.62
397.249	84.62
397.474	81.62
397.698	79.62
397.922	78.62
398.147	91.62
398.371	94.62
398.595	83.62
398.82	87.62
399.044	91.62
399.268	79.62
399.492	90.62
399.717	89.62
399.941	85.62
400.165	101.62
400.389	96.62
400.613	80.62
400.837	97.62
401.062	102.62
401.286	92.62
401.51	89.62
401.734	98.62
401.958	108.62
402.182	116.62
402.406	158.62
402.63	122.62
402.854	96.62
403.078	95.62
403.302	94.62
403.526	96.62
403.75	98.62
403.974	89.62
404.198	102.62
404.422	94.62
404.645	84.62
404.869	86.62
405.093	91.62
405.317	93.62
405.541	93.62
405.765	98.62
405.988	129.62
406.212	171.62
406.436	207.62
406.66	140.62
406.883	98.62
407.107	96.62
407.331	104.62
407.555	99.62
407.778	106.62
408.002	87.62
408.226	87.62
408.449	96.62
408.673	99.62
408.896	95.62
409.12	105.62
409.344	103.62
409.567	95.62
409.791	88.62
410.014	75.62
410.238	90.62
410.461	87.62
410.685	93.62
410.908	98.62
411.132	92.62
411.355	112.62
411.578	96.62
411.802	107.62
412.025	90.62
412.249	84.62
412.472	92.62
412.695	87.62
412.919	90.62
413.142	80.62
413.365	80.62
413.589	87.62
413.812	94.62
414.035	84.62
414.258	87.62
414.482	82.62
414.705	92.62
414.928	91.62
415.151	96.62
415.374	94.62
415.597	102.62
415.821	90.62
416.044	94.62
416.267	92.62
416.49	83.62
416.713	95.62
416.936	90.62
417.159	94.62
417.382	90.62
417.605	97.62
417.828	100.62
418.051	85.62
418.274	86.62
418.497	100.62
418.72	92.62
418.943	84.62
419.166	89.62
419.389	92.62
419.611	103.62
419.834	90.62
420.057	98.62
420.28	78.62
420.503	83.62
420.726	100.62
420.948	90.62
421.171	99.62
421.394	94.62
421.617	103.62
421.839	89.62
422.062	94.62
422.285	84.62
422.507	89.62
422.73	106.62
422.953	103.62
423.175	90.62
423.398	93.62
423.621	107.62
423.843	90.62
424.066	89.62
424.288	89.62
424.511	92.62
424.733	94.62
424.956	105.62
425.178	85.62
425.401	88.62
425.623	90.62
425.846	89.62
426.068	83.62
426.291	88.62
426.513	98.62
426.735	97.62
426.958	101.62
427.18	106.62
427.402	137.62
427.625	161.62
427.847	114.62
428.069	113.62
428.292	94.62
428.514	97.62
428.736	76.62
428.958	96.62
429.181	83.62
429.403	90.62
429.625	95.62
429.847	99.62
430.069	103.62
430.292	118.62
430.514	105.62
430.736	78.62
430.958	81.62
431.18	83.62
431.402	87.62
431.624	89.62
431.846	92.62
432.068	95.62
432.29	79.62
432.512	82.62
432.734	83.62
432.956	92.62
433.178	103.62
433.4	91.62
433.622	100.62
433.844	109.62
434.066	103.62
434.287	80.62
434.509	90.62
434.731	90.62
434.953	87.62
435.175	102.62
435.397	89.62
435.618	96.62
435.84	99.62
436.062	114.62
436.284	102.62
436.505	90.62
436.727	90.62
436.949	88.62
437.17	85.62
437.392	70.62
437.614	89.62
437.835	106.62
438.057	109.62
438.278	104.62
438.5	115.62
438.721	103.62
438.943	99.62
439.165	83.62
439.386	94.62
439.608	75.62
439.829	89.62
440.05	103.62
440.272	134.62
440.493	111.62
440.715	83.62
440.936	89.62
441.158	84.62
441.379	78.62
441.6	95.62
441.822	99.62
442.043	89.62
442.264	96.62
442.486	105.62
442.707	100.62
442.928	95.62
443.149	132.62
443.371	126.62
443.592	97.62
443.813	103.62
444.034	89.62
444.255	88.62
444.476	97.62
444.698	91.62
444.919	87.62
445.14	130.62
445.361	129.62
445.582	105.62
445.803	122.62
446.024	129.62
446.245	129.62
446.466	101.62
446.687	100.62
446.908	84.62
447.129	101.62
447.35	84.62
447.571	77.62
447.792	92.62
448.013	92.62
448.234	96.62
448.455	102.62
448.675	98.62
448.896	107.62
449.117	116.62
449.338	102.62
449.559	112.62
449.779	129.62
450	107.62
450.221	91.62
450.442	99.62
450.662	99.62
450.883	91.62
451.104	104.62
451.324	93.62
451.545	94.62
451.766	91.62
451.986	90.62
452.207	80.62
452.428	98.62
452.648	106.62
452.869	92.62
453.089	111.62
453.31	120.62
453.53	101.62
453.751	104.62
453.971	95.62
454.192	97.62
454.412	103.62
454.633	92.62
454.853	89.62
455.073	81.62
455.294	95.62
455.514	91.62
455.734	92.62
455.955	108.62
456.175	100.62
456.395	80.62
456.616	84.62
456.836	73.62
457.056	86.62
457.276	92.62
457.497	91.62
457.717	84.62
457.937	84.62
458.157	95.62
458.377	95.62
458.598	111.62
458.818	134.62
459.038	144.62
459.258	107.62
459.478	91.62
459.698	103.62
459.918	86.62
460.138	98.62
460.358	80.62
460.578	96.62
460.798	99.62
461.018	84.62
461.238	99.62
461.458	68.62
461.678	87.62
461.898	89.62
462.118	78.62
462.338	81.62
462.558	84.62
462.777	80.62
462.997	91.62
463.217	93.62
463.437	88.62
463.657	86.62
463.876	88.62
464.096	106.62
464.316	87.62
464.536	92.62
464.755	104.62
464.975	108.62
465.195	152.62
465.414	150.62
465.634	80.62
465.854	94.62
466.073	82.62
466.293	75.62
466.512	81.62
466.732	92.62
466.951	92.62
467.171	78.62
467.391	96.62
467.61	103.62
467.829	104.62
468.049	89.62
468.268	85.62
468.488	88.62
468.707	72.62
468.927	86.62
469.146	87.62
469.365	82.62
469.585	86.62
469.804	83.62
470.023	90.62
470.243	83.62
470.462	88.62
470.681	105.62
470.901	105.62
471.12	92.62
471.339	87.62
471.558	96.62
471.777	98.62
471.997	85.62
472.216	100.62
472.435	102.62
472.654	92.62
472.873	95.62
473.092	94.62
473.311	101.62
473.53	97.62
473.749	98.62
473.968	97.62
474.187	103.62
474.406	82.62
474.625	81.62
474.844	97.62
475.063	83.62
475.282	80.62
475.501	86.62
475.72	86.62
475.939	82.62
476.158	83.62
476.377	74.62
476.596	88.62
476.814	91.62
477.033	100.62
477.252	93.62
477.471	87.62
477.69	86.62
477.908	97.62
478.127	83.62
478.346	100.62
478.564	99.62
478.783	114.62
479.002	104.62
479.22	89.62
479.439	103.62
479.658	104.62
479.876	102.62
480.095	90.62
480.313	99.62
480.532	87.62
480.751	113.62
480.969	92.62
481.188	109.62
481.406	100.62
481.624	100.62
481.843	91.62
482.061	83.62
482.28	94.62
482.498	89.62
482.717	86.62
482.935	101.62
483.153	93.62
483.372	84.62
483.59	94.62
483.808	92.62
484.027	92.62
484.245	100.62
484.463	81.62
484.681	86.62
484.9	105.62
485.118	87.62
485.336	100.62
485.554	101.62
485.772	83.62
485.99	98.62
486.209	115.62
486.427	102.62
486.645	112.62
486.863	106.62
487.081	89.62
487.299	90.62
487.517	107.62
487.735	89.62
487.953	96.62
488.171	102.62
488.389	100.62
488.607	92.62
488.825	97.62
489.043	96.62
489.261	96.62
489.479	99.62
489.696	84.62
489.914	84.62
490.132	83.62
490.35	109.62
490.568	89.62
490.786	103.62
491.003	102.62
491.221	82.62
491.439	88.62
491.657	89.62
491.874	98.62
492.092	92.62
492.31	101.62
492.527	80.62
492.745	91.62
492.963	101.62
493.18	100.62
493.398	95.62
493.615	100.62
493.833	78.62
494.05	102.62
494.268	87.62
494.485	108.62
494.703	92.62
494.92	94.62
495.138	98.62
495.355	88.62
495.573	99.62
495.79	102.62
496.008	100.62
496.225	87.62
496.442	86.62
496.66	95.62
496.877	96.62
497.094	87.62
497.312	104.62
497.529	85.62
497.746	89.62
497.963	83.62
498.181	85.62
498.398	95.62
498.615	106.62
498.832	115.62
499.049	95.62
499.267	84.62
499.484	107.62
499.701	96.62
499.918	104.62
500.135	87.62
500.352	89.62
500.569	107.62
500.786	96.62
501.003	98.62
501.22	109.62
501.437	86.62
501.654	94.62
501.871	96.62
502.088	84.62
502.305	89.62
502.522	98.62
502.739	96.62
502.956	95.62
503.172	96.62
503.389	96.62
503.606	94.62
503.823	94.62
504.04	113.62
504.256	92.62
504.473	88.62
504.69	97.62
504.907	89.62
505.123	87.62
505.34	88.62
505.557	89.62
505.773	91.62
505.99	86.62
506.207	98.62
506.423	81.62
506.64	86.62
506.856	101.62
507.073	93.62
507.289	84.62
507.506	104.62
507.722	110.62
507.939	112.62
508.155	93.62
508.372	91.62
508.588	92.62
508.805	109.62
509.021	104.62
509.238	103.62
509.454	109.62
509.67	99.62
509.887	125.62
510.103	120.62
510.319	191.62
510.536	731.62
510.752	2302.62
510.968	636.62
511.184	148.62
511.401	95.62
511.617	81.62
511.833	101.62
512.049	96.62
512.265	114.62
512.481	99.62
512.698	83.62
512.914	86.62
513.13	100.62
513.346	111.62
513.562	80.62
513.778	101.62
513.994	98.62
514.21	100.62
514.426	115.62
514.642	121.62
514.858	123.62
515.074	164.62
515.29	426.62
