Data from Uncirc_2002_H10_HRD10591_00006.txt Node
Date: Wed Jan 03 10:39:42 EST 2024
User: Yrep
Spectrometer: HR+D1059
Trigger mode: 1
Integration Time (sec): 1.000000E-1
Scans to average: 1
Electric dark correction enabled: true
Nonlinearity correction enabled: false
Boxcar width: 0
XAxis mode: Wavelengths
Number of Pixels in Spectrum: 2048
>>>>>Begin Spectral Data<<<<<
223.165	-30
223.4	-30
223.635	-30
223.869	-10
224.104	-29
224.338	-15
224.573	-4
224.808	-1
225.042	-6
225.277	-19
225.511	-11
225.746	-8
225.98	-2
226.215	27
226.449	26
226.683	34
226.918	20
227.152	28
227.387	28
227.621	47
227.856	50
228.09	45
228.324	53
228.559	61
228.793	57
229.027	69
229.262	79
229.496	62
229.73	72
229.964	70
230.199	75
230.433	71
230.667	77
230.901	73
231.136	62
231.37	77
231.604	88
231.838	71
232.072	91
232.306	73
232.541	78
232.775	73
233.009	90
233.243	92
233.477	84
233.711	102
233.945	71
234.179	99
234.413	87
234.647	85
234.881	76
235.115	74
235.349	86
235.583	75
235.817	91
236.051	77
236.285	77
236.519	83
236.753	90
236.987	85
237.221	85
237.455	86
237.689	87
237.922	79
238.156	67
238.39	78
238.624	61
238.858	69
239.091	66
239.325	87
239.559	89
239.793	71
240.027	84
240.26	80
240.494	80
240.728	77
240.961	85
241.195	78
241.429	73
241.662	83
241.896	70
242.13	78
242.363	68
242.597	74
242.83	84
243.064	66
243.298	79
243.531	82
243.765	82
243.998	81
244.232	84
244.465	82
244.699	92
244.932	78
245.166	78
245.399	90
245.633	81
245.866	92
246.099	88
246.333	72
246.566	77
246.8	75
247.033	68
247.266	82
247.5	76
247.733	76
247.966	74
248.2	82
248.433	68
248.666	76
248.899	82
249.133	96
249.366	83
249.599	94
249.832	93
250.066	74
250.299	73
250.532	89
250.765	77
250.998	84
251.231	79
251.465	83
251.698	76
251.931	80
252.164	77
252.397	74
252.63	86
252.863	66
253.096	99
253.329	73
253.562	91
253.795	81
254.028	79
254.261	85
254.494	77
254.727	80
254.96	90
255.193	78
255.426	84
255.659	88
255.892	91
256.124	80
256.357	82
256.59	88
256.823	75
257.056	91
257.289	79
257.521	74
257.754	88
257.987	91
258.22	82
258.452	76
258.685	85
258.918	86
259.151	81
259.383	86
259.616	86
259.849	76
260.081	83
260.314	75
260.547	81
260.779	84
261.012	78
261.244	86
261.477	80
261.71	85
261.942	104
262.175	101
262.407	80
262.64	75
262.872	89
263.105	79
263.337	86
263.57	78
263.802	75
264.035	71
264.267	79
264.499	92
264.732	81
264.964	80
265.197	80
265.429	73
265.661	82
265.894	88
266.126	72
266.358	70
266.591	75
266.823	88
267.055	86
267.287	71
267.52	86
267.752	98
267.984	82
268.216	72
268.448	81
268.681	88
268.913	91
269.145	97
269.377	89
269.609	73
269.841	82
270.073	92
270.306	70
270.538	79
270.77	73
271.002	82
271.234	84
271.466	83
271.698	73
271.93	89
272.162	90
272.394	84
272.626	90
272.858	80
273.09	86
273.322	98
273.553	92
273.785	81
274.017	80
274.249	96
274.481	98
274.713	89
274.945	88
275.176	86
275.408	75
275.64	80
275.872	102
276.104	85
276.335	84
276.567	102
276.799	93
277.031	92
277.262	89
277.494	87
277.726	90
277.957	81
278.189	88
278.421	89
278.652	80
278.884	90
279.115	73
279.347	85
279.579	72
279.81	78
280.042	72
280.273	77
280.505	85
280.736	81
280.968	84
281.199	82
281.431	90
281.662	84
281.894	93
282.125	92
282.356	92
282.588	133
282.819	102
283.051	88
283.282	99
283.513	80
283.745	86
283.976	97
284.207	81
284.439	85
284.67	98
284.901	91
285.132	79
285.364	88
285.595	99
285.826	80
286.057	87
286.288	93
286.52	93
286.751	92
286.982	81
287.213	79
287.444	82
287.675	83
287.906	79
288.138	76
288.369	97
288.6	75
288.831	75
289.062	84
289.293	91
289.524	95
289.755	91
289.986	80
290.217	95
290.448	80
290.679	89
290.91	73
291.141	100
291.371	95
291.602	82
291.833	98
292.064	84
292.295	77
292.526	89
292.757	93
292.987	81
293.218	75
293.449	94
293.68	84
293.91	91
294.141	79
294.372	91
294.603	80
294.833	93
295.064	84
295.295	89
295.525	88
295.756	89
295.987	101
296.217	110
296.448	111
296.679	100
296.909	92
297.14	88
297.37	95
297.601	84
297.831	88
298.062	83
298.292	97
298.523	90
298.753	90
298.984	87
299.214	83
299.445	90
299.675	84
299.905	91
300.136	83
300.366	85
300.597	98
300.827	97
301.057	105
301.288	92
301.518	90
301.748	92
301.979	103
302.209	89
302.439	82
302.669	88
302.9	88
303.13	88
303.36	97
303.59	93
303.82	93
304.051	80
304.281	70
304.511	82
304.741	75
304.971	86
305.201	94
305.431	81
305.661	90
305.891	83
306.121	89
306.352	81
306.582	99
306.812	81
307.042	99
307.272	91
307.502	88
307.731	80
307.961	78
308.191	90
308.421	81
308.651	87
308.881	105
309.111	96
309.341	92
309.571	90
309.8	87
310.03	100
310.26	92
310.49	88
310.72	90
310.949	85
311.179	108
311.409	93
311.639	86
311.868	87
312.098	90
312.328	85
312.557	92
312.787	85
313.017	103
313.246	82
313.476	86
313.706	71
313.935	98
314.165	93
314.394	107
314.624	102
314.853	87
315.083	96
315.312	81
315.542	86
315.771	100
316.001	85
316.23	88
316.46	79
316.689	75
316.919	89
317.148	100
317.377	87
317.607	94
317.836	96
318.065	86
318.295	103
318.524	91
318.753	92
318.983	94
319.212	101
319.441	95
319.67	102
319.9	97
320.129	93
320.358	94
320.587	91
320.816	90
321.046	92
321.275	93
321.504	93
321.733	93
321.962	89
322.191	90
322.42	94
322.649	102
322.878	98
323.108	101
323.337	105
323.566	124
323.795	132
324.024	164
324.253	325
324.482	636
324.71	1295
324.939	1662
325.168	627
325.397	189
325.626	148
325.855	107
326.084	137
326.313	119
326.542	144
326.77	176
326.999	378
327.228	730
327.457	1341
327.686	1066
327.914	296
328.143	157
328.372	122
328.6	120
328.829	108
329.058	118
329.287	94
329.515	105
329.744	100
329.972	86
330.201	99
330.43	89
330.658	120
330.887	110
331.115	113
331.344	94
331.572	99
331.801	100
332.03	90
332.258	99
332.486	94
332.715	96
332.943	102
333.172	97
333.4	99
333.629	101
333.857	101
334.085	86
334.314	103
334.542	98
334.771	89
334.999	94
335.227	98
335.455	97
335.684	93
335.912	84
336.14	91
336.369	91
336.597	98
336.825	97
337.053	86
337.281	81
337.51	80
337.738	92
337.966	97
338.194	92
338.422	86
338.65	86
338.878	102
339.106	82
339.334	85
339.562	98
339.79	99
340.018	95
340.246	93
340.474	84
340.702	87
340.93	92
341.158	96
341.386	94
341.614	94
341.842	94
342.07	99
342.298	104
342.526	93
342.754	96
342.981	99
343.209	89
343.437	117
343.665	121
343.893	89
344.12	94
344.348	92
344.576	106
344.804	92
345.031	91
345.259	92
345.487	94
345.714	77
345.942	94
346.17	85
346.397	86
346.625	99
346.853	105
347.08	85
347.308	88
347.535	104
347.763	95
347.99	120
348.218	94
348.445	93
348.673	105
348.9	113
349.128	95
349.355	99
349.583	103
349.81	99
350.037	111
350.265	97
350.492	91
350.72	114
350.947	108
351.174	93
351.402	99
351.629	104
351.856	80
352.083	102
352.311	107
352.538	125
352.765	117
352.992	112
353.22	110
353.447	106
353.674	105
353.901	90
354.128	79
354.355	96
354.583	101
354.81	106
355.037	107
355.264	92
355.491	105
355.718	93
355.945	103
356.172	99
356.399	98
356.626	102
356.853	90
357.08	105
357.307	91
357.534	100
357.761	87
357.988	93
358.215	100
358.441	98
358.668	93
358.895	98
359.122	78
359.349	87
359.576	90
359.802	97
360.029	120
360.256	94
360.483	88
360.709	89
360.936	90
361.163	98
361.39	88
361.616	107
361.843	80
362.07	82
362.296	99
362.523	100
362.749	86
362.976	97
363.203	95
363.429	94
363.656	85
363.882	97
364.109	101
364.335	82
364.562	86
364.788	91
365.015	108
365.241	102
365.468	92
365.694	104
365.92	90
366.147	89
366.373	80
366.599	107
366.826	108
367.052	89
367.278	105
367.505	81
367.731	89
367.957	85
368.184	102
368.41	104
368.636	113
368.862	114
369.089	111
369.315	88
369.541	84
369.767	87
369.993	82
370.219	96
370.445	82
370.672	89
370.898	90
371.124	100
371.35	89
371.576	74
371.802	96
372.028	89
372.254	100
372.48	91
372.706	85
372.932	77
373.158	87
373.384	72
373.61	94
373.835	93
374.061	84
374.287	92
374.513	85
374.739	88
374.965	90
375.191	101
375.416	105
375.642	99
375.868	102
376.094	94
376.319	94
376.545	92
376.771	98
376.997	102
377.222	93
377.448	87
377.674	87
377.899	99
378.125	95
378.35	97
378.576	103
378.802	87
379.027	83
379.253	95
379.478	100
379.704	93
379.929	97
380.155	96
380.38	105
380.606	101
380.831	109
381.057	97
381.282	86
381.507	97
381.733	109
381.958	104
382.184	99
382.409	106
382.634	106
382.86	87
383.085	104
383.31	97
383.535	107
383.761	104
383.986	87
384.211	106
384.436	103
384.662	113
384.887	99
385.112	107
385.337	88
385.562	118
385.787	110
386.013	118
386.238	115
386.463	109
386.688	118
386.913	103
387.138	107
387.363	103
387.588	101
387.813	108
388.038	106
388.263	114
388.488	108
388.713	92
388.938	104
389.163	90
389.387	108
389.612	95
389.837	85
390.062	113
390.287	103
390.512	86
390.736	87
390.961	87
391.186	94
391.411	103
391.636	87
391.86	91
392.085	93
392.31	72
392.534	100
392.759	84
392.984	90
393.208	107
393.433	118
393.658	122
393.882	90
394.107	77
394.331	93
394.556	81
394.78	88
395.005	84
395.229	87
395.454	92
395.678	84
395.903	93
396.127	77
396.352	97
396.576	106
396.801	119
397.025	109
397.249	84
397.474	89
397.698	88
397.922	98
398.147	100
398.371	87
398.595	107
398.82	85
399.044	84
399.268	90
399.492	105
399.717	89
399.941	89
400.165	73
400.389	92
400.613	91
400.837	106
401.062	101
401.286	85
401.51	89
401.734	89
401.958	91
402.182	105
402.406	124
402.63	94
402.854	96
403.078	94
403.302	94
403.526	91
403.75	96
403.974	117
404.198	92
404.422	93
404.645	103
404.869	68
405.093	86
405.317	80
405.541	94
405.765	100
405.988	121
406.212	140
406.436	176
406.66	146
406.883	108
407.107	84
407.331	101
407.555	113
407.778	113
408.002	77
408.226	85
408.449	89
408.673	100
408.896	88
409.12	92
409.344	100
409.567	98
409.791	92
410.014	110
410.238	94
410.461	90
410.685	93
410.908	100
411.132	115
411.355	97
411.578	104
411.802	83
412.025	100
412.249	94
412.472	95
412.695	89
412.919	88
413.142	84
413.365	92
413.589	100
413.812	75
414.035	83
414.258	104
414.482	93
414.705	100
414.928	97
415.151	106
415.374	108
415.597	92
415.821	89
416.044	98
416.267	86
416.49	85
416.713	92
416.936	84
417.159	87
417.382	76
417.605	87
417.828	80
418.051	89
418.274	86
418.497	79
418.72	74
418.943	91
419.166	97
419.389	89
419.611	82
419.834	96
420.057	84
420.28	96
420.503	91
420.726	77
420.948	86
421.171	100
421.394	89
421.617	102
421.839	84
422.062	99
422.285	91
422.507	94
422.73	105
422.953	88
423.175	104
423.398	105
423.621	92
423.843	95
424.066	105
424.288	84
424.511	88
424.733	99
424.956	104
425.178	98
425.401	103
425.623	113
425.846	87
426.068	99
426.291	95
426.513	89
426.735	105
426.958	96
427.18	110
427.402	123
427.625	145
427.847	125
428.069	99
428.292	88
428.514	70
428.736	83
428.958	81
429.181	94
429.403	78
429.625	83
429.847	92
430.069	88
430.292	96
430.514	94
430.736	92
430.958	71
431.18	92
431.402	78
431.624	86
431.846	86
432.068	95
432.29	84
432.512	98
432.734	86
432.956	98
433.178	92
433.4	101
433.622	99
433.844	100
434.066	89
434.287	109
434.509	99
434.731	93
434.953	97
435.175	94
435.397	91
435.618	98
435.84	117
436.062	102
436.284	105
436.505	86
436.727	110
436.949	101
437.17	92
437.392	87
437.614	81
437.835	100
438.057	112
438.278	105
438.5	106
438.721	110
438.943	92
439.165	83
439.386	89
439.608	83
439.829	106
440.05	106
440.272	130
440.493	101
440.715	85
440.936	84
441.158	88
441.379	72
441.6	85
441.822	85
442.043	94
442.264	104
442.486	95
442.707	89
442.928	92
443.149	112
443.371	94
443.592	106
443.813	90
444.034	107
444.255	96
444.476	100
444.698	82
444.919	92
445.14	138
445.361	122
445.582	103
445.803	118
446.024	113
446.245	122
446.466	109
446.687	91
446.908	70
447.129	89
447.35	83
447.571	91
447.792	101
448.013	104
448.234	91
448.455	96
448.675	104
448.896	92
449.117	98
449.338	97
449.559	122
449.779	132
450	98
450.221	83
450.442	72
450.662	97
450.883	100
451.104	88
451.324	88
451.545	87
451.766	101
451.986	87
452.207	96
452.428	84
452.648	94
452.869	86
453.089	106
453.31	119
453.53	94
453.751	98
453.971	102
454.192	99
454.412	95
454.633	84
454.853	80
455.073	82
455.294	83
455.514	92
455.734	83
455.955	85
456.175	81
456.395	76
456.616	82
456.836	94
457.056	93
457.276	91
457.497	96
457.717	97
457.937	88
458.157	87
458.377	90
458.598	92
458.818	137
459.038	120
459.258	105
459.478	92
459.698	98
459.918	103
460.138	84
460.358	91
460.578	93
460.798	82
461.018	87
461.238	91
461.458	83
461.678	83
461.898	91
462.118	94
462.338	80
462.558	81
462.777	90
462.997	104
463.217	82
463.437	89
463.657	89
463.876	98
464.096	91
464.316	105
464.536	88
464.755	87
464.975	106
465.195	121
465.414	137
465.634	104
465.854	94
466.073	98
466.293	97
466.512	89
466.732	78
466.951	97
467.171	78
467.391	99
467.61	93
467.829	89
468.049	99
468.268	91
468.488	86
468.707	93
468.927	107
469.146	82
469.365	96
469.585	96
469.804	89
470.023	81
470.243	76
470.462	93
470.681	87
470.901	89
471.12	95
471.339	97
471.558	94
471.777	82
471.997	91
472.216	89
472.435	92
472.654	93
472.873	89
473.092	75
473.311	91
473.53	86
473.749	83
473.968	100
474.187	95
474.406	102
474.625	88
474.844	81
475.063	91
475.282	91
475.501	87
475.72	82
475.939	76
476.158	92
476.377	88
476.596	92
476.814	76
477.033	101
477.252	97
477.471	91
477.69	92
477.908	95
478.127	90
478.346	87
478.564	92
478.783	96
479.002	90
479.22	85
479.439	106
479.658	98
479.876	99
480.095	89
480.313	82
480.532	85
480.751	85
480.969	100
481.188	101
481.406	116
481.624	86
481.843	92
482.061	88
482.28	100
482.498	85
482.717	100
482.935	97
483.153	90
483.372	93
483.59	80
483.808	87
484.027	97
484.245	99
484.463	94
484.681	100
484.9	93
485.118	98
485.336	104
485.554	93
485.772	107
485.99	101
486.209	107
486.427	101
486.645	107
486.863	110
487.081	106
487.299	103
487.517	93
487.735	92
487.953	99
488.171	93
488.389	106
488.607	95
488.825	88
489.043	89
489.261	88
489.479	84
489.696	97
489.914	92
490.132	90
490.35	77
490.568	104
490.786	92
491.003	86
491.221	91
491.439	98
491.657	107
491.874	116
492.092	99
492.31	115
492.527	93
492.745	91
492.963	88
493.18	97
493.398	101
493.615	100
493.833	100
494.05	84
494.268	97
494.485	92
494.703	93
494.92	99
495.138	93
495.355	94
495.573	87
495.79	96
496.008	93
496.225	106
496.442	92
496.66	89
496.877	99
497.094	88
497.312	93
497.529	98
497.746	92
497.963	83
498.181	97
498.398	102
498.615	99
498.832	98
499.049	90
499.267	86
499.484	89
499.701	92
499.918	94
500.135	83
500.352	94
500.569	76
500.786	97
501.003	100
501.22	100
501.437	97
501.654	98
501.871	97
502.088	98
502.305	95
502.522	84
502.739	88
502.956	104
503.172	90
503.389	88
503.606	85
503.823	104
504.04	91
504.256	97
504.473	87
504.69	91
504.907	96
505.123	91
505.34	92
505.557	100
505.773	102
505.99	73
506.207	88
506.423	102
506.64	108
506.856	77
507.073	101
507.289	95
507.506	90
507.722	105
507.939	106
508.155	99
508.372	94
508.588	101
508.805	100
509.021	105
509.238	106
509.454	93
509.67	95
509.887	85
510.103	117
510.319	192
510.536	595
510.752	1721
510.968	489
511.184	129
511.401	102
511.617	94
511.833	93
512.049	104
512.265	108
512.481	100
512.698	82
512.914	93
513.13	79
513.346	106
513.562	88
513.778	89
513.994	100
514.21	117
514.426	125
514.642	124
514.858	123
515.074	131
515.29	328
515.506	1024
515.721	411
515.937	144
516.153	111
516.369	98
516.585	94
516.801	89
517.016	101
517.232	87
517.448	84
517.664	95
517.879	101
518.095	108
518.311	113
518.527	103
518.742	88
518.958	100
519.173	100
519.389	97
519.605	92
519.82	100
520.036	90
520.251	123
520.467	106
520.682	84
520.898	108
521.113	109
521.329	113
521.544	165
521.76	416
521.975	1668
522.19	1043
522.406	226
522.621	107
522.836	104
523.052	73
523.267	82
523.482	91
523.698	109
523.913	106
524.128	82
524.343	92
524.559	89
524.774	97
524.989	99
525.204	80
525.419	99
525.634	96
525.849	87
526.064	93
526.28	88
526.495	93
526.71	94
526.925	91
527.14	106
527.355	95
527.57	88
527.785	94
527.999	83
528.214	89
528.429	81
528.644	88
528.859	79
529.074	85
529.289	118
529.503	143
529.718	94
529.933	95
530.148	101
530.363	94
530.577	103
530.792	88
531.007	98
531.221	92
531.436	97
531.651	112
531.865	91
532.08	91
532.295	99
532.509	104
532.724	87
532.938	86
533.153	100
533.367	105
533.582	87
533.796	100
534.011	94
534.225	100
534.44	102
534.654	89
534.868	85
535.083	94
535.297	104
535.511	101
535.726	95
535.94	98
536.154	98
536.369	73
536.583	102
536.797	88
537.011	102
537.225	93
537.44	86
537.654	93
537.868	88
538.082	88
538.296	85
538.51	78
538.724	93
538.938	90
539.153	97
539.367	108
539.581	81
539.795	90
540.009	92
540.222	88
540.436	90
540.65	92
540.864	92
541.078	106
541.292	101
541.506	84
541.72	99
541.934	93
542.147	87
542.361	90
542.575	77
542.789	90
543.002	91
543.216	112
543.43	101
543.644	112
543.857	107
544.071	77
544.285	94
544.498	94
544.712	93
544.925	98
545.139	81
545.352	64
545.566	98
545.779	92
545.993	94
546.206	105
546.42	100
546.633	100
546.847	82
547.06	87
547.274	83
547.487	86
547.7	96
547.914	89
548.127	90
548.34	85
548.554	96
548.767	99
548.98	91
549.193	85
549.407	86
549.62	92
549.833	100
550.046	97
550.259	107
550.473	101
550.686	96
550.899	89
551.112	99
551.325	89
551.538	93
551.751	80
551.964	82
552.177	79
552.39	88
552.603	91
552.816	101
553.029	99
553.242	87
553.455	105
553.667	94
553.88	104
554.093	89
554.306	90
554.519	89
554.732	97
554.944	88
555.157	91
555.37	87
555.583	88
555.795	96
556.008	91
556.221	93
556.433	97
556.646	94
556.859	91
557.071	85
557.284	96
557.496	103
557.709	106
557.921	91
558.134	91
558.346	98
558.559	89
558.771	102
558.984	90
559.196	96
559.409	101
559.621	97
559.833	98
560.046	80
560.258	79
560.47	100
560.683	92
560.895	98
561.107	89
561.32	88
561.532	92
561.744	97
561.956	91
562.168	93
562.381	94
562.593	83
562.805	103
563.017	86
563.229	91
563.441	84
563.653	86
563.865	91
564.077	83
564.289	88
564.501	97
564.713	88
564.925	84
565.137	99
565.349	98
565.561	95
565.773	98
565.985	93
566.197	89
566.408	87
566.62	92
566.832	90
567.044	92
567.255	97
567.467	99
567.679	88
567.891	86
568.102	92
568.314	90
568.526	92
568.737	86
568.949	81
569.161	94
569.372	80
569.584	89
569.795	85
570.007	106
570.218	210
570.43	118
570.641	97
570.853	80
571.064	92
571.276	84
571.487	94
571.698	83
571.91	89
572.121	93
572.333	92
572.544	88
572.755	99
572.966	94
573.178	87
573.389	89
573.6	95
573.811	93
574.023	93
574.234	81
574.445	102
574.656	83
574.867	84
575.078	99
575.289	90
575.501	99
575.712	91
575.923	101
576.134	89
576.345	101
576.556	77
576.767	80
576.978	94
577.188	89
577.399	101
577.61	98
577.821	102
578.032	110
578.243	228
578.454	606
578.665	206
578.875	114
579.086	89
579.297	79
579.508	91
579.718	90
579.929	88
580.14	71
580.35	83
580.561	96
580.772	93
580.982	77
581.193	98
581.403	90
581.614	92
581.825	92
582.035	94
582.246	80
582.456	98
582.667	87
582.877	91
583.087	94
583.298	108
583.508	100
583.719	86
583.929	95
