Data from Uncirc_2002_H10_HRD10591_00072.txt Node
Date: Wed Jan 03 10:39:55 EST 2024
User: Yrep
Spectrometer: HR+D1059
Trigger mode: 1
Integration Time (sec): 1.000000E-1
Scans to average: 1
Electric dark correction enabled: true
Nonlinearity correction enabled: false
Boxcar width: 0
XAxis mode: Wavelengths
Number of Pixels in Spectrum: 2048
>>>>>Begin Spectral Data<<<<<
223.165	-13.38
223.4	-13.38
223.635	-13.38
223.869	-27.38
224.104	-21.38
224.338	-26.38
224.573	-11.38
224.808	-9.38
225.042	-12.38
225.277	-4.38
225.511	7.62
225.746	2.62
225.98	8.62
226.215	18.62
226.449	10.62
226.683	21.62
226.918	18.62
227.152	37.62
227.387	34.62
227.621	37.62
227.856	40.62
228.09	47.62
228.324	44.62
228.559	52.62
228.793	64.62
229.027	66.62
229.262	73.62
229.496	73.62
229.73	84.62
229.964	85.62
230.199	66.62
230.433	73.62
230.667	62.62
230.901	79.62
231.136	72.62
231.37	72.62
231.604	82.62
231.838	75.62
232.072	83.62
232.306	75.62
232.541	70.62
232.775	73.62
233.009	78.62
233.243	70.62
233.477	96.62
233.711	86.62
233.945	83.62
234.179	92.62
234.413	80.62
234.647	77.62
234.881	88.62
235.115	87.62
235.349	83.62
235.583	82.62
235.817	77.62
236.051	76.62
236.285	91.62
236.519	80.62
236.753	79.62
236.987	77.62
237.221	84.62
237.455	69.62
237.689	86.62
237.922	64.62
238.156	81.62
238.39	65.62
238.624	76.62
238.858	74.62
239.091	78.62
239.325	81.62
239.559	80.62
239.793	68.62
240.027	79.62
240.26	92.62
240.494	94.62
240.728	88.62
240.961	72.62
241.195	100.62
241.429	88.62
241.662	71.62
241.896	82.62
242.13	86.62
242.363	81.62
242.597	52.62
242.83	92.62
243.064	77.62
243.298	80.62
243.531	73.62
243.765	81.62
243.998	84.62
244.232	91.62
244.465	92.62
244.699	86.62
244.932	71.62
245.166	70.62
245.399	79.62
245.633	78.62
245.866	64.62
246.099	80.62
246.333	81.62
246.566	79.62
246.8	84.62
247.033	69.62
247.266	65.62
247.5	80.62
247.733	83.62
247.966	79.62
248.2	79.62
248.433	83.62
248.666	85.62
248.899	82.62
249.133	82.62
249.366	95.62
249.599	97.62
249.832	88.62
250.066	72.62
250.299	79.62
250.532	76.62
250.765	74.62
250.998	76.62
251.231	80.62
251.465	80.62
251.698	75.62
251.931	89.62
252.164	81.62
252.397	83.62
252.63	87.62
252.863	85.62
253.096	81.62
253.329	78.62
253.562	85.62
253.795	83.62
254.028	78.62
254.261	73.62
254.494	90.62
254.727	90.62
254.96	89.62
255.193	88.62
255.426	87.62
255.659	80.62
255.892	79.62
256.124	78.62
256.357	75.62
256.59	70.62
256.823	76.62
257.056	79.62
257.289	81.62
257.521	80.62
257.754	77.62
257.987	79.62
258.22	81.62
258.452	82.62
258.685	84.62
258.918	83.62
259.151	95.62
259.383	83.62
259.616	70.62
259.849	81.62
260.081	67.62
260.314	79.62
260.547	66.62
260.779	87.62
261.012	78.62
261.244	96.62
261.477	91.62
261.71	87.62
261.942	91.62
262.175	114.62
262.407	79.62
262.64	87.62
262.872	88.62
263.105	89.62
263.337	95.62
263.57	68.62
263.802	91.62
264.035	82.62
264.267	78.62
264.499	74.62
264.732	82.62
264.964	84.62
265.197	80.62
265.429	102.62
265.661	87.62
265.894	73.62
266.126	87.62
266.358	90.62
266.591	89.62
266.823	70.62
267.055	85.62
267.287	83.62
267.52	79.62
267.752	75.62
267.984	74.62
268.216	107.62
268.448	88.62
268.681	90.62
268.913	84.62
269.145	95.62
269.377	85.62
269.609	87.62
269.841	71.62
270.073	74.62
270.306	88.62
270.538	100.62
270.77	81.62
271.002	81.62
271.234	92.62
271.466	79.62
271.698	86.62
271.93	96.62
272.162	89.62
272.394	93.62
272.626	92.62
272.858	86.62
273.09	82.62
273.322	81.62
273.553	80.62
273.785	82.62
274.017	78.62
274.249	76.62
274.481	79.62
274.713	90.62
274.945	91.62
275.176	84.62
275.408	106.62
275.64	85.62
275.872	97.62
276.104	85.62
276.335	87.62
276.567	83.62
276.799	119.62
277.031	97.62
277.262	88.62
277.494	77.62
277.726	82.62
277.957	71.62
278.189	90.62
278.421	94.62
278.652	79.62
278.884	79.62
279.115	90.62
279.347	88.62
279.579	89.62
279.81	91.62
280.042	75.62
280.273	88.62
280.505	75.62
280.736	79.62
280.968	83.62
281.199	90.62
281.431	91.62
281.662	101.62
281.894	89.62
282.125	90.62
282.356	122.62
282.588	142.62
282.819	102.62
283.051	85.62
283.282	84.62
283.513	110.62
283.745	88.62
283.976	90.62
284.207	86.62
284.439	92.62
284.67	89.62
284.901	83.62
285.132	87.62
285.364	84.62
285.595	84.62
285.826	82.62
286.057	65.62
286.288	76.62
286.52	88.62
286.751	78.62
286.982	83.62
287.213	87.62
287.444	101.62
287.675	89.62
287.906	88.62
288.138	97.62
288.369	91.62
288.6	95.62
288.831	90.62
289.062	95.62
289.293	81.62
289.524	84.62
289.755	88.62
289.986	86.62
290.217	90.62
290.448	76.62
290.679	86.62
290.91	106.62
291.141	88.62
291.371	79.62
291.602	80.62
291.833	91.62
292.064	92.62
292.295	96.62
292.526	86.62
292.757	67.62
292.987	96.62
293.218	81.62
293.449	108.62
293.68	77.62
293.91	82.62
294.141	83.62
294.372	87.62
294.603	89.62
294.833	98.62
295.064	84.62
295.295	88.62
295.525	81.62
295.756	106.62
295.987	102.62
296.217	135.62
296.448	121.62
296.679	80.62
296.909	86.62
297.14	90.62
297.37	107.62
297.601	82.62
297.831	100.62
298.062	88.62
298.292	85.62
298.523	81.62
298.753	91.62
298.984	93.62
299.214	79.62
299.445	91.62
299.675	95.62
299.905	99.62
300.136	99.62
300.366	84.62
300.597	82.62
300.827	93.62
301.057	97.62
301.288	100.62
301.518	95.62
301.748	89.62
301.979	91.62
302.209	82.62
302.439	81.62
302.669	92.62
302.9	90.62
303.13	90.62
303.36	92.62
303.59	99.62
303.82	101.62
304.051	98.62
304.281	91.62
304.511	78.62
304.741	69.62
304.971	81.62
305.201	97.62
305.431	84.62
305.661	82.62
305.891	83.62
306.121	101.62
306.352	109.62
306.582	126.62
306.812	95.62
307.042	92.62
307.272	98.62
307.502	89.62
307.731	80.62
307.961	101.62
308.191	91.62
308.421	79.62
308.651	93.62
308.881	99.62
309.111	111.62
309.341	104.62
309.571	102.62
309.8	88.62
310.03	101.62
310.26	91.62
310.49	102.62
310.72	105.62
310.949	97.62
311.179	102.62
311.409	84.62
311.639	102.62
311.868	99.62
312.098	93.62
312.328	83.62
312.557	70.62
312.787	98.62
313.017	88.62
313.246	90.62
313.476	74.62
313.706	92.62
313.935	89.62
314.165	88.62
314.394	90.62
314.624	108.62
314.853	91.62
315.083	104.62
315.312	84.62
315.542	102.62
315.771	90.62
316.001	104.62
316.23	92.62
316.46	98.62
316.689	83.62
316.919	89.62
317.148	88.62
317.377	103.62
317.607	99.62
317.836	83.62
318.065	96.62
318.295	105.62
318.524	91.62
318.753	82.62
318.983	91.62
319.212	91.62
319.441	100.62
319.67	98.62
319.9	92.62
320.129	90.62
320.358	92.62
320.587	98.62
320.816	92.62
321.046	91.62
321.275	88.62
321.504	97.62
321.733	95.62
321.962	91.62
322.191	88.62
322.42	99.62
322.649	89.62
322.878	118.62
323.108	112.62
323.337	113.62
323.566	117.62
323.795	152.62
324.024	192.62
324.253	356.62
324.482	745.62
324.71	1465.62
324.939	1950.62
325.168	722.62
325.397	219.62
325.626	142.62
325.855	125.62
326.084	132.62
326.313	142.62
326.542	155.62
326.77	216.62
326.999	411.62
327.228	819.62
327.457	1521.62
327.686	1172.62
327.914	331.62
328.143	175.62
328.372	138.62
328.6	105.62
328.829	111.62
329.058	117.62
329.287	127.62
329.515	113.62
329.744	88.62
329.972	115.62
330.201	107.62
330.43	110.62
330.658	118.62
330.887	136.62
331.115	114.62
331.344	102.62
331.572	91.62
331.801	95.62
332.03	76.62
332.258	92.62
332.486	90.62
332.715	98.62
332.943	96.62
333.172	100.62
333.4	98.62
333.629	105.62
333.857	100.62
334.085	101.62
334.314	103.62
334.542	99.62
334.771	92.62
334.999	99.62
335.227	100.62
335.455	99.62
335.684	107.62
335.912	97.62
336.14	91.62
336.369	92.62
336.597	92.62
336.825	92.62
337.053	96.62
337.281	103.62
337.51	89.62
337.738	92.62
337.966	89.62
338.194	87.62
338.422	89.62
338.65	95.62
338.878	99.62
339.106	94.62
339.334	103.62
339.562	97.62
339.79	90.62
340.018	102.62
340.246	101.62
340.474	101.62
340.702	97.62
340.93	83.62
341.158	88.62
341.386	89.62
341.614	100.62
341.842	80.62
342.07	94.62
342.298	95.62
342.526	101.62
342.754	99.62
342.981	90.62
343.209	79.62
343.437	106.62
343.665	107.62
343.893	103.62
344.12	98.62
344.348	100.62
344.576	98.62
344.804	84.62
345.031	108.62
345.259	93.62
345.487	99.62
345.714	91.62
345.942	82.62
346.17	79.62
346.397	83.62
346.625	97.62
346.853	90.62
347.08	87.62
347.308	105.62
347.535	97.62
347.763	90.62
347.99	92.62
348.218	101.62
348.445	89.62
348.673	96.62
348.9	70.62
349.128	92.62
349.355	85.62
349.583	93.62
349.81	105.62
350.037	95.62
350.265	86.62
350.492	99.62
350.72	115.62
350.947	95.62
351.174	99.62
351.402	110.62
351.629	104.62
351.856	111.62
352.083	101.62
352.311	109.62
352.538	95.62
352.765	106.62
352.992	110.62
353.22	108.62
353.447	109.62
353.674	90.62
353.901	93.62
354.128	98.62
354.355	76.62
354.583	111.62
354.81	89.62
355.037	102.62
355.264	91.62
355.491	99.62
355.718	78.62
355.945	98.62
356.172	96.62
356.399	89.62
356.626	81.62
356.853	102.62
357.08	89.62
357.307	93.62
357.534	91.62
357.761	82.62
357.988	83.62
358.215	106.62
358.441	91.62
358.668	96.62
358.895	91.62
359.122	86.62
359.349	84.62
359.576	93.62
359.802	96.62
360.029	108.62
360.256	118.62
360.483	92.62
360.709	90.62
360.936	88.62
361.163	86.62
361.39	106.62
361.616	93.62
361.843	97.62
362.07	106.62
362.296	102.62
362.523	87.62
362.749	87.62
362.976	88.62
363.203	105.62
363.429	82.62
363.656	94.62
363.882	71.62
364.109	87.62
364.335	89.62
364.562	91.62
364.788	80.62
365.015	106.62
365.241	92.62
365.468	95.62
365.694	107.62
365.92	90.62
366.147	87.62
366.373	82.62
366.599	92.62
366.826	92.62
367.052	86.62
367.278	85.62
367.505	95.62
367.731	106.62
367.957	98.62
368.184	109.62
368.41	107.62
368.636	112.62
368.862	112.62
369.089	91.62
369.315	83.62
369.541	81.62
369.767	102.62
369.993	94.62
370.219	85.62
370.445	80.62
370.672	101.62
370.898	76.62
371.124	97.62
371.35	83.62
371.576	91.62
371.802	85.62
372.028	83.62
372.254	90.62
372.48	104.62
372.706	87.62
372.932	90.62
373.158	87.62
373.384	89.62
373.61	81.62
373.835	82.62
374.061	78.62
374.287	100.62
374.513	82.62
374.739	87.62
374.965	91.62
375.191	91.62
375.416	96.62
375.642	95.62
375.868	100.62
376.094	89.62
376.319	94.62
376.545	87.62
376.771	83.62
376.997	95.62
377.222	85.62
377.448	93.62
377.674	85.62
377.899	90.62
378.125	98.62
378.35	97.62
378.576	90.62
378.802	92.62
379.027	87.62
379.253	85.62
379.478	101.62
379.704	92.62
379.929	91.62
380.155	98.62
380.38	98.62
380.606	96.62
380.831	86.62
381.057	91.62
381.282	89.62
381.507	92.62
381.733	80.62
381.958	111.62
382.184	106.62
382.409	91.62
382.634	94.62
382.86	98.62
383.085	106.62
383.31	107.62
383.535	107.62
383.761	102.62
383.986	106.62
384.211	97.62
384.436	104.62
384.662	96.62
384.887	101.62
385.112	99.62
385.337	97.62
385.562	107.62
385.787	93.62
386.013	103.62
386.238	101.62
386.463	105.62
386.688	110.62
386.913	102.62
387.138	105.62
387.363	100.62
387.588	95.62
387.813	106.62
388.038	104.62
388.263	108.62
388.488	107.62
388.713	93.62
388.938	95.62
389.163	102.62
389.387	87.62
389.612	87.62
389.837	96.62
390.062	88.62
390.287	96.62
390.512	98.62
390.736	103.62
390.961	89.62
391.186	86.62
391.411	84.62
391.636	88.62
391.86	78.62
392.085	93.62
392.31	83.62
392.534	90.62
392.759	93.62
392.984	91.62
393.208	86.62
393.433	86.62
393.658	88.62
393.882	91.62
394.107	79.62
394.331	91.62
394.556	89.62
394.78	101.62
395.005	98.62
395.229	79.62
395.454	98.62
395.678	86.62
395.903	95.62
396.127	76.62
396.352	88.62
396.576	86.62
396.801	78.62
397.025	96.62
397.249	80.62
397.474	88.62
397.698	88.62
397.922	93.62
398.147	84.62
398.371	87.62
398.595	81.62
398.82	80.62
399.044	86.62
399.268	93.62
399.492	82.62
399.717	94.62
399.941	89.62
400.165	97.62
400.389	93.62
400.613	86.62
400.837	97.62
401.062	91.62
401.286	75.62
401.51	94.62
401.734	89.62
401.958	107.62
402.182	129.62
402.406	139.62
402.63	105.62
402.854	78.62
403.078	82.62
403.302	93.62
403.526	100.62
403.75	81.62
403.974	88.62
404.198	95.62
404.422	78.62
404.645	90.62
404.869	93.62
405.093	91.62
405.317	82.62
405.541	92.62
405.765	97.62
405.988	115.62
406.212	160.62
406.436	204.62
406.66	140.62
406.883	98.62
407.107	101.62
407.331	96.62
407.555	100.62
407.778	110.62
408.002	86.62
408.226	91.62
408.449	83.62
408.673	100.62
408.896	86.62
409.12	96.62
409.344	92.62
409.567	86.62
409.791	95.62
410.014	100.62
410.238	99.62
410.461	99.62
410.685	101.62
410.908	117.62
411.132	113.62
411.355	107.62
411.578	95.62
411.802	83.62
412.025	80.62
412.249	95.62
412.472	92.62
412.695	75.62
412.919	94.62
413.142	88.62
413.365	108.62
413.589	86.62
413.812	106.62
414.035	115.62
414.258	75.62
414.482	83.62
414.705	87.62
414.928	82.62
415.151	97.62
415.374	98.62
415.597	79.62
415.821	95.62
416.044	87.62
416.267	76.62
416.49	95.62
416.713	83.62
416.936	84.62
417.159	92.62
417.382	91.62
417.605	87.62
417.828	90.62
418.051	83.62
418.274	91.62
418.497	92.62
418.72	82.62
418.943	81.62
419.166	86.62
419.389	97.62
419.611	84.62
419.834	90.62
420.057	84.62
420.28	92.62
420.503	96.62
420.726	88.62
420.948	87.62
421.171	96.62
421.394	100.62
421.617	92.62
421.839	102.62
422.062	95.62
422.285	103.62
422.507	104.62
422.73	108.62
422.953	94.62
423.175	84.62
423.398	104.62
423.621	83.62
423.843	75.62
424.066	87.62
424.288	102.62
424.511	92.62
424.733	90.62
424.956	100.62
425.178	78.62
425.401	85.62
425.623	86.62
425.846	78.62
426.068	85.62
426.291	86.62
426.513	87.62
426.735	91.62
426.958	105.62
427.18	94.62
427.402	129.62
427.625	139.62
427.847	118.62
428.069	106.62
428.292	85.62
428.514	82.62
428.736	79.62
428.958	85.62
429.181	92.62
429.403	82.62
429.625	78.62
429.847	69.62
430.069	96.62
430.292	91.62
430.514	87.62
430.736	86.62
430.958	87.62
431.18	81.62
431.402	84.62
431.624	71.62
431.846	80.62
432.068	91.62
432.29	96.62
432.512	90.62
432.734	87.62
432.956	100.62
433.178	106.62
433.4	98.62
433.622	89.62
433.844	94.62
434.066	90.62
434.287	81.62
434.509	87.62
434.731	86.62
434.953	96.62
435.175	88.62
435.397	92.62
435.618	95.62
435.84	102.62
436.062	112.62
436.284	99.62
436.505	97.62
436.727	92.62
436.949	97.62
437.17	82.62
437.392	79.62
437.614	91.62
437.835	104.62
438.057	111.62
438.278	112.62
438.5	104.62
438.721	111.62
438.943	84.62
439.165	82.62
439.386	72.62
439.608	98.62
439.829	101.62
440.05	118.62
440.272	145.62
440.493	95.62
440.715	91.62
440.936	81.62
441.158	99.62
441.379	92.62
441.6	95.62
441.822	88.62
442.043	103.62
442.264	113.62
442.486	95.62
442.707	81.62
442.928	97.62
443.149	115.62
443.371	111.62
443.592	107.62
443.813	122.62
444.034	89.62
444.255	86.62
444.476	88.62
444.698	88.62
444.919	79.62
445.14	120.62
445.361	124.62
445.582	112.62
445.803	143.62
446.024	123.62
446.245	136.62
446.466	116.62
446.687	91.62
446.908	81.62
447.129	91.62
447.35	90.62
447.571	94.62
447.792	96.62
448.013	96.62
448.234	109.62
448.455	95.62
448.675	96.62
448.896	104.62
449.117	90.62
449.338	99.62
449.559	126.62
449.779	133.62
450	104.62
450.221	74.62
450.442	86.62
450.662	87.62
450.883	95.62
451.104	112.62
451.324	95.62
451.545	82.62
451.766	97.62
451.986	76.62
452.207	90.62
452.428	97.62
452.648	111.62
452.869	106.62
453.089	112.62
453.31	112.62
453.53	95.62
453.751	101.62
453.971	96.62
454.192	93.62
454.412	99.62
454.633	85.62
454.853	69.62
455.073	80.62
455.294	109.62
455.514	103.62
455.734	82.62
455.955	86.62
456.175	91.62
456.395	78.62
456.616	89.62
456.836	82.62
457.056	89.62
457.276	89.62
457.497	77.62
457.717	81.62
457.937	90.62
458.157	79.62
458.377	76.62
458.598	114.62
458.818	120.62
459.038	143.62
459.258	98.62
459.478	76.62
459.698	76.62
459.918	80.62
460.138	88.62
460.358	87.62
460.578	80.62
460.798	69.62
461.018	88.62
461.238	67.62
461.458	72.62
461.678	66.62
461.898	102.62
462.118	82.62
462.338	86.62
462.558	79.62
462.777	80.62
462.997	94.62
463.217	97.62
463.437	80.62
463.657	85.62
463.876	87.62
464.096	106.62
464.316	92.62
464.536	87.62
464.755	86.62
464.975	118.62
465.195	164.62
465.414	144.62
465.634	92.62
465.854	99.62
466.073	79.62
466.293	88.62
466.512	99.62
466.732	80.62
466.951	90.62
467.171	94.62
467.391	95.62
467.61	89.62
467.829	97.62
468.049	103.62
468.268	93.62
468.488	90.62
468.707	88.62
468.927	89.62
469.146	82.62
469.365	92.62
469.585	92.62
469.804	95.62
470.023	87.62
470.243	83.62
470.462	101.62
470.681	82.62
470.901	82.62
471.12	94.62
471.339	76.62
471.558	75.62
471.777	89.62
471.997	96.62
472.216	92.62
472.435	88.62
472.654	89.62
472.873	88.62
473.092	82.62
473.311	75.62
473.53	75.62
473.749	88.62
473.968	95.62
474.187	82.62
474.406	99.62
474.625	98.62
474.844	95.62
475.063	90.62
475.282	92.62
475.501	88.62
475.72	81.62
475.939	91.62
476.158	88.62
476.377	86.62
476.596	83.62
476.814	109.62
477.033	98.62
477.252	72.62
477.471	85.62
477.69	91.62
477.908	80.62
478.127	80.62
478.346	106.62
478.564	91.62
478.783	113.62
479.002	97.62
479.22	91.62
479.439	103.62
479.658	97.62
479.876	82.62
480.095	83.62
480.313	103.62
480.532	92.62
480.751	87.62
480.969	100.62
481.188	118.62
481.406	100.62
481.624	93.62
481.843	96.62
482.061	92.62
482.28	102.62
482.498	80.62
482.717	86.62
482.935	90.62
483.153	91.62
483.372	99.62
483.59	76.62
483.808	91.62
484.027	96.62
484.245	93.62
484.463	97.62
484.681	92.62
484.9	96.62
485.118	104.62
485.336	83.62
485.554	89.62
485.772	97.62
485.99	91.62
486.209	107.62
486.427	106.62
486.645	115.62
486.863	108.62
487.081	79.62
487.299	99.62
487.517	87.62
487.735	81.62
487.953	98.62
488.171	98.62
488.389	92.62
488.607	87.62
488.825	88.62
489.043	98.62
489.261	112.62
489.479	92.62
489.696	86.62
489.914	88.62
490.132	91.62
490.35	86.62
490.568	100.62
490.786	90.62
491.003	90.62
491.221	88.62
491.439	98.62
491.657	92.62
491.874	84.62
492.092	81.62
492.31	92.62
492.527	81.62
492.745	90.62
492.963	90.62
493.18	86.62
493.398	91.62
493.615	94.62
493.833	107.62
494.05	96.62
494.268	101.62
494.485	81.62
494.703	92.62
494.92	77.62
495.138	97.62
495.355	85.62
495.573	89.62
495.79	84.62
496.008	84.62
496.225	89.62
496.442	85.62
496.66	91.62
496.877	83.62
497.094	90.62
497.312	97.62
497.529	102.62
497.746	100.62
497.963	94.62
498.181	92.62
498.398	94.62
498.615	96.62
498.832	93.62
499.049	95.62
499.267	89.62
499.484	92.62
499.701	92.62
499.918	97.62
500.135	89.62
500.352	87.62
500.569	82.62
500.786	88.62
501.003	83.62
501.22	92.62
501.437	80.62
501.654	91.62
501.871	104.62
502.088	89.62
502.305	98.62
502.522	94.62
502.739	70.62
502.956	93.62
503.172	88.62
503.389	93.62
503.606	95.62
503.823	81.62
504.04	84.62
504.256	97.62
504.473	91.62
504.69	97.62
504.907	100.62
505.123	92.62
505.34	87.62
505.557	88.62
505.773	89.62
505.99	88.62
506.207	94.62
506.423	101.62
506.64	83.62
506.856	86.62
507.073	89.62
507.289	89.62
507.506	98.62
507.722	99.62
507.939	112.62
508.155	98.62
508.372	98.62
508.588	79.62
508.805	98.62
509.021	99.62
509.238	104.62
509.454	87.62
509.67	102.62
509.887	115.62
510.103	133.62
510.319	214.62
510.536	715.62
510.752	2141.62
510.968	618.62
511.184	141.62
511.401	119.62
511.617	99.62
511.833	101.62
512.049	103.62
512.265	83.62
512.481	84.62
512.698	107.62
512.914	98.62
513.13	83.62
513.346	101.62
513.562	96.62
513.778	104.62
513.994	97.62
514.21	84.62
514.426	114.62
514.642	119.62
514.858	128.62
515.074	145.62
515.29	396.62
515.506	1297.62
515.721	481.62
515.937	148.62
