Data from Uncirc_2002_H10_HRD10591_00028.txt Node
Date: Wed Jan 03 10:39:46 EST 2024
User: Yrep
Spectrometer: HR+D1059
Trigger mode: 1
Integration Time (sec): 1.000000E-1
Scans to average: 1
Electric dark correction enabled: true
Nonlinearity correction enabled: false
Boxcar width: 0
XAxis mode: Wavelengths
Number of Pixels in Spectrum: 2048
>>>>>Begin Spectral Data<<<<<
223.165	-16.88
223.4	-16.88
223.635	-16.88
223.869	-15.88
224.104	-20.88
224.338	-24.88
224.573	-15.88
224.808	-18.88
225.042	4.12
225.277	-0.88
225.511	-12.88
225.746	12.12
225.98	-1.88
226.215	14.12
226.449	20.12
226.683	11.12
226.918	25.12
227.152	42.12
227.387	33.12
227.621	29.12
227.856	42.12
228.09	60.12
228.324	53.12
228.559	70.12
228.793	68.12
229.027	61.12
229.262	67.12
229.496	70.12
229.73	73.12
229.964	93.12
230.199	81.12
230.433	59.12
230.667	69.12
230.901	75.12
231.136	70.12
231.37	85.12
231.604	80.12
231.838	76.12
232.072	99.12
232.306	81.12
232.541	84.12
232.775	68.12
233.009	91.12
233.243	84.12
233.477	86.12
233.711	92.12
233.945	85.12
234.179	68.12
234.413	77.12
234.647	72.12
234.881	72.12
235.115	68.12
235.349	82.12
235.583	73.12
235.817	80.12
236.051	87.12
236.285	76.12
236.519	81.12
236.753	82.12
236.987	78.12
237.221	88.12
237.455	80.12
237.689	90.12
237.922	83.12
238.156	81.12
238.39	87.12
238.624	86.12
238.858	85.12
239.091	74.12
239.325	71.12
239.559	77.12
239.793	73.12
240.027	86.12
240.26	65.12
240.494	77.12
240.728	64.12
240.961	82.12
241.195	77.12
241.429	74.12
241.662	77.12
241.896	73.12
242.13	93.12
242.363	83.12
242.597	70.12
242.83	78.12
243.064	82.12
243.298	78.12
243.531	67.12
243.765	86.12
243.998	76.12
244.232	76.12
244.465	71.12
244.699	85.12
244.932	69.12
245.166	75.12
245.399	86.12
245.633	69.12
245.866	77.12
246.099	81.12
246.333	75.12
246.566	70.12
246.8	102.12
247.033	86.12
247.266	93.12
247.5	88.12
247.733	75.12
247.966	89.12
248.2	82.12
248.433	81.12
248.666	97.12
248.899	75.12
249.133	83.12
249.366	105.12
249.599	90.12
249.832	91.12
250.066	77.12
250.299	79.12
250.532	78.12
250.765	71.12
250.998	80.12
251.231	76.12
251.465	69.12
251.698	86.12
251.931	72.12
252.164	78.12
252.397	86.12
252.63	87.12
252.863	96.12
253.096	91.12
253.329	61.12
253.562	72.12
253.795	78.12
254.028	82.12
254.261	68.12
254.494	88.12
254.727	78.12
254.96	75.12
255.193	80.12
255.426	83.12
255.659	79.12
255.892	89.12
256.124	89.12
256.357	80.12
256.59	90.12
256.823	71.12
257.056	85.12
257.289	81.12
257.521	82.12
257.754	81.12
257.987	89.12
258.22	89.12
258.452	83.12
258.685	98.12
258.918	82.12
259.151	75.12
259.383	72.12
259.616	83.12
259.849	81.12
260.081	85.12
260.314	91.12
260.547	85.12
260.779	87.12
261.012	85.12
261.244	93.12
261.477	84.12
261.71	74.12
261.942	112.12
262.175	106.12
262.407	89.12
262.64	71.12
262.872	87.12
263.105	77.12
263.337	81.12
263.57	101.12
263.802	93.12
264.035	93.12
264.267	72.12
264.499	78.12
264.732	66.12
264.964	89.12
265.197	85.12
265.429	82.12
265.661	86.12
265.894	88.12
266.126	90.12
266.358	89.12
266.591	69.12
266.823	80.12
267.055	92.12
267.287	72.12
267.52	88.12
267.752	91.12
267.984	88.12
268.216	82.12
268.448	84.12
268.681	79.12
268.913	93.12
269.145	90.12
269.377	84.12
269.609	84.12
269.841	94.12
270.073	102.12
270.306	79.12
270.538	93.12
270.77	84.12
271.002	90.12
271.234	88.12
271.466	90.12
271.698	80.12
271.93	87.12
272.162	87.12
272.394	99.12
272.626	84.12
272.858	91.12
273.09	81.12
273.322	76.12
273.553	89.12
273.785	84.12
274.017	88.12
274.249	83.12
274.481	90.12
274.713	74.12
274.945	83.12
275.176	80.12
275.408	95.12
275.64	90.12
275.872	86.12
276.104	82.12
276.335	87.12
276.567	86.12
276.799	118.12
277.031	90.12
277.262	73.12
277.494	86.12
277.726	90.12
277.957	86.12
278.189	74.12
278.421	86.12
278.652	73.12
278.884	87.12
279.115	94.12
279.347	97.12
279.579	88.12
279.81	99.12
280.042	102.12
280.273	88.12
280.505	84.12
280.736	94.12
280.968	77.12
281.199	86.12
281.431	87.12
281.662	85.12
281.894	88.12
282.125	89.12
282.356	108.12
282.588	117.12
282.819	107.12
283.051	99.12
283.282	90.12
283.513	88.12
283.745	93.12
283.976	89.12
284.207	89.12
284.439	84.12
284.67	77.12
284.901	66.12
285.132	80.12
285.364	92.12
285.595	88.12
285.826	87.12
286.057	93.12
286.288	93.12
286.52	88.12
286.751	80.12
286.982	98.12
287.213	87.12
287.444	81.12
287.675	95.12
287.906	90.12
288.138	94.12
288.369	93.12
288.6	80.12
288.831	97.12
289.062	98.12
289.293	95.12
289.524	92.12
289.755	76.12
289.986	92.12
290.217	98.12
290.448	86.12
290.679	102.12
290.91	88.12
291.141	85.12
291.371	90.12
291.602	83.12
291.833	86.12
292.064	94.12
292.295	96.12
292.526	89.12
292.757	94.12
292.987	93.12
293.218	92.12
293.449	77.12
293.68	95.12
293.91	78.12
294.141	109.12
294.372	85.12
294.603	84.12
294.833	87.12
295.064	91.12
295.295	94.12
295.525	86.12
295.756	101.12
295.987	109.12
296.217	126.12
296.448	122.12
296.679	90.12
296.909	92.12
297.14	88.12
297.37	96.12
297.601	94.12
297.831	92.12
298.062	99.12
298.292	100.12
298.523	82.12
298.753	84.12
298.984	97.12
299.214	101.12
299.445	90.12
299.675	86.12
299.905	100.12
300.136	90.12
300.366	93.12
300.597	84.12
300.827	83.12
301.057	98.12
301.288	100.12
301.518	85.12
301.748	84.12
301.979	88.12
302.209	93.12
302.439	84.12
302.669	92.12
302.9	82.12
303.13	96.12
303.36	74.12
303.59	96.12
303.82	99.12
304.051	87.12
304.281	91.12
304.511	100.12
304.741	93.12
304.971	92.12
305.201	96.12
305.431	94.12
305.661	94.12
305.891	93.12
306.121	98.12
306.352	108.12
306.582	103.12
306.812	95.12
307.042	89.12
307.272	88.12
307.502	87.12
307.731	101.12
307.961	91.12
308.191	94.12
308.421	87.12
308.651	81.12
308.881	92.12
309.111	82.12
309.341	100.12
309.571	88.12
309.8	98.12
310.03	98.12
310.26	98.12
310.49	92.12
310.72	91.12
310.949	109.12
311.179	99.12
311.409	93.12
311.639	106.12
311.868	92.12
312.098	90.12
312.328	104.12
312.557	104.12
312.787	101.12
313.017	93.12
313.246	90.12
313.476	98.12
313.706	90.12
313.935	92.12
314.165	94.12
314.394	101.12
314.624	97.12
314.853	86.12
315.083	103.12
315.312	100.12
315.542	84.12
315.771	79.12
316.001	100.12
316.23	91.12
316.46	93.12
316.689	88.12
316.919	99.12
317.148	86.12
317.377	97.12
317.607	90.12
317.836	111.12
318.065	99.12
318.295	95.12
318.524	99.12
318.753	97.12
318.983	99.12
319.212	102.12
319.441	103.12
319.67	102.12
319.9	95.12
320.129	103.12
320.358	103.12
320.587	103.12
320.816	89.12
321.046	94.12
321.275	85.12
321.504	89.12
321.733	108.12
321.962	102.12
322.191	101.12
322.42	102.12
322.649	103.12
322.878	113.12
323.108	109.12
323.337	120.12
323.566	131.12
323.795	154.12
324.024	193.12
324.253	322.12
324.482	651.12
324.71	1344.12
324.939	1756.12
325.168	665.12
325.397	214.12
325.626	137.12
325.855	111.12
326.084	119.12
326.313	133.12
326.542	144.12
326.77	199.12
326.999	384.12
327.228	774.12
327.457	1374.12
327.686	1101.12
327.914	322.12
328.143	166.12
328.372	114.12
328.6	116.12
328.829	117.12
329.058	133.12
329.287	120.12
329.515	116.12
329.744	110.12
329.972	101.12
330.201	106.12
330.43	113.12
330.658	109.12
330.887	134.12
331.115	113.12
331.344	104.12
331.572	108.12
331.801	89.12
332.03	104.12
332.258	100.12
332.486	71.12
332.715	98.12
332.943	84.12
333.172	109.12
333.4	100.12
333.629	93.12
333.857	115.12
334.085	99.12
334.314	103.12
334.542	92.12
334.771	106.12
334.999	93.12
335.227	87.12
335.455	90.12
335.684	100.12
335.912	91.12
336.14	102.12
336.369	86.12
336.597	100.12
336.825	96.12
337.053	90.12
337.281	91.12
337.51	99.12
337.738	90.12
337.966	102.12
338.194	100.12
338.422	100.12
338.65	102.12
338.878	92.12
339.106	101.12
339.334	104.12
339.562	98.12
339.79	93.12
340.018	100.12
340.246	98.12
340.474	93.12
340.702	87.12
340.93	92.12
341.158	91.12
341.386	94.12
341.614	102.12
341.842	103.12
342.07	72.12
342.298	95.12
342.526	93.12
342.754	79.12
342.981	89.12
343.209	89.12
343.437	92.12
343.665	93.12
343.893	91.12
344.12	93.12
344.348	89.12
344.576	94.12
344.804	81.12
345.031	99.12
345.259	90.12
345.487	94.12
345.714	90.12
345.942	92.12
346.17	93.12
346.397	92.12
346.625	101.12
346.853	91.12
347.08	88.12
347.308	95.12
347.535	101.12
347.763	106.12
347.99	101.12
348.218	102.12
348.445	109.12
348.673	83.12
348.9	97.12
349.128	88.12
349.355	84.12
349.583	99.12
349.81	105.12
350.037	98.12
350.265	113.12
350.492	69.12
350.72	103.12
350.947	112.12
351.174	117.12
351.402	103.12
351.629	117.12
351.856	97.12
352.083	94.12
352.311	101.12
352.538	105.12
352.765	94.12
352.992	106.12
353.22	106.12
353.447	100.12
353.674	98.12
353.901	84.12
354.128	98.12
354.355	114.12
354.583	100.12
354.81	97.12
355.037	94.12
355.264	106.12
355.491	100.12
355.718	93.12
355.945	96.12
356.172	91.12
356.399	92.12
356.626	102.12
356.853	104.12
357.08	91.12
357.307	97.12
357.534	107.12
357.761	93.12
357.988	101.12
358.215	105.12
358.441	94.12
358.668	76.12
358.895	99.12
359.122	88.12
359.349	86.12
359.576	100.12
359.802	103.12
360.029	100.12
360.256	104.12
360.483	94.12
360.709	91.12
360.936	92.12
361.163	93.12
361.39	91.12
361.616	95.12
361.843	96.12
362.07	95.12
362.296	86.12
362.523	100.12
362.749	87.12
362.976	81.12
363.203	85.12
363.429	99.12
363.656	87.12
363.882	81.12
364.109	90.12
364.335	92.12
364.562	84.12
364.788	91.12
365.015	105.12
365.241	98.12
365.468	96.12
365.694	102.12
365.92	101.12
366.147	104.12
366.373	94.12
366.599	93.12
366.826	102.12
367.052	88.12
367.278	93.12
367.505	91.12
367.731	88.12
367.957	96.12
368.184	93.12
368.41	106.12
368.636	112.12
368.862	128.12
369.089	107.12
369.315	89.12
369.541	97.12
369.767	98.12
369.993	88.12
370.219	77.12
370.445	100.12
370.672	93.12
370.898	90.12
371.124	96.12
371.35	103.12
371.576	103.12
371.802	101.12
372.028	90.12
372.254	92.12
372.48	74.12
372.706	93.12
372.932	97.12
373.158	81.12
373.384	87.12
373.61	85.12
373.835	93.12
374.061	90.12
374.287	98.12
374.513	92.12
374.739	102.12
374.965	101.12
375.191	92.12
375.416	92.12
375.642	101.12
375.868	96.12
376.094	98.12
376.319	78.12
376.545	92.12
376.771	80.12
376.997	93.12
377.222	89.12
377.448	92.12
377.674	97.12
377.899	95.12
378.125	97.12
378.35	96.12
378.576	83.12
378.802	96.12
379.027	108.12
379.253	93.12
379.478	95.12
379.704	92.12
379.929	98.12
380.155	90.12
380.38	92.12
380.606	98.12
380.831	93.12
381.057	93.12
381.282	91.12
381.507	91.12
381.733	89.12
381.958	98.12
382.184	107.12
382.409	98.12
382.634	99.12
382.86	104.12
383.085	101.12
383.31	93.12
383.535	108.12
383.761	103.12
383.986	88.12
384.211	94.12
384.436	107.12
384.662	96.12
384.887	94.12
385.112	105.12
385.337	106.12
385.562	110.12
385.787	103.12
386.013	108.12
386.238	115.12
386.463	100.12
386.688	111.12
386.913	115.12
387.138	114.12
387.363	105.12
387.588	84.12
387.813	84.12
388.038	98.12
388.263	112.12
388.488	125.12
388.713	98.12
388.938	79.12
389.163	74.12
389.387	116.12
389.612	111.12
389.837	97.12
390.062	99.12
390.287	101.12
390.512	89.12
390.736	99.12
390.961	80.12
391.186	93.12
391.411	97.12
391.636	94.12
391.86	80.12
392.085	86.12
392.31	89.12
392.534	86.12
392.759	99.12
392.984	93.12
393.208	104.12
393.433	120.12
393.658	112.12
393.882	94.12
394.107	86.12
394.331	89.12
394.556	77.12
394.78	78.12
395.005	88.12
395.229	83.12
395.454	75.12
395.678	70.12
395.903	87.12
396.127	97.12
396.352	99.12
396.576	102.12
396.801	98.12
397.025	115.12
397.249	103.12
397.474	89.12
397.698	88.12
397.922	84.12
398.147	94.12
398.371	102.12
398.595	83.12
398.82	85.12
399.044	91.12
399.268	85.12
399.492	99.12
399.717	88.12
399.941	81.12
400.165	92.12
400.389	89.12
400.613	99.12
400.837	87.12
401.062	92.12
401.286	109.12
401.51	84.12
401.734	98.12
401.958	90.12
402.182	115.12
402.406	130.12
402.63	114.12
402.854	101.12
403.078	100.12
403.302	98.12
403.526	98.12
403.75	85.12
403.974	88.12
404.198	96.12
404.422	93.12
404.645	90.12
404.869	85.12
405.093	83.12
405.317	102.12
405.541	93.12
405.765	97.12
405.988	115.12
406.212	148.12
406.436	194.12
406.66	147.12
406.883	108.12
407.107	91.12
407.331	96.12
407.555	108.12
407.778	94.12
408.002	80.12
408.226	101.12
408.449	85.12
408.673	86.12
408.896	90.12
409.12	96.12
409.344	99.12
409.567	87.12
409.791	100.12
410.014	103.12
410.238	84.12
410.461	92.12
410.685	86.12
410.908	99.12
411.132	115.12
411.355	97.12
411.578	93.12
411.802	87.12
412.025	93.12
412.249	84.12
412.472	80.12
412.695	89.12
412.919	92.12
413.142	84.12
413.365	85.12
413.589	97.12
413.812	91.12
414.035	86.12
414.258	89.12
414.482	98.12
414.705	92.12
414.928	94.12
415.151	88.12
415.374	87.12
415.597	81.12
415.821	92.12
416.044	82.12
416.267	88.12
416.49	101.12
416.713	96.12
416.936	89.12
417.159	105.12
417.382	92.12
417.605	96.12
417.828	90.12
418.051	94.12
418.274	88.12
418.497	91.12
418.72	75.12
418.943	99.12
419.166	107.12
419.389	91.12
419.611	86.12
419.834	89.12
420.057	85.12
420.28	82.12
420.503	86.12
420.726	91.12
420.948	93.12
421.171	99.12
421.394	94.12
421.617	98.12
421.839	85.12
422.062	96.12
422.285	97.12
422.507	102.12
422.73	106.12
422.953	94.12
423.175	98.12
423.398	99.12
423.621	104.12
423.843	80.12
424.066	90.12
424.288	86.12
424.511	94.12
424.733	77.12
424.956	97.12
425.178	89.12
425.401	93.12
425.623	104.12
425.846	97.12
426.068	85.12
426.291	76.12
426.513	84.12
426.735	94.12
426.958	97.12
427.18	111.12
427.402	120.12
427.625	140.12
427.847	119.12
428.069	104.12
428.292	87.12
428.514	89.12
428.736	89.12
428.958	96.12
429.181	77.12
429.403	97.12
429.625	97.12
429.847	97.12
430.069	97.12
430.292	97.12
430.514	75.12
430.736	85.12
430.958	86.12
431.18	101.12
431.402	102.12
431.624	92.12
431.846	86.12
432.068	88.12
432.29	88.12
432.512	91.12
432.734	99.12
432.956	103.12
433.178	117.12
433.4	108.12
433.622	94.12
433.844	93.12
434.066	96.12
434.287	80.12
434.509	88.12
434.731	98.12
434.953	87.12
435.175	81.12
435.397	80.12
435.618	103.12
435.84	102.12
436.062	115.12
436.284	104.12
436.505	93.12
436.727	106.12
436.949	92.12
437.17	93.12
437.392	89.12
437.614	101.12
437.835	93.12
438.057	104.12
438.278	100.12
438.5	98.12
438.721	94.12
438.943	97.12
439.165	88.12
439.386	77.12
439.608	99.12
439.829	109.12
440.05	124.12
440.272	119.12
440.493	100.12
440.715	82.12
440.936	85.12
441.158	93.12
441.379	94.12
441.6	91.12
441.822	84.12
442.043	81.12
442.264	102.12
442.486	100.12
442.707	92.12
442.928	95.12
443.149	119.12
443.371	120.12
443.592	119.12
443.813	97.12
444.034	98.12
444.255	89.12
444.476	94.12
444.698	80.12
444.919	94.12
445.14	118.12
445.361	131.12
445.582	112.12
445.803	120.12
446.024	144.12
446.245	108.12
446.466	111.12
446.687	97.12
446.908	98.12
447.129	93.12
447.35	100.12
447.571	94.12
447.792	78.12
448.013	89.12
448.234	111.12
448.455	104.12
448.675	112.12
448.896	100.12
449.117	93.12
449.338	101.12
449.559	122.12
449.779	127.12
450	90.12
450.221	93.12
450.442	84.12
450.662	100.12
450.883	101.12
451.104	94.12
451.324	94.12
451.545	77.12
451.766	94.12
451.986	69.12
452.207	92.12
452.428	87.12
452.648	89.12
452.869	106.12
453.089	105.12
453.31	113.12
453.53	101.12
453.751	85.12
453.971	104.12
454.192	117.12
454.412	103.12
454.633	81.12
454.853	91.12
455.073	100.12
455.294	81.12
455.514	86.12
455.734	89.12
455.955	76.12
456.175	84.12
456.395	86.12
456.616	97.12
456.836	89.12
457.056	90.12
457.276	82.12
457.497	98.12
457.717	82.12
457.937	74.12
458.157	95.12
458.377	96.12
458.598	104.12
458.818	143.12
459.038	128.12
459.258	110.12
459.478	94.12
459.698	84.12
459.918	96.12
460.138	91.12
460.358	91.12
460.578	84.12
460.798	99.12
461.018	84.12
461.238	101.12
461.458	89.12
461.678	70.12
461.898	83.12
462.118	89.12
462.338	84.12
462.558	89.12
462.777	101.12
462.997	97.12
463.217	93.12
463.437	91.12
463.657	90.12
463.876	92.12
464.096	82.12
464.316	100.12
464.536	93.12
464.755	88.12
464.975	109.12
465.195	136.12
465.414	132.12
465.634	96.12
465.854	90.12
466.073	87.12
466.293	89.12
466.512	90.12
466.732	92.12
466.951	92.12
467.171	90.12
467.391	96.12
467.61	103.12
467.829	93.12
468.049	76.12
468.268	81.12
468.488	82.12
468.707	83.12
468.927	82.12
469.146	81.12
469.365	83.12
469.585	107.12
469.804	109.12
470.023	93.12
470.243	101.12
470.462	94.12
470.681	97.12
470.901	86.12
471.12	79.12
471.339	91.12
471.558	96.12
471.777	94.12
471.997	78.12
472.216	92.12
472.435	108.12
472.654	89.12
472.873	87.12
473.092	84.12
473.311	95.12
473.53	88.12
473.749	103.12
473.968	96.12
474.187	106.12
474.406	87.12
474.625	91.12
474.844	71.12
475.063	80.12
475.282	90.12
475.501	82.12
475.72	88.12
475.939	86.12
476.158	92.12
476.377	86.12
476.596	84.12
476.814	93.12
477.033	94.12
477.252	104.12
477.471	89.12
477.69	79.12
477.908	78.12
478.127	91.12
478.346	85.12
478.564	98.12
478.783	94.12
479.002	100.12
479.22	86.12
479.439	89.12
479.658	83.12
479.876	87.12
480.095	89.12
480.313	83.12
480.532	104.12
480.751	101.12
480.969	102.12
481.188	116.12
481.406	100.12
481.624	94.12
481.843	88.12
482.061	94.12
482.28	89.12
482.498	98.12
482.717	88.12
482.935	97.12
483.153	99.12
483.372	95.12
483.59	76.12
483.808	100.12
484.027	75.12
484.245	97.12
484.463	89.12
484.681	107.12
484.9	98.12
485.118	100.12
485.336	89.12
485.554	97.12
485.772	93.12
485.99	97.12
486.209	104.12
486.427	102.12
486.645	91.12
486.863	108.12
487.081	105.12
487.299	87.12
487.517	81.12
487.735	96.12
487.953	91.12
488.171	95.12
488.389	96.12
488.607	92.12
488.825	89.12
489.043	88.12
489.261	96.12
489.479	92.12
489.696	98.12
489.914	85.12
490.132	91.12
490.35	97.12
490.568	76.12
490.786	83.12
491.003	104.12
491.221	104.12
491.439	74.12
491.657	88.12
491.874	90.12
492.092	93.12
492.31	85.12
492.527	103.12
492.745	98.12
492.963	95.12
493.18	93.12
493.398	84.12
493.615	101.12
493.833	95.12
494.05	103.12
494.268	88.12
494.485	93.12
494.703	93.12
494.92	95.12
495.138	107.12
495.355	90.12
495.573	72.12
495.79	98.12
496.008	94.12
496.225	98.12
496.442	87.12
496.66	97.12
496.877	71.12
497.094	95.12
497.312	95.12
497.529	92.12
497.746	84.12
497.963	94.12
498.181	98.12
498.398	105.12
498.615	99.12
498.832	100.12
499.049	84.12
499.267	88.12
499.484	88.12
499.701	100.12
499.918	99.12
500.135	81.12
500.352	72.12
500.569	91.12
500.786	108.12
501.003	85.12
501.22	87.12
501.437	97.12
501.654	101.12
501.871	93.12
502.088	85.12
502.305	82.12
502.522	87.12
502.739	91.12
502.956	90.12
503.172	86.12
503.389	90.12
503.606	108.12
503.823	89.12
504.04	92.12
504.256	99.12
504.473	80.12
504.69	93.12
504.907	101.12
505.123	94.12
505.34	94.12
505.557	96.12
505.773	103.12
505.99	75.12
506.207	86.12
506.423	91.12
506.64	76.12
506.856	90.12
507.073	78.12
507.289	84.12
507.506	108.12
507.722	104.12
507.939	106.12
508.155	98.12
508.372	85.12
508.588	96.12
508.805	93.12
509.021	88.12
509.238	93.12
509.454	98.12
509.67	93.12
509.887	105.12
510.103	129.12
510.319	193.12
510.536	655.12
510.752	1935.12
510.968	544.12
511.184	154.12
511.401	133.12
511.617	103.12
511.833	85.12
512.049	100.12
512.265	75.12
512.481	84.12
512.698	81.12
512.914	104.12
513.13	91.12
513.346	83.12
513.562	80.12
513.778	98.12
513.994	105.12
514.21	107.12
514.426	112.12
514.642	128.12
514.858	132.12
515.074	132.12
515.29	364.12
