Data from Uncirc_2002_H10_HRD10591_00051.txt Node
Date: Wed Jan 03 10:39:51 EST 2024
User: Yrep
Spectrometer: HR+D1059
Trigger mode: 1
Integration Time (sec): 1.000000E-1
Scans to average: 1
Electric dark correction enabled: true
Nonlinearity correction enabled: false
Boxcar width: 0
XAxis mode: Wavelengths
Number of Pixels in Spectrum: 2048
>>>>>Begin Spectral Data<<<<<
223.165	-32.44
223.4	-32.44
223.635	-32.44
223.869	-27.44
224.104	-31.44
224.338	-9.44
224.573	-16.44
224.808	0.56
225.042	2.56
225.277	-9.44
225.511	-1.44
225.746	-6.44
225.98	16.56
226.215	8.56
226.449	12.56
226.683	21.56
226.918	35.56
227.152	36.56
227.387	40.56
227.621	32.56
227.856	41.56
228.09	46.56
228.324	47.56
228.559	51.56
228.793	62.56
229.027	56.56
229.262	72.56
229.496	86.56
229.73	74.56
229.964	74.56
230.199	79.56
230.433	80.56
230.667	81.56
230.901	67.56
231.136	80.56
231.37	82.56
231.604	78.56
231.838	82.56
232.072	85.56
232.306	87.56
232.541	86.56
232.775	82.56
233.009	86.56
233.243	91.56
233.477	92.56
233.711	82.56
233.945	80.56
234.179	74.56
234.413	66.56
234.647	81.56
234.881	97.56
235.115	80.56
235.349	86.56
235.583	70.56
235.817	93.56
236.051	83.56
236.285	83.56
236.519	85.56
236.753	63.56
236.987	65.56
237.221	89.56
237.455	90.56
237.689	74.56
237.922	75.56
238.156	77.56
238.39	81.56
238.624	64.56
238.858	74.56
239.091	76.56
239.325	82.56
239.559	80.56
239.793	63.56
240.027	80.56
240.26	73.56
240.494	67.56
240.728	75.56
240.961	78.56
241.195	74.56
241.429	80.56
241.662	91.56
241.896	72.56
242.13	77.56
242.363	80.56
242.597	70.56
242.83	74.56
243.064	90.56
243.298	76.56
243.531	95.56
243.765	71.56
243.998	73.56
244.232	95.56
244.465	87.56
244.699	87.56
244.932	79.56
245.166	79.56
245.399	73.56
245.633	73.56
245.866	84.56
246.099	65.56
246.333	83.56
246.566	78.56
246.8	90.56
247.033	74.56
247.266	70.56
247.5	81.56
247.733	90.56
247.966	70.56
248.2	68.56
248.433	84.56
248.666	87.56
248.899	84.56
249.133	99.56
249.366	101.56
249.599	101.56
249.832	94.56
250.066	83.56
250.299	70.56
250.532	80.56
250.765	85.56
250.998	82.56
251.231	83.56
251.465	79.56
251.698	83.56
251.931	83.56
252.164	75.56
252.397	74.56
252.63	66.56
252.863	77.56
253.096	72.56
253.329	77.56
253.562	74.56
253.795	76.56
254.028	73.56
254.261	70.56
254.494	77.56
254.727	74.56
254.96	71.56
255.193	89.56
255.426	80.56
255.659	76.56
255.892	79.56
256.124	78.56
256.357	83.56
256.59	81.56
256.823	56.56
257.056	82.56
257.289	82.56
257.521	69.56
257.754	93.56
257.987	96.56
258.22	79.56
258.452	92.56
258.685	96.56
258.918	77.56
259.151	81.56
259.383	75.56
259.616	75.56
259.849	88.56
260.081	74.56
260.314	82.56
260.547	67.56
260.779	76.56
261.012	72.56
261.244	73.56
261.477	85.56
261.71	89.56
261.942	103.56
262.175	104.56
262.407	91.56
262.64	83.56
262.872	95.56
263.105	91.56
263.337	75.56
263.57	75.56
263.802	70.56
264.035	80.56
264.267	73.56
264.499	70.56
264.732	85.56
264.964	91.56
265.197	76.56
265.429	87.56
265.661	87.56
265.894	84.56
266.126	69.56
266.358	82.56
266.591	85.56
266.823	79.56
267.055	91.56
267.287	81.56
267.52	89.56
267.752	98.56
267.984	84.56
268.216	93.56
268.448	80.56
268.681	88.56
268.913	72.56
269.145	89.56
269.377	74.56
269.609	92.56
269.841	92.56
270.073	80.56
270.306	74.56
270.538	79.56
270.77	92.56
271.002	67.56
271.234	84.56
271.466	79.56
271.698	79.56
271.93	81.56
272.162	96.56
272.394	78.56
272.626	96.56
272.858	83.56
273.09	91.56
273.322	80.56
273.553	91.56
273.785	80.56
274.017	81.56
274.249	82.56
274.481	86.56
274.713	70.56
274.945	74.56
275.176	86.56
275.408	80.56
275.64	94.56
275.872	89.56
276.104	88.56
276.335	87.56
276.567	92.56
276.799	97.56
277.031	97.56
277.262	91.56
277.494	90.56
277.726	84.56
277.957	97.56
278.189	96.56
278.421	87.56
278.652	92.56
278.884	90.56
279.115	102.56
279.347	77.56
279.579	84.56
279.81	81.56
280.042	77.56
280.273	90.56
280.505	75.56
280.736	82.56
280.968	84.56
281.199	84.56
281.431	83.56
281.662	75.56
281.894	80.56
282.125	93.56
282.356	97.56
282.588	129.56
282.819	107.56
283.051	92.56
283.282	81.56
283.513	81.56
283.745	84.56
283.976	79.56
284.207	75.56
284.439	82.56
284.67	79.56
284.901	95.56
285.132	79.56
285.364	92.56
285.595	83.56
285.826	89.56
286.057	91.56
286.288	95.56
286.52	91.56
286.751	81.56
286.982	91.56
287.213	97.56
287.444	97.56
287.675	92.56
287.906	106.56
288.138	80.56
288.369	87.56
288.6	89.56
288.831	87.56
289.062	95.56
289.293	81.56
289.524	94.56
289.755	83.56
289.986	75.56
290.217	80.56
290.448	92.56
290.679	75.56
290.91	80.56
291.141	86.56
291.371	102.56
291.602	87.56
291.833	87.56
292.064	97.56
292.295	87.56
292.526	87.56
292.757	76.56
292.987	79.56
293.218	89.56
293.449	84.56
293.68	85.56
293.91	88.56
294.141	83.56
294.372	84.56
294.603	81.56
294.833	89.56
295.064	76.56
295.295	92.56
295.525	101.56
295.756	108.56
295.987	104.56
296.217	130.56
296.448	116.56
296.679	99.56
296.909	103.56
297.14	87.56
297.37	80.56
297.601	85.56
297.831	96.56
298.062	100.56
298.292	92.56
298.523	109.56
298.753	86.56
298.984	95.56
299.214	89.56
299.445	87.56
299.675	87.56
299.905	92.56
300.136	91.56
300.366	93.56
300.597	94.56
300.827	89.56
301.057	99.56
301.288	104.56
301.518	100.56
301.748	103.56
301.979	93.56
302.209	80.56
302.439	86.56
302.669	84.56
302.9	76.56
303.13	88.56
303.36	74.56
303.59	116.56
303.82	95.56
304.051	87.56
304.281	98.56
304.511	80.56
304.741	87.56
304.971	74.56
305.201	92.56
305.431	87.56
305.661	97.56
305.891	91.56
306.121	86.56
306.352	102.56
306.582	102.56
306.812	103.56
307.042	97.56
307.272	94.56
307.502	85.56
307.731	91.56
307.961	87.56
308.191	101.56
308.421	84.56
308.651	92.56
308.881	97.56
309.111	86.56
309.341	89.56
309.571	87.56
309.8	85.56
310.03	96.56
310.26	98.56
310.49	97.56
310.72	89.56
310.949	89.56
311.179	90.56
311.409	94.56
311.639	89.56
311.868	93.56
312.098	97.56
312.328	108.56
312.557	93.56
312.787	94.56
313.017	86.56
313.246	103.56
313.476	87.56
313.706	86.56
313.935	101.56
314.165	99.56
314.394	93.56
314.624	103.56
314.853	93.56
315.083	81.56
315.312	102.56
315.542	90.56
315.771	95.56
316.001	89.56
316.23	100.56
316.46	90.56
316.689	88.56
316.919	81.56
317.148	90.56
317.377	93.56
317.607	103.56
317.836	84.56
318.065	100.56
318.295	88.56
318.524	101.56
318.753	81.56
318.983	81.56
319.212	96.56
319.441	102.56
319.67	80.56
319.9	96.56
320.129	90.56
320.358	90.56
320.587	106.56
320.816	99.56
321.046	85.56
321.275	95.56
321.504	101.56
321.733	86.56
321.962	105.56
322.191	107.56
322.42	95.56
322.649	114.56
322.878	101.56
323.108	110.56
323.337	112.56
323.566	125.56
323.795	135.56
324.024	204.56
324.253	319.56
324.482	680.56
324.71	1358.56
324.939	1763.56
325.168	674.56
325.397	220.56
325.626	138.56
325.855	127.56
326.084	116.56
326.313	115.56
326.542	150.56
326.77	208.56
326.999	389.56
327.228	793.56
327.457	1440.56
327.686	1096.56
327.914	312.56
328.143	153.56
328.372	134.56
328.6	121.56
328.829	104.56
329.058	99.56
329.287	107.56
329.515	102.56
329.744	96.56
329.972	105.56
330.201	105.56
330.43	95.56
330.658	108.56
330.887	139.56
331.115	131.56
331.344	115.56
331.572	103.56
331.801	102.56
332.03	91.56
332.258	95.56
332.486	87.56
332.715	90.56
332.943	94.56
333.172	94.56
333.4	86.56
333.629	97.56
333.857	112.56
334.085	86.56
334.314	104.56
334.542	90.56
334.771	106.56
334.999	104.56
335.227	84.56
335.455	103.56
335.684	90.56
335.912	81.56
336.14	104.56
336.369	99.56
336.597	95.56
336.825	101.56
337.053	83.56
337.281	99.56
337.51	86.56
337.738	90.56
337.966	95.56
338.194	90.56
338.422	98.56
338.65	96.56
338.878	96.56
339.106	91.56
339.334	78.56
339.562	87.56
339.79	85.56
340.018	99.56
340.246	88.56
340.474	105.56
340.702	105.56
340.93	93.56
341.158	82.56
341.386	88.56
341.614	100.56
341.842	96.56
342.07	96.56
342.298	90.56
342.526	99.56
342.754	76.56
342.981	87.56
343.209	78.56
343.437	104.56
343.665	94.56
343.893	100.56
344.12	91.56
344.348	85.56
344.576	90.56
344.804	84.56
345.031	101.56
345.259	94.56
345.487	83.56
345.714	97.56
345.942	96.56
346.17	85.56
346.397	103.56
346.625	97.56
346.853	84.56
347.08	88.56
347.308	78.56
347.535	96.56
347.763	92.56
347.99	96.56
348.218	91.56
348.445	108.56
348.673	91.56
348.9	100.56
349.128	100.56
349.355	99.56
349.583	98.56
349.81	107.56
350.037	97.56
350.265	86.56
350.492	92.56
350.72	92.56
350.947	101.56
351.174	96.56
351.402	89.56
351.629	87.56
351.856	86.56
352.083	97.56
352.311	113.56
352.538	92.56
352.765	111.56
352.992	108.56
353.22	96.56
353.447	112.56
353.674	108.56
353.901	84.56
354.128	112.56
354.355	98.56
354.583	82.56
354.81	100.56
355.037	86.56
355.264	90.56
355.491	87.56
355.718	86.56
355.945	102.56
356.172	91.56
356.399	99.56
356.626	102.56
356.853	77.56
357.08	98.56
357.307	99.56
357.534	98.56
357.761	94.56
357.988	86.56
358.215	99.56
358.441	94.56
358.668	80.56
358.895	82.56
359.122	88.56
359.349	80.56
359.576	94.56
359.802	96.56
360.029	103.56
360.256	98.56
360.483	90.56
360.709	85.56
360.936	99.56
361.163	86.56
361.39	95.56
361.616	90.56
361.843	103.56
362.07	88.56
362.296	96.56
362.523	80.56
362.749	85.56
362.976	89.56
363.203	85.56
363.429	87.56
363.656	96.56
363.882	90.56
364.109	98.56
364.335	106.56
364.562	74.56
364.788	86.56
365.015	92.56
365.241	93.56
365.468	102.56
365.694	95.56
365.92	106.56
366.147	84.56
366.373	84.56
366.599	83.56
366.826	81.56
367.052	92.56
367.278	96.56
367.505	93.56
367.731	90.56
367.957	80.56
368.184	88.56
368.41	96.56
368.636	118.56
368.862	107.56
369.089	93.56
369.315	77.56
369.541	90.56
369.767	94.56
369.993	96.56
370.219	96.56
370.445	87.56
370.672	95.56
370.898	80.56
371.124	86.56
371.35	102.56
371.576	87.56
371.802	90.56
372.028	82.56
372.254	82.56
372.48	74.56
372.706	82.56
372.932	96.56
373.158	86.56
373.384	89.56
373.61	87.56
373.835	89.56
374.061	96.56
374.287	91.56
374.513	73.56
374.739	92.56
374.965	81.56
375.191	102.56
375.416	80.56
375.642	97.56
375.868	98.56
376.094	90.56
376.319	86.56
376.545	81.56
376.771	87.56
376.997	92.56
377.222	100.56
377.448	86.56
377.674	87.56
377.899	99.56
378.125	79.56
378.35	88.56
378.576	84.56
378.802	97.56
379.027	100.56
379.253	97.56
379.478	94.56
379.704	88.56
379.929	82.56
380.155	86.56
380.38	90.56
380.606	97.56
380.831	106.56
381.057	97.56
381.282	98.56
381.507	91.56
381.733	102.56
381.958	93.56
382.184	95.56
382.409	83.56
382.634	87.56
382.86	102.56
383.085	99.56
383.31	98.56
383.535	99.56
383.761	95.56
383.986	98.56
384.211	97.56
384.436	88.56
384.662	95.56
384.887	102.56
385.112	98.56
385.337	87.56
385.562	107.56
385.787	98.56
386.013	94.56
386.238	112.56
386.463	107.56
386.688	113.56
386.913	109.56
387.138	107.56
387.363	111.56
387.588	96.56
387.813	103.56
388.038	82.56
388.263	92.56
388.488	100.56
388.713	103.56
388.938	88.56
389.163	95.56
389.387	103.56
389.612	91.56
389.837	88.56
390.062	86.56
390.287	95.56
390.512	95.56
390.736	108.56
390.961	89.56
391.186	102.56
391.411	91.56
391.636	101.56
391.86	90.56
392.085	84.56
392.31	76.56
392.534	77.56
392.759	76.56
392.984	100.56
393.208	91.56
393.433	91.56
393.658	92.56
393.882	83.56
394.107	78.56
394.331	82.56
394.556	85.56
394.78	83.56
395.005	97.56
395.229	86.56
395.454	102.56
395.678	87.56
395.903	99.56
396.127	98.56
396.352	81.56
396.576	83.56
396.801	75.56
397.025	94.56
397.249	76.56
397.474	92.56
397.698	91.56
397.922	94.56
398.147	84.56
398.371	95.56
398.595	87.56
398.82	100.56
399.044	87.56
399.268	86.56
399.492	88.56
399.717	89.56
399.941	95.56
400.165	82.56
400.389	99.56
400.613	101.56
400.837	88.56
401.062	80.56
401.286	74.56
401.51	70.56
401.734	101.56
401.958	107.56
402.182	111.56
402.406	142.56
402.63	93.56
402.854	85.56
403.078	97.56
403.302	81.56
403.526	74.56
403.75	86.56
403.974	94.56
404.198	86.56
404.422	87.56
404.645	100.56
404.869	96.56
405.093	84.56
405.317	110.56
405.541	96.56
405.765	77.56
405.988	112.56
406.212	138.56
406.436	208.56
406.66	138.56
406.883	94.56
407.107	80.56
407.331	93.56
407.555	90.56
407.778	78.56
408.002	79.56
408.226	91.56
408.449	86.56
408.673	88.56
408.896	99.56
409.12	104.56
409.344	109.56
409.567	100.56
409.791	103.56
410.014	101.56
410.238	86.56
410.461	101.56
410.685	104.56
410.908	95.56
411.132	112.56
411.355	99.56
411.578	94.56
411.802	100.56
412.025	89.56
412.249	91.56
412.472	107.56
412.695	95.56
412.919	92.56
413.142	73.56
413.365	88.56
413.589	76.56
413.812	86.56
414.035	103.56
414.258	91.56
414.482	95.56
414.705	93.56
414.928	89.56
415.151	90.56
415.374	90.56
415.597	84.56
415.821	106.56
416.044	81.56
416.267	87.56
416.49	89.56
416.713	91.56
416.936	94.56
417.159	79.56
417.382	83.56
417.605	95.56
417.828	91.56
418.051	88.56
418.274	93.56
418.497	85.56
418.72	96.56
418.943	80.56
419.166	85.56
419.389	89.56
419.611	88.56
419.834	84.56
420.057	100.56
420.28	88.56
420.503	79.56
420.726	101.56
420.948	94.56
421.171	95.56
421.394	85.56
421.617	92.56
421.839	80.56
422.062	94.56
422.285	90.56
422.507	104.56
422.73	104.56
422.953	83.56
423.175	98.56
423.398	97.56
423.621	92.56
423.843	97.56
424.066	89.56
424.288	88.56
424.511	85.56
424.733	90.56
424.956	100.56
425.178	98.56
425.401	104.56
425.623	97.56
425.846	91.56
426.068	91.56
426.291	99.56
426.513	81.56
426.735	91.56
426.958	84.56
427.18	98.56
427.402	132.56
427.625	142.56
427.847	121.56
428.069	98.56
428.292	81.56
428.514	79.56
428.736	72.56
428.958	74.56
429.181	92.56
429.403	95.56
429.625	95.56
429.847	92.56
430.069	99.56
430.292	92.56
430.514	85.56
430.736	74.56
430.958	84.56
431.18	99.56
431.402	94.56
431.624	90.56
431.846	82.56
432.068	78.56
432.29	75.56
432.512	88.56
432.734	93.56
432.956	83.56
433.178	98.56
433.4	94.56
433.622	98.56
433.844	86.56
434.066	87.56
434.287	82.56
434.509	86.56
434.731	85.56
434.953	82.56
435.175	107.56
435.397	105.56
435.618	89.56
435.84	91.56
436.062	105.56
436.284	88.56
436.505	87.56
436.727	86.56
436.949	81.56
437.17	100.56
437.392	84.56
437.614	82.56
437.835	87.56
438.057	102.56
438.278	99.56
438.5	96.56
438.721	116.56
438.943	106.56
439.165	93.56
439.386	96.56
439.608	91.56
439.829	91.56
440.05	105.56
440.272	107.56
440.493	94.56
440.715	82.56
440.936	93.56
441.158	84.56
441.379	88.56
441.6	101.56
441.822	94.56
442.043	86.56
442.264	90.56
442.486	93.56
442.707	96.56
442.928	99.56
443.149	123.56
443.371	126.56
443.592	97.56
443.813	119.56
444.034	94.56
444.255	71.56
444.476	91.56
444.698	80.56
444.919	94.56
445.14	137.56
445.361	112.56
445.582	106.56
445.803	119.56
446.024	110.56
446.245	105.56
446.466	99.56
446.687	99.56
446.908	80.56
447.129	92.56
447.35	91.56
447.571	79.56
447.792	95.56
448.013	82.56
448.234	100.56
448.455	90.56
448.675	101.56
448.896	92.56
449.117	82.56
449.338	105.56
449.559	121.56
449.779	122.56
450	98.56
450.221	82.56
450.442	98.56
450.662	91.56
450.883	104.56
451.104	102.56
451.324	102.56
451.545	88.56
451.766	84.56
451.986	89.56
452.207	97.56
452.428	98.56
452.648	104.56
452.869	98.56
453.089	108.56
453.31	111.56
453.53	97.56
453.751	78.56
453.971	114.56
454.192	90.56
454.412	86.56
454.633	96.56
454.853	74.56
455.073	81.56
455.294	79.56
455.514	90.56
455.734	92.56
455.955	86.56
456.175	94.56
456.395	83.56
456.616	94.56
456.836	98.56
457.056	88.56
457.276	76.56
457.497	74.56
457.717	83.56
457.937	82.56
458.157	76.56
458.377	95.56
458.598	95.56
458.818	133.56
459.038	131.56
459.258	102.56
459.478	80.56
459.698	87.56
459.918	86.56
460.138	91.56
460.358	85.56
460.578	84.56
460.798	88.56
461.018	89.56
461.238	74.56
461.458	99.56
461.678	84.56
461.898	101.56
462.118	93.56
462.338	86.56
462.558	90.56
462.777	94.56
462.997	83.56
463.217	87.56
463.437	78.56
463.657	92.56
463.876	87.56
464.096	90.56
464.316	74.56
464.536	76.56
464.755	78.56
464.975	100.56
465.195	131.56
465.414	140.56
465.634	101.56
465.854	81.56
466.073	98.56
466.293	90.56
466.512	82.56
466.732	88.56
466.951	84.56
467.171	84.56
467.391	94.56
467.61	98.56
467.829	113.56
468.049	86.56
468.268	103.56
468.488	82.56
468.707	80.56
468.927	77.56
469.146	83.56
469.365	71.56
469.585	84.56
469.804	87.56
470.023	101.56
470.243	88.56
470.462	105.56
470.681	90.56
470.901	104.56
471.12	82.56
471.339	83.56
471.558	92.56
471.777	91.56
471.997	92.56
472.216	84.56
472.435	99.56
472.654	80.56
472.873	91.56
473.092	88.56
473.311	102.56
473.53	74.56
473.749	90.56
473.968	90.56
474.187	99.56
474.406	93.56
474.625	81.56
474.844	98.56
475.063	99.56
475.282	84.56
475.501	92.56
475.72	108.56
475.939	104.56
476.158	87.56
476.377	92.56
476.596	76.56
476.814	84.56
477.033	81.56
477.252	91.56
477.471	84.56
477.69	81.56
477.908	88.56
478.127	89.56
478.346	96.56
478.564	87.56
478.783	88.56
479.002	99.56
479.22	87.56
479.439	82.56
479.658	99.56
479.876	92.56
480.095	92.56
480.313	76.56
480.532	81.56
480.751	77.56
480.969	91.56
481.188	95.56
481.406	84.56
481.624	88.56
481.843	74.56
482.061	87.56
482.28	88.56
482.498	72.56
482.717	93.56
482.935	104.56
483.153	97.56
483.372	97.56
483.59	107.56
483.808	69.56
484.027	84.56
484.245	104.56
484.463	85.56
484.681	97.56
484.9	96.56
485.118	98.56
485.336	99.56
485.554	89.56
485.772	103.56
485.99	106.56
486.209	106.56
486.427	100.56
486.645	111.56
486.863	108.56
487.081	106.56
487.299	95.56
487.517	103.56
487.735	88.56
487.953	87.56
488.171	79.56
488.389	91.56
488.607	87.56
488.825	105.56
489.043	97.56
489.261	100.56
489.479	84.56
489.696	90.56
489.914	97.56
490.132	82.56
490.35	98.56
490.568	96.56
490.786	83.56
491.003	85.56
491.221	101.56
491.439	96.56
491.657	86.56
491.874	85.56
492.092	81.56
492.31	90.56
492.527	83.56
492.745	84.56
492.963	87.56
493.18	97.56
493.398	92.56
493.615	88.56
493.833	87.56
494.05	82.56
494.268	83.56
494.485	103.56
494.703	99.56
494.92	99.56
495.138	98.56
495.355	95.56
495.573	96.56
495.79	87.56
496.008	97.56
496.225	81.56
496.442	88.56
496.66	86.56
496.877	82.56
497.094	88.56
497.312	88.56
497.529	90.56
497.746	78.56
497.963	82.56
498.181	101.56
498.398	102.56
498.615	108.56
498.832	94.56
499.049	87.56
499.267	96.56
499.484	94.56
499.701	98.56
499.918	95.56
500.135	78.56
500.352	103.56
500.569	83.56
500.786	92.56
501.003	95.56
501.22	75.56
501.437	90.56
501.654	97.56
501.871	107.56
502.088	96.56
502.305	80.56
502.522	90.56
502.739	96.56
502.956	96.56
503.172	82.56
503.389	87.56
503.606	103.56
503.823	106.56
504.04	92.56
504.256	90.56
504.473	88.56
504.69	103.56
504.907	101.56
505.123	87.56
505.34	87.56
505.557	95.56
505.773	87.56
505.99	95.56
506.207	85.56
506.423	86.56
506.64	86.56
506.856	82.56
507.073	109.56
507.289	87.56
507.506	88.56
507.722	101.56
507.939	103.56
508.155	86.56
508.372	92.56
508.588	88.56
508.805	84.56
509.021	87.56
509.238	98.56
509.454	105.56
509.67	105.56
509.887	105.56
510.103	108.56
510.319	211.56
510.536	648.56
510.752	2035.56
510.968	598.56
511.184	148.56
511.401	99.56
511.617	102.56
511.833	91.56
512.049	98.56
512.265	89.56
512.481	83.56
512.698	71.56
512.914	93.56
513.13	94.56
513.346	94.56
513.562	93.56
513.778	95.56
513.994	98.56
514.21	87.56
514.426	98.56
514.642	140.56
514.858	113.56
515.074	135.56
515.29	373.56
515.506	1218.56
515.721	464.56
515.937	131.56
516.153	106.56
516.369	84.56
