Data from Uncirc_2002_H10_HRD10591_00068.txt Node
Date: Wed Jan 03 10:39:54 EST 2024
User: Yrep
Spectrometer: HR+D1059
Trigger mode: 1
Integration Time (sec): 1.000000E-1
Scans to average: 1
Electric dark correction enabled: true
Nonlinearity correction enabled: false
Boxcar width: 0
XAxis mode: Wavelengths
Number of Pixels in Spectrum: 2048
>>>>>Begin Spectral Data<<<<<
223.165	-13.38
223.4	-13.38
223.635	-13.38
223.869	-11.38
224.104	-22.38
224.338	-29.38
224.573	-20.38
224.808	-13.38
225.042	-8.38
225.277	-10.38
225.511	4.62
225.746	3.62
225.98	9.62
226.215	17.62
226.449	17.62
226.683	10.62
226.918	30.62
227.152	34.62
227.387	46.62
227.621	23.62
227.856	52.62
228.09	26.62
228.324	50.62
228.559	61.62
228.793	69.62
229.027	62.62
229.262	68.62
229.496	73.62
229.73	84.62
229.964	80.62
230.199	75.62
230.433	69.62
230.667	81.62
230.901	84.62
231.136	78.62
231.37	66.62
231.604	86.62
231.838	86.62
232.072	82.62
232.306	60.62
232.541	73.62
232.775	85.62
233.009	86.62
233.243	81.62
233.477	83.62
233.711	68.62
233.945	78.62
234.179	93.62
234.413	88.62
234.647	80.62
234.881	78.62
235.115	64.62
235.349	88.62
235.583	80.62
235.817	82.62
236.051	63.62
236.285	88.62
236.519	77.62
236.753	72.62
236.987	87.62
237.221	80.62
237.455	79.62
237.689	72.62
237.922	63.62
238.156	61.62
238.39	65.62
238.624	65.62
238.858	84.62
239.091	77.62
239.325	64.62
239.559	81.62
239.793	68.62
240.027	72.62
240.26	76.62
240.494	76.62
240.728	89.62
240.961	66.62
241.195	75.62
241.429	54.62
241.662	74.62
241.896	69.62
242.13	79.62
242.363	76.62
242.597	83.62
242.83	70.62
243.064	80.62
243.298	70.62
243.531	77.62
243.765	72.62
243.998	74.62
244.232	81.62
244.465	80.62
244.699	80.62
244.932	74.62
245.166	76.62
245.399	79.62
245.633	79.62
245.866	72.62
246.099	77.62
246.333	67.62
246.566	78.62
246.8	89.62
247.033	85.62
247.266	91.62
247.5	64.62
247.733	70.62
247.966	92.62
248.2	80.62
248.433	76.62
248.666	78.62
248.899	87.62
249.133	73.62
249.366	87.62
249.599	101.62
249.832	85.62
250.066	96.62
250.299	89.62
250.532	78.62
250.765	83.62
250.998	81.62
251.231	73.62
251.465	91.62
251.698	72.62
251.931	61.62
252.164	83.62
252.397	80.62
252.63	88.62
252.863	73.62
253.096	76.62
253.329	69.62
253.562	93.62
253.795	79.62
254.028	79.62
254.261	88.62
254.494	80.62
254.727	80.62
254.96	79.62
255.193	80.62
255.426	77.62
255.659	78.62
255.892	87.62
256.124	87.62
256.357	71.62
256.59	84.62
256.823	77.62
257.056	84.62
257.289	79.62
257.521	77.62
257.754	79.62
257.987	85.62
258.22	82.62
258.452	70.62
258.685	78.62
258.918	63.62
259.151	92.62
259.383	79.62
259.616	94.62
259.849	87.62
260.081	71.62
260.314	82.62
260.547	75.62
260.779	74.62
261.012	81.62
261.244	77.62
261.477	88.62
261.71	90.62
261.942	84.62
262.175	101.62
262.407	90.62
262.64	92.62
262.872	94.62
263.105	84.62
263.337	83.62
263.57	90.62
263.802	74.62
264.035	87.62
264.267	71.62
264.499	88.62
264.732	76.62
264.964	73.62
265.197	82.62
265.429	83.62
265.661	96.62
265.894	85.62
266.126	96.62
266.358	76.62
266.591	74.62
266.823	83.62
267.055	78.62
267.287	84.62
267.52	63.62
267.752	84.62
267.984	61.62
268.216	82.62
268.448	95.62
268.681	76.62
268.913	72.62
269.145	69.62
269.377	98.62
269.609	84.62
269.841	84.62
270.073	87.62
270.306	82.62
270.538	88.62
270.77	76.62
271.002	79.62
271.234	86.62
271.466	93.62
271.698	78.62
271.93	75.62
272.162	84.62
272.394	82.62
272.626	79.62
272.858	84.62
273.09	81.62
273.322	66.62
273.553	83.62
273.785	82.62
274.017	75.62
274.249	87.62
274.481	92.62
274.713	91.62
274.945	107.62
275.176	96.62
275.408	78.62
275.64	88.62
275.872	92.62
276.104	92.62
276.335	84.62
276.567	86.62
276.799	95.62
277.031	88.62
277.262	96.62
277.494	79.62
277.726	86.62
277.957	86.62
278.189	82.62
278.421	86.62
278.652	79.62
278.884	79.62
279.115	86.62
279.347	88.62
279.579	88.62
279.81	75.62
280.042	88.62
280.273	82.62
280.505	87.62
280.736	94.62
280.968	94.62
281.199	89.62
281.431	85.62
281.662	78.62
281.894	89.62
282.125	89.62
282.356	121.62
282.588	122.62
282.819	108.62
283.051	96.62
283.282	91.62
283.513	87.62
283.745	90.62
283.976	78.62
284.207	81.62
284.439	94.62
284.67	100.62
284.901	86.62
285.132	83.62
285.364	78.62
285.595	92.62
285.826	89.62
286.057	85.62
286.288	96.62
286.52	83.62
286.751	87.62
286.982	90.62
287.213	106.62
287.444	98.62
287.675	80.62
287.906	82.62
288.138	81.62
288.369	86.62
288.6	93.62
288.831	89.62
289.062	92.62
289.293	86.62
289.524	85.62
289.755	94.62
289.986	94.62
290.217	76.62
290.448	89.62
290.679	86.62
290.91	96.62
291.141	89.62
291.371	101.62
291.602	73.62
291.833	103.62
292.064	84.62
292.295	73.62
292.526	94.62
292.757	87.62
292.987	90.62
293.218	82.62
293.449	81.62
293.68	76.62
293.91	72.62
294.141	92.62
294.372	89.62
294.603	72.62
294.833	96.62
295.064	88.62
295.295	90.62
295.525	100.62
295.756	92.62
295.987	108.62
296.217	113.62
296.448	119.62
296.679	90.62
296.909	89.62
297.14	95.62
297.37	82.62
297.601	87.62
297.831	89.62
298.062	84.62
298.292	106.62
298.523	80.62
298.753	80.62
298.984	85.62
299.214	94.62
299.445	99.62
299.675	84.62
299.905	82.62
300.136	87.62
300.366	83.62
300.597	94.62
300.827	76.62
301.057	90.62
301.288	100.62
301.518	89.62
301.748	78.62
301.979	107.62
302.209	93.62
302.439	105.62
302.669	89.62
302.9	80.62
303.13	87.62
303.36	83.62
303.59	86.62
303.82	105.62
304.051	85.62
304.281	81.62
304.511	90.62
304.741	87.62
304.971	84.62
305.201	83.62
305.431	89.62
305.661	92.62
305.891	87.62
306.121	89.62
306.352	93.62
306.582	106.62
306.812	98.62
307.042	90.62
307.272	79.62
307.502	91.62
307.731	94.62
307.961	80.62
308.191	62.62
308.421	82.62
308.651	98.62
308.881	92.62
309.111	86.62
309.341	89.62
309.571	86.62
309.8	82.62
310.03	93.62
310.26	101.62
310.49	101.62
310.72	88.62
310.949	103.62
311.179	93.62
311.409	80.62
311.639	87.62
311.868	89.62
312.098	94.62
312.328	96.62
312.557	90.62
312.787	92.62
313.017	97.62
313.246	100.62
313.476	96.62
313.706	82.62
313.935	100.62
314.165	95.62
314.394	89.62
314.624	93.62
314.853	81.62
315.083	105.62
315.312	105.62
315.542	77.62
315.771	96.62
316.001	110.62
316.23	94.62
316.46	96.62
316.689	103.62
316.919	88.62
317.148	87.62
317.377	98.62
317.607	103.62
317.836	78.62
318.065	94.62
318.295	95.62
318.524	96.62
318.753	86.62
318.983	97.62
319.212	97.62
319.441	97.62
319.67	90.62
319.9	81.62
320.129	91.62
320.358	102.62
320.587	68.62
320.816	95.62
321.046	81.62
321.275	84.62
321.504	99.62
321.733	96.62
321.962	82.62
322.191	100.62
322.42	91.62
322.649	101.62
322.878	113.62
323.108	108.62
323.337	107.62
323.566	118.62
323.795	134.62
324.024	186.62
324.253	349.62
324.482	680.62
324.71	1405.62
324.939	1814.62
325.168	704.62
325.397	212.62
325.626	133.62
325.855	127.62
326.084	119.62
326.313	131.62
326.542	130.62
326.77	197.62
326.999	391.62
327.228	803.62
327.457	1426.62
327.686	1125.62
327.914	316.62
328.143	170.62
328.372	134.62
328.6	100.62
328.829	111.62
329.058	114.62
329.287	108.62
329.515	99.62
329.744	116.62
329.972	94.62
330.201	91.62
330.43	108.62
330.658	113.62
330.887	128.62
331.115	110.62
331.344	97.62
331.572	88.62
331.801	94.62
332.03	98.62
332.258	96.62
332.486	90.62
332.715	80.62
332.943	89.62
333.172	82.62
333.4	96.62
333.629	93.62
333.857	96.62
334.085	98.62
334.314	79.62
334.542	85.62
334.771	96.62
334.999	88.62
335.227	95.62
335.455	97.62
335.684	116.62
335.912	105.62
336.14	113.62
336.369	76.62
336.597	89.62
336.825	100.62
337.053	100.62
337.281	88.62
337.51	89.62
337.738	81.62
337.966	79.62
338.194	97.62
338.422	93.62
338.65	90.62
338.878	82.62
339.106	88.62
339.334	102.62
339.562	102.62
339.79	93.62
340.018	83.62
340.246	83.62
340.474	93.62
340.702	89.62
340.93	100.62
341.158	82.62
341.386	97.62
341.614	78.62
341.842	77.62
342.07	82.62
342.298	96.62
342.526	70.62
342.754	84.62
342.981	84.62
343.209	98.62
343.437	92.62
343.665	97.62
343.893	89.62
344.12	101.62
344.348	98.62
344.576	90.62
344.804	86.62
345.031	98.62
345.259	101.62
345.487	84.62
345.714	97.62
345.942	97.62
346.17	105.62
346.397	85.62
346.625	91.62
346.853	87.62
347.08	85.62
347.308	86.62
347.535	99.62
347.763	96.62
347.99	89.62
348.218	113.62
348.445	96.62
348.673	91.62
348.9	64.62
349.128	84.62
349.355	98.62
349.583	92.62
349.81	85.62
350.037	97.62
350.265	104.62
350.492	85.62
350.72	86.62
350.947	99.62
351.174	115.62
351.402	100.62
351.629	98.62
351.856	87.62
352.083	116.62
352.311	96.62
352.538	101.62
352.765	101.62
352.992	113.62
353.22	109.62
353.447	100.62
353.674	101.62
353.901	87.62
354.128	90.62
354.355	89.62
354.583	101.62
354.81	87.62
355.037	95.62
355.264	94.62
355.491	89.62
355.718	84.62
355.945	100.62
356.172	99.62
356.399	98.62
356.626	94.62
356.853	77.62
357.08	94.62
357.307	83.62
357.534	94.62
357.761	89.62
357.988	77.62
358.215	105.62
358.441	103.62
358.668	84.62
358.895	83.62
359.122	97.62
359.349	100.62
359.576	89.62
359.802	98.62
360.029	105.62
360.256	108.62
360.483	84.62
360.709	87.62
360.936	87.62
361.163	96.62
361.39	86.62
361.616	84.62
361.843	78.62
362.07	94.62
362.296	89.62
362.523	81.62
362.749	86.62
362.976	100.62
363.203	89.62
363.429	90.62
363.656	84.62
363.882	88.62
364.109	93.62
364.335	85.62
364.562	100.62
364.788	81.62
365.015	96.62
365.241	95.62
365.468	110.62
365.694	80.62
365.92	88.62
366.147	88.62
366.373	89.62
366.599	87.62
366.826	93.62
367.052	93.62
367.278	89.62
367.505	90.62
367.731	79.62
367.957	106.62
368.184	94.62
368.41	91.62
368.636	100.62
368.862	109.62
369.089	96.62
369.315	96.62
369.541	85.62
369.767	105.62
369.993	90.62
370.219	83.62
370.445	76.62
370.672	89.62
370.898	89.62
371.124	94.62
371.35	94.62
371.576	90.62
371.802	95.62
372.028	87.62
372.254	84.62
372.48	75.62
372.706	97.62
372.932	84.62
373.158	75.62
373.384	70.62
373.61	88.62
373.835	88.62
374.061	90.62
374.287	91.62
374.513	80.62
374.739	88.62
374.965	91.62
375.191	80.62
375.416	80.62
375.642	83.62
375.868	85.62
376.094	81.62
376.319	99.62
376.545	86.62
376.771	76.62
376.997	87.62
377.222	108.62
377.448	82.62
377.674	97.62
377.899	85.62
378.125	85.62
378.35	86.62
378.576	90.62
378.802	84.62
379.027	76.62
379.253	89.62
379.478	78.62
379.704	96.62
379.929	84.62
380.155	93.62
380.38	95.62
380.606	95.62
380.831	91.62
381.057	110.62
381.282	76.62
381.507	84.62
381.733	84.62
381.958	99.62
382.184	95.62
382.409	88.62
382.634	99.62
382.86	88.62
383.085	82.62
383.31	89.62
383.535	97.62
383.761	85.62
383.986	97.62
384.211	94.62
384.436	102.62
384.662	91.62
384.887	98.62
385.112	96.62
385.337	107.62
385.562	104.62
385.787	91.62
386.013	110.62
386.238	102.62
386.463	84.62
386.688	100.62
386.913	89.62
387.138	95.62
387.363	109.62
387.588	98.62
387.813	87.62
388.038	93.62
388.263	104.62
388.488	99.62
388.713	96.62
388.938	90.62
389.163	100.62
389.387	97.62
389.612	102.62
389.837	97.62
390.062	84.62
390.287	99.62
390.512	81.62
390.736	90.62
390.961	84.62
391.186	94.62
391.411	95.62
391.636	99.62
391.86	89.62
392.085	71.62
392.31	79.62
392.534	76.62
392.759	70.62
392.984	72.62
393.208	56.62
393.433	88.62
393.658	72.62
393.882	77.62
394.107	101.62
394.331	86.62
394.556	86.62
394.78	93.62
395.005	100.62
395.229	76.62
395.454	70.62
395.678	86.62
395.903	88.62
396.127	81.62
396.352	97.62
396.576	94.62
396.801	90.62
397.025	104.62
397.249	90.62
397.474	86.62
397.698	87.62
397.922	83.62
398.147	89.62
398.371	87.62
398.595	80.62
398.82	93.62
399.044	86.62
399.268	84.62
399.492	90.62
399.717	83.62
399.941	70.62
400.165	84.62
400.389	89.62
400.613	70.62
400.837	79.62
401.062	82.62
401.286	75.62
401.51	74.62
401.734	98.62
401.958	97.62
402.182	114.62
402.406	132.62
402.63	107.62
402.854	93.62
403.078	74.62
403.302	90.62
403.526	86.62
403.75	88.62
403.974	87.62
404.198	79.62
404.422	83.62
404.645	92.62
404.869	77.62
405.093	84.62
405.317	112.62
405.541	88.62
405.765	89.62
405.988	117.62
406.212	152.62
406.436	180.62
406.66	133.62
406.883	87.62
407.107	88.62
407.331	92.62
407.555	110.62
407.778	98.62
408.002	86.62
408.226	106.62
408.449	94.62
408.673	95.62
408.896	79.62
409.12	96.62
409.344	89.62
409.567	97.62
409.791	84.62
410.014	96.62
410.238	93.62
410.461	91.62
410.685	92.62
410.908	102.62
411.132	111.62
411.355	92.62
411.578	83.62
411.802	93.62
412.025	85.62
412.249	92.62
412.472	76.62
412.695	74.62
412.919	82.62
413.142	76.62
413.365	90.62
413.589	86.62
413.812	90.62
414.035	84.62
414.258	89.62
414.482	86.62
414.705	78.62
414.928	78.62
415.151	87.62
415.374	90.62
415.597	79.62
415.821	95.62
416.044	90.62
416.267	94.62
416.49	83.62
416.713	87.62
416.936	99.62
417.159	93.62
417.382	77.62
417.605	90.62
417.828	99.62
418.051	85.62
418.274	94.62
418.497	82.62
418.72	87.62
418.943	96.62
419.166	88.62
419.389	83.62
419.611	83.62
419.834	93.62
420.057	82.62
420.28	95.62
420.503	81.62
420.726	84.62
420.948	90.62
421.171	89.62
421.394	82.62
421.617	108.62
421.839	87.62
422.062	97.62
422.285	90.62
422.507	94.62
422.73	98.62
422.953	85.62
423.175	79.62
423.398	81.62
423.621	94.62
423.843	96.62
424.066	70.62
424.288	79.62
424.511	76.62
424.733	93.62
424.956	109.62
425.178	100.62
425.401	100.62
425.623	101.62
425.846	89.62
426.068	74.62
426.291	84.62
426.513	72.62
426.735	93.62
426.958	98.62
427.18	103.62
427.402	119.62
427.625	137.62
427.847	119.62
428.069	109.62
428.292	74.62
428.514	90.62
428.736	82.62
428.958	81.62
429.181	76.62
429.403	83.62
429.625	89.62
429.847	84.62
430.069	80.62
430.292	86.62
430.514	76.62
430.736	86.62
430.958	70.62
431.18	72.62
431.402	86.62
431.624	88.62
431.846	75.62
432.068	74.62
432.29	82.62
432.512	88.62
432.734	87.62
432.956	95.62
433.178	93.62
433.4	94.62
433.622	94.62
433.844	87.62
434.066	88.62
434.287	84.62
434.509	92.62
434.731	81.62
434.953	76.62
435.175	85.62
435.397	93.62
435.618	101.62
435.84	86.62
436.062	118.62
436.284	104.62
436.505	100.62
436.727	86.62
436.949	85.62
437.17	91.62
437.392	85.62
437.614	97.62
437.835	96.62
438.057	101.62
438.278	101.62
438.5	108.62
438.721	119.62
438.943	103.62
439.165	88.62
439.386	84.62
439.608	91.62
439.829	101.62
440.05	119.62
440.272	131.62
440.493	101.62
440.715	84.62
440.936	77.62
441.158	96.62
441.379	77.62
441.6	87.62
441.822	91.62
442.043	86.62
442.264	111.62
442.486	96.62
442.707	89.62
442.928	99.62
443.149	115.62
443.371	107.62
443.592	101.62
443.813	109.62
444.034	92.62
444.255	93.62
444.476	112.62
444.698	77.62
444.919	92.62
445.14	119.62
445.361	124.62
445.582	102.62
445.803	109.62
446.024	120.62
446.245	115.62
446.466	93.62
446.687	96.62
446.908	91.62
447.129	90.62
447.35	88.62
447.571	83.62
447.792	90.62
448.013	97.62
448.234	101.62
448.455	98.62
448.675	117.62
448.896	105.62
449.117	88.62
449.338	84.62
449.559	107.62
449.779	116.62
450	86.62
450.221	86.62
450.442	98.62
450.662	107.62
450.883	95.62
451.104	99.62
451.324	88.62
451.545	85.62
451.766	82.62
451.986	82.62
452.207	87.62
452.428	89.62
452.648	88.62
452.869	110.62
453.089	109.62
453.31	111.62
453.53	104.62
453.751	74.62
453.971	102.62
454.192	116.62
454.412	83.62
454.633	94.62
454.853	88.62
455.073	66.62
455.294	79.62
455.514	97.62
455.734	104.62
455.955	83.62
456.175	95.62
456.395	81.62
456.616	73.62
456.836	74.62
457.056	91.62
457.276	77.62
457.497	79.62
457.717	79.62
457.937	94.62
458.157	77.62
458.377	85.62
458.598	116.62
458.818	128.62
459.038	135.62
459.258	109.62
459.478	86.62
459.698	84.62
459.918	89.62
460.138	85.62
460.358	89.62
460.578	90.62
460.798	86.62
461.018	95.62
461.238	83.62
461.458	92.62
461.678	87.62
461.898	72.62
462.118	74.62
462.338	103.62
462.558	83.62
462.777	84.62
462.997	82.62
463.217	77.62
463.437	80.62
463.657	87.62
463.876	83.62
464.096	93.62
464.316	103.62
464.536	82.62
464.755	78.62
464.975	96.62
465.195	133.62
465.414	135.62
465.634	94.62
465.854	78.62
466.073	87.62
466.293	92.62
466.512	83.62
466.732	77.62
466.951	85.62
467.171	73.62
467.391	84.62
467.61	91.62
467.829	81.62
468.049	84.62
468.268	101.62
468.488	74.62
468.707	81.62
468.927	81.62
469.146	80.62
469.365	87.62
469.585	93.62
469.804	93.62
470.023	101.62
470.243	92.62
470.462	94.62
470.681	99.62
470.901	86.62
471.12	75.62
471.339	86.62
471.558	93.62
471.777	94.62
471.997	72.62
472.216	86.62
472.435	94.62
472.654	95.62
472.873	84.62
473.092	87.62
473.311	96.62
473.53	102.62
473.749	91.62
473.968	94.62
474.187	106.62
474.406	87.62
474.625	84.62
474.844	88.62
475.063	94.62
475.282	78.62
475.501	70.62
475.72	88.62
475.939	77.62
476.158	73.62
476.377	87.62
476.596	67.62
476.814	89.62
477.033	94.62
477.252	96.62
477.471	78.62
477.69	73.62
477.908	76.62
478.127	74.62
478.346	84.62
478.564	79.62
478.783	90.62
479.002	86.62
479.22	99.62
479.439	96.62
479.658	95.62
479.876	91.62
480.095	98.62
480.313	87.62
480.532	92.62
480.751	88.62
480.969	99.62
481.188	100.62
481.406	114.62
481.624	93.62
481.843	77.62
482.061	84.62
482.28	85.62
482.498	84.62
482.717	86.62
482.935	104.62
483.153	84.62
483.372	81.62
483.59	93.62
483.808	87.62
484.027	81.62
484.245	102.62
484.463	96.62
484.681	103.62
484.9	97.62
485.118	97.62
485.336	88.62
485.554	88.62
485.772	88.62
485.99	102.62
486.209	95.62
486.427	91.62
486.645	92.62
486.863	110.62
487.081	96.62
487.299	100.62
487.517	104.62
487.735	93.62
487.953	93.62
488.171	93.62
488.389	96.62
488.607	98.62
488.825	94.62
489.043	89.62
489.261	88.62
489.479	89.62
489.696	86.62
489.914	77.62
490.132	93.62
490.35	86.62
490.568	88.62
490.786	76.62
491.003	75.62
491.221	80.62
491.439	88.62
491.657	90.62
491.874	88.62
492.092	89.62
492.31	100.62
492.527	92.62
492.745	91.62
492.963	97.62
493.18	94.62
493.398	96.62
493.615	96.62
493.833	86.62
494.05	86.62
494.268	106.62
494.485	83.62
494.703	83.62
494.92	87.62
495.138	82.62
495.355	87.62
495.573	86.62
495.79	80.62
496.008	87.62
496.225	103.62
496.442	96.62
496.66	87.62
496.877	95.62
497.094	87.62
497.312	103.62
497.529	91.62
497.746	89.62
497.963	76.62
498.181	85.62
498.398	94.62
498.615	110.62
498.832	115.62
499.049	87.62
499.267	91.62
499.484	92.62
499.701	97.62
499.918	82.62
500.135	87.62
500.352	87.62
500.569	92.62
500.786	76.62
501.003	85.62
501.22	80.62
501.437	90.62
501.654	95.62
501.871	105.62
502.088	86.62
502.305	85.62
502.522	87.62
502.739	91.62
502.956	88.62
503.172	85.62
503.389	95.62
503.606	87.62
503.823	101.62
504.04	92.62
504.256	89.62
504.473	78.62
504.69	92.62
504.907	105.62
505.123	86.62
505.34	84.62
505.557	89.62
505.773	82.62
505.99	82.62
506.207	73.62
506.423	86.62
506.64	101.62
506.856	96.62
507.073	102.62
507.289	94.62
507.506	88.62
507.722	107.62
507.939	116.62
508.155	91.62
508.372	91.62
508.588	84.62
508.805	99.62
509.021	93.62
509.238	90.62
509.454	88.62
509.67	104.62
509.887	114.62
510.103	134.62
510.319	194.62
510.536	678.62
510.752	2083.62
510.968	586.62
511.184	160.62
511.401	107.62
511.617	85.62
511.833	101.62
512.049	87.62
512.265	91.62
512.481	97.62
512.698	96.62
512.914	90.62
513.13	89.62
513.346	88.62
513.562	103.62
513.778	107.62
513.994	90.62
514.21	80.62
514.426	98.62
514.642	118.62
514.858	120.62
515.074	159.62
515.29	365.62
515.506	1164.62
515.721	462.62
515.937	142.62
516.153	108.62
516.369	99.62
516.585	103.62
516.801	86.62
