Data from Uncirc_2002_H10_HRD10591_00032.txt Node
Date: Wed Jan 03 10:39:47 EST 2024
User: Yrep
Spectrometer: HR+D1059
Trigger mode: 1
Integration Time (sec): 1.000000E-1
Scans to average: 1
Electric dark correction enabled: true
Nonlinearity correction enabled: false
Boxcar width: 0
XAxis mode: Wavelengths
Number of Pixels in Spectrum: 2048
>>>>>Begin Spectral Data<<<<<
223.165	-22.69
223.4	-22.69
223.635	-22.69
223.869	-19.69
224.104	-14.69
224.338	-6.69
224.573	-9.69
224.808	-9.69
225.042	-13.69
225.277	-19.69
225.511	3.31
225.746	6.31
225.98	-1.69
226.215	17.31
226.449	21.31
226.683	22.31
226.918	15.31
227.152	32.31
227.387	51.31
227.621	48.31
227.856	35.31
228.09	38.31
228.324	53.31
228.559	57.31
228.793	44.31
229.027	54.31
229.262	63.31
229.496	64.31
229.73	76.31
229.964	84.31
230.199	78.31
230.433	73.31
230.667	66.31
230.901	83.31
231.136	80.31
231.37	68.31
231.604	76.31
231.838	79.31
232.072	80.31
232.306	97.31
232.541	86.31
232.775	74.31
233.009	90.31
233.243	88.31
233.477	73.31
233.711	90.31
233.945	79.31
234.179	79.31
234.413	74.31
234.647	82.31
234.881	89.31
235.115	85.31
235.349	80.31
235.583	79.31
235.817	69.31
236.051	89.31
236.285	72.31
236.519	77.31
236.753	77.31
236.987	73.31
237.221	89.31
237.455	88.31
237.689	73.31
237.922	75.31
238.156	79.31
238.39	72.31
238.624	84.31
238.858	73.31
239.091	71.31
239.325	87.31
239.559	80.31
239.793	79.31
240.027	81.31
240.26	88.31
240.494	87.31
240.728	67.31
240.961	67.31
241.195	67.31
241.429	75.31
241.662	83.31
241.896	71.31
242.13	71.31
242.363	74.31
242.597	85.31
242.83	83.31
243.064	81.31
243.298	76.31
243.531	70.31
243.765	57.31
243.998	72.31
244.232	85.31
244.465	91.31
244.699	56.31
244.932	81.31
245.166	84.31
245.399	65.31
245.633	63.31
245.866	64.31
246.099	74.31
246.333	85.31
246.566	88.31
246.8	85.31
247.033	86.31
247.266	72.31
247.5	83.31
247.733	79.31
247.966	75.31
248.2	103.31
248.433	77.31
248.666	72.31
248.899	68.31
249.133	86.31
249.366	103.31
249.599	89.31
249.832	95.31
250.066	78.31
250.299	79.31
250.532	85.31
250.765	82.31
250.998	83.31
251.231	79.31
251.465	70.31
251.698	88.31
251.931	68.31
252.164	64.31
252.397	68.31
252.63	77.31
252.863	84.31
253.096	76.31
253.329	87.31
253.562	84.31
253.795	76.31
254.028	81.31
254.261	86.31
254.494	80.31
254.727	86.31
254.96	83.31
255.193	79.31
255.426	74.31
255.659	88.31
255.892	78.31
256.124	58.31
256.357	80.31
256.59	88.31
256.823	70.31
257.056	87.31
257.289	81.31
257.521	81.31
257.754	91.31
257.987	76.31
258.22	85.31
258.452	72.31
258.685	83.31
258.918	79.31
259.151	81.31
259.383	72.31
259.616	96.31
259.849	67.31
260.081	75.31
260.314	86.31
260.547	84.31
260.779	69.31
261.012	94.31
261.244	87.31
261.477	79.31
261.71	95.31
261.942	96.31
262.175	131.31
262.407	64.31
262.64	79.31
262.872	89.31
263.105	80.31
263.337	81.31
263.57	82.31
263.802	81.31
264.035	76.31
264.267	86.31
264.499	73.31
264.732	91.31
264.964	91.31
265.197	59.31
265.429	83.31
265.661	87.31
265.894	101.31
266.126	84.31
266.358	76.31
266.591	72.31
266.823	74.31
267.055	84.31
267.287	69.31
267.52	68.31
267.752	73.31
267.984	78.31
268.216	77.31
268.448	85.31
268.681	84.31
268.913	84.31
269.145	92.31
269.377	92.31
269.609	87.31
269.841	86.31
270.073	82.31
270.306	70.31
270.538	99.31
270.77	86.31
271.002	96.31
271.234	79.31
271.466	70.31
271.698	88.31
271.93	89.31
272.162	88.31
272.394	87.31
272.626	75.31
272.858	87.31
273.09	72.31
273.322	89.31
273.553	79.31
273.785	82.31
274.017	86.31
274.249	86.31
274.481	96.31
274.713	96.31
274.945	81.31
275.176	80.31
275.408	86.31
275.64	69.31
275.872	82.31
276.104	71.31
276.335	89.31
276.567	97.31
276.799	114.31
277.031	112.31
277.262	88.31
277.494	91.31
277.726	72.31
277.957	91.31
278.189	78.31
278.421	81.31
278.652	79.31
278.884	96.31
279.115	68.31
279.347	79.31
279.579	86.31
279.81	72.31
280.042	69.31
280.273	83.31
280.505	71.31
280.736	85.31
280.968	84.31
281.199	94.31
281.431	73.31
281.662	93.31
281.894	82.31
282.125	96.31
282.356	112.31
282.588	117.31
282.819	106.31
283.051	80.31
283.282	83.31
283.513	74.31
283.745	98.31
283.976	81.31
284.207	87.31
284.439	84.31
284.67	89.31
284.901	88.31
285.132	83.31
285.364	101.31
285.595	89.31
285.826	82.31
286.057	83.31
286.288	76.31
286.52	71.31
286.751	77.31
286.982	79.31
287.213	74.31
287.444	93.31
287.675	95.31
287.906	87.31
288.138	83.31
288.369	81.31
288.6	87.31
288.831	90.31
289.062	93.31
289.293	84.31
289.524	71.31
289.755	85.31
289.986	82.31
290.217	80.31
290.448	77.31
290.679	69.31
290.91	87.31
291.141	71.31
291.371	69.31
291.602	96.31
291.833	96.31
292.064	87.31
292.295	81.31
292.526	88.31
292.757	99.31
292.987	81.31
293.218	76.31
293.449	97.31
293.68	90.31
293.91	111.31
294.141	92.31
294.372	89.31
294.603	109.31
294.833	90.31
295.064	86.31
295.295	90.31
295.525	86.31
295.756	95.31
295.987	103.31
296.217	112.31
296.448	108.31
296.679	87.31
296.909	91.31
297.14	103.31
297.37	92.31
297.601	87.31
297.831	78.31
298.062	89.31
298.292	87.31
298.523	88.31
298.753	87.31
298.984	93.31
299.214	84.31
299.445	97.31
299.675	93.31
299.905	93.31
300.136	99.31
300.366	74.31
300.597	94.31
300.827	100.31
301.057	90.31
301.288	104.31
301.518	84.31
301.748	90.31
301.979	89.31
302.209	98.31
302.439	94.31
302.669	85.31
302.9	85.31
303.13	89.31
303.36	95.31
303.59	89.31
303.82	113.31
304.051	87.31
304.281	82.31
304.511	101.31
304.741	91.31
304.971	86.31
305.201	91.31
305.431	82.31
305.661	93.31
305.891	93.31
306.121	89.31
306.352	102.31
306.582	90.31
306.812	92.31
307.042	103.31
307.272	81.31
307.502	92.31
307.731	81.31
307.961	80.31
308.191	88.31
308.421	93.31
308.651	88.31
308.881	92.31
309.111	87.31
309.341	100.31
309.571	106.31
309.8	98.31
310.03	89.31
310.26	104.31
310.49	92.31
310.72	93.31
310.949	84.31
311.179	88.31
311.409	94.31
311.639	94.31
311.868	84.31
312.098	91.31
312.328	80.31
312.557	90.31
312.787	90.31
313.017	105.31
313.246	105.31
313.476	89.31
313.706	90.31
313.935	96.31
314.165	85.31
314.394	72.31
314.624	78.31
314.853	98.31
315.083	95.31
315.312	88.31
315.542	96.31
315.771	84.31
316.001	87.31
316.23	90.31
316.46	83.31
316.689	76.31
316.919	86.31
317.148	107.31
317.377	84.31
317.607	100.31
317.836	80.31
318.065	92.31
318.295	88.31
318.524	94.31
318.753	101.31
318.983	94.31
319.212	85.31
319.441	114.31
319.67	110.31
319.9	109.31
320.129	92.31
320.358	85.31
320.587	95.31
320.816	88.31
321.046	90.31
321.275	93.31
321.504	100.31
321.733	90.31
321.962	89.31
322.191	90.31
322.42	88.31
322.649	104.31
322.878	112.31
323.108	106.31
323.337	114.31
323.566	129.31
323.795	140.31
324.024	194.31
324.253	336.31
324.482	701.31
324.71	1420.31
324.939	1834.31
325.168	679.31
325.397	226.31
325.626	117.31
325.855	132.31
326.084	112.31
326.313	140.31
326.542	133.31
326.77	195.31
326.999	409.31
327.228	800.31
327.457	1463.31
327.686	1145.31
327.914	310.31
328.143	183.31
328.372	129.31
328.6	110.31
328.829	112.31
329.058	117.31
329.287	136.31
329.515	104.31
329.744	109.31
329.972	110.31
330.201	102.31
330.43	83.31
330.658	101.31
330.887	140.31
331.115	123.31
331.344	101.31
331.572	91.31
331.801	97.31
332.03	95.31
332.258	93.31
332.486	82.31
332.715	97.31
332.943	94.31
333.172	104.31
333.4	101.31
333.629	117.31
333.857	116.31
334.085	108.31
334.314	80.31
334.542	79.31
334.771	100.31
334.999	92.31
335.227	99.31
335.455	98.31
335.684	78.31
335.912	94.31
336.14	85.31
336.369	94.31
336.597	96.31
336.825	93.31
337.053	77.31
337.281	90.31
337.51	97.31
337.738	93.31
337.966	93.31
338.194	111.31
338.422	89.31
338.65	89.31
338.878	89.31
339.106	89.31
339.334	84.31
339.562	85.31
339.79	84.31
340.018	99.31
340.246	85.31
340.474	89.31
340.702	85.31
340.93	88.31
341.158	87.31
341.386	108.31
341.614	92.31
341.842	88.31
342.07	86.31
342.298	82.31
342.526	90.31
342.754	98.31
342.981	80.31
343.209	93.31
343.437	101.31
343.665	78.31
343.893	96.31
344.12	96.31
344.348	82.31
344.576	85.31
344.804	105.31
345.031	104.31
345.259	80.31
345.487	97.31
345.714	93.31
345.942	87.31
346.17	98.31
346.397	96.31
346.625	82.31
346.853	86.31
347.08	88.31
347.308	101.31
347.535	88.31
347.763	101.31
347.99	102.31
348.218	92.31
348.445	88.31
348.673	104.31
348.9	87.31
349.128	105.31
349.355	90.31
349.583	87.31
349.81	103.31
350.037	96.31
350.265	79.31
350.492	85.31
350.72	101.31
350.947	96.31
351.174	100.31
351.402	111.31
351.629	87.31
351.856	95.31
352.083	96.31
352.311	92.31
352.538	90.31
352.765	102.31
352.992	104.31
353.22	110.31
353.447	102.31
353.674	105.31
353.901	111.31
354.128	112.31
354.355	94.31
354.583	88.31
354.81	87.31
355.037	109.31
355.264	97.31
355.491	90.31
355.718	77.31
355.945	108.31
356.172	91.31
356.399	99.31
356.626	94.31
356.853	95.31
357.08	103.31
357.307	90.31
357.534	99.31
357.761	94.31
357.988	97.31
358.215	88.31
358.441	81.31
358.668	90.31
358.895	90.31
359.122	103.31
359.349	86.31
359.576	99.31
359.802	109.31
360.029	95.31
360.256	98.31
360.483	91.31
360.709	84.31
360.936	101.31
361.163	107.31
361.39	104.31
361.616	85.31
361.843	83.31
362.07	86.31
362.296	97.31
362.523	94.31
362.749	89.31
362.976	94.31
363.203	76.31
363.429	79.31
363.656	83.31
363.882	88.31
364.109	82.31
364.335	78.31
364.562	95.31
364.788	92.31
365.015	85.31
365.241	90.31
365.468	108.31
365.694	92.31
365.92	92.31
366.147	90.31
366.373	98.31
366.599	104.31
366.826	84.31
367.052	96.31
367.278	92.31
367.505	85.31
367.731	97.31
367.957	93.31
368.184	89.31
368.41	95.31
368.636	111.31
368.862	118.31
369.089	106.31
369.315	95.31
369.541	86.31
369.767	69.31
369.993	81.31
370.219	74.31
370.445	86.31
370.672	88.31
370.898	82.31
371.124	83.31
371.35	84.31
371.576	83.31
371.802	83.31
372.028	78.31
372.254	88.31
372.48	95.31
372.706	81.31
372.932	76.31
373.158	87.31
373.384	89.31
373.61	82.31
373.835	84.31
374.061	87.31
374.287	91.31
374.513	82.31
374.739	80.31
374.965	99.31
375.191	94.31
375.416	86.31
375.642	107.31
375.868	78.31
376.094	83.31
376.319	98.31
376.545	84.31
376.771	96.31
376.997	82.31
377.222	94.31
377.448	92.31
377.674	97.31
377.899	78.31
378.125	92.31
378.35	95.31
378.576	85.31
378.802	85.31
379.027	85.31
379.253	79.31
379.478	87.31
379.704	80.31
379.929	92.31
380.155	91.31
380.38	88.31
380.606	92.31
380.831	101.31
381.057	79.31
381.282	82.31
381.507	69.31
381.733	73.31
381.958	82.31
382.184	98.31
382.409	103.31
382.634	104.31
382.86	89.31
383.085	98.31
383.31	93.31
383.535	109.31
383.761	99.31
383.986	101.31
384.211	109.31
384.436	105.31
384.662	90.31
384.887	106.31
385.112	100.31
385.337	110.31
385.562	92.31
385.787	102.31
386.013	106.31
386.238	113.31
386.463	88.31
386.688	97.31
386.913	86.31
387.138	89.31
387.363	104.31
387.588	104.31
387.813	101.31
388.038	102.31
388.263	98.31
388.488	117.31
388.713	96.31
388.938	91.31
389.163	93.31
389.387	110.31
389.612	94.31
389.837	101.31
390.062	83.31
390.287	81.31
390.512	99.31
390.736	92.31
390.961	94.31
391.186	80.31
391.411	101.31
391.636	86.31
391.86	88.31
392.085	88.31
392.31	77.31
392.534	73.31
392.759	84.31
392.984	97.31
393.208	84.31
393.433	92.31
393.658	103.31
393.882	79.31
394.107	88.31
394.331	79.31
394.556	78.31
394.78	98.31
395.005	78.31
395.229	91.31
395.454	86.31
395.678	93.31
395.903	85.31
396.127	86.31
396.352	82.31
396.576	74.31
396.801	101.31
397.025	100.31
397.249	91.31
397.474	80.31
397.698	92.31
397.922	90.31
398.147	86.31
398.371	94.31
398.595	82.31
398.82	89.31
399.044	72.31
399.268	60.31
399.492	76.31
399.717	77.31
399.941	95.31
400.165	85.31
400.389	93.31
400.613	77.31
400.837	84.31
401.062	74.31
401.286	84.31
401.51	94.31
401.734	86.31
401.958	92.31
402.182	125.31
402.406	164.31
402.63	122.31
402.854	84.31
403.078	76.31
403.302	95.31
403.526	83.31
403.75	72.31
403.974	85.31
404.198	72.31
404.422	87.31
404.645	77.31
404.869	87.31
405.093	96.31
405.317	103.31
405.541	93.31
405.765	84.31
405.988	111.31
406.212	156.31
406.436	201.31
406.66	140.31
406.883	90.31
407.107	89.31
407.331	71.31
407.555	97.31
407.778	87.31
408.002	86.31
408.226	96.31
408.449	81.31
408.673	87.31
408.896	84.31
409.12	89.31
409.344	93.31
409.567	81.31
409.791	95.31
410.014	87.31
410.238	80.31
410.461	88.31
410.685	103.31
410.908	101.31
411.132	82.31
411.355	87.31
411.578	80.31
411.802	79.31
412.025	95.31
412.249	80.31
412.472	79.31
412.695	85.31
412.919	86.31
413.142	82.31
413.365	89.31
413.589	93.31
413.812	85.31
414.035	107.31
414.258	80.31
414.482	83.31
414.705	87.31
414.928	91.31
415.151	88.31
415.374	87.31
415.597	89.31
415.821	88.31
416.044	81.31
416.267	78.31
416.49	85.31
416.713	80.31
416.936	100.31
417.159	87.31
417.382	88.31
417.605	97.31
417.828	87.31
418.051	76.31
418.274	87.31
418.497	64.31
418.72	80.31
418.943	76.31
419.166	83.31
419.389	82.31
419.611	75.31
419.834	88.31
420.057	92.31
420.28	93.31
420.503	90.31
420.726	79.31
420.948	76.31
421.171	86.31
421.394	92.31
421.617	78.31
421.839	81.31
422.062	95.31
422.285	93.31
422.507	92.31
422.73	90.31
422.953	91.31
423.175	86.31
423.398	88.31
423.621	99.31
423.843	75.31
424.066	83.31
424.288	77.31
424.511	76.31
424.733	105.31
424.956	94.31
425.178	96.31
425.401	100.31
425.623	86.31
425.846	101.31
426.068	88.31
426.291	77.31
426.513	83.31
426.735	89.31
426.958	94.31
427.18	95.31
427.402	130.31
427.625	134.31
427.847	116.31
428.069	98.31
428.292	89.31
428.514	98.31
428.736	88.31
428.958	93.31
429.181	95.31
429.403	86.31
429.625	90.31
429.847	88.31
430.069	95.31
430.292	95.31
430.514	76.31
430.736	87.31
430.958	83.31
431.18	81.31
431.402	95.31
431.624	93.31
431.846	73.31
432.068	82.31
432.29	88.31
432.512	100.31
432.734	81.31
432.956	87.31
433.178	90.31
433.4	101.31
433.622	88.31
433.844	80.31
434.066	96.31
434.287	91.31
434.509	81.31
434.731	86.31
434.953	79.31
435.175	83.31
435.397	97.31
435.618	80.31
435.84	85.31
436.062	98.31
436.284	108.31
436.505	101.31
436.727	96.31
436.949	91.31
437.17	85.31
437.392	80.31
437.614	94.31
437.835	106.31
438.057	105.31
438.278	111.31
438.5	103.31
438.721	111.31
438.943	87.31
439.165	79.31
439.386	94.31
439.608	93.31
439.829	97.31
440.05	99.31
440.272	121.31
440.493	100.31
440.715	99.31
440.936	85.31
441.158	87.31
441.379	86.31
441.6	83.31
441.822	85.31
442.043	89.31
442.264	88.31
442.486	96.31
442.707	95.31
442.928	88.31
443.149	125.31
443.371	121.31
443.592	97.31
443.813	94.31
444.034	104.31
444.255	94.31
444.476	80.31
444.698	90.31
444.919	96.31
445.14	142.31
445.361	119.31
445.582	101.31
445.803	128.31
446.024	114.31
446.245	110.31
446.466	102.31
446.687	90.31
446.908	81.31
447.129	91.31
447.35	96.31
447.571	93.31
447.792	87.31
448.013	96.31
448.234	88.31
448.455	102.31
448.675	103.31
448.896	125.31
449.117	79.31
449.338	97.31
449.559	111.31
449.779	118.31
450	93.31
450.221	93.31
450.442	73.31
450.662	105.31
450.883	95.31
451.104	102.31
451.324	95.31
451.545	88.31
451.766	83.31
451.986	71.31
452.207	76.31
452.428	97.31
452.648	90.31
452.869	101.31
453.089	97.31
453.31	105.31
453.53	99.31
453.751	86.31
453.971	97.31
454.192	107.31
454.412	94.31
454.633	87.31
454.853	93.31
455.073	94.31
455.294	80.31
455.514	87.31
455.734	87.31
455.955	93.31
456.175	85.31
456.395	75.31
456.616	81.31
456.836	85.31
457.056	81.31
457.276	89.31
457.497	72.31
457.717	81.31
457.937	82.31
458.157	87.31
458.377	83.31
458.598	94.31
458.818	134.31
459.038	122.31
459.258	118.31
459.478	98.31
459.698	73.31
459.918	79.31
460.138	93.31
460.358	90.31
460.578	81.31
460.798	86.31
461.018	81.31
461.238	103.31
461.458	76.31
461.678	100.31
461.898	79.31
462.118	105.31
462.338	81.31
462.558	96.31
462.777	94.31
462.997	93.31
463.217	83.31
463.437	93.31
463.657	87.31
463.876	83.31
464.096	93.31
464.316	85.31
464.536	93.31
464.755	87.31
464.975	109.31
465.195	154.31
465.414	153.31
465.634	87.31
465.854	81.31
466.073	94.31
466.293	84.31
466.512	82.31
466.732	91.31
466.951	78.31
467.171	79.31
467.391	96.31
467.61	93.31
467.829	88.31
468.049	82.31
468.268	89.31
468.488	68.31
468.707	90.31
468.927	86.31
469.146	87.31
469.365	71.31
469.585	85.31
469.804	100.31
470.023	89.31
470.243	88.31
470.462	98.31
470.681	110.31
470.901	97.31
471.12	78.31
471.339	82.31
471.558	86.31
471.777	84.31
471.997	78.31
472.216	79.31
472.435	75.31
472.654	81.31
472.873	97.31
473.092	80.31
473.311	89.31
473.53	95.31
473.749	85.31
473.968	96.31
474.187	104.31
474.406	80.31
474.625	102.31
474.844	101.31
475.063	83.31
475.282	66.31
475.501	77.31
475.72	80.31
475.939	78.31
476.158	80.31
476.377	81.31
476.596	71.31
476.814	96.31
477.033	85.31
477.252	95.31
477.471	88.31
477.69	88.31
477.908	95.31
478.127	87.31
478.346	80.31
478.564	89.31
478.783	94.31
479.002	96.31
479.22	73.31
479.439	104.31
479.658	94.31
479.876	86.31
480.095	87.31
480.313	100.31
480.532	101.31
480.751	97.31
480.969	92.31
481.188	102.31
481.406	94.31
481.624	90.31
481.843	86.31
482.061	83.31
482.28	94.31
482.498	97.31
482.717	94.31
482.935	85.31
483.153	97.31
483.372	93.31
483.59	98.31
483.808	88.31
484.027	96.31
484.245	95.31
484.463	82.31
484.681	97.31
484.9	94.31
485.118	96.31
485.336	89.31
485.554	90.31
485.772	86.31
485.99	94.31
486.209	90.31
486.427	98.31
486.645	110.31
486.863	115.31
487.081	101.31
487.299	100.31
487.517	93.31
487.735	84.31
487.953	87.31
488.171	88.31
488.389	81.31
488.607	80.31
488.825	97.31
489.043	87.31
489.261	93.31
489.479	93.31
489.696	86.31
489.914	85.31
490.132	87.31
490.35	84.31
490.568	84.31
490.786	103.31
491.003	77.31
491.221	94.31
491.439	100.31
491.657	86.31
491.874	97.31
492.092	93.31
492.31	88.31
492.527	80.31
492.745	107.31
492.963	91.31
493.18	89.31
493.398	93.31
493.615	102.31
493.833	80.31
494.05	94.31
494.268	89.31
494.485	79.31
494.703	95.31
494.92	99.31
495.138	82.31
495.355	86.31
495.573	108.31
495.79	96.31
496.008	93.31
496.225	108.31
496.442	96.31
496.66	95.31
496.877	97.31
497.094	94.31
497.312	96.31
497.529	85.31
497.746	86.31
497.963	94.31
498.181	92.31
498.398	94.31
498.615	122.31
498.832	104.31
499.049	80.31
499.267	96.31
499.484	102.31
499.701	92.31
499.918	97.31
500.135	85.31
500.352	87.31
500.569	83.31
500.786	95.31
501.003	98.31
501.22	90.31
501.437	80.31
501.654	86.31
501.871	100.31
502.088	92.31
502.305	95.31
502.522	90.31
502.739	74.31
502.956	86.31
503.172	94.31
503.389	93.31
503.606	96.31
503.823	86.31
504.04	89.31
504.256	74.31
504.473	88.31
504.69	83.31
504.907	76.31
505.123	97.31
505.34	69.31
505.557	98.31
505.773	81.31
505.99	93.31
506.207	85.31
506.423	91.31
506.64	90.31
506.856	92.31
507.073	73.31
507.289	76.31
507.506	99.31
507.722	104.31
507.939	109.31
508.155	102.31
508.372	100.31
508.588	94.31
508.805	101.31
509.021	99.31
509.238	103.31
509.454	110.31
509.67	99.31
509.887	103.31
510.103	120.31
510.319	207.31
510.536	688.31
510.752	2057.31
510.968	608.31
511.184	152.31
511.401	112.31
511.617	96.31
511.833	95.31
512.049	90.31
512.265	92.31
512.481	88.31
512.698	87.31
512.914	89.31
513.13	86.31
513.346	93.31
513.562	89.31
513.778	100.31
513.994	99.31
514.21	94.31
514.426	118.31
514.642	140.31
514.858	128.31
515.074	163.31
515.29	392.31
515.506	1263.31
515.721	496.31
515.937	145.31
516.153	92.31
516.369	88.31
516.585	88.31
