Data from Uncirc_2002_H10_HRD10591_00007.txt Node
Date: Wed Jan 03 10:39:42 EST 2024
User: Yrep
Spectrometer: HR+D1059
Trigger mode: 1
Integration Time (sec): 1.000000E-1
Scans to average: 1
Electric dark correction enabled: true
Nonlinearity correction enabled: false
Boxcar width: 0
XAxis mode: Wavelengths
Number of Pixels in Spectrum: 2048
>>>>>Begin Spectral Data<<<<<
223.165	-10.56
223.4	-10.56
223.635	-10.56
223.869	-33.56
224.104	-18.56
224.338	2.44
224.573	-11.56
224.808	-20.56
225.042	-8.56
225.277	-5.56
225.511	-5.56
225.746	-3.56
225.98	8.44
226.215	16.44
226.449	20.44
226.683	21.44
226.918	26.44
227.152	22.44
227.387	33.44
227.621	44.44
227.856	50.44
228.09	56.44
228.324	43.44
228.559	58.44
228.793	66.44
229.027	64.44
229.262	76.44
229.496	81.44
229.73	64.44
229.964	87.44
230.199	77.44
230.433	85.44
230.667	74.44
230.901	86.44
231.136	79.44
231.37	82.44
231.604	83.44
231.838	82.44
232.072	93.44
232.306	80.44
232.541	80.44
232.775	82.44
233.009	78.44
233.243	77.44
233.477	85.44
233.711	87.44
233.945	83.44
234.179	80.44
234.413	94.44
234.647	84.44
234.881	80.44
235.115	80.44
235.349	81.44
235.583	97.44
235.817	84.44
236.051	84.44
236.285	80.44
236.519	77.44
236.753	96.44
236.987	70.44
237.221	92.44
237.455	102.44
237.689	88.44
237.922	79.44
238.156	80.44
238.39	76.44
238.624	82.44
238.858	94.44
239.091	77.44
239.325	87.44
239.559	85.44
239.793	66.44
240.027	77.44
240.26	85.44
240.494	69.44
240.728	82.44
240.961	74.44
241.195	84.44
241.429	85.44
241.662	71.44
241.896	79.44
242.13	83.44
242.363	69.44
242.597	68.44
242.83	78.44
243.064	88.44
243.298	91.44
243.531	78.44
243.765	80.44
243.998	75.44
244.232	88.44
244.465	79.44
244.699	87.44
244.932	95.44
245.166	70.44
245.399	84.44
245.633	82.44
245.866	77.44
246.099	72.44
246.333	74.44
246.566	71.44
246.8	87.44
247.033	72.44
247.266	87.44
247.5	77.44
247.733	87.44
247.966	83.44
248.2	81.44
248.433	98.44
248.666	98.44
248.899	91.44
249.133	75.44
249.366	100.44
249.599	97.44
249.832	82.44
250.066	81.44
250.299	85.44
250.532	69.44
250.765	81.44
250.998	91.44
251.231	87.44
251.465	85.44
251.698	69.44
251.931	79.44
252.164	67.44
252.397	84.44
252.63	77.44
252.863	91.44
253.096	76.44
253.329	72.44
253.562	78.44
253.795	88.44
254.028	72.44
254.261	89.44
254.494	81.44
254.727	90.44
254.96	91.44
255.193	92.44
255.426	79.44
255.659	76.44
255.892	81.44
256.124	74.44
256.357	92.44
256.59	76.44
256.823	92.44
257.056	83.44
257.289	86.44
257.521	83.44
257.754	86.44
257.987	94.44
258.22	87.44
258.452	85.44
258.685	81.44
258.918	68.44
259.151	89.44
259.383	80.44
259.616	77.44
259.849	96.44
260.081	82.44
260.314	82.44
260.547	81.44
260.779	80.44
261.012	93.44
261.244	80.44
261.477	96.44
261.71	93.44
261.942	99.44
262.175	107.44
262.407	85.44
262.64	94.44
262.872	96.44
263.105	80.44
263.337	77.44
263.57	110.44
263.802	84.44
264.035	93.44
264.267	83.44
264.499	88.44
264.732	85.44
264.964	101.44
265.197	87.44
265.429	72.44
265.661	84.44
265.894	79.44
266.126	75.44
266.358	88.44
266.591	77.44
266.823	86.44
267.055	104.44
267.287	91.44
267.52	86.44
267.752	81.44
267.984	82.44
268.216	81.44
268.448	88.44
268.681	98.44
268.913	94.44
269.145	92.44
269.377	86.44
269.609	93.44
269.841	100.44
270.073	72.44
270.306	85.44
270.538	89.44
270.77	90.44
271.002	85.44
271.234	87.44
271.466	93.44
271.698	89.44
271.93	88.44
272.162	86.44
272.394	84.44
272.626	83.44
272.858	94.44
273.09	91.44
273.322	104.44
273.553	90.44
273.785	79.44
274.017	86.44
274.249	90.44
274.481	83.44
274.713	89.44
274.945	90.44
275.176	81.44
275.408	87.44
275.64	79.44
275.872	96.44
276.104	84.44
276.335	90.44
276.567	89.44
276.799	107.44
277.031	93.44
277.262	90.44
277.494	92.44
277.726	83.44
277.957	81.44
278.189	72.44
278.421	95.44
278.652	70.44
278.884	94.44
279.115	100.44
279.347	78.44
279.579	82.44
279.81	91.44
280.042	74.44
280.273	85.44
280.505	82.44
280.736	90.44
280.968	95.44
281.199	85.44
281.431	89.44
281.662	89.44
281.894	92.44
282.125	94.44
282.356	96.44
282.588	124.44
282.819	112.44
283.051	88.44
283.282	101.44
283.513	96.44
283.745	80.44
283.976	89.44
284.207	92.44
284.439	104.44
284.67	91.44
284.901	91.44
285.132	79.44
285.364	89.44
285.595	74.44
285.826	88.44
286.057	80.44
286.288	91.44
286.52	84.44
286.751	89.44
286.982	78.44
287.213	89.44
287.444	100.44
287.675	86.44
287.906	93.44
288.138	87.44
288.369	80.44
288.6	92.44
288.831	92.44
289.062	96.44
289.293	92.44
289.524	89.44
289.755	86.44
289.986	102.44
290.217	98.44
290.448	88.44
290.679	84.44
290.91	77.44
291.141	84.44
291.371	107.44
291.602	89.44
291.833	81.44
292.064	86.44
292.295	70.44
292.526	92.44
292.757	81.44
292.987	89.44
293.218	97.44
293.449	90.44
293.68	85.44
293.91	94.44
294.141	80.44
294.372	86.44
294.603	85.44
294.833	111.44
295.064	83.44
295.295	83.44
295.525	85.44
295.756	114.44
295.987	102.44
296.217	113.44
296.448	115.44
296.679	91.44
296.909	101.44
297.14	85.44
297.37	94.44
297.601	92.44
297.831	89.44
298.062	75.44
298.292	78.44
298.523	96.44
298.753	88.44
298.984	89.44
299.214	88.44
299.445	89.44
299.675	98.44
299.905	97.44
300.136	79.44
300.366	98.44
300.597	79.44
300.827	81.44
301.057	87.44
301.288	99.44
301.518	95.44
301.748	94.44
301.979	96.44
302.209	92.44
302.439	88.44
302.669	85.44
302.9	82.44
303.13	88.44
303.36	103.44
303.59	84.44
303.82	96.44
304.051	85.44
304.281	101.44
304.511	96.44
304.741	94.44
304.971	84.44
305.201	87.44
305.431	81.44
305.661	92.44
305.891	91.44
306.121	79.44
306.352	87.44
306.582	103.44
306.812	83.44
307.042	104.44
307.272	98.44
307.502	90.44
307.731	83.44
307.961	91.44
308.191	96.44
308.421	84.44
308.651	94.44
308.881	114.44
309.111	98.44
309.341	94.44
309.571	88.44
309.8	86.44
310.03	84.44
310.26	98.44
310.49	99.44
310.72	96.44
310.949	99.44
311.179	95.44
311.409	107.44
311.639	102.44
311.868	86.44
312.098	95.44
312.328	98.44
312.557	118.44
312.787	99.44
313.017	94.44
313.246	95.44
313.476	83.44
313.706	100.44
313.935	88.44
314.165	86.44
314.394	89.44
314.624	104.44
314.853	89.44
315.083	83.44
315.312	91.44
315.542	85.44
315.771	95.44
316.001	84.44
316.23	75.44
316.46	100.44
316.689	94.44
316.919	91.44
317.148	103.44
317.377	109.44
317.607	103.44
317.836	102.44
318.065	93.44
318.295	88.44
318.524	85.44
318.753	78.44
318.983	102.44
319.212	80.44
319.441	94.44
319.67	90.44
319.9	96.44
320.129	108.44
320.358	95.44
320.587	93.44
320.816	84.44
321.046	105.44
321.275	109.44
321.504	94.44
321.733	94.44
321.962	111.44
322.191	100.44
322.42	88.44
322.649	112.44
322.878	108.44
323.108	106.44
323.337	106.44
323.566	121.44
323.795	144.44
324.024	185.44
324.253	301.44
324.482	629.44
324.71	1264.44
324.939	1710.44
325.168	639.44
325.397	196.44
325.626	141.44
325.855	130.44
326.084	107.44
326.313	123.44
326.542	140.44
326.77	208.44
326.999	381.44
327.228	733.44
327.457	1347.44
327.686	1062.44
327.914	306.44
328.143	160.44
328.372	142.44
328.6	107.44
328.829	94.44
329.058	110.44
329.287	110.44
329.515	110.44
329.744	92.44
329.972	100.44
330.201	90.44
330.43	101.44
330.658	110.44
330.887	113.44
331.115	116.44
331.344	101.44
331.572	98.44
331.801	96.44
332.03	103.44
332.258	89.44
332.486	105.44
332.715	83.44
332.943	85.44
333.172	112.44
333.4	96.44
333.629	95.44
333.857	100.44
334.085	91.44
334.314	89.44
334.542	85.44
334.771	94.44
334.999	90.44
335.227	98.44
335.455	102.44
335.684	97.44
335.912	90.44
336.14	98.44
336.369	107.44
336.597	97.44
336.825	106.44
337.053	107.44
337.281	88.44
337.51	88.44
337.738	76.44
337.966	89.44
338.194	101.44
338.422	95.44
338.65	89.44
338.878	90.44
339.106	102.44
339.334	105.44
339.562	91.44
339.79	88.44
340.018	102.44
340.246	100.44
340.474	96.44
340.702	96.44
340.93	92.44
341.158	98.44
341.386	81.44
341.614	98.44
341.842	94.44
342.07	80.44
342.298	105.44
342.526	82.44
342.754	91.44
342.981	90.44
343.209	103.44
343.437	95.44
343.665	80.44
343.893	89.44
344.12	88.44
344.348	85.44
344.576	85.44
344.804	85.44
345.031	109.44
345.259	101.44
345.487	100.44
345.714	99.44
345.942	105.44
346.17	86.44
346.397	92.44
346.625	98.44
346.853	94.44
347.08	98.44
347.308	98.44
347.535	92.44
347.763	93.44
347.99	105.44
348.218	100.44
348.445	98.44
348.673	99.44
348.9	84.44
349.128	91.44
349.355	93.44
349.583	86.44
349.81	100.44
350.037	84.44
350.265	92.44
350.492	86.44
350.72	96.44
350.947	97.44
351.174	100.44
351.402	104.44
351.629	104.44
351.856	99.44
352.083	91.44
352.311	94.44
352.538	105.44
352.765	107.44
352.992	112.44
353.22	105.44
353.447	117.44
353.674	108.44
353.901	91.44
354.128	106.44
354.355	94.44
354.583	105.44
354.81	105.44
355.037	79.44
355.264	86.44
355.491	92.44
355.718	86.44
355.945	96.44
356.172	96.44
356.399	108.44
356.626	92.44
356.853	100.44
357.08	88.44
357.307	89.44
357.534	102.44
357.761	101.44
357.988	107.44
358.215	96.44
358.441	96.44
358.668	91.44
358.895	95.44
359.122	111.44
359.349	85.44
359.576	84.44
359.802	87.44
360.029	94.44
360.256	107.44
360.483	125.44
360.709	97.44
360.936	91.44
361.163	85.44
361.39	102.44
361.616	99.44
361.843	89.44
362.07	84.44
362.296	84.44
362.523	91.44
362.749	86.44
362.976	80.44
363.203	87.44
363.429	81.44
363.656	103.44
363.882	86.44
364.109	93.44
364.335	101.44
364.562	85.44
364.788	87.44
365.015	97.44
365.241	94.44
365.468	107.44
365.694	94.44
365.92	94.44
366.147	88.44
366.373	97.44
366.599	88.44
366.826	72.44
367.052	83.44
367.278	101.44
367.505	91.44
367.731	88.44
367.957	84.44
368.184	99.44
368.41	94.44
368.636	104.44
368.862	123.44
369.089	86.44
369.315	87.44
369.541	95.44
369.767	101.44
369.993	92.44
370.219	86.44
370.445	89.44
370.672	81.44
370.898	98.44
371.124	79.44
371.35	100.44
371.576	87.44
371.802	91.44
372.028	88.44
372.254	110.44
372.48	90.44
372.706	87.44
372.932	87.44
373.158	92.44
373.384	89.44
373.61	93.44
373.835	86.44
374.061	97.44
374.287	87.44
374.513	90.44
374.739	98.44
374.965	92.44
375.191	86.44
375.416	95.44
375.642	92.44
375.868	108.44
376.094	109.44
376.319	91.44
376.545	90.44
376.771	89.44
376.997	87.44
377.222	106.44
377.448	93.44
377.674	86.44
377.899	90.44
378.125	106.44
378.35	95.44
378.576	101.44
378.802	90.44
379.027	105.44
379.253	92.44
379.478	90.44
379.704	82.44
379.929	94.44
380.155	81.44
380.38	93.44
380.606	110.44
380.831	93.44
381.057	99.44
381.282	98.44
381.507	78.44
381.733	105.44
381.958	94.44
382.184	96.44
382.409	107.44
382.634	107.44
382.86	98.44
383.085	105.44
383.31	102.44
383.535	99.44
383.761	80.44
383.986	93.44
384.211	98.44
384.436	97.44
384.662	111.44
384.887	102.44
385.112	98.44
385.337	117.44
385.562	105.44
385.787	108.44
386.013	112.44
386.238	104.44
386.463	91.44
386.688	113.44
386.913	100.44
387.138	107.44
387.363	106.44
387.588	92.44
387.813	112.44
388.038	109.44
388.263	133.44
388.488	111.44
388.713	116.44
388.938	99.44
389.163	92.44
389.387	101.44
389.612	93.44
389.837	89.44
390.062	83.44
390.287	94.44
390.512	85.44
390.736	85.44
390.961	95.44
391.186	93.44
391.411	101.44
391.636	82.44
391.86	91.44
392.085	80.44
392.31	81.44
392.534	88.44
392.759	88.44
392.984	102.44
393.208	111.44
393.433	122.44
393.658	118.44
393.882	104.44
394.107	86.44
394.331	94.44
394.556	89.44
394.78	78.44
395.005	93.44
395.229	88.44
395.454	87.44
395.678	88.44
395.903	93.44
396.127	98.44
396.352	85.44
396.576	92.44
396.801	104.44
397.025	113.44
397.249	82.44
397.474	96.44
397.698	76.44
397.922	91.44
398.147	83.44
398.371	86.44
398.595	86.44
398.82	91.44
399.044	92.44
399.268	87.44
399.492	90.44
399.717	78.44
399.941	84.44
400.165	94.44
400.389	84.44
400.613	97.44
400.837	86.44
401.062	87.44
401.286	86.44
401.51	90.44
401.734	99.44
401.958	100.44
402.182	94.44
402.406	139.44
402.63	99.44
402.854	99.44
403.078	86.44
403.302	89.44
403.526	94.44
403.75	86.44
403.974	89.44
404.198	96.44
404.422	82.44
404.645	102.44
404.869	96.44
405.093	116.44
405.317	103.44
405.541	79.44
405.765	103.44
405.988	109.44
406.212	140.44
406.436	175.44
406.66	118.44
406.883	102.44
407.107	76.44
407.331	87.44
407.555	86.44
407.778	84.44
408.002	96.44
408.226	94.44
408.449	92.44
408.673	80.44
408.896	92.44
409.12	92.44
409.344	97.44
409.567	93.44
409.791	86.44
410.014	97.44
410.238	88.44
410.461	97.44
410.685	87.44
410.908	101.44
411.132	92.44
411.355	95.44
411.578	98.44
411.802	85.44
412.025	97.44
412.249	64.44
412.472	85.44
412.695	80.44
412.919	88.44
413.142	96.44
413.365	69.44
413.589	96.44
413.812	90.44
414.035	94.44
414.258	83.44
414.482	93.44
414.705	86.44
414.928	90.44
415.151	83.44
415.374	87.44
415.597	74.44
415.821	89.44
416.044	84.44
416.267	96.44
416.49	89.44
416.713	86.44
416.936	88.44
417.159	88.44
417.382	98.44
417.605	95.44
417.828	94.44
418.051	94.44
418.274	96.44
418.497	88.44
418.72	87.44
418.943	97.44
419.166	89.44
419.389	87.44
419.611	93.44
419.834	78.44
420.057	95.44
420.28	91.44
420.503	92.44
420.726	82.44
420.948	87.44
421.171	80.44
421.394	85.44
421.617	103.44
421.839	96.44
422.062	91.44
422.285	83.44
422.507	99.44
422.73	98.44
422.953	103.44
423.175	85.44
423.398	90.44
423.621	106.44
423.843	99.44
424.066	74.44
424.288	80.44
424.511	83.44
424.733	93.44
424.956	109.44
425.178	93.44
425.401	90.44
425.623	107.44
425.846	96.44
426.068	97.44
426.291	104.44
426.513	91.44
426.735	92.44
426.958	91.44
427.18	101.44
427.402	133.44
427.625	148.44
427.847	107.44
428.069	106.44
428.292	92.44
428.514	82.44
428.736	88.44
428.958	87.44
429.181	92.44
429.403	79.44
429.625	84.44
429.847	88.44
430.069	108.44
430.292	84.44
430.514	83.44
430.736	87.44
430.958	81.44
431.18	92.44
431.402	91.44
431.624	95.44
431.846	80.44
432.068	88.44
432.29	96.44
432.512	96.44
432.734	98.44
432.956	76.44
433.178	86.44
433.4	86.44
433.622	86.44
433.844	78.44
434.066	85.44
434.287	85.44
434.509	98.44
434.731	89.44
434.953	83.44
435.175	86.44
435.397	91.44
435.618	87.44
435.84	119.44
436.062	128.44
436.284	125.44
436.505	90.44
436.727	105.44
436.949	84.44
437.17	76.44
437.392	84.44
437.614	87.44
437.835	82.44
438.057	117.44
438.278	115.44
438.5	110.44
438.721	109.44
438.943	89.44
439.165	92.44
439.386	90.44
439.608	99.44
439.829	94.44
440.05	124.44
440.272	129.44
440.493	101.44
440.715	88.44
440.936	85.44
441.158	94.44
441.379	88.44
441.6	106.44
441.822	91.44
442.043	88.44
442.264	110.44
442.486	101.44
442.707	73.44
442.928	88.44
443.149	121.44
443.371	114.44
443.592	125.44
443.813	100.44
444.034	99.44
444.255	107.44
444.476	93.44
444.698	90.44
444.919	97.44
445.14	133.44
445.361	106.44
445.582	104.44
445.803	131.44
446.024	123.44
446.245	102.44
446.466	113.44
446.687	90.44
446.908	99.44
447.129	100.44
447.35	90.44
447.571	75.44
447.792	86.44
448.013	102.44
448.234	90.44
448.455	89.44
448.675	117.44
448.896	111.44
449.117	105.44
449.338	90.44
449.559	103.44
449.779	109.44
450	83.44
450.221	105.44
450.442	94.44
450.662	86.44
450.883	101.44
451.104	98.44
451.324	86.44
451.545	85.44
451.766	84.44
451.986	88.44
452.207	78.44
452.428	94.44
452.648	91.44
452.869	99.44
453.089	102.44
453.31	104.44
453.53	90.44
453.751	84.44
453.971	104.44
454.192	107.44
454.412	93.44
454.633	95.44
454.853	79.44
455.073	88.44
455.294	94.44
455.514	87.44
455.734	92.44
455.955	96.44
456.175	102.44
456.395	93.44
456.616	83.44
456.836	92.44
457.056	96.44
457.276	92.44
457.497	89.44
457.717	92.44
457.937	78.44
458.157	83.44
458.377	87.44
458.598	97.44
458.818	122.44
459.038	140.44
459.258	103.44
459.478	93.44
459.698	87.44
459.918	89.44
460.138	76.44
460.358	91.44
460.578	79.44
460.798	95.44
461.018	88.44
461.238	94.44
461.458	90.44
461.678	82.44
461.898	94.44
462.118	82.44
462.338	90.44
462.558	90.44
462.777	74.44
462.997	100.44
463.217	86.44
463.437	100.44
463.657	89.44
463.876	91.44
464.096	76.44
464.316	103.44
464.536	96.44
464.755	101.44
464.975	99.44
465.195	134.44
465.414	128.44
465.634	98.44
465.854	79.44
466.073	85.44
466.293	93.44
466.512	100.44
466.732	87.44
466.951	83.44
467.171	86.44
467.391	104.44
467.61	107.44
467.829	101.44
468.049	89.44
468.268	89.44
468.488	100.44
468.707	78.44
468.927	80.44
469.146	85.44
469.365	96.44
469.585	80.44
469.804	87.44
470.023	88.44
470.243	94.44
470.462	98.44
470.681	98.44
470.901	90.44
471.12	98.44
471.339	76.44
471.558	89.44
471.777	92.44
471.997	82.44
472.216	102.44
472.435	90.44
472.654	84.44
472.873	87.44
473.092	88.44
473.311	87.44
473.53	89.44
473.749	96.44
473.968	89.44
474.187	93.44
474.406	93.44
474.625	80.44
474.844	83.44
475.063	88.44
475.282	90.44
475.501	92.44
475.72	90.44
475.939	81.44
476.158	83.44
476.377	99.44
476.596	99.44
476.814	74.44
477.033	88.44
477.252	79.44
477.471	80.44
477.69	104.44
477.908	81.44
478.127	89.44
478.346	86.44
478.564	82.44
478.783	113.44
479.002	90.44
479.22	93.44
479.439	107.44
479.658	108.44
479.876	98.44
480.095	102.44
480.313	106.44
480.532	94.44
480.751	88.44
480.969	100.44
481.188	106.44
481.406	85.44
481.624	91.44
481.843	90.44
482.061	73.44
482.28	98.44
482.498	89.44
482.717	102.44
482.935	96.44
483.153	89.44
483.372	76.44
483.59	85.44
483.808	81.44
484.027	87.44
484.245	95.44
484.463	87.44
484.681	96.44
484.9	96.44
485.118	97.44
485.336	89.44
485.554	92.44
485.772	98.44
485.99	117.44
486.209	115.44
486.427	108.44
486.645	107.44
486.863	106.44
487.081	101.44
487.299	88.44
487.517	85.44
487.735	93.44
487.953	96.44
488.171	102.44
488.389	87.44
488.607	92.44
488.825	78.44
489.043	79.44
489.261	96.44
489.479	109.44
489.696	94.44
489.914	96.44
490.132	89.44
490.35	96.44
490.568	87.44
490.786	90.44
491.003	108.44
491.221	87.44
491.439	92.44
491.657	96.44
491.874	77.44
492.092	92.44
492.31	89.44
492.527	97.44
492.745	98.44
492.963	87.44
493.18	85.44
493.398	82.44
493.615	94.44
493.833	107.44
494.05	91.44
494.268	83.44
494.485	93.44
494.703	91.44
494.92	85.44
495.138	90.44
495.355	77.44
495.573	85.44
495.79	96.44
496.008	93.44
496.225	93.44
496.442	97.44
496.66	78.44
496.877	85.44
497.094	92.44
497.312	99.44
497.529	99.44
497.746	98.44
497.963	89.44
498.181	96.44
498.398	101.44
498.615	98.44
498.832	112.44
499.049	100.44
499.267	77.44
499.484	96.44
499.701	107.44
499.918	90.44
500.135	82.44
500.352	107.44
500.569	86.44
500.786	98.44
501.003	96.44
501.22	96.44
501.437	83.44
501.654	93.44
501.871	90.44
502.088	80.44
502.305	98.44
502.522	85.44
502.739	89.44
502.956	79.44
503.172	89.44
503.389	93.44
503.606	109.44
503.823	94.44
504.04	92.44
504.256	84.44
504.473	89.44
504.69	81.44
504.907	86.44
505.123	88.44
505.34	86.44
505.557	100.44
505.773	94.44
505.99	89.44
506.207	95.44
506.423	83.44
506.64	78.44
506.856	94.44
507.073	92.44
507.289	89.44
507.506	93.44
507.722	107.44
507.939	112.44
508.155	97.44
508.372	94.44
508.588	100.44
508.805	98.44
509.021	98.44
509.238	106.44
509.454	94.44
509.67	94.44
509.887	122.44
510.103	110.44
510.319	178.44
510.536	577.44
510.752	1764.44
510.968	526.44
511.184	130.44
511.401	115.44
511.617	91.44
511.833	93.44
512.049	77.44
512.265	81.44
512.481	86.44
512.698	93.44
512.914	100.44
513.13	102.44
513.346	93.44
513.562	95.44
513.778	85.44
513.994	95.44
514.21	92.44
514.426	102.44
514.642	101.44
514.858	113.44
515.074	159.44
515.29	342.44
515.506	1064.44
515.721	414.44
515.937	142.44
