Data from Uncirc_2002_H10_HRD10591_00022.txt Node
Date: Wed Jan 03 10:39:45 EST 2024
User: Yrep
Spectrometer: HR+D1059
Trigger mode: 1
Integration Time (sec): 1.000000E-1
Scans to average: 1
Electric dark correction enabled: true
Nonlinearity correction enabled: false
Boxcar width: 0
XAxis mode: Wavelengths
Number of Pixels in Spectrum: 2048
>>>>>Begin Spectral Data<<<<<
223.165	-22
223.4	-22
223.635	-22
223.869	-19
224.104	-16
224.338	-11
224.573	-5
224.808	4
225.042	-8
225.277	-7
225.511	-1
225.746	-2
225.98	-4
226.215	18
226.449	14
226.683	10
226.918	24
227.152	25
227.387	36
227.621	41
227.856	35
228.09	37
228.324	58
228.559	59
228.793	68
229.027	82
229.262	58
229.496	59
229.73	74
229.964	78
230.199	72
230.433	68
230.667	67
230.901	76
231.136	86
231.37	84
231.604	89
231.838	82
232.072	73
232.306	83
232.541	71
232.775	81
233.009	82
233.243	84
233.477	87
233.711	64
233.945	82
234.179	78
234.413	84
234.647	86
234.881	78
235.115	86
235.349	81
235.583	90
235.817	87
236.051	80
236.285	78
236.519	79
236.753	72
236.987	84
237.221	82
237.455	86
237.689	70
237.922	67
238.156	85
238.39	72
238.624	86
238.858	82
239.091	88
239.325	75
239.559	80
239.793	71
240.027	80
240.26	76
240.494	83
240.728	66
240.961	75
241.195	68
241.429	62
241.662	83
241.896	93
242.13	69
242.363	72
242.597	66
242.83	83
243.064	83
243.298	74
243.531	77
243.765	66
243.998	87
244.232	88
244.465	81
244.699	88
244.932	87
245.166	71
245.399	78
245.633	70
245.866	69
246.099	92
246.333	79
246.566	77
246.8	79
247.033	72
247.266	81
247.5	76
247.733	79
247.966	85
248.2	75
248.433	74
248.666	74
248.899	82
249.133	82
249.366	97
249.599	76
249.832	86
250.066	77
250.299	79
250.532	77
250.765	86
250.998	72
251.231	79
251.465	91
251.698	72
251.931	82
252.164	84
252.397	80
252.63	66
252.863	76
253.096	73
253.329	75
253.562	90
253.795	78
254.028	83
254.261	82
254.494	90
254.727	91
254.96	82
255.193	75
255.426	62
255.659	78
255.892	85
256.124	80
256.357	75
256.59	74
256.823	81
257.056	78
257.289	90
257.521	76
257.754	73
257.987	72
258.22	89
258.452	83
258.685	104
258.918	87
259.151	84
259.383	80
259.616	83
259.849	94
260.081	91
260.314	91
260.547	68
260.779	70
261.012	101
261.244	83
261.477	82
261.71	81
261.942	106
262.175	103
262.407	91
262.64	82
262.872	76
263.105	86
263.337	83
263.57	78
263.802	85
264.035	90
264.267	86
264.499	83
264.732	71
264.964	83
265.197	84
265.429	86
265.661	83
265.894	81
266.126	68
266.358	93
266.591	67
266.823	88
267.055	90
267.287	83
267.52	80
267.752	88
267.984	99
268.216	79
268.448	78
268.681	91
268.913	78
269.145	85
269.377	75
269.609	92
269.841	92
270.073	82
270.306	99
270.538	87
270.77	77
271.002	82
271.234	87
271.466	83
271.698	88
271.93	88
272.162	84
272.394	76
272.626	90
272.858	78
273.09	90
273.322	83
273.553	81
273.785	94
274.017	77
274.249	77
274.481	79
274.713	86
274.945	71
275.176	93
275.408	85
275.64	91
275.872	82
276.104	83
276.335	77
276.567	90
276.799	92
277.031	90
277.262	91
277.494	76
277.726	87
277.957	99
278.189	87
278.421	71
278.652	88
278.884	75
279.115	85
279.347	92
279.579	91
279.81	89
280.042	96
280.273	91
280.505	78
280.736	82
280.968	79
281.199	80
281.431	79
281.662	83
281.894	75
282.125	87
282.356	115
282.588	117
282.819	96
283.051	80
283.282	84
283.513	93
283.745	84
283.976	100
284.207	88
284.439	90
284.67	81
284.901	78
285.132	102
285.364	75
285.595	85
285.826	99
286.057	93
286.288	80
286.52	94
286.751	77
286.982	82
287.213	95
287.444	92
287.675	73
287.906	80
288.138	102
288.369	98
288.6	92
288.831	70
289.062	75
289.293	74
289.524	81
289.755	67
289.986	88
290.217	81
290.448	80
290.679	87
290.91	81
291.141	81
291.371	96
291.602	75
291.833	66
292.064	111
292.295	101
292.526	87
292.757	92
292.987	99
293.218	92
293.449	78
293.68	71
293.91	80
294.141	99
294.372	92
294.603	84
294.833	89
295.064	85
295.295	79
295.525	101
295.756	108
295.987	96
296.217	115
296.448	111
296.679	88
296.909	80
297.14	106
297.37	94
297.601	86
297.831	87
298.062	96
298.292	87
298.523	86
298.753	114
298.984	74
299.214	94
299.445	88
299.675	82
299.905	92
300.136	91
300.366	95
300.597	91
300.827	95
301.057	95
301.288	96
301.518	87
301.748	91
301.979	107
302.209	99
302.439	84
302.669	78
302.9	87
303.13	101
303.36	91
303.59	90
303.82	95
304.051	87
304.281	81
304.511	83
304.741	94
304.971	113
305.201	86
305.431	86
305.661	93
305.891	92
306.121	112
306.352	96
306.582	103
306.812	88
307.042	90
307.272	96
307.502	87
307.731	89
307.961	92
308.191	87
308.421	83
308.651	91
308.881	89
309.111	84
309.341	98
309.571	108
309.8	107
310.03	93
310.26	97
310.49	91
310.72	97
310.949	102
311.179	89
311.409	91
311.639	102
311.868	103
312.098	95
312.328	90
312.557	102
312.787	98
313.017	95
313.246	97
313.476	82
313.706	87
313.935	100
314.165	89
314.394	101
314.624	91
314.853	87
315.083	84
315.312	95
315.542	90
315.771	97
316.001	94
316.23	93
316.46	102
316.689	98
316.919	90
317.148	86
317.377	96
317.607	80
317.836	91
318.065	83
318.295	91
318.524	94
318.753	96
318.983	92
319.212	95
319.441	88
319.67	96
319.9	101
320.129	90
320.358	78
320.587	87
320.816	105
321.046	88
321.275	94
321.504	92
321.733	89
321.962	100
322.191	98
322.42	108
322.649	106
322.878	107
323.108	103
323.337	106
323.566	121
323.795	132
324.024	179
324.253	326
324.482	649
324.71	1348
324.939	1739
325.168	655
325.397	217
325.626	136
325.855	127
326.084	118
326.313	119
326.542	130
326.77	209
326.999	405
327.228	762
327.457	1394
327.686	1088
327.914	326
328.143	162
328.372	135
328.6	115
328.829	111
329.058	113
329.287	113
329.515	111
329.744	90
329.972	92
330.201	103
330.43	103
330.658	113
330.887	115
331.115	118
331.344	100
331.572	91
331.801	94
332.03	96
332.258	87
332.486	92
332.715	97
332.943	102
333.172	95
333.4	96
333.629	114
333.857	102
334.085	97
334.314	91
334.542	101
334.771	90
334.999	100
335.227	91
335.455	89
335.684	110
335.912	99
336.14	95
336.369	91
336.597	92
336.825	90
337.053	105
337.281	96
337.51	74
337.738	96
337.966	86
338.194	94
338.422	94
338.65	96
338.878	102
339.106	91
339.334	89
339.562	94
339.79	92
340.018	80
340.246	89
340.474	90
340.702	88
340.93	89
341.158	78
341.386	94
341.614	78
341.842	84
342.07	104
342.298	106
342.526	84
342.754	91
342.981	71
343.209	104
343.437	108
343.665	82
343.893	95
344.12	67
344.348	89
344.576	92
344.804	98
345.031	102
345.259	94
345.487	78
345.714	98
345.942	92
346.17	94
346.397	100
346.625	99
346.853	89
347.08	89
347.308	91
347.535	88
347.763	95
347.99	88
348.218	98
348.445	106
348.673	103
348.9	100
349.128	89
349.355	105
349.583	85
349.81	103
350.037	104
350.265	89
350.492	112
350.72	82
350.947	96
351.174	96
351.402	98
351.629	103
351.856	100
352.083	106
352.311	105
352.538	88
352.765	102
352.992	102
353.22	112
353.447	103
353.674	96
353.901	107
354.128	83
354.355	110
354.583	106
354.81	97
355.037	74
355.264	88
355.491	100
355.718	90
355.945	81
356.172	96
356.399	107
356.626	100
356.853	98
357.08	85
357.307	95
357.534	82
357.761	91
357.988	105
358.215	99
358.441	90
358.668	92
358.895	91
359.122	89
359.349	104
359.576	93
359.802	99
360.029	108
360.256	95
360.483	80
360.709	84
360.936	76
361.163	95
361.39	78
361.616	93
361.843	81
362.07	91
362.296	87
362.523	94
362.749	91
362.976	96
363.203	80
363.429	76
363.656	85
363.882	95
364.109	72
364.335	84
364.562	91
364.788	74
365.015	99
365.241	103
365.468	111
365.694	110
365.92	103
366.147	100
366.373	76
366.599	87
366.826	80
367.052	91
367.278	91
367.505	100
367.731	94
367.957	103
368.184	101
368.41	90
368.636	99
368.862	104
369.089	95
369.315	109
369.541	98
369.767	81
369.993	84
370.219	97
370.445	78
370.672	74
370.898	89
371.124	84
371.35	83
371.576	84
371.802	86
372.028	79
372.254	79
372.48	92
372.706	80
372.932	90
373.158	90
373.384	91
373.61	87
373.835	88
374.061	76
374.287	89
374.513	85
374.739	89
374.965	83
375.191	85
375.416	87
375.642	86
375.868	86
376.094	90
376.319	89
376.545	87
376.771	95
376.997	96
377.222	90
377.448	84
377.674	86
377.899	97
378.125	89
378.35	83
378.576	94
378.802	97
379.027	95
379.253	83
379.478	91
379.704	89
379.929	89
380.155	108
380.38	91
380.606	91
380.831	87
381.057	95
381.282	86
381.507	104
381.733	98
381.958	94
382.184	99
382.409	97
382.634	97
382.86	108
383.085	103
383.31	92
383.535	94
383.761	89
383.986	103
384.211	94
384.436	98
384.662	98
384.887	109
385.112	112
385.337	106
385.562	97
385.787	100
386.013	114
386.238	100
386.463	97
386.688	120
386.913	115
387.138	114
387.363	113
387.588	108
387.813	117
388.038	99
388.263	110
388.488	95
388.713	92
388.938	100
389.163	98
389.387	91
389.612	96
389.837	105
390.062	98
390.287	112
390.512	90
390.736	90
390.961	89
391.186	98
391.411	86
391.636	85
391.86	90
392.085	85
392.31	96
392.534	86
392.759	102
392.984	106
393.208	98
393.433	101
393.658	100
393.882	94
394.107	80
394.331	91
394.556	85
394.78	80
395.005	92
395.229	90
395.454	77
395.678	77
395.903	103
396.127	85
396.352	83
396.576	101
396.801	91
397.025	116
397.249	97
397.474	81
397.698	76
397.922	79
398.147	83
398.371	72
398.595	91
398.82	89
399.044	90
399.268	79
399.492	91
399.717	75
399.941	90
400.165	92
400.389	73
400.613	71
400.837	92
401.062	82
401.286	75
401.51	88
401.734	100
401.958	95
402.182	119
402.406	132
402.63	114
402.854	96
403.078	74
403.302	81
403.526	85
403.75	97
403.974	92
404.198	84
404.422	68
404.645	87
404.869	93
405.093	96
405.317	87
405.541	89
405.765	104
405.988	115
406.212	156
406.436	192
406.66	146
406.883	105
407.107	87
407.331	81
407.555	88
407.778	91
408.002	90
408.226	75
408.449	86
408.673	84
408.896	74
409.12	94
409.344	88
409.567	100
409.791	90
410.014	93
410.238	85
410.461	91
410.685	82
410.908	70
411.132	104
411.355	89
411.578	103
411.802	78
412.025	89
412.249	80
412.472	102
412.695	96
412.919	78
413.142	94
413.365	78
413.589	98
413.812	95
414.035	96
414.258	85
414.482	101
414.705	99
414.928	78
415.151	87
415.374	91
415.597	75
415.821	91
416.044	84
416.267	86
416.49	100
416.713	94
416.936	84
417.159	94
417.382	80
417.605	87
417.828	92
418.051	99
418.274	82
418.497	94
418.72	100
418.943	81
419.166	80
419.389	92
419.611	97
419.834	86
420.057	86
420.28	95
420.503	86
420.726	86
420.948	84
421.171	81
421.394	87
421.617	89
421.839	84
422.062	89
422.285	102
422.507	101
422.73	95
422.953	83
423.175	96
423.398	99
423.621	85
423.843	80
424.066	84
424.288	93
424.511	94
424.733	99
424.956	91
425.178	108
425.401	98
425.623	92
425.846	82
426.068	92
426.291	82
426.513	89
426.735	90
426.958	99
427.18	88
427.402	114
427.625	144
427.847	113
428.069	94
428.292	90
428.514	80
428.736	79
428.958	88
429.181	90
429.403	104
429.625	89
429.847	95
430.069	96
430.292	92
430.514	86
430.736	91
430.958	96
431.18	87
431.402	80
431.624	89
431.846	74
432.068	84
432.29	94
432.512	81
432.734	88
432.956	89
433.178	84
433.4	85
433.622	100
433.844	92
434.066	91
434.287	92
434.509	74
434.731	80
434.953	91
435.175	86
435.397	91
435.618	89
435.84	97
436.062	113
436.284	107
436.505	111
436.727	100
436.949	111
437.17	85
437.392	75
437.614	102
437.835	98
438.057	108
438.278	94
438.5	99
438.721	116
438.943	103
439.165	84
439.386	85
439.608	100
439.829	92
440.05	110
440.272	117
440.493	75
440.715	96
440.936	92
441.158	82
441.379	87
441.6	82
441.822	70
442.043	95
442.264	94
442.486	89
442.707	84
442.928	90
443.149	116
443.371	115
443.592	107
443.813	92
444.034	86
444.255	94
444.476	84
444.698	81
444.919	85
445.14	133
445.361	119
445.582	107
445.803	118
446.024	115
446.245	118
446.466	106
446.687	72
446.908	74
447.129	78
447.35	87
447.571	94
447.792	98
448.013	83
448.234	99
448.455	105
448.675	111
448.896	111
449.117	94
449.338	90
449.559	126
449.779	120
450	80
450.221	73
450.442	90
450.662	91
450.883	110
451.104	104
451.324	98
451.545	82
451.766	100
451.986	96
452.207	84
452.428	95
452.648	96
452.869	109
453.089	104
453.31	99
453.53	96
453.751	86
453.971	84
454.192	111
454.412	90
454.633	80
454.853	77
455.073	78
455.294	84
455.514	87
455.734	96
455.955	78
456.175	82
456.395	92
456.616	71
456.836	91
457.056	79
457.276	75
457.497	84
457.717	90
457.937	97
458.157	89
458.377	82
458.598	107
458.818	132
459.038	138
459.258	89
459.478	90
459.698	78
459.918	89
460.138	91
460.358	86
460.578	87
460.798	73
461.018	82
461.238	99
461.458	88
461.678	80
461.898	98
462.118	75
462.338	89
462.558	76
462.777	76
462.997	85
463.217	92
463.437	91
463.657	91
463.876	86
464.096	88
464.316	90
464.536	87
464.755	100
464.975	95
465.195	146
465.414	141
465.634	95
465.854	98
466.073	84
466.293	89
466.512	97
466.732	79
466.951	71
467.171	80
467.391	88
467.61	84
467.829	91
468.049	82
468.268	91
468.488	82
468.707	91
468.927	87
469.146	85
469.365	87
469.585	96
469.804	89
470.023	98
470.243	90
470.462	82
470.681	99
470.901	86
471.12	85
471.339	87
471.558	91
471.777	84
471.997	96
472.216	87
472.435	80
472.654	94
472.873	84
473.092	93
473.311	84
473.53	70
473.749	89
473.968	88
474.187	91
474.406	91
474.625	80
474.844	77
475.063	90
475.282	84
475.501	82
475.72	79
475.939	88
476.158	83
476.377	96
476.596	82
476.814	89
477.033	79
477.252	103
477.471	92
477.69	92
477.908	97
478.127	88
478.346	94
478.564	82
478.783	97
479.002	87
479.22	98
479.439	100
479.658	100
479.876	99
480.095	82
480.313	85
480.532	88
480.751	75
480.969	92
481.188	103
481.406	99
481.624	95
481.843	90
482.061	80
482.28	83
482.498	96
482.717	98
482.935	87
483.153	100
483.372	86
483.59	89
483.808	84
484.027	87
484.245	79
484.463	88
484.681	98
484.9	92
485.118	95
485.336	95
485.554	95
485.772	99
485.99	99
486.209	91
486.427	102
486.645	99
486.863	111
487.081	99
487.299	72
487.517	98
487.735	84
487.953	92
488.171	80
488.389	88
488.607	91
488.825	90
489.043	83
489.261	107
489.479	83
489.696	83
489.914	98
490.132	96
490.35	93
490.568	83
490.786	94
491.003	90
491.221	95
491.439	84
491.657	97
491.874	87
492.092	94
492.31	90
492.527	89
492.745	98
492.963	87
493.18	94
493.398	98
493.615	85
493.833	88
494.05	95
494.268	81
494.485	71
494.703	89
494.92	87
495.138	72
495.355	94
495.573	88
495.79	85
496.008	89
496.225	80
496.442	85
496.66	93
496.877	93
497.094	81
497.312	84
497.529	83
497.746	90
497.963	96
498.181	101
498.398	92
498.615	98
498.832	96
499.049	107
499.267	112
499.484	86
499.701	92
499.918	100
500.135	86
500.352	75
500.569	88
500.786	97
501.003	81
501.22	95
501.437	94
501.654	93
501.871	101
502.088	90
502.305	88
502.522	78
502.739	87
502.956	76
503.172	92
503.389	84
503.606	98
503.823	109
504.04	98
504.256	74
504.473	90
504.69	98
504.907	101
505.123	91
505.34	83
505.557	86
505.773	107
505.99	89
506.207	79
506.423	96
506.64	90
506.856	85
507.073	87
507.289	83
507.506	92
507.722	99
507.939	99
508.155	88
508.372	88
508.588	96
508.805	97
509.021	88
509.238	113
509.454	99
509.67	96
509.887	101
510.103	124
510.319	185
510.536	670
510.752	1960
510.968	572
511.184	144
511.401	101
511.617	110
511.833	110
512.049	88
512.265	81
512.481	90
512.698	84
512.914	85
513.13	94
513.346	91
513.562	103
513.778	97
513.994	98
514.21	102
514.426	95
514.642	130
514.858	108
515.074	155
515.29	370
515.506	1140
515.721	452
515.937	147
516.153	98
516.369	98
516.585	99
516.801	75
517.016	92
517.232	98
517.448	91
517.664	104
517.879	88
518.095	91
518.311	84
518.527	83
518.742	94
518.958	98
519.173	91
519.389	92
519.605	75
519.82	96
520.036	93
520.251	98
520.467	105
520.682	89
520.898	103
521.113	115
521.329	139
521.544	194
521.76	465
521.975	1869
522.19	1137
522.406	263
522.621	110
522.836	97
523.052	100
523.267	80
523.482	87
523.698	92
523.913	116
524.128	101
524.343	86
524.559	97
524.774	78
524.989	102
525.204	88
525.419	93
525.634	85
525.849	81
526.064	79
526.28	83
526.495	90
526.71	94
526.925	106
527.14	89
527.355	98
527.57	98
527.785	85
527.999	79
528.214	83
528.429	86
528.644	80
528.859	84
529.074	85
529.289	94
529.503	157
529.718	106
529.933	86
530.148	89
530.363	84
530.577	76
530.792	82
531.007	91
531.221	83
531.436	91
531.651	87
531.865	98
532.08	100
532.295	112
532.509	91
532.724	88
532.938	97
533.153	89
533.367	87
533.582	87
533.796	91
534.011	101
534.225	94
534.44	86
534.654	95
534.868	92
535.083	85
535.297	107
535.511	92
535.726	93
535.94	82
536.154	98
536.369	89
536.583	89
536.797	89
537.011	89
537.225	85
537.44	98
537.654	105
537.868	110
538.082	96
538.296	97
538.51	96
538.724	80
538.938	79
539.153	106
539.367	94
539.581	95
539.795	95
540.009	102
540.222	91
540.436	75
540.65	83
540.864	91
541.078	80
541.292	82
541.506	91
541.72	94
541.934	91
542.147	93
542.361	74
542.575	87
542.789	84
543.002	93
543.216	103
543.43	81
543.644	72
543.857	87
544.071	86
544.285	79
544.498	80
544.712	78
544.925	88
545.139	84
545.352	89
545.566	91
545.779	92
545.993	99
546.206	88
546.42	96
546.633	97
546.847	101
547.06	75
547.274	94
547.487	86
547.7	82
547.914	74
548.127	97
548.34	93
548.554	90
548.767	92
548.98	85
549.193	86
549.407	84
549.62	86
549.833	89
550.046	74
550.259	102
550.473	85
550.686	112
550.899	95
551.112	81
551.325	90
551.538	84
551.751	89
551.964	70
552.177	91
552.39	97
552.603	98
552.816	81
553.029	84
553.242	90
553.455	90
553.667	97
553.88	101
554.093	82
554.306	88
554.519	85
554.732	90
554.944	81
555.157	82
555.37	87
555.583	95
555.795	94
556.008	98
556.221	100
556.433	76
556.646	87
556.859	84
557.071	86
557.284	65
557.496	96
557.709	91
557.921	90
558.134	101
558.346	93
558.559	98
558.771	84
558.984	103
559.196	88
559.409	79
559.621	82
559.833	76
560.046	92
560.258	89
560.47	93
560.683	92
560.895	81
561.107	102
561.32	85
561.532	101
561.744	91
561.956	96
562.168	88
562.381	91
562.593	80
562.805	98
563.017	84
563.229	101
563.441	75
563.653	95
563.865	86
564.077	85
564.289	84
564.501	83
564.713	86
564.925	97
565.137	106
565.349	91
565.561	85
565.773	89
565.985	90
566.197	89
566.408	92
566.62	91
566.832	88
567.044	77
567.255	73
567.467	82
567.679	85
567.891	92
568.102	75
568.314	77
568.526	78
568.737	93
568.949	78
569.161	86
569.372	86
569.584	80
569.795	89
570.007	115
570.218	229
570.43	122
570.641	96
570.853	81
571.064	80
571.276	97
571.487	87
571.698	90
571.91	83
572.121	79
572.333	82
572.544	93
572.755	100
572.966	81
573.178	80
573.389	87
573.6	103
573.811	84
574.023	80
574.234	101
574.445	77
574.656	78
574.867	84
575.078	97
575.289	79
575.501	83
575.712	83
575.923	77
576.134	103
576.345	93
576.556	89
576.767	84
576.978	99
577.188	88
577.399	82
577.61	103
577.821	107
578.032	95
578.243	244
578.454	638
578.665	197
578.875	108
579.086	96
579.297	87
579.508	83
579.718	89
579.929	77
580.14	67
580.35	89
580.561	80
580.772	95
580.982	106
581.193	87
581.403	79
581.614	84
581.825	79
582.035	90
582.246	86
582.456	87
582.667	99
582.877	95
583.087	86
583.298	96
583.508	92
583.719	75
583.929	81
584.139	82
584.35	86
584.56	81
584.77	92
584.981	89
585.191	89
585.401	87
585.611	84
