Data from Uncirc_2002_H10_HRD10591_00029.txt Node
Date: Wed Jan 03 10:39:47 EST 2024
User: Yrep
Spectrometer: HR+D1059
Trigger mode: 1
Integration Time (sec): 1.000000E-1
Scans to average: 1
Electric dark correction enabled: true
Nonlinearity correction enabled: false
Boxcar width: 0
XAxis mode: Wavelengths
Number of Pixels in Spectrum: 2048
>>>>>Begin Spectral Data<<<<<
223.165	-8.56
223.4	-8.56
223.635	-8.56
223.869	-12.56
224.104	-20.56
224.338	-15.56
224.573	-20.56
224.808	-19.56
225.042	2.44
225.277	-8.56
225.511	4.44
225.746	12.44
225.98	-5.56
226.215	6.44
226.449	25.44
226.683	17.44
226.918	22.44
227.152	20.44
227.387	39.44
227.621	50.44
227.856	44.44
228.09	47.44
228.324	57.44
228.559	52.44
228.793	50.44
229.027	75.44
229.262	63.44
229.496	77.44
229.73	95.44
229.964	73.44
230.199	74.44
230.433	67.44
230.667	84.44
230.901	83.44
231.136	83.44
231.37	64.44
231.604	99.44
231.838	79.44
232.072	75.44
232.306	82.44
232.541	89.44
232.775	90.44
233.009	83.44
233.243	73.44
233.477	88.44
233.711	81.44
233.945	72.44
234.179	89.44
234.413	80.44
234.647	74.44
234.881	67.44
235.115	72.44
235.349	88.44
235.583	82.44
235.817	87.44
236.051	80.44
236.285	82.44
236.519	59.44
236.753	85.44
236.987	67.44
237.221	74.44
237.455	81.44
237.689	83.44
237.922	87.44
238.156	68.44
238.39	78.44
238.624	82.44
238.858	71.44
239.091	85.44
239.325	70.44
239.559	81.44
239.793	72.44
240.027	74.44
240.26	89.44
240.494	83.44
240.728	75.44
240.961	86.44
241.195	81.44
241.429	79.44
241.662	101.44
241.896	84.44
242.13	80.44
242.363	62.44
242.597	87.44
242.83	84.44
243.064	88.44
243.298	87.44
243.531	85.44
243.765	80.44
243.998	93.44
244.232	76.44
244.465	85.44
244.699	75.44
244.932	79.44
245.166	70.44
245.399	67.44
245.633	57.44
245.866	85.44
246.099	87.44
246.333	83.44
246.566	84.44
246.8	79.44
247.033	81.44
247.266	79.44
247.5	88.44
247.733	79.44
247.966	83.44
248.2	89.44
248.433	96.44
248.666	78.44
248.899	96.44
249.133	83.44
249.366	79.44
249.599	93.44
249.832	89.44
250.066	98.44
250.299	77.44
250.532	83.44
250.765	90.44
250.998	83.44
251.231	77.44
251.465	93.44
251.698	70.44
251.931	85.44
252.164	74.44
252.397	92.44
252.63	79.44
252.863	73.44
253.096	97.44
253.329	93.44
253.562	92.44
253.795	87.44
254.028	80.44
254.261	92.44
254.494	94.44
254.727	73.44
254.96	76.44
255.193	76.44
255.426	88.44
255.659	68.44
255.892	95.44
256.124	88.44
256.357	80.44
256.59	83.44
256.823	100.44
257.056	80.44
257.289	81.44
257.521	75.44
257.754	86.44
257.987	91.44
258.22	90.44
258.452	103.44
258.685	75.44
258.918	83.44
259.151	72.44
259.383	83.44
259.616	87.44
259.849	77.44
260.081	87.44
260.314	81.44
260.547	83.44
260.779	97.44
261.012	96.44
261.244	84.44
261.477	90.44
261.71	96.44
261.942	111.44
262.175	110.44
262.407	87.44
262.64	93.44
262.872	90.44
263.105	76.44
263.337	88.44
263.57	91.44
263.802	79.44
264.035	82.44
264.267	74.44
264.499	75.44
264.732	80.44
264.964	84.44
265.197	83.44
265.429	81.44
265.661	91.44
265.894	73.44
266.126	89.44
266.358	90.44
266.591	82.44
266.823	97.44
267.055	84.44
267.287	92.44
267.52	87.44
267.752	92.44
267.984	80.44
268.216	88.44
268.448	101.44
268.681	93.44
268.913	74.44
269.145	83.44
269.377	97.44
269.609	93.44
269.841	83.44
270.073	84.44
270.306	95.44
270.538	90.44
270.77	77.44
271.002	89.44
271.234	85.44
271.466	95.44
271.698	80.44
271.93	96.44
272.162	94.44
272.394	80.44
272.626	83.44
272.858	91.44
273.09	96.44
273.322	69.44
273.553	81.44
273.785	85.44
274.017	89.44
274.249	85.44
274.481	91.44
274.713	94.44
274.945	95.44
275.176	80.44
275.408	91.44
275.64	85.44
275.872	82.44
276.104	82.44
276.335	103.44
276.567	91.44
276.799	101.44
277.031	88.44
277.262	74.44
277.494	93.44
277.726	83.44
277.957	85.44
278.189	84.44
278.421	85.44
278.652	88.44
278.884	78.44
279.115	76.44
279.347	97.44
279.579	89.44
279.81	75.44
280.042	99.44
280.273	99.44
280.505	84.44
280.736	78.44
280.968	77.44
281.199	83.44
281.431	75.44
281.662	79.44
281.894	88.44
282.125	103.44
282.356	121.44
282.588	123.44
282.819	105.44
283.051	90.44
283.282	106.44
283.513	103.44
283.745	91.44
283.976	86.44
284.207	95.44
284.439	83.44
284.67	85.44
284.901	72.44
285.132	94.44
285.364	86.44
285.595	98.44
285.826	89.44
286.057	94.44
286.288	80.44
286.52	90.44
286.751	84.44
286.982	93.44
287.213	74.44
287.444	80.44
287.675	88.44
287.906	107.44
288.138	77.44
288.369	88.44
288.6	80.44
288.831	80.44
289.062	93.44
289.293	91.44
289.524	83.44
289.755	93.44
289.986	84.44
290.217	94.44
290.448	88.44
290.679	97.44
290.91	107.44
291.141	99.44
291.371	88.44
291.602	86.44
291.833	97.44
292.064	89.44
292.295	86.44
292.526	91.44
292.757	98.44
292.987	97.44
293.218	73.44
293.449	86.44
293.68	81.44
293.91	79.44
294.141	90.44
294.372	86.44
294.603	82.44
294.833	74.44
295.064	96.44
295.295	87.44
295.525	87.44
295.756	92.44
295.987	99.44
296.217	124.44
296.448	104.44
296.679	102.44
296.909	92.44
297.14	102.44
297.37	94.44
297.601	95.44
297.831	91.44
298.062	80.44
298.292	107.44
298.523	88.44
298.753	80.44
298.984	86.44
299.214	95.44
299.445	96.44
299.675	76.44
299.905	95.44
300.136	96.44
300.366	82.44
300.597	88.44
300.827	94.44
301.057	101.44
301.288	105.44
301.518	93.44
301.748	94.44
301.979	92.44
302.209	98.44
302.439	90.44
302.669	93.44
302.9	90.44
303.13	93.44
303.36	100.44
303.59	89.44
303.82	96.44
304.051	97.44
304.281	102.44
304.511	103.44
304.741	99.44
304.971	98.44
305.201	92.44
305.431	98.44
305.661	113.44
305.891	95.44
306.121	96.44
306.352	116.44
306.582	99.44
306.812	91.44
307.042	88.44
307.272	73.44
307.502	97.44
307.731	92.44
307.961	102.44
308.191	82.44
308.421	98.44
308.651	108.44
308.881	81.44
309.111	95.44
309.341	92.44
309.571	88.44
309.8	83.44
310.03	90.44
310.26	90.44
310.49	107.44
310.72	104.44
310.949	87.44
311.179	99.44
311.409	106.44
311.639	94.44
311.868	92.44
312.098	103.44
312.328	92.44
312.557	103.44
312.787	95.44
313.017	103.44
313.246	95.44
313.476	88.44
313.706	89.44
313.935	101.44
314.165	105.44
314.394	103.44
314.624	98.44
314.853	86.44
315.083	111.44
315.312	92.44
315.542	100.44
315.771	74.44
316.001	85.44
316.23	89.44
316.46	73.44
316.689	90.44
316.919	100.44
317.148	84.44
317.377	88.44
317.607	82.44
317.836	93.44
318.065	96.44
318.295	105.44
318.524	79.44
318.753	85.44
318.983	92.44
319.212	83.44
319.441	103.44
319.67	105.44
319.9	100.44
320.129	100.44
320.358	91.44
320.587	85.44
320.816	93.44
321.046	100.44
321.275	113.44
321.504	87.44
321.733	92.44
321.962	111.44
322.191	97.44
322.42	98.44
322.649	100.44
322.878	113.44
323.108	118.44
323.337	116.44
323.566	128.44
323.795	133.44
324.024	194.44
324.253	332.44
324.482	654.44
324.71	1328.44
324.939	1711.44
325.168	639.44
325.397	206.44
325.626	141.44
325.855	126.44
326.084	110.44
326.313	124.44
326.542	145.44
326.77	204.44
326.999	372.44
327.228	743.44
327.457	1328.44
327.686	1069.44
327.914	300.44
328.143	163.44
328.372	137.44
328.6	111.44
328.829	111.44
329.058	107.44
329.287	121.44
329.515	107.44
329.744	99.44
329.972	90.44
330.201	105.44
330.43	101.44
330.658	117.44
330.887	148.44
331.115	112.44
331.344	107.44
331.572	92.44
331.801	101.44
332.03	103.44
332.258	88.44
332.486	91.44
332.715	96.44
332.943	97.44
333.172	86.44
333.4	88.44
333.629	105.44
333.857	111.44
334.085	96.44
334.314	100.44
334.542	100.44
334.771	107.44
334.999	91.44
335.227	104.44
335.455	83.44
335.684	94.44
335.912	99.44
336.14	95.44
336.369	85.44
336.597	105.44
336.825	85.44
337.053	98.44
337.281	87.44
337.51	98.44
337.738	93.44
337.966	99.44
338.194	93.44
338.422	95.44
338.65	95.44
338.878	101.44
339.106	79.44
339.334	85.44
339.562	95.44
339.79	87.44
340.018	86.44
340.246	95.44
340.474	93.44
340.702	92.44
340.93	94.44
341.158	92.44
341.386	87.44
341.614	83.44
341.842	92.44
342.07	98.44
342.298	92.44
342.526	92.44
342.754	84.44
342.981	95.44
343.209	83.44
343.437	112.44
343.665	91.44
343.893	79.44
344.12	98.44
344.348	81.44
344.576	102.44
344.804	85.44
345.031	84.44
345.259	90.44
345.487	77.44
345.714	94.44
345.942	99.44
346.17	89.44
346.397	92.44
346.625	88.44
346.853	103.44
347.08	92.44
347.308	100.44
347.535	88.44
347.763	90.44
347.99	104.44
348.218	97.44
348.445	87.44
348.673	97.44
348.9	88.44
349.128	93.44
349.355	106.44
349.583	100.44
349.81	92.44
350.037	102.44
350.265	97.44
350.492	94.44
350.72	104.44
350.947	98.44
351.174	112.44
351.402	101.44
351.629	106.44
351.856	97.44
352.083	100.44
352.311	102.44
352.538	109.44
352.765	118.44
352.992	112.44
353.22	106.44
353.447	104.44
353.674	116.44
353.901	99.44
354.128	106.44
354.355	96.44
354.583	103.44
354.81	99.44
355.037	104.44
355.264	100.44
355.491	82.44
355.718	94.44
355.945	87.44
356.172	93.44
356.399	90.44
356.626	87.44
356.853	85.44
357.08	100.44
357.307	89.44
357.534	81.44
357.761	81.44
357.988	104.44
358.215	90.44
358.441	90.44
358.668	78.44
358.895	77.44
359.122	77.44
359.349	73.44
359.576	85.44
359.802	107.44
360.029	107.44
360.256	95.44
360.483	84.44
360.709	89.44
360.936	101.44
361.163	88.44
361.39	93.44
361.616	92.44
361.843	93.44
362.07	103.44
362.296	93.44
362.523	85.44
362.749	93.44
362.976	92.44
363.203	81.44
363.429	90.44
363.656	86.44
363.882	87.44
364.109	91.44
364.335	89.44
364.562	80.44
364.788	81.44
365.015	92.44
365.241	87.44
365.468	103.44
365.694	103.44
365.92	93.44
366.147	104.44
366.373	82.44
366.599	99.44
366.826	94.44
367.052	87.44
367.278	89.44
367.505	94.44
367.731	92.44
367.957	105.44
368.184	99.44
368.41	96.44
368.636	86.44
368.862	109.44
369.089	117.44
369.315	99.44
369.541	89.44
369.767	97.44
369.993	84.44
370.219	86.44
370.445	81.44
370.672	90.44
370.898	102.44
371.124	95.44
371.35	103.44
371.576	88.44
371.802	90.44
372.028	101.44
372.254	85.44
372.48	80.44
372.706	90.44
372.932	87.44
373.158	89.44
373.384	76.44
373.61	101.44
373.835	77.44
374.061	87.44
374.287	91.44
374.513	81.44
374.739	81.44
374.965	90.44
375.191	81.44
375.416	93.44
375.642	88.44
375.868	85.44
376.094	94.44
376.319	93.44
376.545	83.44
376.771	89.44
376.997	83.44
377.222	92.44
377.448	94.44
377.674	83.44
377.899	93.44
378.125	91.44
378.35	90.44
378.576	91.44
378.802	93.44
379.027	91.44
379.253	93.44
379.478	99.44
379.704	92.44
379.929	81.44
380.155	92.44
380.38	90.44
380.606	109.44
380.831	86.44
381.057	94.44
381.282	84.44
381.507	106.44
381.733	85.44
381.958	87.44
382.184	95.44
382.409	95.44
382.634	76.44
382.86	87.44
383.085	98.44
383.31	108.44
383.535	103.44
383.761	111.44
383.986	99.44
384.211	89.44
384.436	85.44
384.662	96.44
384.887	106.44
385.112	97.44
385.337	107.44
385.562	96.44
385.787	90.44
386.013	97.44
386.238	124.44
386.463	92.44
386.688	104.44
386.913	92.44
387.138	103.44
387.363	115.44
387.588	97.44
387.813	99.44
388.038	108.44
388.263	104.44
388.488	105.44
388.713	107.44
388.938	93.44
389.163	106.44
389.387	91.44
389.612	80.44
389.837	89.44
390.062	90.44
390.287	90.44
390.512	92.44
390.736	101.44
390.961	96.44
391.186	97.44
391.411	97.44
391.636	91.44
391.86	92.44
392.085	84.44
392.31	90.44
392.534	77.44
392.759	90.44
392.984	90.44
393.208	107.44
393.433	115.44
393.658	99.44
393.882	103.44
394.107	87.44
394.331	78.44
394.556	94.44
394.78	100.44
395.005	95.44
395.229	84.44
395.454	100.44
395.678	88.44
395.903	90.44
396.127	93.44
396.352	83.44
396.576	86.44
396.801	98.44
397.025	91.44
397.249	94.44
397.474	83.44
397.698	94.44
397.922	76.44
398.147	75.44
398.371	83.44
398.595	78.44
398.82	73.44
399.044	88.44
399.268	87.44
399.492	73.44
399.717	88.44
399.941	91.44
400.165	114.44
400.389	85.44
400.613	80.44
400.837	79.44
401.062	87.44
401.286	75.44
401.51	88.44
401.734	89.44
401.958	88.44
402.182	126.44
402.406	133.44
402.63	110.44
402.854	112.44
403.078	90.44
403.302	95.44
403.526	83.44
403.75	85.44
403.974	79.44
404.198	83.44
404.422	98.44
404.645	74.44
404.869	98.44
405.093	97.44
405.317	93.44
405.541	92.44
405.765	97.44
405.988	105.44
406.212	178.44
406.436	204.44
406.66	146.44
406.883	108.44
407.107	91.44
407.331	96.44
407.555	98.44
407.778	100.44
408.002	90.44
408.226	92.44
408.449	101.44
408.673	77.44
408.896	93.44
409.12	99.44
409.344	84.44
409.567	93.44
409.791	90.44
410.014	92.44
410.238	106.44
410.461	91.44
410.685	88.44
410.908	112.44
411.132	103.44
411.355	92.44
411.578	89.44
411.802	85.44
412.025	82.44
412.249	81.44
412.472	85.44
412.695	87.44
412.919	97.44
413.142	83.44
413.365	101.44
413.589	85.44
413.812	99.44
414.035	93.44
414.258	92.44
414.482	100.44
414.705	88.44
414.928	96.44
415.151	101.44
415.374	97.44
415.597	71.44
415.821	99.44
416.044	96.44
416.267	88.44
416.49	87.44
416.713	98.44
416.936	97.44
417.159	96.44
417.382	80.44
417.605	85.44
417.828	103.44
418.051	102.44
418.274	90.44
418.497	88.44
418.72	97.44
418.943	87.44
419.166	90.44
419.389	91.44
419.611	85.44
419.834	97.44
420.057	93.44
420.28	90.44
420.503	90.44
420.726	87.44
420.948	100.44
421.171	93.44
421.394	99.44
421.617	90.44
421.839	89.44
422.062	84.44
422.285	83.44
422.507	89.44
422.73	108.44
422.953	105.44
423.175	90.44
423.398	87.44
423.621	90.44
423.843	82.44
424.066	82.44
424.288	90.44
424.511	108.44
424.733	93.44
424.956	90.44
425.178	99.44
425.401	87.44
425.623	108.44
425.846	99.44
426.068	94.44
426.291	95.44
426.513	93.44
426.735	95.44
426.958	95.44
427.18	100.44
427.402	124.44
427.625	157.44
427.847	135.44
428.069	105.44
428.292	88.44
428.514	96.44
428.736	102.44
428.958	82.44
429.181	73.44
429.403	80.44
429.625	88.44
429.847	107.44
430.069	103.44
430.292	84.44
430.514	95.44
430.736	89.44
430.958	83.44
431.18	95.44
431.402	89.44
431.624	106.44
431.846	76.44
432.068	78.44
432.29	87.44
432.512	90.44
432.734	76.44
432.956	78.44
433.178	108.44
433.4	77.44
433.622	84.44
433.844	91.44
434.066	100.44
434.287	92.44
434.509	92.44
434.731	106.44
434.953	88.44
435.175	95.44
435.397	88.44
435.618	84.44
435.84	96.44
436.062	126.44
436.284	110.44
436.505	109.44
436.727	95.44
436.949	79.44
437.17	85.44
437.392	86.44
437.614	96.44
437.835	107.44
438.057	114.44
438.278	101.44
438.5	101.44
438.721	113.44
438.943	94.44
439.165	90.44
439.386	93.44
439.608	96.44
439.829	90.44
440.05	103.44
440.272	128.44
440.493	101.44
440.715	65.44
440.936	95.44
441.158	87.44
441.379	98.44
441.6	94.44
441.822	99.44
442.043	106.44
442.264	109.44
442.486	99.44
442.707	83.44
442.928	92.44
443.149	104.44
443.371	107.44
443.592	101.44
443.813	116.44
444.034	99.44
444.255	89.44
444.476	95.44
444.698	77.44
444.919	91.44
445.14	129.44
445.361	120.44
445.582	102.44
445.803	117.44
446.024	118.44
446.245	128.44
446.466	110.44
446.687	94.44
446.908	96.44
447.129	80.44
447.35	98.44
447.571	80.44
447.792	89.44
448.013	83.44
448.234	112.44
448.455	108.44
448.675	103.44
448.896	113.44
449.117	99.44
449.338	102.44
449.559	118.44
449.779	118.44
450	100.44
450.221	95.44
450.442	97.44
450.662	71.44
450.883	92.44
451.104	121.44
451.324	80.44
451.545	82.44
451.766	87.44
451.986	87.44
452.207	76.44
452.428	87.44
452.648	96.44
452.869	96.44
453.089	115.44
453.31	115.44
453.53	93.44
453.751	92.44
453.971	92.44
454.192	103.44
454.412	80.44
454.633	76.44
454.853	92.44
455.073	81.44
455.294	82.44
455.514	97.44
455.734	79.44
455.955	87.44
456.175	86.44
456.395	79.44
456.616	89.44
456.836	90.44
457.056	92.44
457.276	80.44
457.497	97.44
457.717	100.44
457.937	96.44
458.157	85.44
458.377	107.44
458.598	93.44
458.818	128.44
459.038	142.44
459.258	132.44
459.478	92.44
459.698	87.44
459.918	93.44
460.138	98.44
460.358	81.44
460.578	88.44
460.798	78.44
461.018	97.44
461.238	95.44
461.458	96.44
461.678	97.44
461.898	81.44
462.118	89.44
462.338	82.44
462.558	99.44
462.777	80.44
462.997	85.44
463.217	90.44
463.437	89.44
463.657	87.44
463.876	99.44
464.096	97.44
464.316	77.44
464.536	82.44
464.755	98.44
464.975	94.44
465.195	152.44
465.414	143.44
465.634	77.44
465.854	78.44
466.073	86.44
466.293	85.44
466.512	85.44
466.732	89.44
466.951	96.44
467.171	93.44
467.391	96.44
467.61	94.44
467.829	97.44
468.049	79.44
468.268	89.44
468.488	97.44
468.707	97.44
468.927	91.44
469.146	88.44
469.365	91.44
469.585	85.44
469.804	83.44
470.023	93.44
470.243	96.44
470.462	97.44
470.681	108.44
470.901	101.44
471.12	79.44
471.339	96.44
471.558	68.44
471.777	72.44
471.997	68.44
472.216	91.44
472.435	99.44
472.654	96.44
472.873	73.44
473.092	97.44
473.311	72.44
473.53	87.44
473.749	92.44
473.968	83.44
474.187	99.44
474.406	96.44
474.625	84.44
474.844	90.44
475.063	90.44
475.282	102.44
475.501	77.44
475.72	92.44
475.939	94.44
476.158	104.44
476.377	93.44
476.596	94.44
476.814	98.44
477.033	104.44
477.252	92.44
477.471	82.44
477.69	91.44
477.908	90.44
478.127	100.44
478.346	92.44
478.564	94.44
478.783	83.44
479.002	68.44
479.22	87.44
479.439	97.44
479.658	90.44
479.876	100.44
480.095	97.44
480.313	92.44
480.532	106.44
480.751	87.44
480.969	99.44
481.188	105.44
481.406	107.44
481.624	95.44
481.843	87.44
482.061	85.44
482.28	88.44
482.498	92.44
482.717	69.44
482.935	94.44
483.153	84.44
483.372	90.44
483.59	101.44
483.808	81.44
484.027	80.44
484.245	94.44
484.463	90.44
484.681	104.44
484.9	93.44
485.118	104.44
485.336	103.44
485.554	98.44
485.772	92.44
485.99	105.44
486.209	113.44
486.427	100.44
486.645	112.44
486.863	111.44
487.081	99.44
487.299	99.44
487.517	88.44
487.735	98.44
487.953	93.44
488.171	95.44
488.389	97.44
488.607	92.44
488.825	97.44
489.043	87.44
489.261	91.44
489.479	106.44
489.696	85.44
489.914	64.44
490.132	97.44
490.35	84.44
490.568	91.44
490.786	81.44
491.003	88.44
491.221	97.44
491.439	81.44
491.657	99.44
491.874	81.44
492.092	82.44
492.31	88.44
492.527	101.44
492.745	93.44
492.963	108.44
493.18	91.44
493.398	91.44
493.615	102.44
493.833	100.44
494.05	99.44
494.268	79.44
494.485	95.44
494.703	81.44
494.92	93.44
495.138	87.44
495.355	84.44
495.573	82.44
495.79	111.44
496.008	104.44
496.225	84.44
496.442	99.44
496.66	102.44
496.877	99.44
497.094	90.44
497.312	95.44
497.529	75.44
497.746	93.44
497.963	96.44
498.181	80.44
498.398	97.44
498.615	108.44
498.832	112.44
499.049	94.44
499.267	85.44
499.484	85.44
499.701	90.44
499.918	86.44
500.135	92.44
500.352	87.44
500.569	84.44
500.786	100.44
501.003	97.44
501.22	91.44
501.437	92.44
501.654	98.44
501.871	106.44
502.088	91.44
502.305	90.44
502.522	86.44
502.739	86.44
502.956	91.44
503.172	96.44
503.389	85.44
503.606	96.44
503.823	100.44
504.04	71.44
504.256	78.44
504.473	93.44
504.69	112.44
504.907	92.44
505.123	83.44
505.34	110.44
505.557	84.44
505.773	104.44
505.99	103.44
506.207	88.44
506.423	95.44
506.64	95.44
506.856	92.44
507.073	87.44
507.289	106.44
507.506	87.44
507.722	82.44
507.939	100.44
508.155	92.44
508.372	93.44
508.588	92.44
508.805	105.44
509.021	97.44
509.238	100.44
509.454	103.44
509.67	99.44
509.887	105.44
510.103	119.44
510.319	195.44
510.536	675.44
510.752	2085.44
510.968	587.44
511.184	147.44
511.401	115.44
511.617	104.44
511.833	106.44
512.049	95.44
512.265	92.44
512.481	93.44
512.698	88.44
512.914	86.44
513.13	96.44
513.346	99.44
513.562	91.44
513.778	100.44
513.994	92.44
514.21	92.44
514.426	110.44
514.642	122.44
514.858	113.44
515.074	161.44
515.29	382.44
515.506	1240.44
515.721	476.44
515.937	158.44
