Data from Uncirc_2002_H10_HRD10591_00079.txt Node
Date: Wed Jan 03 10:39:57 EST 2024
User: Yrep
Spectrometer: HR+D1059
Trigger mode: 1
Integration Time (sec): 1.000000E-1
Scans to average: 1
Electric dark correction enabled: true
Nonlinearity correction enabled: false
Boxcar width: 0
XAxis mode: Wavelengths
Number of Pixels in Spectrum: 2048
>>>>>Begin Spectral Data<<<<<
223.165	-16.62
223.4	-16.62
223.635	-16.62
223.869	-26.62
224.104	-19.62
224.338	-5.62
224.573	-12.62
224.808	-15.62
225.042	-2.62
225.277	1.38
225.511	-0.62
225.746	6.38
225.98	6.38
226.215	-4.62
226.449	10.38
226.683	18.38
226.918	28.38
227.152	33.38
227.387	16.38
227.621	49.38
227.856	47.38
228.09	34.38
228.324	45.38
228.559	54.38
228.793	58.38
229.027	67.38
229.262	65.38
229.496	79.38
229.73	83.38
229.964	69.38
230.199	73.38
230.433	77.38
230.667	69.38
230.901	72.38
231.136	72.38
231.37	78.38
231.604	74.38
231.838	72.38
232.072	68.38
232.306	86.38
232.541	84.38
232.775	86.38
233.009	73.38
233.243	74.38
233.477	86.38
233.711	91.38
233.945	79.38
234.179	61.38
234.413	78.38
234.647	78.38
234.881	67.38
235.115	78.38
235.349	73.38
235.583	70.38
235.817	66.38
236.051	81.38
236.285	67.38
236.519	70.38
236.753	70.38
236.987	73.38
237.221	76.38
237.455	71.38
237.689	77.38
237.922	85.38
238.156	71.38
238.39	73.38
238.624	64.38
238.858	67.38
239.091	75.38
239.325	74.38
239.559	80.38
239.793	66.38
240.027	76.38
240.26	71.38
240.494	71.38
240.728	82.38
240.961	63.38
241.195	77.38
241.429	83.38
241.662	75.38
241.896	78.38
242.13	78.38
242.363	63.38
242.597	66.38
242.83	73.38
243.064	81.38
243.298	82.38
243.531	83.38
243.765	88.38
243.998	75.38
244.232	69.38
244.465	86.38
244.699	85.38
244.932	82.38
245.166	71.38
245.399	77.38
245.633	69.38
245.866	82.38
246.099	73.38
246.333	76.38
246.566	65.38
246.8	77.38
247.033	71.38
247.266	49.38
247.5	64.38
247.733	82.38
247.966	74.38
248.2	66.38
248.433	87.38
248.666	77.38
248.899	70.38
249.133	85.38
249.366	81.38
249.599	91.38
249.832	81.38
250.066	75.38
250.299	70.38
250.532	58.38
250.765	79.38
250.998	83.38
251.231	71.38
251.465	79.38
251.698	76.38
251.931	84.38
252.164	91.38
252.397	87.38
252.63	77.38
252.863	84.38
253.096	65.38
253.329	83.38
253.562	65.38
253.795	69.38
254.028	73.38
254.261	73.38
254.494	62.38
254.727	84.38
254.96	85.38
255.193	75.38
255.426	78.38
255.659	72.38
255.892	72.38
256.124	84.38
256.357	82.38
256.59	80.38
256.823	78.38
257.056	74.38
257.289	82.38
257.521	78.38
257.754	81.38
257.987	74.38
258.22	84.38
258.452	69.38
258.685	77.38
258.918	67.38
259.151	74.38
259.383	74.38
259.616	74.38
259.849	89.38
260.081	73.38
260.314	73.38
260.547	85.38
260.779	74.38
261.012	73.38
261.244	79.38
261.477	76.38
261.71	82.38
261.942	99.38
262.175	113.38
262.407	93.38
262.64	85.38
262.872	83.38
263.105	86.38
263.337	78.38
263.57	67.38
263.802	86.38
264.035	79.38
264.267	90.38
264.499	75.38
264.732	76.38
264.964	74.38
265.197	75.38
265.429	72.38
265.661	85.38
265.894	82.38
266.126	75.38
266.358	78.38
266.591	77.38
266.823	71.38
267.055	80.38
267.287	89.38
267.52	71.38
267.752	84.38
267.984	87.38
268.216	81.38
268.448	83.38
268.681	94.38
268.913	63.38
269.145	88.38
269.377	75.38
269.609	69.38
269.841	88.38
270.073	83.38
270.306	85.38
270.538	75.38
270.77	66.38
271.002	88.38
271.234	81.38
271.466	67.38
271.698	83.38
271.93	59.38
272.162	80.38
272.394	81.38
272.626	82.38
272.858	87.38
273.09	79.38
273.322	78.38
273.553	83.38
273.785	82.38
274.017	84.38
274.249	88.38
274.481	77.38
274.713	71.38
274.945	77.38
275.176	85.38
275.408	60.38
275.64	69.38
275.872	85.38
276.104	84.38
276.335	80.38
276.567	97.38
276.799	95.38
277.031	88.38
277.262	73.38
277.494	80.38
277.726	88.38
277.957	87.38
278.189	81.38
278.421	83.38
278.652	60.38
278.884	84.38
279.115	72.38
279.347	66.38
279.579	68.38
279.81	86.38
280.042	80.38
280.273	72.38
280.505	85.38
280.736	89.38
280.968	70.38
281.199	85.38
281.431	92.38
281.662	62.38
281.894	84.38
282.125	98.38
282.356	110.38
282.588	124.38
282.819	106.38
283.051	85.38
283.282	66.38
283.513	81.38
283.745	92.38
283.976	80.38
284.207	75.38
284.439	76.38
284.67	84.38
284.901	79.38
285.132	94.38
285.364	76.38
285.595	81.38
285.826	93.38
286.057	86.38
286.288	80.38
286.52	86.38
286.751	76.38
286.982	75.38
287.213	82.38
287.444	82.38
287.675	75.38
287.906	81.38
288.138	78.38
288.369	78.38
288.6	93.38
288.831	70.38
289.062	78.38
289.293	87.38
289.524	83.38
289.755	79.38
289.986	81.38
290.217	88.38
290.448	74.38
290.679	76.38
290.91	84.38
291.141	87.38
291.371	81.38
291.602	81.38
291.833	83.38
292.064	91.38
292.295	88.38
292.526	82.38
292.757	84.38
292.987	79.38
293.218	84.38
293.449	92.38
293.68	94.38
293.91	86.38
294.141	85.38
294.372	88.38
294.603	82.38
294.833	71.38
295.064	86.38
295.295	95.38
295.525	85.38
295.756	84.38
295.987	115.38
296.217	128.38
296.448	116.38
296.679	95.38
296.909	77.38
297.14	73.38
297.37	81.38
297.601	79.38
297.831	76.38
298.062	90.38
298.292	70.38
298.523	87.38
298.753	97.38
298.984	92.38
299.214	87.38
299.445	81.38
299.675	88.38
299.905	95.38
300.136	79.38
300.366	81.38
300.597	94.38
300.827	86.38
301.057	92.38
301.288	92.38
301.518	87.38
301.748	72.38
301.979	86.38
302.209	87.38
302.439	81.38
302.669	74.38
302.9	83.38
303.13	66.38
303.36	80.38
303.59	102.38
303.82	99.38
304.051	80.38
304.281	88.38
304.511	79.38
304.741	84.38
304.971	80.38
305.201	99.38
305.431	94.38
305.661	78.38
305.891	98.38
306.121	86.38
306.352	83.38
306.582	94.38
306.812	73.38
307.042	69.38
307.272	103.38
307.502	95.38
307.731	77.38
307.961	85.38
308.191	75.38
308.421	78.38
308.651	96.38
308.881	85.38
309.111	85.38
309.341	88.38
309.571	75.38
309.8	84.38
310.03	88.38
310.26	81.38
310.49	92.38
310.72	93.38
310.949	96.38
311.179	88.38
311.409	86.38
311.639	92.38
311.868	78.38
312.098	93.38
312.328	102.38
312.557	102.38
312.787	101.38
313.017	100.38
313.246	77.38
313.476	81.38
313.706	79.38
313.935	91.38
314.165	88.38
314.394	102.38
314.624	94.38
314.853	93.38
315.083	90.38
315.312	82.38
315.542	80.38
315.771	86.38
316.001	70.38
316.23	95.38
316.46	92.38
316.689	69.38
316.919	72.38
317.148	83.38
317.377	98.38
317.607	85.38
317.836	78.38
318.065	83.38
318.295	94.38
318.524	74.38
318.753	88.38
318.983	87.38
319.212	104.38
319.441	92.38
319.67	97.38
319.9	91.38
320.129	84.38
320.358	92.38
320.587	96.38
320.816	93.38
321.046	71.38
321.275	92.38
321.504	95.38
321.733	92.38
321.962	95.38
322.191	82.38
322.42	97.38
322.649	101.38
322.878	95.38
323.108	109.38
323.337	104.38
323.566	112.38
323.795	139.38
324.024	174.38
324.253	318.38
324.482	686.38
324.71	1365.38
324.939	1776.38
325.168	674.38
325.397	211.38
325.626	136.38
325.855	117.38
326.084	107.38
326.313	129.38
326.542	130.38
326.77	191.38
326.999	393.38
327.228	773.38
327.457	1392.38
327.686	1092.38
327.914	328.38
328.143	155.38
328.372	110.38
328.6	110.38
328.829	102.38
329.058	123.38
329.287	100.38
329.515	111.38
329.744	106.38
329.972	92.38
330.201	94.38
330.43	111.38
330.658	113.38
330.887	99.38
331.115	106.38
331.344	80.38
331.572	78.38
331.801	94.38
332.03	97.38
332.258	81.38
332.486	70.38
332.715	95.38
332.943	85.38
333.172	91.38
333.4	90.38
333.629	87.38
333.857	106.38
334.085	102.38
334.314	114.38
334.542	82.38
334.771	98.38
334.999	98.38
335.227	89.38
335.455	93.38
335.684	93.38
335.912	93.38
336.14	94.38
336.369	94.38
336.597	99.38
336.825	98.38
337.053	88.38
337.281	81.38
337.51	90.38
337.738	75.38
337.966	98.38
338.194	94.38
338.422	97.38
338.65	93.38
338.878	89.38
339.106	81.38
339.334	80.38
339.562	80.38
339.79	90.38
340.018	81.38
340.246	103.38
340.474	88.38
340.702	72.38
340.93	72.38
341.158	92.38
341.386	81.38
341.614	99.38
341.842	104.38
342.07	91.38
342.298	87.38
342.526	63.38
342.754	77.38
342.981	83.38
343.209	79.38
343.437	96.38
343.665	90.38
343.893	99.38
344.12	88.38
344.348	96.38
344.576	81.38
344.804	78.38
345.031	84.38
345.259	94.38
345.487	88.38
345.714	88.38
345.942	80.38
346.17	94.38
346.397	99.38
346.625	90.38
346.853	80.38
347.08	91.38
347.308	91.38
347.535	81.38
347.763	82.38
347.99	98.38
348.218	95.38
348.445	104.38
348.673	92.38
348.9	99.38
349.128	83.38
349.355	88.38
349.583	83.38
349.81	95.38
350.037	97.38
350.265	98.38
350.492	86.38
350.72	92.38
350.947	90.38
351.174	104.38
351.402	97.38
351.629	99.38
351.856	92.38
352.083	98.38
352.311	94.38
352.538	110.38
352.765	102.38
352.992	100.38
353.22	106.38
353.447	106.38
353.674	96.38
353.901	97.38
354.128	92.38
354.355	99.38
354.583	99.38
354.81	101.38
355.037	88.38
355.264	90.38
355.491	92.38
355.718	93.38
355.945	94.38
356.172	94.38
356.399	96.38
356.626	95.38
356.853	86.38
357.08	90.38
357.307	82.38
357.534	98.38
357.761	84.38
357.988	86.38
358.215	84.38
358.441	102.38
358.668	69.38
358.895	80.38
359.122	71.38
359.349	86.38
359.576	84.38
359.802	89.38
360.029	88.38
360.256	94.38
360.483	79.38
360.709	85.38
360.936	84.38
361.163	103.38
361.39	96.38
361.616	89.38
361.843	87.38
362.07	99.38
362.296	94.38
362.523	93.38
362.749	82.38
362.976	82.38
363.203	94.38
363.429	98.38
363.656	97.38
363.882	83.38
364.109	82.38
364.335	100.38
364.562	85.38
364.788	84.38
365.015	96.38
365.241	96.38
365.468	95.38
365.694	96.38
365.92	93.38
366.147	91.38
366.373	97.38
366.599	87.38
366.826	89.38
367.052	86.38
367.278	93.38
367.505	81.38
367.731	103.38
367.957	79.38
368.184	86.38
368.41	91.38
368.636	91.38
368.862	107.38
369.089	100.38
369.315	93.38
369.541	82.38
369.767	98.38
369.993	92.38
370.219	81.38
370.445	66.38
370.672	72.38
370.898	80.38
371.124	81.38
371.35	92.38
371.576	76.38
371.802	80.38
372.028	87.38
372.254	84.38
372.48	75.38
372.706	78.38
372.932	76.38
373.158	96.38
373.384	85.38
373.61	94.38
373.835	86.38
374.061	79.38
374.287	84.38
374.513	104.38
374.739	77.38
374.965	85.38
375.191	75.38
375.416	79.38
375.642	75.38
375.868	90.38
376.094	92.38
376.319	75.38
376.545	94.38
376.771	84.38
376.997	79.38
377.222	96.38
377.448	82.38
377.674	95.38
377.899	88.38
378.125	87.38
378.35	82.38
378.576	95.38
378.802	84.38
379.027	78.38
379.253	88.38
379.478	96.38
379.704	100.38
379.929	103.38
380.155	87.38
380.38	88.38
380.606	78.38
380.831	85.38
381.057	94.38
381.282	93.38
381.507	93.38
381.733	85.38
381.958	73.38
382.184	87.38
382.409	101.38
382.634	105.38
382.86	83.38
383.085	101.38
383.31	101.38
383.535	89.38
383.761	89.38
383.986	97.38
384.211	81.38
384.436	87.38
384.662	86.38
384.887	91.38
385.112	84.38
385.337	95.38
385.562	97.38
385.787	96.38
386.013	99.38
386.238	98.38
386.463	109.38
386.688	106.38
386.913	100.38
387.138	72.38
387.363	108.38
387.588	90.38
387.813	86.38
388.038	102.38
388.263	86.38
388.488	101.38
388.713	84.38
388.938	84.38
389.163	91.38
389.387	102.38
389.612	82.38
389.837	88.38
390.062	88.38
390.287	91.38
390.512	79.38
390.736	88.38
390.961	89.38
391.186	91.38
391.411	86.38
391.636	93.38
391.86	84.38
392.085	76.38
392.31	87.38
392.534	88.38
392.759	74.38
392.984	73.38
393.208	76.38
393.433	94.38
393.658	79.38
393.882	78.38
394.107	81.38
394.331	79.38
394.556	76.38
394.78	89.38
395.005	94.38
395.229	80.38
395.454	88.38
395.678	89.38
395.903	64.38
396.127	82.38
396.352	78.38
396.576	81.38
396.801	87.38
397.025	74.38
397.249	78.38
397.474	92.38
397.698	94.38
397.922	89.38
398.147	72.38
398.371	92.38
398.595	72.38
398.82	86.38
399.044	72.38
399.268	88.38
399.492	98.38
399.717	81.38
399.941	83.38
400.165	85.38
400.389	90.38
400.613	75.38
400.837	81.38
401.062	70.38
401.286	72.38
401.51	86.38
401.734	78.38
401.958	100.38
402.182	118.38
402.406	138.38
402.63	108.38
402.854	88.38
403.078	78.38
403.302	80.38
403.526	90.38
403.75	94.38
403.974	83.38
404.198	77.38
404.422	94.38
404.645	87.38
404.869	66.38
405.093	82.38
405.317	77.38
405.541	81.38
405.765	87.38
405.988	109.38
406.212	160.38
406.436	212.38
406.66	114.38
406.883	104.38
407.107	90.38
407.331	86.38
407.555	88.38
407.778	86.38
408.002	83.38
408.226	92.38
408.449	63.38
408.673	84.38
408.896	83.38
409.12	91.38
409.344	75.38
409.567	76.38
409.791	86.38
410.014	96.38
410.238	93.38
410.461	80.38
410.685	92.38
410.908	72.38
411.132	93.38
411.355	92.38
411.578	87.38
411.802	78.38
412.025	80.38
412.249	86.38
412.472	82.38
412.695	71.38
412.919	88.38
413.142	73.38
413.365	86.38
413.589	90.38
413.812	86.38
414.035	109.38
414.258	86.38
414.482	76.38
414.705	87.38
414.928	88.38
415.151	88.38
415.374	95.38
415.597	86.38
415.821	81.38
416.044	78.38
416.267	78.38
416.49	87.38
416.713	85.38
416.936	90.38
417.159	83.38
417.382	84.38
417.605	84.38
417.828	82.38
418.051	78.38
418.274	87.38
418.497	82.38
418.72	94.38
418.943	82.38
419.166	75.38
419.389	82.38
419.611	82.38
419.834	78.38
420.057	99.38
420.28	85.38
420.503	66.38
420.726	95.38
420.948	77.38
421.171	86.38
421.394	87.38
421.617	83.38
421.839	90.38
422.062	90.38
422.285	87.38
422.507	76.38
422.73	100.38
422.953	84.38
423.175	82.38
423.398	91.38
423.621	92.38
423.843	93.38
424.066	92.38
424.288	92.38
424.511	81.38
424.733	82.38
424.956	97.38
425.178	98.38
425.401	92.38
425.623	98.38
425.846	88.38
426.068	93.38
426.291	77.38
426.513	86.38
426.735	99.38
426.958	82.38
427.18	88.38
427.402	124.38
427.625	156.38
427.847	107.38
428.069	97.38
428.292	85.38
428.514	76.38
428.736	79.38
428.958	67.38
429.181	83.38
429.403	78.38
429.625	93.38
429.847	92.38
430.069	70.38
430.292	92.38
430.514	79.38
430.736	82.38
430.958	88.38
431.18	88.38
431.402	85.38
431.624	72.38
431.846	78.38
432.068	66.38
432.29	89.38
432.512	77.38
432.734	68.38
432.956	83.38
433.178	85.38
433.4	85.38
433.622	81.38
433.844	88.38
434.066	84.38
434.287	85.38
434.509	92.38
434.731	80.38
434.953	88.38
435.175	87.38
435.397	89.38
435.618	84.38
435.84	89.38
436.062	99.38
436.284	108.38
436.505	96.38
436.727	87.38
436.949	88.38
437.17	75.38
437.392	78.38
437.614	92.38
437.835	108.38
438.057	95.38
438.278	85.38
438.5	84.38
438.721	102.38
438.943	94.38
439.165	81.38
439.386	85.38
439.608	92.38
439.829	99.38
440.05	99.38
440.272	111.38
440.493	104.38
440.715	79.38
440.936	79.38
441.158	90.38
441.379	82.38
441.6	91.38
441.822	102.38
442.043	100.38
442.264	93.38
442.486	95.38
442.707	102.38
442.928	85.38
443.149	109.38
443.371	113.38
443.592	85.38
443.813	86.38
444.034	93.38
444.255	90.38
444.476	77.38
444.698	84.38
444.919	76.38
445.14	136.38
445.361	124.38
445.582	102.38
445.803	118.38
446.024	119.38
446.245	108.38
446.466	115.38
446.687	92.38
446.908	85.38
447.129	78.38
447.35	98.38
447.571	92.38
447.792	88.38
448.013	98.38
448.234	93.38
448.455	98.38
448.675	117.38
448.896	114.38
449.117	88.38
449.338	85.38
449.559	103.38
449.779	115.38
450	92.38
450.221	92.38
450.442	84.38
450.662	94.38
450.883	87.38
451.104	92.38
451.324	85.38
451.545	78.38
451.766	88.38
451.986	90.38
452.207	69.38
452.428	78.38
452.648	92.38
452.869	119.38
453.089	100.38
453.31	101.38
453.53	76.38
453.751	93.38
453.971	108.38
454.192	104.38
454.412	95.38
454.633	81.38
454.853	76.38
455.073	77.38
455.294	82.38
455.514	100.38
455.734	82.38
455.955	98.38
456.175	98.38
456.395	88.38
456.616	84.38
456.836	74.38
457.056	68.38
457.276	91.38
457.497	75.38
457.717	75.38
457.937	81.38
458.157	79.38
458.377	74.38
458.598	97.38
458.818	140.38
459.038	122.38
459.258	109.38
459.478	83.38
459.698	72.38
459.918	82.38
460.138	79.38
460.358	79.38
460.578	80.38
460.798	68.38
461.018	87.38
461.238	77.38
461.458	75.38
461.678	69.38
461.898	90.38
462.118	70.38
462.338	74.38
462.558	69.38
462.777	78.38
462.997	84.38
463.217	75.38
463.437	80.38
463.657	80.38
463.876	72.38
464.096	82.38
464.316	93.38
464.536	79.38
464.755	102.38
464.975	103.38
465.195	115.38
465.414	140.38
465.634	84.38
465.854	86.38
466.073	93.38
466.293	80.38
466.512	66.38
466.732	82.38
466.951	94.38
467.171	86.38
467.391	98.38
467.61	102.38
467.829	94.38
468.049	92.38
468.268	86.38
468.488	80.38
468.707	81.38
468.927	73.38
469.146	70.38
469.365	78.38
469.585	84.38
469.804	89.38
470.023	77.38
470.243	81.38
470.462	82.38
470.681	97.38
470.901	78.38
471.12	74.38
471.339	87.38
471.558	89.38
471.777	74.38
471.997	89.38
472.216	83.38
472.435	93.38
472.654	92.38
472.873	84.38
473.092	85.38
473.311	64.38
473.53	74.38
473.749	81.38
473.968	89.38
474.187	107.38
474.406	74.38
474.625	78.38
474.844	76.38
475.063	83.38
475.282	87.38
475.501	83.38
475.72	87.38
475.939	86.38
476.158	76.38
476.377	79.38
476.596	90.38
476.814	87.38
477.033	78.38
477.252	78.38
477.471	89.38
477.69	77.38
477.908	70.38
478.127	82.38
478.346	76.38
478.564	82.38
478.783	82.38
479.002	72.38
479.22	77.38
479.439	92.38
479.658	97.38
479.876	86.38
480.095	98.38
480.313	87.38
480.532	86.38
480.751	85.38
480.969	91.38
481.188	107.38
481.406	90.38
481.624	74.38
481.843	83.38
482.061	77.38
482.28	76.38
482.498	83.38
482.717	80.38
482.935	77.38
483.153	91.38
483.372	85.38
483.59	85.38
483.808	84.38
484.027	82.38
484.245	94.38
484.463	80.38
484.681	81.38
484.9	90.38
485.118	89.38
485.336	97.38
485.554	89.38
485.772	89.38
485.99	86.38
486.209	103.38
486.427	95.38
486.645	100.38
486.863	100.38
487.081	89.38
487.299	107.38
487.517	83.38
487.735	84.38
487.953	83.38
488.171	80.38
488.389	91.38
488.607	99.38
488.825	71.38
489.043	65.38
489.261	79.38
489.479	88.38
489.696	69.38
489.914	88.38
490.132	75.38
490.35	89.38
490.568	100.38
490.786	96.38
491.003	90.38
491.221	90.38
491.439	83.38
491.657	89.38
491.874	78.38
492.092	69.38
492.31	102.38
492.527	85.38
492.745	100.38
492.963	99.38
493.18	95.38
493.398	81.38
493.615	85.38
493.833	97.38
494.05	86.38
494.268	74.38
494.485	77.38
494.703	83.38
494.92	87.38
495.138	86.38
495.355	87.38
495.573	78.38
495.79	100.38
496.008	83.38
496.225	90.38
496.442	81.38
496.66	96.38
496.877	82.38
497.094	88.38
497.312	100.38
497.529	94.38
497.746	88.38
497.963	79.38
498.181	87.38
498.398	89.38
498.615	87.38
498.832	90.38
499.049	82.38
499.267	93.38
499.484	79.38
499.701	80.38
499.918	67.38
500.135	95.38
500.352	87.38
500.569	76.38
500.786	84.38
501.003	83.38
501.22	77.38
501.437	80.38
501.654	90.38
501.871	80.38
502.088	77.38
502.305	93.38
502.522	92.38
502.739	76.38
502.956	90.38
503.172	79.38
503.389	104.38
503.606	102.38
503.823	81.38
504.04	98.38
504.256	93.38
504.473	67.38
504.69	76.38
504.907	87.38
505.123	75.38
505.34	87.38
505.557	88.38
505.773	87.38
505.99	88.38
506.207	96.38
506.423	83.38
506.64	85.38
506.856	81.38
507.073	87.38
507.289	96.38
507.506	84.38
507.722	103.38
507.939	95.38
508.155	98.38
508.372	72.38
508.588	93.38
508.805	91.38
509.021	84.38
509.238	85.38
509.454	95.38
509.67	95.38
509.887	95.38
510.103	127.38
510.319	211.38
510.536	666.38
510.752	2158.38
510.968	613.38
511.184	147.38
511.401	98.38
511.617	95.38
511.833	94.38
512.049	85.38
512.265	77.38
512.481	82.38
512.698	90.38
512.914	92.38
513.13	98.38
513.346	90.38
513.562	93.38
513.778	95.38
513.994	82.38
514.21	96.38
514.426	91.38
514.642	119.38
514.858	108.38
515.074	139.38
515.29	385.38
515.506	1245.38
515.721	454.38
515.937	142.38
516.153	88.38
516.369	87.38
516.585	87.38
516.801	91.38
517.016	92.38
517.232	78.38
517.448	86.38
517.664	84.38
517.879	72.38
