Data from Uncirc_2002_H10_HRD10591_00054.txt Node
Date: Wed Jan 03 10:39:52 EST 2024
User: Yrep
Spectrometer: HR+D1059
Trigger mode: 1
Integration Time (sec): 1.000000E-1
Scans to average: 1
Electric dark correction enabled: true
Nonlinearity correction enabled: false
Boxcar width: 0
XAxis mode: Wavelengths
Number of Pixels in Spectrum: 2048
>>>>>Begin Spectral Data<<<<<
223.165	-14.44
223.4	-14.44
223.635	-14.44
223.869	-31.44
224.104	-9.44
224.338	-7.44
224.573	-18.44
224.808	-13.44
225.042	1.56
225.277	-6.44
225.511	-14.44
225.746	0.56
225.98	10.56
226.215	16.56
226.449	10.56
226.683	19.56
226.918	23.56
227.152	32.56
227.387	21.56
227.621	52.56
227.856	48.56
228.09	36.56
228.324	53.56
228.559	48.56
228.793	67.56
229.027	71.56
229.262	63.56
229.496	62.56
229.73	67.56
229.964	84.56
230.199	79.56
230.433	68.56
230.667	87.56
230.901	77.56
231.136	71.56
231.37	73.56
231.604	84.56
231.838	85.56
232.072	82.56
232.306	79.56
232.541	88.56
232.775	76.56
233.009	87.56
233.243	74.56
233.477	81.56
233.711	73.56
233.945	77.56
234.179	75.56
234.413	72.56
234.647	71.56
234.881	70.56
235.115	82.56
235.349	81.56
235.583	65.56
235.817	84.56
236.051	69.56
236.285	85.56
236.519	80.56
236.753	81.56
236.987	71.56
237.221	65.56
237.455	72.56
237.689	91.56
237.922	74.56
238.156	73.56
238.39	84.56
238.624	82.56
238.858	86.56
239.091	81.56
239.325	70.56
239.559	77.56
239.793	79.56
240.027	74.56
240.26	69.56
240.494	86.56
240.728	85.56
240.961	80.56
241.195	81.56
241.429	75.56
241.662	82.56
241.896	77.56
242.13	71.56
242.363	80.56
242.597	81.56
242.83	77.56
243.064	66.56
243.298	81.56
243.531	68.56
243.765	83.56
243.998	73.56
244.232	83.56
244.465	81.56
244.699	79.56
244.932	74.56
245.166	86.56
245.399	77.56
245.633	73.56
245.866	75.56
246.099	78.56
246.333	79.56
246.566	80.56
246.8	82.56
247.033	74.56
247.266	75.56
247.5	84.56
247.733	87.56
247.966	84.56
248.2	94.56
248.433	76.56
248.666	73.56
248.899	80.56
249.133	78.56
249.366	91.56
249.599	80.56
249.832	87.56
250.066	69.56
250.299	88.56
250.532	88.56
250.765	80.56
250.998	73.56
251.231	80.56
251.465	96.56
251.698	83.56
251.931	73.56
252.164	72.56
252.397	80.56
252.63	72.56
252.863	89.56
253.096	75.56
253.329	82.56
253.562	75.56
253.795	85.56
254.028	82.56
254.261	89.56
254.494	69.56
254.727	80.56
254.96	83.56
255.193	72.56
255.426	73.56
255.659	105.56
255.892	73.56
256.124	75.56
256.357	83.56
256.59	73.56
256.823	74.56
257.056	85.56
257.289	84.56
257.521	65.56
257.754	80.56
257.987	84.56
258.22	90.56
258.452	88.56
258.685	83.56
258.918	75.56
259.151	77.56
259.383	97.56
259.616	79.56
259.849	81.56
260.081	79.56
260.314	86.56
260.547	94.56
260.779	77.56
261.012	82.56
261.244	86.56
261.477	86.56
261.71	99.56
261.942	92.56
262.175	118.56
262.407	94.56
262.64	92.56
262.872	84.56
263.105	94.56
263.337	89.56
263.57	85.56
263.802	89.56
264.035	82.56
264.267	85.56
264.499	89.56
264.732	78.56
264.964	84.56
265.197	91.56
265.429	57.56
265.661	84.56
265.894	80.56
266.126	95.56
266.358	100.56
266.591	78.56
266.823	85.56
267.055	83.56
267.287	89.56
267.52	84.56
267.752	71.56
267.984	89.56
268.216	83.56
268.448	75.56
268.681	74.56
268.913	77.56
269.145	98.56
269.377	88.56
269.609	85.56
269.841	79.56
270.073	90.56
270.306	83.56
270.538	90.56
270.77	75.56
271.002	80.56
271.234	87.56
271.466	90.56
271.698	88.56
271.93	71.56
272.162	88.56
272.394	89.56
272.626	78.56
272.858	93.56
273.09	75.56
273.322	66.56
273.553	83.56
273.785	98.56
274.017	79.56
274.249	71.56
274.481	93.56
274.713	80.56
274.945	74.56
275.176	85.56
275.408	90.56
275.64	80.56
275.872	85.56
276.104	95.56
276.335	91.56
276.567	103.56
276.799	80.56
277.031	80.56
277.262	94.56
277.494	87.56
277.726	90.56
277.957	82.56
278.189	91.56
278.421	83.56
278.652	77.56
278.884	102.56
279.115	76.56
279.347	88.56
279.579	86.56
279.81	86.56
280.042	92.56
280.273	91.56
280.505	91.56
280.736	87.56
280.968	80.56
281.199	78.56
281.431	81.56
281.662	80.56
281.894	93.56
282.125	102.56
282.356	116.56
282.588	126.56
282.819	98.56
283.051	92.56
283.282	81.56
283.513	86.56
283.745	83.56
283.976	97.56
284.207	86.56
284.439	93.56
284.67	77.56
284.901	96.56
285.132	88.56
285.364	88.56
285.595	84.56
285.826	100.56
286.057	86.56
286.288	87.56
286.52	91.56
286.751	77.56
286.982	74.56
287.213	81.56
287.444	73.56
287.675	88.56
287.906	86.56
288.138	84.56
288.369	89.56
288.6	71.56
288.831	98.56
289.062	95.56
289.293	76.56
289.524	87.56
289.755	91.56
289.986	65.56
290.217	83.56
290.448	88.56
290.679	89.56
290.91	87.56
291.141	68.56
291.371	89.56
291.602	90.56
291.833	91.56
292.064	84.56
292.295	90.56
292.526	81.56
292.757	83.56
292.987	95.56
293.218	80.56
293.449	97.56
293.68	80.56
293.91	89.56
294.141	88.56
294.372	93.56
294.603	86.56
294.833	103.56
295.064	77.56
295.295	82.56
295.525	89.56
295.756	74.56
295.987	112.56
296.217	113.56
296.448	121.56
296.679	104.56
296.909	92.56
297.14	84.56
297.37	74.56
297.601	82.56
297.831	101.56
298.062	98.56
298.292	77.56
298.523	86.56
298.753	97.56
298.984	100.56
299.214	84.56
299.445	113.56
299.675	98.56
299.905	95.56
300.136	97.56
300.366	75.56
300.597	90.56
300.827	89.56
301.057	80.56
301.288	97.56
301.518	95.56
301.748	77.56
301.979	91.56
302.209	84.56
302.439	93.56
302.669	92.56
302.9	79.56
303.13	89.56
303.36	84.56
303.59	98.56
303.82	101.56
304.051	99.56
304.281	100.56
304.511	104.56
304.741	87.56
304.971	87.56
305.201	81.56
305.431	94.56
305.661	88.56
305.891	80.56
306.121	97.56
306.352	91.56
306.582	104.56
306.812	81.56
307.042	88.56
307.272	91.56
307.502	75.56
307.731	94.56
307.961	90.56
308.191	93.56
308.421	94.56
308.651	114.56
308.881	93.56
309.111	85.56
309.341	101.56
309.571	97.56
309.8	93.56
310.03	85.56
310.26	98.56
310.49	85.56
310.72	105.56
310.949	117.56
311.179	98.56
311.409	91.56
311.639	95.56
311.868	102.56
312.098	93.56
312.328	85.56
312.557	104.56
312.787	98.56
313.017	101.56
313.246	97.56
313.476	88.56
313.706	93.56
313.935	101.56
314.165	107.56
314.394	96.56
314.624	108.56
314.853	97.56
315.083	92.56
315.312	87.56
315.542	82.56
315.771	89.56
316.001	89.56
316.23	93.56
316.46	85.56
316.689	94.56
316.919	93.56
317.148	100.56
317.377	90.56
317.607	94.56
317.836	91.56
318.065	94.56
318.295	89.56
318.524	97.56
318.753	97.56
318.983	111.56
319.212	101.56
319.441	106.56
319.67	96.56
319.9	95.56
320.129	86.56
320.358	88.56
320.587	91.56
320.816	97.56
321.046	97.56
321.275	102.56
321.504	101.56
321.733	87.56
321.962	98.56
322.191	97.56
322.42	99.56
322.649	98.56
322.878	100.56
323.108	113.56
323.337	126.56
323.566	132.56
323.795	153.56
324.024	193.56
324.253	366.56
324.482	671.56
324.71	1411.56
324.939	1869.56
325.168	701.56
325.397	218.56
325.626	153.56
325.855	118.56
326.084	116.56
326.313	133.56
326.542	135.56
326.77	206.56
326.999	411.56
327.228	782.56
327.457	1436.56
327.686	1142.56
327.914	309.56
328.143	156.56
328.372	145.56
328.6	116.56
328.829	105.56
329.058	128.56
329.287	112.56
329.515	120.56
329.744	99.56
329.972	89.56
330.201	93.56
330.43	104.56
330.658	99.56
330.887	120.56
331.115	116.56
331.344	85.56
331.572	93.56
331.801	110.56
332.03	105.56
332.258	100.56
332.486	85.56
332.715	89.56
332.943	88.56
333.172	96.56
333.4	101.56
333.629	103.56
333.857	107.56
334.085	121.56
334.314	96.56
334.542	95.56
334.771	99.56
334.999	96.56
335.227	90.56
335.455	95.56
335.684	106.56
335.912	91.56
336.14	96.56
336.369	99.56
336.597	103.56
336.825	82.56
337.053	89.56
337.281	101.56
337.51	87.56
337.738	88.56
337.966	90.56
338.194	96.56
338.422	94.56
338.65	104.56
338.878	93.56
339.106	88.56
339.334	95.56
339.562	93.56
339.79	93.56
340.018	90.56
340.246	89.56
340.474	93.56
340.702	84.56
340.93	110.56
341.158	90.56
341.386	97.56
341.614	98.56
341.842	94.56
342.07	93.56
342.298	100.56
342.526	89.56
342.754	90.56
342.981	83.56
343.209	90.56
343.437	92.56
343.665	101.56
343.893	85.56
344.12	90.56
344.348	92.56
344.576	91.56
344.804	89.56
345.031	83.56
345.259	95.56
345.487	92.56
345.714	90.56
345.942	80.56
346.17	98.56
346.397	90.56
346.625	89.56
346.853	88.56
347.08	68.56
347.308	93.56
347.535	86.56
347.763	110.56
347.99	92.56
348.218	99.56
348.445	104.56
348.673	96.56
348.9	91.56
349.128	97.56
349.355	94.56
349.583	93.56
349.81	104.56
350.037	100.56
350.265	86.56
350.492	89.56
350.72	95.56
350.947	91.56
351.174	102.56
351.402	103.56
351.629	97.56
351.856	96.56
352.083	97.56
352.311	98.56
352.538	90.56
352.765	106.56
352.992	106.56
353.22	96.56
353.447	100.56
353.674	105.56
353.901	92.56
354.128	94.56
354.355	99.56
354.583	94.56
354.81	103.56
355.037	95.56
355.264	102.56
355.491	98.56
355.718	106.56
355.945	82.56
356.172	90.56
356.399	107.56
356.626	89.56
356.853	90.56
357.08	96.56
357.307	88.56
357.534	91.56
357.761	85.56
357.988	99.56
358.215	102.56
358.441	84.56
358.668	89.56
358.895	104.56
359.122	93.56
359.349	97.56
359.576	89.56
359.802	103.56
360.029	111.56
360.256	84.56
360.483	104.56
360.709	78.56
360.936	91.56
361.163	92.56
361.39	81.56
361.616	100.56
361.843	87.56
362.07	87.56
362.296	90.56
362.523	96.56
362.749	77.56
362.976	74.56
363.203	79.56
363.429	76.56
363.656	86.56
363.882	106.56
364.109	95.56
364.335	89.56
364.562	93.56
364.788	83.56
365.015	85.56
365.241	107.56
365.468	108.56
365.694	103.56
365.92	95.56
366.147	98.56
366.373	88.56
366.599	81.56
366.826	86.56
367.052	76.56
367.278	84.56
367.505	88.56
367.731	81.56
367.957	89.56
368.184	86.56
368.41	110.56
368.636	119.56
368.862	109.56
369.089	91.56
369.315	87.56
369.541	88.56
369.767	97.56
369.993	86.56
370.219	97.56
370.445	71.56
370.672	80.56
370.898	93.56
371.124	102.56
371.35	91.56
371.576	88.56
371.802	80.56
372.028	89.56
372.254	86.56
372.48	74.56
372.706	89.56
372.932	78.56
373.158	91.56
373.384	88.56
373.61	88.56
373.835	89.56
374.061	84.56
374.287	93.56
374.513	93.56
374.739	93.56
374.965	95.56
375.191	77.56
375.416	90.56
375.642	108.56
375.868	93.56
376.094	94.56
376.319	94.56
376.545	88.56
376.771	88.56
376.997	78.56
377.222	91.56
377.448	98.56
377.674	97.56
377.899	87.56
378.125	76.56
378.35	91.56
378.576	92.56
378.802	94.56
379.027	90.56
379.253	86.56
379.478	79.56
379.704	93.56
379.929	86.56
380.155	106.56
380.38	101.56
380.606	86.56
380.831	98.56
381.057	114.56
381.282	89.56
381.507	105.56
381.733	88.56
381.958	94.56
382.184	95.56
382.409	96.56
382.634	97.56
382.86	89.56
383.085	99.56
383.31	95.56
383.535	98.56
383.761	92.56
383.986	91.56
384.211	86.56
384.436	86.56
384.662	90.56
384.887	106.56
385.112	88.56
385.337	91.56
385.562	106.56
385.787	92.56
386.013	107.56
386.238	87.56
386.463	102.56
386.688	105.56
386.913	92.56
387.138	86.56
387.363	102.56
387.588	105.56
387.813	97.56
388.038	87.56
388.263	113.56
388.488	100.56
388.713	100.56
388.938	84.56
389.163	82.56
389.387	104.56
389.612	101.56
389.837	86.56
390.062	86.56
390.287	77.56
390.512	104.56
390.736	98.56
390.961	109.56
391.186	94.56
391.411	96.56
391.636	93.56
391.86	85.56
392.085	69.56
392.31	76.56
392.534	73.56
392.759	95.56
392.984	77.56
393.208	103.56
393.433	97.56
393.658	90.56
393.882	82.56
394.107	84.56
394.331	86.56
394.556	94.56
394.78	97.56
395.005	77.56
395.229	89.56
395.454	91.56
395.678	91.56
395.903	82.56
396.127	83.56
396.352	80.56
396.576	94.56
396.801	86.56
397.025	88.56
397.249	92.56
397.474	81.56
397.698	84.56
397.922	87.56
398.147	75.56
398.371	85.56
398.595	69.56
398.82	97.56
399.044	86.56
399.268	85.56
399.492	88.56
399.717	103.56
399.941	83.56
400.165	103.56
400.389	104.56
400.613	86.56
400.837	92.56
401.062	89.56
401.286	96.56
401.51	96.56
401.734	89.56
401.958	93.56
402.182	125.56
402.406	172.56
402.63	113.56
402.854	107.56
403.078	90.56
403.302	86.56
403.526	67.56
403.75	83.56
403.974	86.56
404.198	84.56
404.422	88.56
404.645	91.56
404.869	84.56
405.093	96.56
405.317	104.56
405.541	90.56
405.765	98.56
405.988	113.56
406.212	169.56
406.436	231.56
406.66	148.56
406.883	106.56
407.107	81.56
407.331	94.56
407.555	82.56
407.778	88.56
408.002	92.56
408.226	94.56
408.449	106.56
408.673	100.56
408.896	86.56
409.12	90.56
409.344	101.56
409.567	87.56
409.791	91.56
410.014	90.56
410.238	100.56
410.461	92.56
410.685	89.56
410.908	103.56
411.132	102.56
411.355	98.56
411.578	83.56
411.802	86.56
412.025	73.56
412.249	84.56
412.472	92.56
412.695	99.56
412.919	97.56
413.142	74.56
413.365	75.56
413.589	79.56
413.812	97.56
414.035	94.56
414.258	91.56
414.482	86.56
414.705	97.56
414.928	95.56
415.151	103.56
415.374	103.56
415.597	97.56
415.821	101.56
416.044	97.56
416.267	100.56
416.49	84.56
416.713	84.56
416.936	103.56
417.159	83.56
417.382	84.56
417.605	80.56
417.828	85.56
418.051	97.56
418.274	91.56
418.497	91.56
418.72	95.56
418.943	95.56
419.166	92.56
419.389	94.56
419.611	96.56
419.834	86.56
420.057	97.56
420.28	90.56
420.503	101.56
420.726	80.56
420.948	87.56
421.171	95.56
421.394	85.56
421.617	89.56
421.839	87.56
422.062	86.56
422.285	100.56
422.507	89.56
422.73	92.56
422.953	83.56
423.175	84.56
423.398	103.56
423.621	82.56
423.843	89.56
424.066	88.56
424.288	87.56
424.511	88.56
424.733	98.56
424.956	99.56
425.178	79.56
425.401	109.56
425.623	106.56
425.846	87.56
426.068	98.56
426.291	79.56
426.513	90.56
426.735	89.56
426.958	100.56
427.18	109.56
427.402	111.56
427.625	163.56
427.847	102.56
428.069	94.56
428.292	90.56
428.514	96.56
428.736	70.56
428.958	80.56
429.181	81.56
429.403	82.56
429.625	86.56
429.847	95.56
430.069	86.56
430.292	79.56
430.514	74.56
430.736	80.56
430.958	90.56
431.18	80.56
431.402	78.56
431.624	80.56
431.846	79.56
432.068	70.56
432.29	93.56
432.512	86.56
432.734	99.56
432.956	81.56
433.178	96.56
433.4	99.56
433.622	106.56
433.844	109.56
434.066	97.56
434.287	80.56
434.509	90.56
434.731	87.56
434.953	95.56
435.175	86.56
435.397	99.56
435.618	89.56
435.84	96.56
436.062	108.56
436.284	105.56
436.505	100.56
436.727	83.56
436.949	87.56
437.17	89.56
437.392	84.56
437.614	97.56
437.835	92.56
438.057	110.56
438.278	107.56
438.5	112.56
438.721	110.56
438.943	96.56
439.165	82.56
439.386	81.56
439.608	93.56
439.829	88.56
440.05	116.56
440.272	134.56
440.493	90.56
440.715	90.56
440.936	87.56
441.158	94.56
441.379	73.56
441.6	78.56
441.822	87.56
442.043	84.56
442.264	98.56
442.486	104.56
442.707	90.56
442.928	97.56
443.149	112.56
443.371	107.56
443.592	94.56
443.813	100.56
444.034	92.56
444.255	79.56
444.476	95.56
444.698	96.56
444.919	105.56
445.14	155.56
445.361	105.56
445.582	113.56
445.803	117.56
446.024	112.56
446.245	122.56
446.466	98.56
446.687	100.56
446.908	82.56
447.129	84.56
447.35	90.56
447.571	94.56
447.792	96.56
448.013	107.56
448.234	103.56
448.455	103.56
448.675	117.56
448.896	98.56
449.117	105.56
449.338	102.56
449.559	120.56
449.779	128.56
450	86.56
450.221	91.56
450.442	81.56
450.662	86.56
450.883	90.56
451.104	91.56
451.324	93.56
451.545	86.56
451.766	72.56
451.986	97.56
452.207	91.56
452.428	87.56
452.648	89.56
452.869	126.56
453.089	111.56
453.31	105.56
453.53	103.56
453.751	75.56
453.971	102.56
454.192	111.56
454.412	83.56
454.633	81.56
454.853	104.56
455.073	88.56
455.294	85.56
455.514	81.56
455.734	93.56
455.955	97.56
456.175	85.56
456.395	87.56
456.616	82.56
456.836	95.56
457.056	87.56
457.276	81.56
457.497	79.56
457.717	87.56
457.937	101.56
458.157	73.56
458.377	88.56
458.598	117.56
458.818	134.56
459.038	143.56
459.258	102.56
459.478	89.56
459.698	74.56
459.918	84.56
460.138	81.56
460.358	88.56
460.578	97.56
460.798	77.56
461.018	91.56
461.238	77.56
461.458	72.56
461.678	87.56
461.898	91.56
462.118	104.56
462.338	97.56
462.558	84.56
462.777	81.56
462.997	84.56
463.217	82.56
463.437	88.56
463.657	86.56
463.876	83.56
464.096	83.56
464.316	91.56
464.536	94.56
464.755	99.56
464.975	110.56
465.195	155.56
465.414	153.56
465.634	81.56
465.854	81.56
466.073	83.56
466.293	96.56
466.512	95.56
466.732	92.56
466.951	85.56
467.171	91.56
467.391	89.56
467.61	89.56
467.829	89.56
468.049	105.56
468.268	87.56
468.488	82.56
468.707	82.56
468.927	87.56
469.146	74.56
469.365	85.56
469.585	91.56
469.804	103.56
470.023	80.56
470.243	85.56
470.462	97.56
470.681	98.56
470.901	85.56
471.12	75.56
471.339	90.56
471.558	81.56
471.777	80.56
471.997	81.56
472.216	94.56
472.435	91.56
472.654	91.56
472.873	83.56
473.092	101.56
473.311	78.56
473.53	102.56
473.749	94.56
473.968	85.56
474.187	102.56
474.406	92.56
474.625	76.56
474.844	109.56
475.063	83.56
475.282	95.56
475.501	99.56
475.72	86.56
475.939	80.56
476.158	100.56
476.377	86.56
476.596	76.56
476.814	94.56
477.033	96.56
477.252	90.56
477.471	101.56
477.69	90.56
477.908	76.56
478.127	90.56
478.346	83.56
478.564	74.56
478.783	90.56
479.002	106.56
479.22	79.56
479.439	99.56
479.658	109.56
479.876	80.56
480.095	83.56
480.313	82.56
480.532	87.56
480.751	79.56
480.969	88.56
481.188	101.56
481.406	96.56
481.624	95.56
481.843	83.56
482.061	79.56
482.28	81.56
482.498	67.56
482.717	74.56
482.935	97.56
483.153	89.56
483.372	81.56
483.59	96.56
483.808	108.56
484.027	95.56
484.245	95.56
484.463	91.56
484.681	92.56
484.9	101.56
485.118	90.56
485.336	97.56
485.554	94.56
485.772	90.56
485.99	79.56
486.209	89.56
486.427	91.56
486.645	109.56
486.863	104.56
487.081	98.56
487.299	88.56
487.517	94.56
487.735	95.56
487.953	95.56
488.171	82.56
488.389	82.56
488.607	91.56
488.825	94.56
489.043	78.56
489.261	96.56
489.479	82.56
489.696	85.56
489.914	93.56
490.132	99.56
490.35	86.56
490.568	85.56
490.786	87.56
491.003	90.56
491.221	82.56
491.439	83.56
491.657	90.56
491.874	90.56
492.092	97.56
492.31	95.56
492.527	101.56
492.745	83.56
492.963	92.56
493.18	90.56
493.398	80.56
493.615	94.56
493.833	103.56
494.05	83.56
494.268	96.56
494.485	86.56
494.703	85.56
494.92	90.56
495.138	89.56
495.355	87.56
495.573	87.56
495.79	103.56
496.008	81.56
496.225	90.56
496.442	102.56
496.66	96.56
496.877	82.56
497.094	100.56
497.312	84.56
497.529	79.56
497.746	93.56
497.963	79.56
498.181	81.56
498.398	99.56
498.615	98.56
498.832	95.56
499.049	89.56
499.267	78.56
499.484	87.56
499.701	81.56
499.918	95.56
500.135	99.56
500.352	85.56
500.569	96.56
500.786	101.56
501.003	90.56
501.22	86.56
501.437	94.56
501.654	94.56
501.871	100.56
502.088	91.56
502.305	81.56
502.522	86.56
502.739	89.56
502.956	78.56
503.172	87.56
503.389	84.56
503.606	105.56
503.823	103.56
504.04	94.56
504.256	85.56
504.473	97.56
504.69	87.56
504.907	85.56
505.123	80.56
505.34	92.56
505.557	90.56
505.773	84.56
505.99	83.56
506.207	82.56
506.423	73.56
506.64	81.56
506.856	99.56
507.073	90.56
507.289	97.56
507.506	78.56
507.722	111.56
507.939	102.56
508.155	94.56
508.372	82.56
508.588	95.56
508.805	95.56
509.021	86.56
509.238	95.56
509.454	103.56
509.67	96.56
509.887	103.56
510.103	120.56
510.319	183.56
510.536	682.56
510.752	2268.56
510.968	640.56
511.184	143.56
511.401	107.56
511.617	101.56
511.833	101.56
512.049	100.56
512.265	91.56
512.481	100.56
512.698	105.56
512.914	99.56
513.13	97.56
513.346	91.56
513.562	96.56
513.778	96.56
513.994	96.56
514.21	111.56
514.426	109.56
514.642	118.56
514.858	120.56
515.074	167.56
515.29	415.56
515.506	1318.56
515.721	474.56
515.937	136.56
516.153	101.56
516.369	99.56
