Data from Uncirc_2002_H10_HRD10591_00033.txt Node
Date: Wed Jan 03 10:39:47 EST 2024
User: Yrep
Spectrometer: HR+D1059
Trigger mode: 1
Integration Time (sec): 1.000000E-1
Scans to average: 1
Electric dark correction enabled: true
Nonlinearity correction enabled: false
Boxcar width: 0
XAxis mode: Wavelengths
Number of Pixels in Spectrum: 2048
>>>>>Begin Spectral Data<<<<<
223.165	-4.62
223.4	-4.62
223.635	-4.62
223.869	-39.62
224.104	-32.62
224.338	-16.62
224.573	-10.62
224.808	-4.62
225.042	-13.62
225.277	-13.62
225.511	0.38
225.746	13.38
225.98	4.38
226.215	20.38
226.449	21.38
226.683	14.38
226.918	26.38
227.152	35.38
227.387	35.38
227.621	52.38
227.856	45.38
228.09	35.38
228.324	50.38
228.559	51.38
228.793	59.38
229.027	71.38
229.262	76.38
229.496	60.38
229.73	98.38
229.964	85.38
230.199	81.38
230.433	73.38
230.667	68.38
230.901	76.38
231.136	81.38
231.37	80.38
231.604	83.38
231.838	94.38
232.072	75.38
232.306	91.38
232.541	85.38
232.775	76.38
233.009	84.38
233.243	74.38
233.477	85.38
233.711	78.38
233.945	91.38
234.179	82.38
234.413	81.38
234.647	59.38
234.881	81.38
235.115	84.38
235.349	86.38
235.583	95.38
235.817	76.38
236.051	68.38
236.285	83.38
236.519	84.38
236.753	90.38
236.987	82.38
237.221	91.38
237.455	92.38
237.689	85.38
237.922	84.38
238.156	79.38
238.39	69.38
238.624	65.38
238.858	81.38
239.091	91.38
239.325	76.38
239.559	79.38
239.793	80.38
240.027	82.38
240.26	82.38
240.494	81.38
240.728	76.38
240.961	80.38
241.195	81.38
241.429	88.38
241.662	72.38
241.896	74.38
242.13	83.38
242.363	90.38
242.597	78.38
242.83	86.38
243.064	59.38
243.298	76.38
243.531	72.38
243.765	60.38
243.998	66.38
244.232	92.38
244.465	96.38
244.699	80.38
244.932	81.38
245.166	88.38
245.399	74.38
245.633	74.38
245.866	79.38
246.099	83.38
246.333	77.38
246.566	68.38
246.8	70.38
247.033	78.38
247.266	79.38
247.5	88.38
247.733	81.38
247.966	81.38
248.2	82.38
248.433	89.38
248.666	77.38
248.899	66.38
249.133	89.38
249.366	99.38
249.599	94.38
249.832	83.38
250.066	90.38
250.299	82.38
250.532	82.38
250.765	90.38
250.998	80.38
251.231	87.38
251.465	82.38
251.698	58.38
251.931	72.38
252.164	76.38
252.397	82.38
252.63	80.38
252.863	81.38
253.096	80.38
253.329	72.38
253.562	77.38
253.795	80.38
254.028	81.38
254.261	71.38
254.494	79.38
254.727	68.38
254.96	76.38
255.193	85.38
255.426	80.38
255.659	90.38
255.892	97.38
256.124	80.38
256.357	93.38
256.59	85.38
256.823	93.38
257.056	68.38
257.289	76.38
257.521	82.38
257.754	77.38
257.987	86.38
258.22	88.38
258.452	75.38
258.685	78.38
258.918	74.38
259.151	73.38
259.383	80.38
259.616	82.38
259.849	98.38
260.081	88.38
260.314	70.38
260.547	76.38
260.779	81.38
261.012	83.38
261.244	73.38
261.477	88.38
261.71	89.38
261.942	100.38
262.175	107.38
262.407	91.38
262.64	88.38
262.872	89.38
263.105	88.38
263.337	89.38
263.57	83.38
263.802	100.38
264.035	99.38
264.267	86.38
264.499	89.38
264.732	89.38
264.964	79.38
265.197	88.38
265.429	71.38
265.661	81.38
265.894	79.38
266.126	88.38
266.358	91.38
266.591	82.38
266.823	94.38
267.055	104.38
267.287	90.38
267.52	88.38
267.752	94.38
267.984	74.38
268.216	86.38
268.448	80.38
268.681	86.38
268.913	78.38
269.145	89.38
269.377	88.38
269.609	85.38
269.841	98.38
270.073	76.38
270.306	103.38
270.538	84.38
270.77	92.38
271.002	88.38
271.234	76.38
271.466	103.38
271.698	84.38
271.93	83.38
272.162	88.38
272.394	94.38
272.626	81.38
272.858	95.38
273.09	77.38
273.322	72.38
273.553	87.38
273.785	88.38
274.017	92.38
274.249	82.38
274.481	84.38
274.713	86.38
274.945	103.38
275.176	84.38
275.408	83.38
275.64	84.38
275.872	71.38
276.104	88.38
276.335	93.38
276.567	99.38
276.799	97.38
277.031	112.38
277.262	96.38
277.494	95.38
277.726	77.38
277.957	85.38
278.189	84.38
278.421	90.38
278.652	82.38
278.884	85.38
279.115	88.38
279.347	90.38
279.579	83.38
279.81	84.38
280.042	94.38
280.273	81.38
280.505	92.38
280.736	93.38
280.968	103.38
281.199	95.38
281.431	74.38
281.662	83.38
281.894	87.38
282.125	107.38
282.356	112.38
282.588	128.38
282.819	96.38
283.051	92.38
283.282	94.38
283.513	80.38
283.745	88.38
283.976	83.38
284.207	98.38
284.439	75.38
284.67	90.38
284.901	74.38
285.132	74.38
285.364	85.38
285.595	86.38
285.826	78.38
286.057	93.38
286.288	81.38
286.52	91.38
286.751	97.38
286.982	81.38
287.213	81.38
287.444	99.38
287.675	72.38
287.906	80.38
288.138	102.38
288.369	89.38
288.6	82.38
288.831	97.38
289.062	92.38
289.293	84.38
289.524	73.38
289.755	84.38
289.986	83.38
290.217	84.38
290.448	90.38
290.679	83.38
290.91	103.38
291.141	91.38
291.371	82.38
291.602	84.38
291.833	101.38
292.064	76.38
292.295	77.38
292.526	95.38
292.757	91.38
292.987	90.38
293.218	101.38
293.449	101.38
293.68	81.38
293.91	93.38
294.141	96.38
294.372	82.38
294.603	87.38
294.833	106.38
295.064	94.38
295.295	97.38
295.525	84.38
295.756	93.38
295.987	101.38
296.217	108.38
296.448	122.38
296.679	101.38
296.909	98.38
297.14	85.38
297.37	90.38
297.601	100.38
297.831	85.38
298.062	98.38
298.292	100.38
298.523	90.38
298.753	97.38
298.984	86.38
299.214	90.38
299.445	101.38
299.675	99.38
299.905	91.38
300.136	82.38
300.366	87.38
300.597	89.38
300.827	98.38
301.057	99.38
301.288	96.38
301.518	93.38
301.748	79.38
301.979	121.38
302.209	100.38
302.439	96.38
302.669	92.38
302.9	94.38
303.13	98.38
303.36	93.38
303.59	92.38
303.82	109.38
304.051	90.38
304.281	85.38
304.511	111.38
304.741	78.38
304.971	89.38
305.201	90.38
305.431	93.38
305.661	85.38
305.891	100.38
306.121	99.38
306.352	95.38
306.582	102.38
306.812	81.38
307.042	102.38
307.272	100.38
307.502	93.38
307.731	81.38
307.961	97.38
308.191	90.38
308.421	85.38
308.651	98.38
308.881	92.38
309.111	102.38
309.341	99.38
309.571	103.38
309.8	97.38
310.03	88.38
310.26	85.38
310.49	98.38
310.72	88.38
310.949	101.38
311.179	89.38
311.409	107.38
311.639	100.38
311.868	91.38
312.098	101.38
312.328	97.38
312.557	101.38
312.787	107.38
313.017	89.38
313.246	103.38
313.476	96.38
313.706	101.38
313.935	103.38
314.165	92.38
314.394	94.38
314.624	89.38
314.853	92.38
315.083	91.38
315.312	89.38
315.542	83.38
315.771	93.38
316.001	89.38
316.23	99.38
316.46	93.38
316.689	98.38
316.919	94.38
317.148	94.38
317.377	98.38
317.607	95.38
317.836	100.38
318.065	86.38
318.295	100.38
318.524	102.38
318.753	84.38
318.983	93.38
319.212	98.38
319.441	97.38
319.67	103.38
319.9	89.38
320.129	94.38
320.358	100.38
320.587	89.38
320.816	96.38
321.046	104.38
321.275	94.38
321.504	96.38
321.733	94.38
321.962	112.38
322.191	77.38
322.42	99.38
322.649	110.38
322.878	114.38
323.108	105.38
323.337	109.38
323.566	103.38
323.795	141.38
324.024	173.38
324.253	322.38
324.482	677.38
324.71	1364.38
324.939	1724.38
325.168	650.38
325.397	206.38
325.626	153.38
325.855	120.38
326.084	118.38
326.313	113.38
326.542	140.38
326.77	212.38
326.999	400.38
327.228	784.38
327.457	1316.38
327.686	1087.38
327.914	292.38
328.143	152.38
328.372	119.38
328.6	114.38
328.829	115.38
329.058	117.38
329.287	109.38
329.515	99.38
329.744	117.38
329.972	105.38
330.201	90.38
330.43	85.38
330.658	116.38
330.887	128.38
331.115	113.38
331.344	98.38
331.572	100.38
331.801	90.38
332.03	98.38
332.258	98.38
332.486	95.38
332.715	90.38
332.943	87.38
333.172	99.38
333.4	96.38
333.629	113.38
333.857	114.38
334.085	103.38
334.314	96.38
334.542	99.38
334.771	92.38
334.999	97.38
335.227	96.38
335.455	81.38
335.684	98.38
335.912	88.38
336.14	87.38
336.369	98.38
336.597	92.38
336.825	92.38
337.053	102.38
337.281	102.38
337.51	92.38
337.738	87.38
337.966	87.38
338.194	92.38
338.422	91.38
338.65	89.38
338.878	106.38
339.106	88.38
339.334	98.38
339.562	84.38
339.79	77.38
340.018	77.38
340.246	88.38
340.474	88.38
340.702	96.38
340.93	83.38
341.158	96.38
341.386	94.38
341.614	108.38
341.842	89.38
342.07	90.38
342.298	85.38
342.526	96.38
342.754	96.38
342.981	94.38
343.209	96.38
343.437	101.38
343.665	88.38
343.893	86.38
344.12	100.38
344.348	105.38
344.576	106.38
344.804	87.38
345.031	96.38
345.259	89.38
345.487	94.38
345.714	87.38
345.942	80.38
346.17	92.38
346.397	99.38
346.625	91.38
346.853	88.38
347.08	107.38
347.308	94.38
347.535	101.38
347.763	98.38
347.99	83.38
348.218	100.38
348.445	94.38
348.673	100.38
348.9	86.38
349.128	106.38
349.355	91.38
349.583	88.38
349.81	105.38
350.037	101.38
350.265	87.38
350.492	108.38
350.72	99.38
350.947	100.38
351.174	100.38
351.402	105.38
351.629	98.38
351.856	102.38
352.083	112.38
352.311	104.38
352.538	108.38
352.765	111.38
352.992	120.38
353.22	100.38
353.447	108.38
353.674	102.38
353.901	112.38
354.128	97.38
354.355	101.38
354.583	105.38
354.81	102.38
355.037	114.38
355.264	90.38
355.491	72.38
355.718	94.38
355.945	100.38
356.172	104.38
356.399	97.38
356.626	105.38
356.853	77.38
357.08	92.38
357.307	84.38
357.534	93.38
357.761	99.38
357.988	102.38
358.215	101.38
358.441	112.38
358.668	108.38
358.895	86.38
359.122	98.38
359.349	102.38
359.576	104.38
359.802	104.38
360.029	92.38
360.256	112.38
360.483	89.38
360.709	88.38
360.936	81.38
361.163	86.38
361.39	89.38
361.616	85.38
361.843	104.38
362.07	102.38
362.296	93.38
362.523	103.38
362.749	66.38
362.976	87.38
363.203	93.38
363.429	89.38
363.656	83.38
363.882	107.38
364.109	90.38
364.335	106.38
364.562	98.38
364.788	99.38
365.015	100.38
365.241	96.38
365.468	97.38
365.694	101.38
365.92	92.38
366.147	89.38
366.373	85.38
366.599	86.38
366.826	101.38
367.052	93.38
367.278	92.38
367.505	80.38
367.731	86.38
367.957	97.38
368.184	100.38
368.41	107.38
368.636	108.38
368.862	104.38
369.089	90.38
369.315	95.38
369.541	101.38
369.767	85.38
369.993	85.38
370.219	89.38
370.445	86.38
370.672	88.38
370.898	90.38
371.124	88.38
371.35	86.38
371.576	89.38
371.802	81.38
372.028	99.38
372.254	83.38
372.48	98.38
372.706	92.38
372.932	100.38
373.158	98.38
373.384	87.38
373.61	91.38
373.835	94.38
374.061	98.38
374.287	85.38
374.513	98.38
374.739	95.38
374.965	84.38
375.191	87.38
375.416	94.38
375.642	98.38
375.868	93.38
376.094	101.38
376.319	92.38
376.545	90.38
376.771	92.38
376.997	80.38
377.222	96.38
377.448	91.38
377.674	93.38
377.899	99.38
378.125	93.38
378.35	91.38
378.576	101.38
378.802	95.38
379.027	97.38
379.253	96.38
379.478	84.38
379.704	99.38
379.929	82.38
380.155	87.38
380.38	93.38
380.606	104.38
380.831	86.38
381.057	96.38
381.282	100.38
381.507	93.38
381.733	100.38
381.958	106.38
382.184	102.38
382.409	95.38
382.634	112.38
382.86	100.38
383.085	91.38
383.31	91.38
383.535	86.38
383.761	99.38
383.986	84.38
384.211	96.38
384.436	102.38
384.662	101.38
384.887	97.38
385.112	94.38
385.337	103.38
385.562	113.38
385.787	122.38
386.013	100.38
386.238	94.38
386.463	104.38
386.688	104.38
386.913	89.38
387.138	101.38
387.363	90.38
387.588	116.38
387.813	97.38
388.038	104.38
388.263	109.38
388.488	107.38
388.713	88.38
388.938	95.38
389.163	94.38
389.387	84.38
389.612	94.38
389.837	91.38
390.062	97.38
390.287	93.38
390.512	90.38
390.736	92.38
390.961	72.38
391.186	104.38
391.411	100.38
391.636	89.38
391.86	80.38
392.085	88.38
392.31	86.38
392.534	100.38
392.759	98.38
392.984	88.38
393.208	98.38
393.433	105.38
393.658	91.38
393.882	89.38
394.107	99.38
394.331	84.38
394.556	88.38
394.78	86.38
395.005	88.38
395.229	76.38
395.454	91.38
395.678	86.38
395.903	93.38
396.127	96.38
396.352	85.38
396.576	95.38
396.801	100.38
397.025	103.38
397.249	98.38
397.474	106.38
397.698	87.38
397.922	99.38
398.147	98.38
398.371	82.38
398.595	83.38
398.82	83.38
399.044	82.38
399.268	82.38
399.492	98.38
399.717	89.38
399.941	82.38
400.165	85.38
400.389	88.38
400.613	93.38
400.837	98.38
401.062	85.38
401.286	80.38
401.51	89.38
401.734	87.38
401.958	96.38
402.182	118.38
402.406	125.38
402.63	103.38
402.854	82.38
403.078	73.38
403.302	85.38
403.526	91.38
403.75	82.38
403.974	100.38
404.198	84.38
404.422	96.38
404.645	96.38
404.869	79.38
405.093	81.38
405.317	92.38
405.541	96.38
405.765	92.38
405.988	103.38
406.212	137.38
406.436	180.38
406.66	128.38
406.883	101.38
407.107	100.38
407.331	99.38
407.555	106.38
407.778	114.38
408.002	102.38
408.226	82.38
408.449	92.38
408.673	90.38
408.896	84.38
409.12	87.38
409.344	83.38
409.567	90.38
409.791	94.38
410.014	99.38
410.238	89.38
410.461	96.38
410.685	98.38
410.908	98.38
411.132	125.38
411.355	111.38
411.578	104.38
411.802	101.38
412.025	92.38
412.249	75.38
412.472	86.38
412.695	92.38
412.919	85.38
413.142	88.38
413.365	93.38
413.589	79.38
413.812	94.38
414.035	94.38
414.258	91.38
414.482	100.38
414.705	107.38
414.928	91.38
415.151	81.38
415.374	88.38
415.597	92.38
415.821	93.38
416.044	87.38
416.267	93.38
416.49	86.38
416.713	99.38
416.936	75.38
417.159	81.38
417.382	92.38
417.605	94.38
417.828	89.38
418.051	94.38
418.274	86.38
418.497	94.38
418.72	105.38
418.943	89.38
419.166	75.38
419.389	96.38
419.611	95.38
419.834	88.38
420.057	87.38
420.28	81.38
420.503	84.38
420.726	98.38
420.948	99.38
421.171	93.38
421.394	92.38
421.617	94.38
421.839	107.38
422.062	90.38
422.285	93.38
422.507	110.38
422.73	101.38
422.953	78.38
423.175	86.38
423.398	95.38
423.621	91.38
423.843	87.38
424.066	99.38
424.288	90.38
424.511	80.38
424.733	97.38
424.956	109.38
425.178	100.38
425.401	89.38
425.623	94.38
425.846	90.38
426.068	99.38
426.291	85.38
426.513	98.38
426.735	82.38
426.958	116.38
427.18	107.38
427.402	115.38
427.625	156.38
427.847	122.38
428.069	100.38
428.292	85.38
428.514	96.38
428.736	96.38
428.958	75.38
429.181	96.38
429.403	94.38
429.625	93.38
429.847	102.38
430.069	114.38
430.292	85.38
430.514	94.38
430.736	91.38
430.958	91.38
431.18	90.38
431.402	84.38
431.624	104.38
431.846	73.38
432.068	81.38
432.29	89.38
432.512	98.38
432.734	85.38
432.956	90.38
433.178	99.38
433.4	88.38
433.622	89.38
433.844	92.38
434.066	89.38
434.287	89.38
434.509	101.38
434.731	97.38
434.953	101.38
435.175	93.38
435.397	96.38
435.618	85.38
435.84	114.38
436.062	103.38
436.284	111.38
436.505	96.38
436.727	114.38
436.949	88.38
437.17	75.38
437.392	95.38
437.614	94.38
437.835	107.38
438.057	109.38
438.278	103.38
438.5	91.38
438.721	121.38
438.943	103.38
439.165	89.38
439.386	73.38
439.608	103.38
439.829	98.38
440.05	107.38
440.272	118.38
440.493	93.38
440.715	92.38
440.936	89.38
441.158	91.38
441.379	77.38
441.6	85.38
441.822	86.38
442.043	97.38
442.264	97.38
442.486	97.38
442.707	89.38
442.928	104.38
443.149	117.38
443.371	124.38
443.592	104.38
443.813	106.38
444.034	92.38
444.255	107.38
444.476	94.38
444.698	98.38
444.919	71.38
445.14	126.38
445.361	121.38
445.582	112.38
445.803	121.38
446.024	118.38
446.245	106.38
446.466	99.38
446.687	80.38
446.908	94.38
447.129	106.38
447.35	90.38
447.571	83.38
447.792	100.38
448.013	100.38
448.234	87.38
448.455	90.38
448.675	109.38
448.896	95.38
449.117	100.38
449.338	92.38
449.559	116.38
449.779	115.38
450	98.38
450.221	97.38
450.442	86.38
450.662	89.38
450.883	89.38
451.104	103.38
451.324	89.38
451.545	86.38
451.766	91.38
451.986	86.38
452.207	88.38
452.428	98.38
452.648	90.38
452.869	98.38
453.089	103.38
453.31	108.38
453.53	93.38
453.751	103.38
453.971	90.38
454.192	107.38
454.412	82.38
454.633	97.38
454.853	84.38
455.073	98.38
455.294	99.38
455.514	84.38
455.734	97.38
455.955	91.38
456.175	89.38
456.395	83.38
456.616	77.38
456.836	81.38
457.056	79.38
457.276	98.38
457.497	97.38
457.717	89.38
457.937	90.38
458.157	95.38
458.377	76.38
458.598	106.38
458.818	133.38
459.038	129.38
459.258	113.38
459.478	88.38
459.698	75.38
459.918	90.38
460.138	94.38
460.358	88.38
460.578	82.38
460.798	94.38
461.018	91.38
461.238	86.38
461.458	87.38
461.678	84.38
461.898	86.38
462.118	70.38
462.338	84.38
462.558	81.38
462.777	95.38
462.997	92.38
463.217	107.38
463.437	88.38
463.657	99.38
463.876	80.38
464.096	93.38
464.316	97.38
464.536	103.38
464.755	103.38
464.975	104.38
465.195	121.38
465.414	128.38
465.634	78.38
465.854	91.38
466.073	95.38
466.293	91.38
466.512	86.38
466.732	84.38
466.951	85.38
467.171	92.38
467.391	113.38
467.61	92.38
467.829	86.38
468.049	93.38
468.268	86.38
468.488	87.38
468.707	91.38
468.927	86.38
469.146	87.38
469.365	89.38
469.585	91.38
469.804	100.38
470.023	97.38
470.243	92.38
470.462	95.38
470.681	110.38
470.901	93.38
471.12	100.38
471.339	91.38
471.558	87.38
471.777	82.38
471.997	103.38
472.216	88.38
472.435	86.38
472.654	96.38
472.873	103.38
473.092	106.38
473.311	87.38
473.53	86.38
473.749	88.38
473.968	87.38
474.187	90.38
474.406	101.38
474.625	85.38
474.844	86.38
475.063	90.38
475.282	94.38
475.501	87.38
475.72	101.38
475.939	78.38
476.158	81.38
476.377	84.38
476.596	86.38
476.814	87.38
477.033	89.38
477.252	83.38
477.471	82.38
477.69	94.38
477.908	90.38
478.127	91.38
478.346	81.38
478.564	83.38
478.783	86.38
479.002	86.38
479.22	93.38
479.439	102.38
479.658	97.38
479.876	94.38
480.095	92.38
480.313	93.38
480.532	88.38
480.751	92.38
480.969	88.38
481.188	97.38
481.406	86.38
481.624	101.38
481.843	110.38
482.061	88.38
482.28	79.38
482.498	87.38
482.717	101.38
482.935	110.38
483.153	85.38
483.372	97.38
483.59	96.38
483.808	96.38
484.027	97.38
484.245	92.38
484.463	90.38
484.681	101.38
484.9	99.38
485.118	81.38
485.336	101.38
485.554	87.38
485.772	93.38
485.99	102.38
486.209	114.38
486.427	108.38
486.645	113.38
486.863	105.38
487.081	105.38
487.299	98.38
487.517	98.38
487.735	88.38
487.953	95.38
488.171	108.38
488.389	97.38
488.607	94.38
488.825	90.38
489.043	91.38
489.261	94.38
489.479	103.38
489.696	98.38
489.914	97.38
490.132	94.38
490.35	90.38
490.568	98.38
490.786	87.38
491.003	84.38
491.221	89.38
491.439	85.38
491.657	91.38
491.874	92.38
492.092	101.38
492.31	83.38
492.527	97.38
492.745	103.38
492.963	90.38
493.18	75.38
493.398	104.38
493.615	103.38
493.833	104.38
494.05	94.38
494.268	81.38
494.485	84.38
494.703	99.38
494.92	106.38
495.138	86.38
495.355	110.38
495.573	89.38
495.79	76.38
496.008	87.38
496.225	100.38
496.442	100.38
496.66	98.38
496.877	86.38
497.094	72.38
497.312	80.38
497.529	107.38
497.746	93.38
497.963	87.38
498.181	85.38
498.398	98.38
498.615	110.38
498.832	115.38
499.049	91.38
499.267	86.38
499.484	89.38
499.701	102.38
499.918	96.38
500.135	95.38
500.352	93.38
500.569	105.38
500.786	94.38
501.003	72.38
501.22	77.38
501.437	98.38
501.654	91.38
501.871	103.38
502.088	98.38
502.305	93.38
502.522	91.38
502.739	105.38
502.956	104.38
503.172	91.38
503.389	109.38
503.606	99.38
503.823	95.38
504.04	72.38
504.256	110.38
504.473	83.38
504.69	93.38
504.907	88.38
505.123	84.38
505.34	100.38
505.557	84.38
505.773	91.38
505.99	101.38
506.207	84.38
506.423	85.38
506.64	88.38
506.856	90.38
507.073	93.38
507.289	107.38
507.506	97.38
507.722	106.38
507.939	99.38
508.155	94.38
508.372	100.38
508.588	114.38
508.805	97.38
509.021	100.38
509.238	91.38
509.454	101.38
509.67	99.38
509.887	93.38
510.103	130.38
510.319	189.38
510.536	626.38
510.752	1894.38
510.968	560.38
511.184	141.38
511.401	104.38
511.617	104.38
511.833	95.38
512.049	89.38
512.265	100.38
512.481	110.38
512.698	79.38
512.914	96.38
513.13	100.38
513.346	95.38
513.562	85.38
513.778	92.38
513.994	102.38
514.21	101.38
514.426	111.38
514.642	100.38
514.858	105.38
515.074	153.38
515.29	355.38
