Data from Uncirc_2002_H10_HRD10591_00044.txt Node
Date: Wed Jan 03 10:39:50 EST 2024
User: Yrep
Spectrometer: HR+D1059
Trigger mode: 1
Integration Time (sec): 1.000000E-1
Scans to average: 1
Electric dark correction enabled: true
Nonlinearity correction enabled: false
Boxcar width: 0
XAxis mode: Wavelengths
Number of Pixels in Spectrum: 2048
>>>>>Begin Spectral Data<<<<<
223.165	-22.69
223.4	-22.69
223.635	-22.69
223.869	-23.69
224.104	-20.69
224.338	-14.69
224.573	-1.69
224.808	-18.69
225.042	-3.69
225.277	-7.69
225.511	-1.69
225.746	-1.69
225.98	12.31
226.215	12.31
226.449	7.31
226.683	18.31
226.918	33.31
227.152	33.31
227.387	36.31
227.621	35.31
227.856	32.31
228.09	37.31
228.324	48.31
228.559	68.31
228.793	48.31
229.027	64.31
229.262	80.31
229.496	63.31
229.73	82.31
229.964	86.31
230.199	73.31
230.433	68.31
230.667	74.31
230.901	70.31
231.136	84.31
231.37	80.31
231.604	76.31
231.838	67.31
232.072	63.31
232.306	72.31
232.541	70.31
232.775	76.31
233.009	81.31
233.243	78.31
233.477	84.31
233.711	81.31
233.945	83.31
234.179	86.31
234.413	85.31
234.647	82.31
234.881	81.31
235.115	90.31
235.349	80.31
235.583	80.31
235.817	81.31
236.051	86.31
236.285	64.31
236.519	76.31
236.753	72.31
236.987	74.31
237.221	83.31
237.455	68.31
237.689	73.31
237.922	79.31
238.156	81.31
238.39	77.31
238.624	74.31
238.858	76.31
239.091	75.31
239.325	83.31
239.559	91.31
239.793	80.31
240.027	74.31
240.26	71.31
240.494	78.31
240.728	84.31
240.961	83.31
241.195	86.31
241.429	82.31
241.662	71.31
241.896	74.31
242.13	68.31
242.363	80.31
242.597	65.31
242.83	78.31
243.064	70.31
243.298	88.31
243.531	71.31
243.765	72.31
243.998	78.31
244.232	79.31
244.465	82.31
244.699	83.31
244.932	72.31
245.166	80.31
245.399	84.31
245.633	79.31
245.866	80.31
246.099	84.31
246.333	66.31
246.566	54.31
246.8	75.31
247.033	86.31
247.266	77.31
247.5	82.31
247.733	78.31
247.966	72.31
248.2	61.31
248.433	78.31
248.666	69.31
248.899	89.31
249.133	65.31
249.366	102.31
249.599	91.31
249.832	85.31
250.066	94.31
250.299	76.31
250.532	64.31
250.765	78.31
250.998	84.31
251.231	90.31
251.465	78.31
251.698	88.31
251.931	84.31
252.164	77.31
252.397	80.31
252.63	84.31
252.863	71.31
253.096	67.31
253.329	77.31
253.562	72.31
253.795	81.31
254.028	88.31
254.261	78.31
254.494	86.31
254.727	71.31
254.96	77.31
255.193	72.31
255.426	78.31
255.659	67.31
255.892	73.31
256.124	92.31
256.357	70.31
256.59	64.31
256.823	66.31
257.056	85.31
257.289	84.31
257.521	77.31
257.754	84.31
257.987	79.31
258.22	92.31
258.452	96.31
258.685	77.31
258.918	84.31
259.151	70.31
259.383	76.31
259.616	71.31
259.849	72.31
260.081	88.31
260.314	81.31
260.547	84.31
260.779	80.31
261.012	88.31
261.244	82.31
261.477	88.31
261.71	87.31
261.942	92.31
262.175	89.31
262.407	100.31
262.64	65.31
262.872	87.31
263.105	74.31
263.337	81.31
263.57	77.31
263.802	88.31
264.035	89.31
264.267	89.31
264.499	96.31
264.732	91.31
264.964	79.31
265.197	82.31
265.429	77.31
265.661	79.31
265.894	88.31
266.126	93.31
266.358	76.31
266.591	78.31
266.823	88.31
267.055	87.31
267.287	99.31
267.52	82.31
267.752	82.31
267.984	85.31
268.216	70.31
268.448	82.31
268.681	71.31
268.913	90.31
269.145	64.31
269.377	68.31
269.609	76.31
269.841	88.31
270.073	94.31
270.306	88.31
270.538	85.31
270.77	82.31
271.002	85.31
271.234	77.31
271.466	97.31
271.698	82.31
271.93	70.31
272.162	91.31
272.394	89.31
272.626	89.31
272.858	84.31
273.09	90.31
273.322	90.31
273.553	70.31
273.785	78.31
274.017	85.31
274.249	82.31
274.481	79.31
274.713	89.31
274.945	84.31
275.176	75.31
275.408	91.31
275.64	82.31
275.872	83.31
276.104	74.31
276.335	93.31
276.567	86.31
276.799	105.31
277.031	103.31
277.262	103.31
277.494	85.31
277.726	82.31
277.957	108.31
278.189	89.31
278.421	94.31
278.652	81.31
278.884	98.31
279.115	81.31
279.347	96.31
279.579	81.31
279.81	93.31
280.042	85.31
280.273	83.31
280.505	94.31
280.736	80.31
280.968	86.31
281.199	90.31
281.431	75.31
281.662	84.31
281.894	74.31
282.125	81.31
282.356	117.31
282.588	129.31
282.819	111.31
283.051	90.31
283.282	86.31
283.513	87.31
283.745	92.31
283.976	85.31
284.207	88.31
284.439	83.31
284.67	70.31
284.901	96.31
285.132	88.31
285.364	74.31
285.595	99.31
285.826	86.31
286.057	95.31
286.288	90.31
286.52	77.31
286.751	85.31
286.982	82.31
287.213	74.31
287.444	81.31
287.675	88.31
287.906	93.31
288.138	87.31
288.369	88.31
288.6	85.31
288.831	95.31
289.062	92.31
289.293	92.31
289.524	78.31
289.755	72.31
289.986	83.31
290.217	77.31
290.448	79.31
290.679	94.31
290.91	84.31
291.141	82.31
291.371	76.31
291.602	94.31
291.833	70.31
292.064	88.31
292.295	84.31
292.526	103.31
292.757	94.31
292.987	92.31
293.218	91.31
293.449	93.31
293.68	83.31
293.91	98.31
294.141	96.31
294.372	86.31
294.603	62.31
294.833	76.31
295.064	80.31
295.295	79.31
295.525	102.31
295.756	98.31
295.987	101.31
296.217	112.31
296.448	109.31
296.679	76.31
296.909	92.31
297.14	82.31
297.37	78.31
297.601	97.31
297.831	98.31
298.062	92.31
298.292	90.31
298.523	96.31
298.753	82.31
298.984	93.31
299.214	96.31
299.445	97.31
299.675	92.31
299.905	84.31
300.136	104.31
300.366	66.31
300.597	87.31
300.827	93.31
301.057	85.31
301.288	85.31
301.518	96.31
301.748	88.31
301.979	96.31
302.209	81.31
302.439	84.31
302.669	89.31
302.9	83.31
303.13	74.31
303.36	90.31
303.59	98.31
303.82	104.31
304.051	80.31
304.281	72.31
304.511	71.31
304.741	85.31
304.971	90.31
305.201	90.31
305.431	78.31
305.661	99.31
305.891	87.31
306.121	87.31
306.352	106.31
306.582	87.31
306.812	81.31
307.042	78.31
307.272	84.31
307.502	96.31
307.731	74.31
307.961	77.31
308.191	110.31
308.421	88.31
308.651	81.31
308.881	93.31
309.111	97.31
309.341	89.31
309.571	97.31
309.8	95.31
310.03	91.31
310.26	87.31
310.49	88.31
310.72	88.31
310.949	108.31
311.179	90.31
311.409	82.31
311.639	97.31
311.868	89.31
312.098	87.31
312.328	85.31
312.557	90.31
312.787	90.31
313.017	87.31
313.246	109.31
313.476	93.31
313.706	102.31
313.935	99.31
314.165	94.31
314.394	96.31
314.624	92.31
314.853	88.31
315.083	103.31
315.312	93.31
315.542	82.31
315.771	90.31
316.001	72.31
316.23	94.31
316.46	101.31
316.689	90.31
316.919	101.31
317.148	93.31
317.377	95.31
317.607	95.31
317.836	90.31
318.065	103.31
318.295	83.31
318.524	81.31
318.753	89.31
318.983	104.31
319.212	96.31
319.441	90.31
319.67	90.31
319.9	89.31
320.129	84.31
320.358	89.31
320.587	92.31
320.816	97.31
321.046	98.31
321.275	76.31
321.504	75.31
321.733	101.31
321.962	99.31
322.191	91.31
322.42	89.31
322.649	97.31
322.878	108.31
323.108	111.31
323.337	117.31
323.566	120.31
323.795	134.31
324.024	170.31
324.253	333.31
324.482	652.31
324.71	1324.31
324.939	1739.31
325.168	669.31
325.397	213.31
325.626	120.31
325.855	121.31
326.084	109.31
326.313	124.31
326.542	142.31
326.77	204.31
326.999	369.31
327.228	780.31
327.457	1404.31
327.686	1082.31
327.914	301.31
328.143	160.31
328.372	130.31
328.6	119.31
328.829	116.31
329.058	105.31
329.287	108.31
329.515	105.31
329.744	96.31
329.972	88.31
330.201	82.31
330.43	93.31
330.658	114.31
330.887	130.31
331.115	116.31
331.344	99.31
331.572	94.31
331.801	93.31
332.03	93.31
332.258	104.31
332.486	91.31
332.715	100.31
332.943	106.31
333.172	95.31
333.4	99.31
333.629	95.31
333.857	94.31
334.085	94.31
334.314	105.31
334.542	82.31
334.771	93.31
334.999	94.31
335.227	80.31
335.455	90.31
335.684	115.31
335.912	102.31
336.14	93.31
336.369	85.31
336.597	108.31
336.825	93.31
337.053	95.31
337.281	97.31
337.51	96.31
337.738	92.31
337.966	81.31
338.194	89.31
338.422	97.31
338.65	96.31
338.878	86.31
339.106	86.31
339.334	85.31
339.562	81.31
339.79	80.31
340.018	91.31
340.246	83.31
340.474	88.31
340.702	96.31
340.93	102.31
341.158	93.31
341.386	85.31
341.614	95.31
341.842	95.31
342.07	88.31
342.298	78.31
342.526	76.31
342.754	89.31
342.981	87.31
343.209	84.31
343.437	97.31
343.665	95.31
343.893	90.31
344.12	94.31
344.348	78.31
344.576	82.31
344.804	97.31
345.031	95.31
345.259	89.31
345.487	89.31
345.714	86.31
345.942	86.31
346.17	91.31
346.397	87.31
346.625	104.31
346.853	89.31
347.08	71.31
347.308	93.31
347.535	95.31
347.763	90.31
347.99	113.31
348.218	95.31
348.445	103.31
348.673	94.31
348.9	105.31
349.128	90.31
349.355	108.31
349.583	88.31
349.81	96.31
350.037	85.31
350.265	92.31
350.492	99.31
350.72	98.31
350.947	93.31
351.174	109.31
351.402	95.31
351.629	102.31
351.856	87.31
352.083	116.31
352.311	103.31
352.538	93.31
352.765	101.31
352.992	120.31
353.22	101.31
353.447	96.31
353.674	104.31
353.901	92.31
354.128	108.31
354.355	102.31
354.583	95.31
354.81	106.31
355.037	95.31
355.264	95.31
355.491	81.31
355.718	98.31
355.945	90.31
356.172	93.31
356.399	96.31
356.626	98.31
356.853	82.31
357.08	97.31
357.307	101.31
357.534	94.31
357.761	89.31
357.988	84.31
358.215	84.31
358.441	100.31
358.668	75.31
358.895	85.31
359.122	86.31
359.349	89.31
359.576	97.31
359.802	86.31
360.029	96.31
360.256	92.31
360.483	98.31
360.709	80.31
360.936	98.31
361.163	103.31
361.39	86.31
361.616	67.31
361.843	72.31
362.07	96.31
362.296	88.31
362.523	96.31
362.749	91.31
362.976	87.31
363.203	89.31
363.429	84.31
363.656	80.31
363.882	90.31
364.109	83.31
364.335	91.31
364.562	82.31
364.788	90.31
365.015	81.31
365.241	99.31
365.468	94.31
365.694	85.31
365.92	93.31
366.147	83.31
366.373	89.31
366.599	85.31
366.826	89.31
367.052	67.31
367.278	78.31
367.505	86.31
367.731	79.31
367.957	86.31
368.184	96.31
368.41	83.31
368.636	103.31
368.862	112.31
369.089	101.31
369.315	84.31
369.541	94.31
369.767	88.31
369.993	92.31
370.219	91.31
370.445	97.31
370.672	90.31
370.898	98.31
371.124	86.31
371.35	91.31
371.576	82.31
371.802	83.31
372.028	89.31
372.254	78.31
372.48	88.31
372.706	80.31
372.932	89.31
373.158	96.31
373.384	77.31
373.61	100.31
373.835	83.31
374.061	91.31
374.287	75.31
374.513	89.31
374.739	102.31
374.965	80.31
375.191	79.31
375.416	86.31
375.642	87.31
375.868	101.31
376.094	87.31
376.319	94.31
376.545	100.31
376.771	81.31
376.997	81.31
377.222	80.31
377.448	73.31
377.674	84.31
377.899	88.31
378.125	90.31
378.35	81.31
378.576	87.31
378.802	88.31
379.027	85.31
379.253	84.31
379.478	80.31
379.704	81.31
379.929	90.31
380.155	95.31
380.38	98.31
380.606	96.31
380.831	83.31
381.057	89.31
381.282	87.31
381.507	89.31
381.733	86.31
381.958	101.31
382.184	90.31
382.409	80.31
382.634	100.31
382.86	102.31
383.085	84.31
383.31	104.31
383.535	104.31
383.761	97.31
383.986	98.31
384.211	98.31
384.436	84.31
384.662	102.31
384.887	105.31
385.112	95.31
385.337	93.31
385.562	86.31
385.787	78.31
386.013	103.31
386.238	105.31
386.463	90.31
386.688	96.31
386.913	93.31
387.138	98.31
387.363	109.31
387.588	101.31
387.813	111.31
388.038	98.31
388.263	95.31
388.488	89.31
388.713	100.31
388.938	94.31
389.163	90.31
389.387	86.31
389.612	100.31
389.837	89.31
390.062	96.31
390.287	94.31
390.512	87.31
390.736	90.31
390.961	88.31
391.186	99.31
391.411	95.31
391.636	96.31
391.86	88.31
392.085	80.31
392.31	78.31
392.534	76.31
392.759	88.31
392.984	91.31
393.208	100.31
393.433	97.31
393.658	94.31
393.882	88.31
394.107	94.31
394.331	103.31
394.556	101.31
394.78	85.31
395.005	85.31
395.229	87.31
395.454	90.31
395.678	71.31
395.903	91.31
396.127	83.31
396.352	78.31
396.576	96.31
396.801	94.31
397.025	91.31
397.249	94.31
397.474	96.31
397.698	94.31
397.922	87.31
398.147	84.31
398.371	78.31
398.595	90.31
398.82	60.31
399.044	69.31
399.268	77.31
399.492	90.31
399.717	89.31
399.941	86.31
400.165	93.31
400.389	84.31
400.613	83.31
400.837	88.31
401.062	110.31
401.286	80.31
401.51	77.31
401.734	75.31
401.958	98.31
402.182	117.31
402.406	140.31
402.63	124.31
402.854	85.31
403.078	96.31
403.302	86.31
403.526	92.31
403.75	93.31
403.974	77.31
404.198	86.31
404.422	91.31
404.645	82.31
404.869	87.31
405.093	88.31
405.317	89.31
405.541	100.31
405.765	98.31
405.988	118.31
406.212	138.31
406.436	205.31
406.66	128.31
406.883	90.31
407.107	87.31
407.331	83.31
407.555	106.31
407.778	84.31
408.002	97.31
408.226	71.31
408.449	77.31
408.673	83.31
408.896	92.31
409.12	82.31
409.344	89.31
409.567	85.31
409.791	102.31
410.014	99.31
410.238	88.31
410.461	87.31
410.685	102.31
410.908	88.31
411.132	94.31
411.355	85.31
411.578	88.31
411.802	97.31
412.025	81.31
412.249	80.31
412.472	79.31
412.695	89.31
412.919	64.31
413.142	80.31
413.365	83.31
413.589	84.31
413.812	81.31
414.035	98.31
414.258	90.31
414.482	99.31
414.705	78.31
414.928	81.31
415.151	80.31
415.374	88.31
415.597	82.31
415.821	72.31
416.044	85.31
416.267	78.31
416.49	86.31
416.713	88.31
416.936	85.31
417.159	82.31
417.382	79.31
417.605	89.31
417.828	95.31
418.051	85.31
418.274	73.31
418.497	84.31
418.72	90.31
418.943	95.31
419.166	96.31
419.389	81.31
419.611	93.31
419.834	80.31
420.057	83.31
420.28	78.31
420.503	97.31
420.726	86.31
420.948	90.31
421.171	97.31
421.394	97.31
421.617	88.31
421.839	88.31
422.062	82.31
422.285	89.31
422.507	95.31
422.73	94.31
422.953	96.31
423.175	77.31
423.398	84.31
423.621	90.31
423.843	89.31
424.066	94.31
424.288	72.31
424.511	87.31
424.733	84.31
424.956	100.31
425.178	85.31
425.401	89.31
425.623	101.31
425.846	97.31
426.068	105.31
426.291	79.31
426.513	86.31
426.735	84.31
426.958	84.31
427.18	97.31
427.402	106.31
427.625	136.31
427.847	101.31
428.069	89.31
428.292	92.31
428.514	90.31
428.736	82.31
428.958	79.31
429.181	100.31
429.403	88.31
429.625	84.31
429.847	110.31
430.069	96.31
430.292	82.31
430.514	72.31
430.736	76.31
430.958	94.31
431.18	89.31
431.402	76.31
431.624	84.31
431.846	92.31
432.068	68.31
432.29	70.31
432.512	95.31
432.734	80.31
432.956	78.31
433.178	102.31
433.4	103.31
433.622	102.31
433.844	76.31
434.066	104.31
434.287	90.31
434.509	100.31
434.731	84.31
434.953	71.31
435.175	96.31
435.397	77.31
435.618	76.31
435.84	97.31
436.062	111.31
436.284	90.31
436.505	89.31
436.727	100.31
436.949	81.31
437.17	92.31
437.392	88.31
437.614	82.31
437.835	98.31
438.057	105.31
438.278	101.31
438.5	88.31
438.721	109.31
438.943	92.31
439.165	87.31
439.386	88.31
439.608	76.31
439.829	88.31
440.05	115.31
440.272	127.31
440.493	89.31
440.715	77.31
440.936	86.31
441.158	86.31
441.379	73.31
441.6	90.31
441.822	78.31
442.043	98.31
442.264	94.31
442.486	95.31
442.707	86.31
442.928	98.31
443.149	107.31
443.371	108.31
443.592	94.31
443.813	109.31
444.034	98.31
444.255	97.31
444.476	85.31
444.698	87.31
444.919	85.31
445.14	124.31
445.361	106.31
445.582	99.31
445.803	123.31
446.024	117.31
446.245	123.31
446.466	118.31
446.687	92.31
446.908	80.31
447.129	78.31
447.35	79.31
447.571	80.31
447.792	96.31
448.013	79.31
448.234	102.31
448.455	102.31
448.675	114.31
448.896	102.31
449.117	86.31
449.338	87.31
449.559	94.31
449.779	118.31
450	92.31
450.221	80.31
450.442	92.31
450.662	78.31
450.883	95.31
451.104	87.31
451.324	86.31
451.545	90.31
451.766	84.31
451.986	94.31
452.207	84.31
452.428	85.31
452.648	107.31
452.869	94.31
453.089	106.31
453.31	109.31
453.53	74.31
453.751	88.31
453.971	94.31
454.192	98.31
454.412	88.31
454.633	78.31
454.853	73.31
455.073	81.31
455.294	87.31
455.514	90.31
455.734	93.31
455.955	85.31
456.175	91.31
456.395	84.31
456.616	100.31
456.836	100.31
457.056	76.31
457.276	83.31
457.497	98.31
457.717	80.31
457.937	74.31
458.157	90.31
458.377	78.31
458.598	81.31
458.818	120.31
459.038	115.31
459.258	105.31
459.478	98.31
459.698	93.31
459.918	94.31
460.138	78.31
460.358	96.31
460.578	83.31
460.798	84.31
461.018	86.31
461.238	86.31
461.458	77.31
461.678	89.31
461.898	89.31
462.118	79.31
462.338	82.31
462.558	80.31
462.777	87.31
462.997	82.31
463.217	89.31
463.437	86.31
463.657	87.31
463.876	85.31
464.096	91.31
464.316	92.31
464.536	82.31
464.755	90.31
464.975	90.31
465.195	128.31
465.414	122.31
465.634	95.31
465.854	87.31
466.073	85.31
466.293	80.31
466.512	79.31
466.732	79.31
466.951	89.31
467.171	95.31
467.391	75.31
467.61	84.31
467.829	83.31
468.049	83.31
468.268	91.31
468.488	85.31
468.707	81.31
468.927	86.31
469.146	87.31
469.365	65.31
469.585	92.31
469.804	96.31
470.023	100.31
470.243	92.31
470.462	88.31
470.681	112.31
470.901	84.31
471.12	90.31
471.339	82.31
471.558	81.31
471.777	87.31
471.997	84.31
472.216	90.31
472.435	104.31
472.654	68.31
472.873	85.31
473.092	91.31
473.311	86.31
473.53	95.31
473.749	82.31
473.968	94.31
474.187	98.31
474.406	94.31
474.625	102.31
474.844	69.31
475.063	69.31
475.282	85.31
475.501	84.31
475.72	96.31
475.939	90.31
476.158	88.31
476.377	84.31
476.596	76.31
476.814	89.31
477.033	103.31
477.252	79.31
477.471	70.31
477.69	93.31
477.908	85.31
478.127	82.31
478.346	76.31
478.564	83.31
478.783	97.31
479.002	107.31
479.22	72.31
479.439	89.31
479.658	93.31
479.876	92.31
480.095	85.31
480.313	87.31
480.532	89.31
480.751	81.31
480.969	100.31
481.188	106.31
481.406	92.31
481.624	96.31
481.843	82.31
482.061	80.31
482.28	88.31
482.498	87.31
482.717	82.31
482.935	83.31
483.153	81.31
483.372	80.31
483.59	96.31
483.808	90.31
484.027	94.31
484.245	87.31
484.463	92.31
484.681	90.31
484.9	89.31
485.118	108.31
485.336	84.31
485.554	85.31
485.772	86.31
485.99	100.31
486.209	102.31
486.427	100.31
486.645	99.31
486.863	95.31
487.081	83.31
487.299	76.31
487.517	91.31
487.735	84.31
487.953	96.31
488.171	94.31
488.389	94.31
488.607	90.31
488.825	99.31
489.043	87.31
489.261	94.31
489.479	93.31
489.696	80.31
489.914	84.31
490.132	84.31
490.35	90.31
490.568	94.31
490.786	90.31
491.003	106.31
491.221	84.31
491.439	90.31
491.657	85.31
491.874	79.31
492.092	78.31
492.31	78.31
492.527	90.31
492.745	81.31
492.963	90.31
493.18	65.31
493.398	93.31
493.615	101.31
493.833	95.31
494.05	87.31
494.268	92.31
494.485	90.31
494.703	94.31
494.92	80.31
495.138	102.31
495.355	90.31
495.573	93.31
495.79	85.31
496.008	88.31
496.225	112.31
496.442	90.31
496.66	87.31
496.877	85.31
497.094	101.31
497.312	88.31
497.529	97.31
497.746	96.31
497.963	87.31
498.181	92.31
498.398	96.31
498.615	103.31
498.832	93.31
499.049	85.31
499.267	88.31
499.484	85.31
499.701	101.31
499.918	83.31
500.135	83.31
500.352	94.31
500.569	77.31
500.786	88.31
501.003	83.31
501.22	87.31
501.437	96.31
501.654	98.31
501.871	94.31
502.088	76.31
502.305	86.31
502.522	95.31
502.739	84.31
502.956	86.31
503.172	88.31
503.389	89.31
503.606	106.31
503.823	97.31
504.04	87.31
504.256	79.31
504.473	92.31
504.69	89.31
504.907	90.31
505.123	83.31
505.34	72.31
505.557	90.31
505.773	91.31
505.99	84.31
506.207	102.31
506.423	78.31
506.64	83.31
506.856	80.31
507.073	84.31
507.289	105.31
507.506	89.31
507.722	113.31
507.939	98.31
508.155	103.31
508.372	82.31
508.588	86.31
508.805	87.31
509.021	95.31
509.238	93.31
509.454	108.31
509.67	94.31
509.887	122.31
510.103	120.31
510.319	200.31
510.536	660.31
510.752	1956.31
510.968	570.31
511.184	136.31
511.401	102.31
511.617	108.31
511.833	105.31
512.049	80.31
512.265	87.31
512.481	82.31
512.698	104.31
512.914	72.31
513.13	82.31
513.346	89.31
513.562	102.31
513.778	88.31
513.994	86.31
514.21	93.31
514.426	109.31
514.642	123.31
514.858	126.31
515.074	132.31
515.29	347.31
515.506	1138.31
515.721	422.31
515.937	130.31
516.153	99.31
516.369	104.31
516.585	82.31
516.801	98.31
517.016	84.31
