Data from Uncirc_2002_H10_HRD10591_00080.txt Node
Date: Wed Jan 03 10:39:57 EST 2024
User: Yrep
Spectrometer: HR+D1059
Trigger mode: 1
Integration Time (sec): 1.000000E-1
Scans to average: 1
Electric dark correction enabled: true
Nonlinearity correction enabled: false
Boxcar width: 0
XAxis mode: Wavelengths
Number of Pixels in Spectrum: 2048
>>>>>Begin Spectral Data<<<<<
223.165	-21.69
223.4	-21.69
223.635	-21.69
223.869	-14.69
224.104	-17.69
224.338	-9.69
224.573	-8.69
224.808	-27.69
225.042	-10.69
225.277	-0.69
225.511	1.31
225.746	8.31
225.98	3.31
226.215	17.31
226.449	2.31
226.683	29.31
226.918	26.31
227.152	23.31
227.387	30.31
227.621	38.31
227.856	54.31
228.09	48.31
228.324	40.31
228.559	46.31
228.793	66.31
229.027	50.31
229.262	69.31
229.496	77.31
229.73	87.31
229.964	78.31
230.199	77.31
230.433	80.31
230.667	89.31
230.901	67.31
231.136	79.31
231.37	68.31
231.604	85.31
231.838	87.31
232.072	77.31
232.306	66.31
232.541	86.31
232.775	73.31
233.009	80.31
233.243	86.31
233.477	62.31
233.711	78.31
233.945	83.31
234.179	67.31
234.413	80.31
234.647	78.31
234.881	73.31
235.115	71.31
235.349	78.31
235.583	61.31
235.817	88.31
236.051	83.31
236.285	68.31
236.519	73.31
236.753	81.31
236.987	74.31
237.221	85.31
237.455	76.31
237.689	73.31
237.922	78.31
238.156	71.31
238.39	80.31
238.624	71.31
238.858	76.31
239.091	70.31
239.325	71.31
239.559	78.31
239.793	90.31
240.027	77.31
240.26	67.31
240.494	76.31
240.728	82.31
240.961	74.31
241.195	77.31
241.429	77.31
241.662	73.31
241.896	69.31
242.13	70.31
242.363	73.31
242.597	85.31
242.83	55.31
243.064	81.31
243.298	73.31
243.531	72.31
243.765	87.31
243.998	77.31
244.232	89.31
244.465	82.31
244.699	85.31
244.932	66.31
245.166	81.31
245.399	96.31
245.633	81.31
245.866	89.31
246.099	81.31
246.333	79.31
246.566	78.31
246.8	81.31
247.033	82.31
247.266	73.31
247.5	79.31
247.733	78.31
247.966	88.31
248.2	85.31
248.433	65.31
248.666	61.31
248.899	77.31
249.133	86.31
249.366	110.31
249.599	79.31
249.832	88.31
250.066	88.31
250.299	73.31
250.532	82.31
250.765	70.31
250.998	75.31
251.231	77.31
251.465	65.31
251.698	81.31
251.931	86.31
252.164	72.31
252.397	82.31
252.63	70.31
252.863	75.31
253.096	78.31
253.329	73.31
253.562	83.31
253.795	73.31
254.028	82.31
254.261	70.31
254.494	85.31
254.727	79.31
254.96	89.31
255.193	75.31
255.426	85.31
255.659	77.31
255.892	90.31
256.124	87.31
256.357	70.31
256.59	75.31
256.823	79.31
257.056	81.31
257.289	87.31
257.521	82.31
257.754	78.31
257.987	69.31
258.22	79.31
258.452	84.31
258.685	81.31
258.918	79.31
259.151	66.31
259.383	87.31
259.616	85.31
259.849	87.31
260.081	91.31
260.314	83.31
260.547	67.31
260.779	85.31
261.012	94.31
261.244	89.31
261.477	90.31
261.71	84.31
261.942	105.31
262.175	116.31
262.407	82.31
262.64	85.31
262.872	72.31
263.105	73.31
263.337	91.31
263.57	77.31
263.802	92.31
264.035	78.31
264.267	83.31
264.499	88.31
264.732	68.31
264.964	70.31
265.197	79.31
265.429	87.31
265.661	75.31
265.894	82.31
266.126	87.31
266.358	88.31
266.591	88.31
266.823	90.31
267.055	66.31
267.287	82.31
267.52	77.31
267.752	84.31
267.984	85.31
268.216	91.31
268.448	91.31
268.681	90.31
268.913	91.31
269.145	73.31
269.377	69.31
269.609	77.31
269.841	90.31
270.073	81.31
270.306	92.31
270.538	73.31
270.77	85.31
271.002	79.31
271.234	79.31
271.466	86.31
271.698	77.31
271.93	77.31
272.162	79.31
272.394	100.31
272.626	95.31
272.858	84.31
273.09	78.31
273.322	96.31
273.553	80.31
273.785	80.31
274.017	87.31
274.249	71.31
274.481	83.31
274.713	80.31
274.945	62.31
275.176	88.31
275.408	73.31
275.64	93.31
275.872	81.31
276.104	90.31
276.335	78.31
276.567	102.31
276.799	103.31
277.031	87.31
277.262	90.31
277.494	77.31
277.726	96.31
277.957	85.31
278.189	86.31
278.421	79.31
278.652	83.31
278.884	82.31
279.115	88.31
279.347	75.31
279.579	86.31
279.81	85.31
280.042	86.31
280.273	84.31
280.505	71.31
280.736	89.31
280.968	97.31
281.199	90.31
281.431	86.31
281.662	92.31
281.894	89.31
282.125	87.31
282.356	116.31
282.588	135.31
282.819	96.31
283.051	85.31
283.282	90.31
283.513	89.31
283.745	80.31
283.976	90.31
284.207	78.31
284.439	98.31
284.67	76.31
284.901	86.31
285.132	86.31
285.364	73.31
285.595	84.31
285.826	91.31
286.057	88.31
286.288	98.31
286.52	81.31
286.751	80.31
286.982	81.31
287.213	82.31
287.444	91.31
287.675	86.31
287.906	85.31
288.138	97.31
288.369	88.31
288.6	89.31
288.831	93.31
289.062	59.31
289.293	80.31
289.524	84.31
289.755	72.31
289.986	88.31
290.217	82.31
290.448	87.31
290.679	75.31
290.91	81.31
291.141	79.31
291.371	85.31
291.602	94.31
291.833	80.31
292.064	82.31
292.295	96.31
292.526	85.31
292.757	81.31
292.987	81.31
293.218	75.31
293.449	79.31
293.68	94.31
293.91	83.31
294.141	96.31
294.372	85.31
294.603	98.31
294.833	72.31
295.064	78.31
295.295	74.31
295.525	82.31
295.756	104.31
295.987	102.31
296.217	129.31
296.448	110.31
296.679	90.31
296.909	98.31
297.14	95.31
297.37	89.31
297.601	86.31
297.831	72.31
298.062	87.31
298.292	96.31
298.523	95.31
298.753	79.31
298.984	84.31
299.214	85.31
299.445	69.31
299.675	87.31
299.905	101.31
300.136	94.31
300.366	85.31
300.597	91.31
300.827	99.31
301.057	109.31
301.288	95.31
301.518	80.31
301.748	97.31
301.979	90.31
302.209	105.31
302.439	104.31
302.669	94.31
302.9	107.31
303.13	83.31
303.36	77.31
303.59	95.31
303.82	105.31
304.051	92.31
304.281	77.31
304.511	82.31
304.741	90.31
304.971	88.31
305.201	79.31
305.431	105.31
305.661	79.31
305.891	95.31
306.121	97.31
306.352	87.31
306.582	100.31
306.812	87.31
307.042	85.31
307.272	96.31
307.502	89.31
307.731	94.31
307.961	101.31
308.191	101.31
308.421	102.31
308.651	106.31
308.881	96.31
309.111	94.31
309.341	98.31
309.571	102.31
309.8	112.31
310.03	101.31
310.26	81.31
310.49	97.31
310.72	89.31
310.949	88.31
311.179	81.31
311.409	86.31
311.639	79.31
311.868	97.31
312.098	88.31
312.328	108.31
312.557	113.31
312.787	96.31
313.017	77.31
313.246	100.31
313.476	76.31
313.706	103.31
313.935	77.31
314.165	103.31
314.394	97.31
314.624	95.31
314.853	97.31
315.083	95.31
315.312	101.31
315.542	101.31
315.771	94.31
316.001	78.31
316.23	85.31
316.46	103.31
316.689	80.31
316.919	91.31
317.148	94.31
317.377	85.31
317.607	104.31
317.836	74.31
318.065	97.31
318.295	87.31
318.524	82.31
318.753	84.31
318.983	80.31
319.212	98.31
319.441	81.31
319.67	100.31
319.9	102.31
320.129	112.31
320.358	99.31
320.587	95.31
320.816	97.31
321.046	114.31
321.275	91.31
321.504	87.31
321.733	100.31
321.962	87.31
322.191	91.31
322.42	86.31
322.649	94.31
322.878	89.31
323.108	116.31
323.337	99.31
323.566	128.31
323.795	144.31
324.024	197.31
324.253	341.31
324.482	730.31
324.71	1542.31
324.939	1975.31
325.168	739.31
325.397	239.31
325.626	153.31
325.855	124.31
326.084	125.31
326.313	136.31
326.542	153.31
326.77	217.31
326.999	437.31
327.228	855.31
327.457	1493.31
327.686	1234.31
327.914	340.31
328.143	184.31
328.372	141.31
328.6	135.31
328.829	117.31
329.058	123.31
329.287	117.31
329.515	102.31
329.744	94.31
329.972	94.31
330.201	96.31
330.43	100.31
330.658	113.31
330.887	131.31
331.115	115.31
331.344	110.31
331.572	103.31
331.801	97.31
332.03	108.31
332.258	89.31
332.486	96.31
332.715	88.31
332.943	97.31
333.172	101.31
333.4	98.31
333.629	95.31
333.857	107.31
334.085	102.31
334.314	100.31
334.542	96.31
334.771	94.31
334.999	101.31
335.227	99.31
335.455	88.31
335.684	110.31
335.912	107.31
336.14	107.31
336.369	92.31
336.597	84.31
336.825	91.31
337.053	88.31
337.281	96.31
337.51	87.31
337.738	97.31
337.966	95.31
338.194	85.31
338.422	89.31
338.65	92.31
338.878	99.31
339.106	82.31
339.334	85.31
339.562	84.31
339.79	97.31
340.018	89.31
340.246	98.31
340.474	87.31
340.702	90.31
340.93	90.31
341.158	102.31
341.386	90.31
341.614	84.31
341.842	92.31
342.07	97.31
342.298	82.31
342.526	87.31
342.754	85.31
342.981	97.31
343.209	94.31
343.437	96.31
343.665	105.31
343.893	94.31
344.12	99.31
344.348	65.31
344.576	97.31
344.804	93.31
345.031	99.31
345.259	103.31
345.487	94.31
345.714	94.31
345.942	94.31
346.17	81.31
346.397	83.31
346.625	74.31
346.853	87.31
347.08	83.31
347.308	89.31
347.535	94.31
347.763	106.31
347.99	101.31
348.218	107.31
348.445	109.31
348.673	102.31
348.9	88.31
349.128	105.31
349.355	91.31
349.583	93.31
349.81	95.31
350.037	102.31
350.265	91.31
350.492	89.31
350.72	81.31
350.947	99.31
351.174	108.31
351.402	98.31
351.629	102.31
351.856	112.31
352.083	99.31
352.311	96.31
352.538	102.31
352.765	100.31
352.992	111.31
353.22	101.31
353.447	98.31
353.674	100.31
353.901	98.31
354.128	103.31
354.355	105.31
354.583	95.31
354.81	89.31
355.037	93.31
355.264	87.31
355.491	86.31
355.718	87.31
355.945	86.31
356.172	93.31
356.399	99.31
356.626	91.31
356.853	75.31
357.08	94.31
357.307	90.31
357.534	83.31
357.761	95.31
357.988	106.31
358.215	83.31
358.441	93.31
358.668	71.31
358.895	90.31
359.122	95.31
359.349	99.31
359.576	95.31
359.802	98.31
360.029	107.31
360.256	93.31
360.483	73.31
360.709	95.31
360.936	96.31
361.163	101.31
361.39	102.31
361.616	98.31
361.843	93.31
362.07	97.31
362.296	105.31
362.523	101.31
362.749	91.31
362.976	93.31
363.203	102.31
363.429	98.31
363.656	98.31
363.882	91.31
364.109	105.31
364.335	83.31
364.562	86.31
364.788	87.31
365.015	85.31
365.241	97.31
365.468	109.31
365.694	101.31
365.92	96.31
366.147	99.31
366.373	91.31
366.599	94.31
366.826	89.31
367.052	79.31
367.278	79.31
367.505	80.31
367.731	84.31
367.957	91.31
368.184	82.31
368.41	90.31
368.636	99.31
368.862	107.31
369.089	101.31
369.315	95.31
369.541	97.31
369.767	104.31
369.993	88.31
370.219	85.31
370.445	85.31
370.672	88.31
370.898	83.31
371.124	94.31
371.35	93.31
371.576	81.31
371.802	97.31
372.028	88.31
372.254	85.31
372.48	93.31
372.706	81.31
372.932	81.31
373.158	95.31
373.384	80.31
373.61	99.31
373.835	91.31
374.061	77.31
374.287	94.31
374.513	88.31
374.739	85.31
374.965	87.31
375.191	79.31
375.416	84.31
375.642	94.31
375.868	101.31
376.094	86.31
376.319	90.31
376.545	92.31
376.771	85.31
376.997	79.31
377.222	90.31
377.448	95.31
377.674	97.31
377.899	90.31
378.125	92.31
378.35	98.31
378.576	104.31
378.802	93.31
379.027	101.31
379.253	90.31
379.478	93.31
379.704	94.31
379.929	86.31
380.155	83.31
380.38	95.31
380.606	91.31
380.831	94.31
381.057	89.31
381.282	83.31
381.507	110.31
381.733	99.31
381.958	96.31
382.184	105.31
382.409	103.31
382.634	98.31
382.86	97.31
383.085	98.31
383.31	99.31
383.535	95.31
383.761	90.31
383.986	76.31
384.211	90.31
384.436	95.31
384.662	92.31
384.887	103.31
385.112	111.31
385.337	103.31
385.562	101.31
385.787	102.31
386.013	95.31
386.238	121.31
386.463	106.31
386.688	99.31
386.913	115.31
387.138	90.31
387.363	96.31
387.588	97.31
387.813	94.31
388.038	114.31
388.263	104.31
388.488	102.31
388.713	86.31
388.938	106.31
389.163	93.31
389.387	86.31
389.612	91.31
389.837	107.31
390.062	102.31
390.287	102.31
390.512	95.31
390.736	92.31
390.961	91.31
391.186	90.31
391.411	89.31
391.636	84.31
391.86	75.31
392.085	90.31
392.31	73.31
392.534	77.31
392.759	89.31
392.984	85.31
393.208	91.31
393.433	90.31
393.658	73.31
393.882	73.31
394.107	75.31
394.331	82.31
394.556	78.31
394.78	102.31
395.005	88.31
395.229	86.31
395.454	92.31
395.678	82.31
395.903	89.31
396.127	85.31
396.352	94.31
396.576	91.31
396.801	89.31
397.025	83.31
397.249	81.31
397.474	90.31
397.698	74.31
397.922	87.31
398.147	94.31
398.371	82.31
398.595	89.31
398.82	73.31
399.044	92.31
399.268	80.31
399.492	73.31
399.717	89.31
399.941	92.31
400.165	90.31
400.389	84.31
400.613	82.31
400.837	90.31
401.062	92.31
401.286	86.31
401.51	88.31
401.734	82.31
401.958	94.31
402.182	114.31
402.406	143.31
402.63	116.31
402.854	71.31
403.078	91.31
403.302	90.31
403.526	75.31
403.75	78.31
403.974	106.31
404.198	85.31
404.422	97.31
404.645	81.31
404.869	75.31
405.093	87.31
405.317	88.31
405.541	102.31
405.765	91.31
405.988	108.31
406.212	162.31
406.436	221.31
406.66	143.31
406.883	97.31
407.107	95.31
407.331	89.31
407.555	96.31
407.778	100.31
408.002	97.31
408.226	90.31
408.449	88.31
408.673	85.31
408.896	94.31
409.12	91.31
409.344	87.31
409.567	85.31
409.791	85.31
410.014	94.31
410.238	98.31
410.461	101.31
410.685	95.31
410.908	94.31
411.132	102.31
411.355	89.31
411.578	99.31
411.802	78.31
412.025	86.31
412.249	83.31
412.472	81.31
412.695	91.31
412.919	98.31
413.142	89.31
413.365	93.31
413.589	84.31
413.812	93.31
414.035	84.31
414.258	85.31
414.482	87.31
414.705	101.31
414.928	88.31
415.151	95.31
415.374	74.31
415.597	89.31
415.821	96.31
416.044	88.31
416.267	90.31
416.49	100.31
416.713	81.31
416.936	90.31
417.159	80.31
417.382	97.31
417.605	84.31
417.828	98.31
418.051	91.31
418.274	97.31
418.497	95.31
418.72	84.31
418.943	83.31
419.166	85.31
419.389	92.31
419.611	79.31
419.834	94.31
420.057	89.31
420.28	98.31
420.503	95.31
420.726	97.31
420.948	80.31
421.171	92.31
421.394	88.31
421.617	95.31
421.839	94.31
422.062	83.31
422.285	86.31
422.507	91.31
422.73	95.31
422.953	85.31
423.175	84.31
423.398	105.31
423.621	85.31
423.843	87.31
424.066	87.31
424.288	86.31
424.511	84.31
424.733	85.31
424.956	102.31
425.178	104.31
425.401	102.31
425.623	100.31
425.846	94.31
426.068	97.31
426.291	78.31
426.513	82.31
426.735	91.31
426.958	96.31
427.18	107.31
427.402	128.31
427.625	141.31
427.847	108.31
428.069	95.31
428.292	86.31
428.514	75.31
428.736	86.31
428.958	78.31
429.181	83.31
429.403	70.31
429.625	80.31
429.847	89.31
430.069	105.31
430.292	104.31
430.514	80.31
430.736	71.31
430.958	87.31
431.18	81.31
431.402	89.31
431.624	79.31
431.846	74.31
432.068	90.31
432.29	74.31
432.512	69.31
432.734	90.31
432.956	91.31
433.178	99.31
433.4	83.31
433.622	97.31
433.844	99.31
434.066	97.31
434.287	85.31
434.509	81.31
434.731	87.31
434.953	89.31
435.175	85.31
435.397	88.31
435.618	97.31
435.84	100.31
436.062	106.31
436.284	106.31
436.505	102.31
436.727	80.31
436.949	101.31
437.17	94.31
437.392	98.31
437.614	82.31
437.835	105.31
438.057	115.31
438.278	97.31
438.5	106.31
438.721	125.31
438.943	97.31
439.165	91.31
439.386	97.31
439.608	85.31
439.829	93.31
440.05	98.31
440.272	131.31
440.493	90.31
440.715	90.31
440.936	88.31
441.158	78.31
441.379	74.31
441.6	93.31
441.822	91.31
442.043	95.31
442.264	88.31
442.486	102.31
442.707	82.31
442.928	103.31
443.149	134.31
443.371	125.31
443.592	101.31
443.813	104.31
444.034	106.31
444.255	91.31
444.476	85.31
444.698	102.31
444.919	91.31
445.14	127.31
445.361	111.31
445.582	101.31
445.803	127.31
446.024	122.31
446.245	118.31
446.466	103.31
446.687	68.31
446.908	81.31
447.129	85.31
447.35	67.31
447.571	87.31
447.792	95.31
448.013	96.31
448.234	108.31
448.455	102.31
448.675	98.31
448.896	104.31
449.117	103.31
449.338	95.31
449.559	107.31
449.779	137.31
450	105.31
450.221	93.31
450.442	90.31
450.662	78.31
450.883	92.31
451.104	118.31
451.324	95.31
451.545	80.31
451.766	86.31
451.986	82.31
452.207	85.31
452.428	83.31
452.648	97.31
452.869	103.31
453.089	109.31
453.31	121.31
453.53	79.31
453.751	93.31
453.971	81.31
454.192	103.31
454.412	82.31
454.633	90.31
454.853	88.31
455.073	93.31
455.294	93.31
455.514	88.31
455.734	95.31
455.955	96.31
456.175	87.31
456.395	87.31
456.616	90.31
456.836	73.31
457.056	79.31
457.276	73.31
457.497	79.31
457.717	77.31
457.937	82.31
458.157	82.31
458.377	93.31
458.598	93.31
458.818	149.31
459.038	147.31
459.258	112.31
459.478	102.31
459.698	86.31
459.918	87.31
460.138	106.31
460.358	65.31
460.578	90.31
460.798	99.31
461.018	90.31
461.238	99.31
461.458	88.31
461.678	91.31
461.898	102.31
462.118	86.31
462.338	71.31
462.558	96.31
462.777	91.31
462.997	94.31
463.217	77.31
463.437	75.31
463.657	85.31
463.876	106.31
464.096	95.31
464.316	103.31
464.536	90.31
464.755	88.31
464.975	105.31
465.195	145.31
465.414	145.31
465.634	87.31
465.854	84.31
466.073	80.31
466.293	90.31
466.512	84.31
466.732	82.31
466.951	93.31
467.171	89.31
467.391	72.31
467.61	94.31
467.829	94.31
468.049	79.31
468.268	79.31
468.488	82.31
468.707	78.31
468.927	86.31
469.146	87.31
469.365	90.31
469.585	97.31
469.804	86.31
470.023	76.31
470.243	93.31
470.462	76.31
470.681	90.31
470.901	80.31
471.12	93.31
471.339	92.31
471.558	84.31
471.777	87.31
471.997	83.31
472.216	86.31
472.435	93.31
472.654	80.31
472.873	94.31
473.092	83.31
473.311	87.31
473.53	62.31
473.749	83.31
473.968	94.31
474.187	102.31
474.406	80.31
474.625	90.31
474.844	89.31
475.063	77.31
475.282	88.31
475.501	80.31
475.72	93.31
475.939	81.31
476.158	94.31
476.377	91.31
476.596	92.31
476.814	89.31
477.033	81.31
477.252	91.31
477.471	106.31
477.69	95.31
477.908	94.31
478.127	92.31
478.346	75.31
478.564	87.31
478.783	95.31
479.002	98.31
479.22	85.31
479.439	104.31
479.658	95.31
479.876	102.31
480.095	85.31
480.313	98.31
480.532	81.31
480.751	82.31
480.969	91.31
481.188	106.31
481.406	91.31
481.624	90.31
481.843	97.31
482.061	91.31
482.28	104.31
482.498	99.31
482.717	81.31
482.935	77.31
483.153	92.31
483.372	97.31
483.59	96.31
483.808	100.31
484.027	92.31
484.245	82.31
484.463	79.31
484.681	89.31
484.9	99.31
485.118	101.31
485.336	97.31
485.554	85.31
485.772	92.31
485.99	101.31
486.209	101.31
486.427	95.31
486.645	117.31
486.863	103.31
487.081	101.31
487.299	86.31
487.517	91.31
487.735	87.31
487.953	95.31
488.171	89.31
488.389	79.31
488.607	92.31
488.825	93.31
489.043	91.31
489.261	98.31
489.479	96.31
489.696	94.31
489.914	83.31
490.132	90.31
490.35	100.31
490.568	85.31
490.786	97.31
491.003	88.31
491.221	91.31
491.439	103.31
491.657	95.31
491.874	82.31
492.092	95.31
492.31	98.31
492.527	104.31
492.745	91.31
492.963	95.31
493.18	104.31
493.398	88.31
493.615	95.31
493.833	102.31
494.05	90.31
494.268	86.31
494.485	107.31
494.703	84.31
494.92	92.31
495.138	96.31
495.355	79.31
495.573	78.31
495.79	89.31
496.008	97.31
496.225	78.31
496.442	85.31
496.66	89.31
496.877	82.31
497.094	94.31
497.312	86.31
497.529	97.31
497.746	110.31
497.963	93.31
498.181	84.31
498.398	101.31
498.615	110.31
498.832	101.31
499.049	82.31
499.267	75.31
499.484	72.31
499.701	86.31
499.918	101.31
500.135	86.31
500.352	80.31
500.569	87.31
500.786	97.31
501.003	83.31
501.22	86.31
501.437	94.31
501.654	91.31
501.871	101.31
502.088	99.31
502.305	90.31
502.522	87.31
502.739	91.31
502.956	80.31
503.172	78.31
503.389	70.31
503.606	96.31
503.823	88.31
504.04	87.31
504.256	79.31
504.473	101.31
504.69	80.31
504.907	88.31
505.123	94.31
505.34	98.31
505.557	96.31
505.773	81.31
505.99	91.31
506.207	99.31
506.423	85.31
506.64	88.31
506.856	79.31
507.073	90.31
507.289	88.31
507.506	78.31
507.722	105.31
507.939	111.31
508.155	97.31
508.372	91.31
508.588	75.31
508.805	103.31
509.021	107.31
509.238	93.31
509.454	95.31
509.67	101.31
509.887	101.31
510.103	146.31
510.319	203.31
510.536	731.31
510.752	2309.31
510.968	623.31
511.184	157.31
511.401	122.31
511.617	101.31
511.833	88.31
512.049	88.31
512.265	81.31
512.481	93.31
512.698	97.31
512.914	103.31
513.13	88.31
513.346	91.31
513.562	90.31
513.778	105.31
513.994	109.31
514.21	97.31
514.426	115.31
514.642	140.31
514.858	122.31
515.074	164.31
515.29	416.31
515.506	1370.31
515.721	511.31
515.937	159.31
516.153	105.31
516.369	106.31
