Data from Uncirc_2002_H10_HRD10591_00059.txt Node
Date: Wed Jan 03 10:39:53 EST 2024
User: Yrep
Spectrometer: HR+D1059
Trigger mode: 1
Integration Time (sec): 1.000000E-1
Scans to average: 1
Electric dark correction enabled: true
Nonlinearity correction enabled: false
Boxcar width: 0
XAxis mode: Wavelengths
Number of Pixels in Spectrum: 2048
>>>>>Begin Spectral Data<<<<<
223.165	-17.31
223.4	-17.31
223.635	-17.31
223.869	-21.31
224.104	-22.31
224.338	-18.31
224.573	-12.31
224.808	-15.31
225.042	5.69
225.277	-4.31
225.511	-4.31
225.746	3.69
225.98	10.69
226.215	1.69
226.449	27.69
226.683	34.69
226.918	10.69
227.152	20.69
227.387	26.69
227.621	37.69
227.856	43.69
228.09	36.69
228.324	52.69
228.559	65.69
228.793	73.69
229.027	59.69
229.262	58.69
229.496	85.69
229.73	85.69
229.964	78.69
230.199	70.69
230.433	68.69
230.667	71.69
230.901	80.69
231.136	74.69
231.37	79.69
231.604	69.69
231.838	78.69
232.072	78.69
232.306	80.69
232.541	86.69
232.775	82.69
233.009	81.69
233.243	85.69
233.477	73.69
233.711	89.69
233.945	100.69
234.179	73.69
234.413	71.69
234.647	69.69
234.881	80.69
235.115	91.69
235.349	92.69
235.583	79.69
235.817	79.69
236.051	80.69
236.285	80.69
236.519	80.69
236.753	74.69
236.987	76.69
237.221	70.69
237.455	85.69
237.689	83.69
237.922	69.69
238.156	74.69
238.39	76.69
238.624	73.69
238.858	92.69
239.091	81.69
239.325	76.69
239.559	91.69
239.793	83.69
240.027	93.69
240.26	59.69
240.494	86.69
240.728	80.69
240.961	78.69
241.195	74.69
241.429	67.69
241.662	72.69
241.896	78.69
242.13	80.69
242.363	86.69
242.597	87.69
242.83	79.69
243.064	78.69
243.298	67.69
243.531	79.69
243.765	86.69
243.998	78.69
244.232	87.69
244.465	83.69
244.699	73.69
244.932	78.69
245.166	86.69
245.399	88.69
245.633	84.69
245.866	67.69
246.099	85.69
246.333	88.69
246.566	80.69
246.8	70.69
247.033	87.69
247.266	80.69
247.5	83.69
247.733	87.69
247.966	87.69
248.2	74.69
248.433	79.69
248.666	74.69
248.899	76.69
249.133	92.69
249.366	92.69
249.599	100.69
249.832	90.69
250.066	83.69
250.299	76.69
250.532	70.69
250.765	90.69
250.998	94.69
251.231	66.69
251.465	74.69
251.698	81.69
251.931	90.69
252.164	72.69
252.397	82.69
252.63	72.69
252.863	87.69
253.096	90.69
253.329	89.69
253.562	74.69
253.795	56.69
254.028	90.69
254.261	68.69
254.494	70.69
254.727	90.69
254.96	78.69
255.193	84.69
255.426	94.69
255.659	73.69
255.892	80.69
256.124	89.69
256.357	88.69
256.59	75.69
256.823	88.69
257.056	76.69
257.289	89.69
257.521	75.69
257.754	85.69
257.987	84.69
258.22	85.69
258.452	86.69
258.685	69.69
258.918	103.69
259.151	80.69
259.383	86.69
259.616	93.69
259.849	81.69
260.081	75.69
260.314	84.69
260.547	94.69
260.779	93.69
261.012	80.69
261.244	82.69
261.477	82.69
261.71	92.69
261.942	87.69
262.175	101.69
262.407	83.69
262.64	77.69
262.872	82.69
263.105	69.69
263.337	83.69
263.57	87.69
263.802	93.69
264.035	79.69
264.267	80.69
264.499	79.69
264.732	85.69
264.964	88.69
265.197	83.69
265.429	97.69
265.661	67.69
265.894	72.69
266.126	82.69
266.358	91.69
266.591	91.69
266.823	81.69
267.055	83.69
267.287	100.69
267.52	80.69
267.752	90.69
267.984	79.69
268.216	89.69
268.448	89.69
268.681	77.69
268.913	101.69
269.145	83.69
269.377	73.69
269.609	81.69
269.841	80.69
270.073	89.69
270.306	91.69
270.538	85.69
270.77	93.69
271.002	88.69
271.234	82.69
271.466	79.69
271.698	79.69
271.93	80.69
272.162	89.69
272.394	90.69
272.626	77.69
272.858	81.69
273.09	105.69
273.322	83.69
273.553	91.69
273.785	91.69
274.017	83.69
274.249	73.69
274.481	74.69
274.713	87.69
274.945	88.69
275.176	88.69
275.408	89.69
275.64	81.69
275.872	89.69
276.104	88.69
276.335	96.69
276.567	97.69
276.799	89.69
277.031	98.69
277.262	97.69
277.494	88.69
277.726	84.69
277.957	82.69
278.189	88.69
278.421	80.69
278.652	87.69
278.884	89.69
279.115	86.69
279.347	96.69
279.579	83.69
279.81	76.69
280.042	93.69
280.273	83.69
280.505	88.69
280.736	84.69
280.968	100.69
281.199	83.69
281.431	88.69
281.662	90.69
281.894	105.69
282.125	104.69
282.356	102.69
282.588	119.69
282.819	97.69
283.051	74.69
283.282	97.69
283.513	105.69
283.745	77.69
283.976	85.69
284.207	84.69
284.439	89.69
284.67	82.69
284.901	81.69
285.132	79.69
285.364	87.69
285.595	81.69
285.826	84.69
286.057	83.69
286.288	87.69
286.52	94.69
286.751	108.69
286.982	91.69
287.213	91.69
287.444	81.69
287.675	81.69
287.906	91.69
288.138	89.69
288.369	96.69
288.6	100.69
288.831	91.69
289.062	88.69
289.293	89.69
289.524	90.69
289.755	91.69
289.986	87.69
290.217	91.69
290.448	91.69
290.679	74.69
290.91	96.69
291.141	89.69
291.371	106.69
291.602	94.69
291.833	86.69
292.064	84.69
292.295	84.69
292.526	92.69
292.757	84.69
292.987	82.69
293.218	85.69
293.449	98.69
293.68	93.69
293.91	91.69
294.141	82.69
294.372	95.69
294.603	90.69
294.833	100.69
295.064	83.69
295.295	87.69
295.525	96.69
295.756	88.69
295.987	97.69
296.217	120.69
296.448	115.69
296.679	91.69
296.909	99.69
297.14	91.69
297.37	91.69
297.601	96.69
297.831	103.69
298.062	96.69
298.292	78.69
298.523	95.69
298.753	79.69
298.984	92.69
299.214	90.69
299.445	106.69
299.675	90.69
299.905	84.69
300.136	81.69
300.366	92.69
300.597	84.69
300.827	106.69
301.057	103.69
301.288	97.69
301.518	102.69
301.748	95.69
301.979	108.69
302.209	86.69
302.439	84.69
302.669	104.69
302.9	93.69
303.13	97.69
303.36	99.69
303.59	82.69
303.82	100.69
304.051	101.69
304.281	92.69
304.511	105.69
304.741	88.69
304.971	80.69
305.201	90.69
305.431	94.69
305.661	103.69
305.891	92.69
306.121	87.69
306.352	101.69
306.582	94.69
306.812	93.69
307.042	96.69
307.272	98.69
307.502	90.69
307.731	102.69
307.961	99.69
308.191	85.69
308.421	86.69
308.651	96.69
308.881	85.69
309.111	110.69
309.341	105.69
309.571	104.69
309.8	94.69
310.03	94.69
310.26	93.69
310.49	93.69
310.72	97.69
310.949	91.69
311.179	98.69
311.409	106.69
311.639	97.69
311.868	93.69
312.098	84.69
312.328	98.69
312.557	115.69
312.787	114.69
313.017	104.69
313.246	104.69
313.476	99.69
313.706	79.69
313.935	100.69
314.165	98.69
314.394	104.69
314.624	90.69
314.853	99.69
315.083	76.69
315.312	91.69
315.542	116.69
315.771	93.69
316.001	88.69
316.23	97.69
316.46	98.69
316.689	86.69
316.919	99.69
317.148	97.69
317.377	97.69
317.607	98.69
317.836	80.69
318.065	91.69
318.295	99.69
318.524	100.69
318.753	102.69
318.983	94.69
319.212	97.69
319.441	108.69
319.67	102.69
319.9	96.69
320.129	104.69
320.358	96.69
320.587	101.69
320.816	90.69
321.046	96.69
321.275	97.69
321.504	92.69
321.733	107.69
321.962	96.69
322.191	103.69
322.42	120.69
322.649	111.69
322.878	99.69
323.108	109.69
323.337	114.69
323.566	112.69
323.795	140.69
324.024	185.69
324.253	318.69
324.482	644.69
324.71	1272.69
324.939	1689.69
325.168	612.69
325.397	184.69
325.626	144.69
325.855	123.69
326.084	123.69
326.313	129.69
326.542	131.69
326.77	189.69
326.999	397.69
327.228	733.69
327.457	1303.69
327.686	1036.69
327.914	300.69
328.143	170.69
328.372	140.69
328.6	119.69
328.829	129.69
329.058	109.69
329.287	115.69
329.515	102.69
329.744	93.69
329.972	102.69
330.201	89.69
330.43	99.69
330.658	102.69
330.887	120.69
331.115	120.69
331.344	93.69
331.572	106.69
331.801	102.69
332.03	105.69
332.258	102.69
332.486	89.69
332.715	85.69
332.943	109.69
333.172	97.69
333.4	90.69
333.629	92.69
333.857	111.69
334.085	108.69
334.314	111.69
334.542	107.69
334.771	104.69
334.999	115.69
335.227	97.69
335.455	85.69
335.684	109.69
335.912	109.69
336.14	92.69
336.369	91.69
336.597	104.69
336.825	88.69
337.053	89.69
337.281	99.69
337.51	97.69
337.738	85.69
337.966	85.69
338.194	88.69
338.422	89.69
338.65	108.69
338.878	114.69
339.106	92.69
339.334	86.69
339.562	92.69
339.79	92.69
340.018	92.69
340.246	93.69
340.474	78.69
340.702	100.69
340.93	99.69
341.158	87.69
341.386	100.69
341.614	110.69
341.842	99.69
342.07	103.69
342.298	90.69
342.526	83.69
342.754	91.69
342.981	88.69
343.209	89.69
343.437	107.69
343.665	91.69
343.893	93.69
344.12	92.69
344.348	96.69
344.576	80.69
344.804	105.69
345.031	100.69
345.259	98.69
345.487	99.69
345.714	85.69
345.942	102.69
346.17	91.69
346.397	84.69
346.625	98.69
346.853	92.69
347.08	88.69
347.308	93.69
347.535	82.69
347.763	87.69
347.99	93.69
348.218	108.69
348.445	91.69
348.673	89.69
348.9	105.69
349.128	106.69
349.355	93.69
349.583	92.69
349.81	108.69
350.037	90.69
350.265	89.69
350.492	98.69
350.72	97.69
350.947	98.69
351.174	112.69
351.402	94.69
351.629	99.69
351.856	97.69
352.083	109.69
352.311	98.69
352.538	97.69
352.765	108.69
352.992	117.69
353.22	108.69
353.447	103.69
353.674	99.69
353.901	109.69
354.128	99.69
354.355	94.69
354.583	98.69
354.81	109.69
355.037	100.69
355.264	93.69
355.491	102.69
355.718	101.69
355.945	94.69
356.172	102.69
356.399	89.69
356.626	97.69
356.853	88.69
357.08	98.69
357.307	80.69
357.534	94.69
357.761	87.69
357.988	93.69
358.215	94.69
358.441	97.69
358.668	93.69
358.895	91.69
359.122	95.69
359.349	89.69
359.576	86.69
359.802	91.69
360.029	104.69
360.256	98.69
360.483	106.69
360.709	102.69
360.936	92.69
361.163	99.69
361.39	89.69
361.616	97.69
361.843	89.69
362.07	88.69
362.296	103.69
362.523	105.69
362.749	86.69
362.976	88.69
363.203	98.69
363.429	90.69
363.656	84.69
363.882	93.69
364.109	97.69
364.335	90.69
364.562	110.69
364.788	97.69
365.015	95.69
365.241	108.69
365.468	91.69
365.694	105.69
365.92	94.69
366.147	89.69
366.373	92.69
366.599	92.69
366.826	79.69
367.052	91.69
367.278	92.69
367.505	77.69
367.731	91.69
367.957	86.69
368.184	80.69
368.41	104.69
368.636	100.69
368.862	108.69
369.089	105.69
369.315	70.69
369.541	84.69
369.767	92.69
369.993	90.69
370.219	93.69
370.445	73.69
370.672	83.69
370.898	93.69
371.124	97.69
371.35	88.69
371.576	102.69
371.802	103.69
372.028	88.69
372.254	97.69
372.48	100.69
372.706	83.69
372.932	76.69
373.158	94.69
373.384	101.69
373.61	100.69
373.835	99.69
374.061	103.69
374.287	106.69
374.513	97.69
374.739	87.69
374.965	85.69
375.191	89.69
375.416	81.69
375.642	94.69
375.868	88.69
376.094	98.69
376.319	91.69
376.545	100.69
376.771	93.69
376.997	99.69
377.222	92.69
377.448	106.69
377.674	84.69
377.899	94.69
378.125	105.69
378.35	95.69
378.576	80.69
378.802	81.69
379.027	81.69
379.253	92.69
379.478	94.69
379.704	92.69
379.929	83.69
380.155	106.69
380.38	84.69
380.606	75.69
380.831	90.69
381.057	99.69
381.282	94.69
381.507	89.69
381.733	100.69
381.958	105.69
382.184	99.69
382.409	89.69
382.634	107.69
382.86	88.69
383.085	96.69
383.31	105.69
383.535	121.69
383.761	104.69
383.986	103.69
384.211	107.69
384.436	99.69
384.662	91.69
384.887	98.69
385.112	95.69
385.337	104.69
385.562	105.69
385.787	99.69
386.013	97.69
386.238	100.69
386.463	115.69
386.688	107.69
386.913	97.69
387.138	112.69
387.363	74.69
387.588	102.69
387.813	89.69
388.038	108.69
388.263	92.69
388.488	92.69
388.713	81.69
388.938	85.69
389.163	94.69
389.387	93.69
389.612	99.69
389.837	106.69
390.062	84.69
390.287	95.69
390.512	94.69
390.736	88.69
390.961	99.69
391.186	93.69
391.411	102.69
391.636	100.69
391.86	99.69
392.085	78.69
392.31	100.69
392.534	94.69
392.759	94.69
392.984	68.69
393.208	100.69
393.433	98.69
393.658	88.69
393.882	94.69
394.107	97.69
394.331	87.69
394.556	94.69
394.78	85.69
395.005	89.69
395.229	91.69
395.454	86.69
395.678	95.69
395.903	91.69
396.127	97.69
396.352	89.69
396.576	75.69
396.801	93.69
397.025	103.69
397.249	99.69
397.474	84.69
397.698	89.69
397.922	89.69
398.147	88.69
398.371	82.69
398.595	89.69
398.82	100.69
399.044	86.69
399.268	96.69
399.492	97.69
399.717	87.69
399.941	105.69
400.165	91.69
400.389	86.69
400.613	82.69
400.837	82.69
401.062	84.69
401.286	85.69
401.51	91.69
401.734	87.69
401.958	94.69
402.182	124.69
402.406	132.69
402.63	109.69
402.854	97.69
403.078	100.69
403.302	89.69
403.526	89.69
403.75	93.69
403.974	80.69
404.198	89.69
404.422	97.69
404.645	84.69
404.869	90.69
405.093	96.69
405.317	86.69
405.541	91.69
405.765	102.69
405.988	117.69
406.212	143.69
406.436	197.69
406.66	126.69
406.883	108.69
407.107	87.69
407.331	106.69
407.555	100.69
407.778	100.69
408.002	99.69
408.226	79.69
408.449	84.69
408.673	93.69
408.896	99.69
409.12	105.69
409.344	76.69
409.567	85.69
409.791	91.69
410.014	93.69
410.238	92.69
410.461	105.69
410.685	91.69
410.908	98.69
411.132	114.69
411.355	90.69
411.578	95.69
411.802	100.69
412.025	64.69
412.249	88.69
412.472	102.69
412.695	91.69
412.919	84.69
413.142	98.69
413.365	94.69
413.589	97.69
413.812	98.69
414.035	89.69
414.258	84.69
414.482	104.69
414.705	97.69
414.928	96.69
415.151	86.69
415.374	98.69
415.597	66.69
415.821	81.69
416.044	87.69
416.267	84.69
416.49	93.69
416.713	109.69
416.936	99.69
417.159	99.69
417.382	90.69
417.605	78.69
417.828	88.69
418.051	80.69
418.274	89.69
418.497	99.69
418.72	102.69
418.943	84.69
419.166	84.69
419.389	91.69
419.611	77.69
419.834	101.69
420.057	94.69
420.28	98.69
420.503	96.69
420.726	95.69
420.948	83.69
421.171	87.69
421.394	95.69
421.617	92.69
421.839	90.69
422.062	93.69
422.285	106.69
422.507	107.69
422.73	85.69
422.953	97.69
423.175	84.69
423.398	88.69
423.621	98.69
423.843	96.69
424.066	91.69
424.288	83.69
424.511	89.69
424.733	91.69
424.956	105.69
425.178	98.69
425.401	113.69
425.623	93.69
425.846	85.69
426.068	82.69
426.291	99.69
426.513	96.69
426.735	92.69
426.958	99.69
427.18	107.69
427.402	126.69
427.625	130.69
427.847	108.69
428.069	96.69
428.292	85.69
428.514	90.69
428.736	86.69
428.958	92.69
429.181	86.69
429.403	98.69
429.625	90.69
429.847	89.69
430.069	88.69
430.292	83.69
430.514	91.69
430.736	85.69
430.958	86.69
431.18	89.69
431.402	85.69
431.624	70.69
431.846	69.69
432.068	77.69
432.29	87.69
432.512	73.69
432.734	93.69
432.956	76.69
433.178	95.69
433.4	99.69
433.622	98.69
433.844	100.69
434.066	81.69
434.287	100.69
434.509	88.69
434.731	106.69
434.953	86.69
435.175	64.69
435.397	106.69
435.618	95.69
435.84	88.69
436.062	108.69
436.284	94.69
436.505	101.69
436.727	95.69
436.949	97.69
437.17	80.69
437.392	91.69
437.614	91.69
437.835	101.69
438.057	101.69
438.278	117.69
438.5	105.69
438.721	105.69
438.943	95.69
439.165	85.69
439.386	110.69
439.608	98.69
439.829	91.69
440.05	120.69
440.272	117.69
440.493	88.69
440.715	93.69
440.936	79.69
441.158	90.69
441.379	94.69
441.6	94.69
441.822	101.69
442.043	78.69
442.264	101.69
442.486	103.69
442.707	84.69
442.928	103.69
443.149	114.69
443.371	100.69
443.592	108.69
443.813	105.69
444.034	99.69
444.255	98.69
444.476	85.69
444.698	88.69
444.919	95.69
445.14	129.69
445.361	120.69
445.582	114.69
445.803	127.69
446.024	115.69
446.245	126.69
446.466	106.69
446.687	101.69
446.908	80.69
447.129	93.69
447.35	84.69
447.571	83.69
447.792	84.69
448.013	95.69
448.234	93.69
448.455	93.69
448.675	110.69
448.896	104.69
449.117	92.69
449.338	100.69
449.559	109.69
449.779	119.69
450	102.69
450.221	80.69
450.442	89.69
450.662	103.69
450.883	99.69
451.104	112.69
451.324	97.69
451.545	77.69
451.766	88.69
451.986	96.69
452.207	87.69
452.428	86.69
452.648	104.69
452.869	87.69
453.089	93.69
453.31	109.69
453.53	100.69
453.751	91.69
453.971	102.69
454.192	94.69
454.412	98.69
454.633	91.69
454.853	82.69
455.073	94.69
455.294	89.69
455.514	105.69
455.734	97.69
455.955	94.69
456.175	86.69
456.395	93.69
456.616	96.69
456.836	75.69
457.056	67.69
457.276	90.69
457.497	88.69
457.717	99.69
457.937	84.69
458.157	77.69
458.377	97.69
458.598	97.69
458.818	120.69
459.038	128.69
459.258	124.69
459.478	96.69
459.698	77.69
459.918	97.69
460.138	97.69
460.358	88.69
460.578	85.69
460.798	92.69
461.018	89.69
461.238	96.69
461.458	86.69
461.678	96.69
461.898	100.69
462.118	81.69
462.338	84.69
462.558	91.69
462.777	101.69
462.997	107.69
463.217	112.69
463.437	93.69
463.657	95.69
463.876	76.69
464.096	80.69
464.316	100.69
464.536	95.69
464.755	94.69
464.975	85.69
465.195	122.69
465.414	113.69
465.634	88.69
465.854	92.69
466.073	89.69
466.293	82.69
466.512	76.69
466.732	83.69
466.951	78.69
467.171	85.69
467.391	79.69
467.61	98.69
467.829	93.69
468.049	88.69
468.268	97.69
468.488	78.69
468.707	90.69
468.927	73.69
469.146	71.69
469.365	80.69
469.585	88.69
469.804	103.69
470.023	99.69
470.243	97.69
470.462	85.69
470.681	95.69
470.901	84.69
471.12	105.69
471.339	92.69
471.558	78.69
471.777	98.69
471.997	95.69
472.216	78.69
472.435	88.69
472.654	82.69
472.873	84.69
473.092	87.69
473.311	95.69
473.53	84.69
473.749	105.69
473.968	83.69
474.187	99.69
474.406	96.69
474.625	91.69
474.844	72.69
475.063	85.69
475.282	92.69
475.501	89.69
475.72	88.69
475.939	89.69
476.158	80.69
476.377	76.69
476.596	97.69
476.814	93.69
477.033	86.69
477.252	85.69
477.471	85.69
477.69	84.69
477.908	92.69
478.127	93.69
478.346	91.69
478.564	93.69
478.783	114.69
479.002	105.69
479.22	81.69
479.439	97.69
479.658	98.69
479.876	84.69
480.095	100.69
480.313	96.69
480.532	88.69
480.751	88.69
480.969	89.69
481.188	109.69
481.406	104.69
481.624	99.69
481.843	82.69
482.061	75.69
482.28	87.69
482.498	90.69
482.717	89.69
482.935	86.69
483.153	86.69
483.372	91.69
483.59	90.69
483.808	89.69
484.027	89.69
484.245	98.69
484.463	90.69
484.681	96.69
484.9	82.69
485.118	88.69
485.336	96.69
485.554	91.69
485.772	101.69
485.99	94.69
486.209	103.69
486.427	115.69
486.645	104.69
486.863	95.69
487.081	106.69
487.299	70.69
487.517	88.69
487.735	95.69
487.953	90.69
488.171	90.69
488.389	92.69
488.607	108.69
488.825	105.69
489.043	94.69
489.261	104.69
489.479	106.69
489.696	78.69
489.914	94.69
490.132	82.69
490.35	89.69
490.568	92.69
490.786	83.69
491.003	88.69
491.221	88.69
491.439	86.69
491.657	86.69
491.874	108.69
492.092	104.69
492.31	85.69
492.527	93.69
492.745	98.69
492.963	83.69
493.18	98.69
493.398	110.69
493.615	102.69
493.833	105.69
494.05	86.69
494.268	89.69
494.485	86.69
494.703	95.69
494.92	99.69
495.138	88.69
495.355	86.69
495.573	96.69
495.79	78.69
496.008	89.69
496.225	98.69
496.442	98.69
496.66	106.69
496.877	93.69
497.094	91.69
497.312	97.69
497.529	85.69
497.746	97.69
497.963	72.69
498.181	93.69
498.398	91.69
498.615	100.69
498.832	118.69
499.049	96.69
499.267	103.69
499.484	87.69
499.701	107.69
499.918	90.69
500.135	82.69
500.352	102.69
500.569	89.69
500.786	90.69
501.003	93.69
501.22	94.69
501.437	96.69
501.654	91.69
501.871	91.69
502.088	108.69
502.305	97.69
502.522	85.69
502.739	96.69
502.956	93.69
503.172	86.69
503.389	91.69
503.606	90.69
503.823	112.69
504.04	90.69
504.256	94.69
504.473	111.69
504.69	89.69
504.907	86.69
505.123	82.69
505.34	90.69
505.557	88.69
505.773	90.69
505.99	88.69
506.207	90.69
506.423	90.69
506.64	76.69
506.856	93.69
507.073	81.69
507.289	100.69
507.506	85.69
507.722	107.69
507.939	113.69
508.155	99.69
508.372	99.69
508.588	101.69
508.805	92.69
509.021	94.69
509.238	101.69
509.454	98.69
509.67	102.69
509.887	101.69
510.103	134.69
510.319	185.69
510.536	606.69
510.752	1819.69
510.968	511.69
511.184	146.69
511.401	110.69
511.617	91.69
511.833	105.69
512.049	102.69
512.265	103.69
512.481	87.69
512.698	98.69
512.914	82.69
513.13	106.69
513.346	100.69
513.562	83.69
513.778	102.69
513.994	96.69
514.21	100.69
514.426	120.69
514.642	133.69
514.858	108.69
515.074	140.69
515.29	346.69
515.506	1063.69
