Data from Uncirc_2002_H10_HRD10591_00062.txt Node
Date: Wed Jan 03 10:39:53 EST 2024
User: Yrep
Spectrometer: HR+D1059
Trigger mode: 1
Integration Time (sec): 1.000000E-1
Scans to average: 1
Electric dark correction enabled: true
Nonlinearity correction enabled: false
Boxcar width: 0
XAxis mode: Wavelengths
Number of Pixels in Spectrum: 2048
>>>>>Begin Spectral Data<<<<<
223.165	-18.38
223.4	-18.38
223.635	-18.38
223.869	-7.38
224.104	-22.38
224.338	-7.38
224.573	-12.38
224.808	-19.38
225.042	-4.38
225.277	-2.38
225.511	3.62
225.746	7.62
225.98	1.62
226.215	24.62
226.449	7.62
226.683	20.62
226.918	8.62
227.152	19.62
227.387	21.62
227.621	39.62
227.856	59.62
228.09	44.62
228.324	39.62
228.559	60.62
228.793	60.62
229.027	68.62
229.262	51.62
229.496	53.62
229.73	81.62
229.964	72.62
230.199	68.62
230.433	66.62
230.667	86.62
230.901	60.62
231.136	57.62
231.37	78.62
231.604	77.62
231.838	78.62
232.072	84.62
232.306	85.62
232.541	65.62
232.775	75.62
233.009	91.62
233.243	68.62
233.477	88.62
233.711	95.62
233.945	83.62
234.179	77.62
234.413	75.62
234.647	76.62
234.881	82.62
235.115	86.62
235.349	65.62
235.583	86.62
235.817	72.62
236.051	72.62
236.285	65.62
236.519	72.62
236.753	77.62
236.987	81.62
237.221	69.62
237.455	75.62
237.689	83.62
237.922	86.62
238.156	73.62
238.39	86.62
238.624	73.62
238.858	61.62
239.091	77.62
239.325	76.62
239.559	89.62
239.793	65.62
240.027	79.62
240.26	77.62
240.494	67.62
240.728	78.62
240.961	65.62
241.195	83.62
241.429	84.62
241.662	70.62
241.896	72.62
242.13	70.62
242.363	88.62
242.597	87.62
242.83	71.62
243.064	75.62
243.298	72.62
243.531	67.62
243.765	73.62
243.998	76.62
244.232	87.62
244.465	90.62
244.699	77.62
244.932	78.62
245.166	83.62
245.399	81.62
245.633	72.62
245.866	89.62
246.099	70.62
246.333	70.62
246.566	76.62
246.8	83.62
247.033	70.62
247.266	77.62
247.5	62.62
247.733	75.62
247.966	81.62
248.2	84.62
248.433	74.62
248.666	69.62
248.899	86.62
249.133	71.62
249.366	92.62
249.599	83.62
249.832	77.62
250.066	91.62
250.299	58.62
250.532	65.62
250.765	79.62
250.998	71.62
251.231	68.62
251.465	75.62
251.698	77.62
251.931	74.62
252.164	80.62
252.397	77.62
252.63	86.62
252.863	78.62
253.096	83.62
253.329	77.62
253.562	83.62
253.795	71.62
254.028	66.62
254.261	81.62
254.494	76.62
254.727	89.62
254.96	88.62
255.193	75.62
255.426	74.62
255.659	57.62
255.892	79.62
256.124	77.62
256.357	71.62
256.59	80.62
256.823	84.62
257.056	84.62
257.289	97.62
257.521	83.62
257.754	67.62
257.987	80.62
258.22	80.62
258.452	85.62
258.685	83.62
258.918	80.62
259.151	73.62
259.383	82.62
259.616	89.62
259.849	86.62
260.081	83.62
260.314	72.62
260.547	88.62
260.779	94.62
261.012	77.62
261.244	83.62
261.477	101.62
261.71	94.62
261.942	99.62
262.175	106.62
262.407	84.62
262.64	83.62
262.872	78.62
263.105	91.62
263.337	81.62
263.57	73.62
263.802	87.62
264.035	75.62
264.267	75.62
264.499	97.62
264.732	67.62
264.964	83.62
265.197	83.62
265.429	70.62
265.661	87.62
265.894	72.62
266.126	76.62
266.358	85.62
266.591	82.62
266.823	76.62
267.055	81.62
267.287	88.62
267.52	68.62
267.752	86.62
267.984	76.62
268.216	80.62
268.448	87.62
268.681	84.62
268.913	84.62
269.145	88.62
269.377	89.62
269.609	90.62
269.841	81.62
270.073	82.62
270.306	76.62
270.538	89.62
270.77	84.62
271.002	90.62
271.234	76.62
271.466	81.62
271.698	85.62
271.93	76.62
272.162	81.62
272.394	85.62
272.626	95.62
272.858	92.62
273.09	77.62
273.322	92.62
273.553	83.62
273.785	92.62
274.017	79.62
274.249	92.62
274.481	59.62
274.713	84.62
274.945	82.62
275.176	90.62
275.408	75.62
275.64	78.62
275.872	92.62
276.104	71.62
276.335	87.62
276.567	84.62
276.799	90.62
277.031	84.62
277.262	83.62
277.494	82.62
277.726	68.62
277.957	65.62
278.189	94.62
278.421	85.62
278.652	77.62
278.884	74.62
279.115	75.62
279.347	98.62
279.579	85.62
279.81	67.62
280.042	97.62
280.273	92.62
280.505	82.62
280.736	84.62
280.968	84.62
281.199	92.62
281.431	81.62
281.662	72.62
281.894	98.62
282.125	102.62
282.356	107.62
282.588	127.62
282.819	105.62
283.051	69.62
283.282	79.62
283.513	87.62
283.745	87.62
283.976	63.62
284.207	80.62
284.439	86.62
284.67	87.62
284.901	77.62
285.132	92.62
285.364	94.62
285.595	80.62
285.826	87.62
286.057	89.62
286.288	82.62
286.52	89.62
286.751	77.62
286.982	70.62
287.213	83.62
287.444	92.62
287.675	89.62
287.906	97.62
288.138	83.62
288.369	104.62
288.6	99.62
288.831	80.62
289.062	81.62
289.293	87.62
289.524	88.62
289.755	80.62
289.986	80.62
290.217	87.62
290.448	86.62
290.679	78.62
290.91	77.62
291.141	89.62
291.371	93.62
291.602	98.62
291.833	88.62
292.064	95.62
292.295	86.62
292.526	89.62
292.757	80.62
292.987	83.62
293.218	74.62
293.449	79.62
293.68	97.62
293.91	95.62
294.141	89.62
294.372	97.62
294.603	89.62
294.833	96.62
295.064	87.62
295.295	80.62
295.525	91.62
295.756	94.62
295.987	117.62
296.217	116.62
296.448	100.62
296.679	84.62
296.909	89.62
297.14	84.62
297.37	84.62
297.601	82.62
297.831	84.62
298.062	88.62
298.292	71.62
298.523	96.62
298.753	79.62
298.984	79.62
299.214	94.62
299.445	85.62
299.675	79.62
299.905	77.62
300.136	91.62
300.366	91.62
300.597	82.62
300.827	95.62
301.057	89.62
301.288	89.62
301.518	70.62
301.748	80.62
301.979	85.62
302.209	96.62
302.439	84.62
302.669	83.62
302.9	86.62
303.13	95.62
303.36	93.62
303.59	100.62
303.82	90.62
304.051	85.62
304.281	87.62
304.511	95.62
304.741	88.62
304.971	81.62
305.201	92.62
305.431	92.62
305.661	86.62
305.891	87.62
306.121	78.62
306.352	86.62
306.582	100.62
306.812	98.62
307.042	89.62
307.272	87.62
307.502	79.62
307.731	83.62
307.961	101.62
308.191	94.62
308.421	78.62
308.651	92.62
308.881	108.62
309.111	90.62
309.341	87.62
309.571	88.62
309.8	84.62
310.03	85.62
310.26	92.62
310.49	87.62
310.72	99.62
310.949	92.62
311.179	87.62
311.409	85.62
311.639	97.62
311.868	85.62
312.098	82.62
312.328	94.62
312.557	106.62
312.787	104.62
313.017	101.62
313.246	93.62
313.476	88.62
313.706	100.62
313.935	99.62
314.165	91.62
314.394	100.62
314.624	97.62
314.853	94.62
315.083	102.62
315.312	94.62
315.542	86.62
315.771	70.62
316.001	86.62
316.23	93.62
316.46	76.62
316.689	78.62
316.919	89.62
317.148	87.62
317.377	100.62
317.607	99.62
317.836	91.62
318.065	85.62
318.295	92.62
318.524	89.62
318.753	91.62
318.983	97.62
319.212	101.62
319.441	94.62
319.67	89.62
319.9	95.62
320.129	84.62
320.358	84.62
320.587	88.62
320.816	101.62
321.046	95.62
321.275	76.62
321.504	88.62
321.733	93.62
321.962	95.62
322.191	97.62
322.42	107.62
322.649	105.62
322.878	119.62
323.108	102.62
323.337	109.62
323.566	103.62
323.795	149.62
324.024	184.62
324.253	358.62
324.482	696.62
324.71	1393.62
324.939	1859.62
325.168	685.62
325.397	222.62
325.626	135.62
325.855	109.62
326.084	111.62
326.313	120.62
326.542	154.62
326.77	204.62
326.999	407.62
327.228	811.62
327.457	1445.62
327.686	1150.62
327.914	317.62
328.143	155.62
328.372	143.62
328.6	112.62
328.829	115.62
329.058	111.62
329.287	109.62
329.515	100.62
329.744	88.62
329.972	89.62
330.201	107.62
330.43	100.62
330.658	104.62
330.887	119.62
331.115	111.62
331.344	104.62
331.572	95.62
331.801	84.62
332.03	94.62
332.258	93.62
332.486	80.62
332.715	90.62
332.943	94.62
333.172	88.62
333.4	84.62
333.629	82.62
333.857	108.62
334.085	94.62
334.314	88.62
334.542	91.62
334.771	96.62
334.999	105.62
335.227	102.62
335.455	88.62
335.684	101.62
335.912	103.62
336.14	92.62
336.369	93.62
336.597	117.62
336.825	95.62
337.053	102.62
337.281	101.62
337.51	93.62
337.738	95.62
337.966	105.62
338.194	101.62
338.422	91.62
338.65	87.62
338.878	92.62
339.106	98.62
339.334	82.62
339.562	88.62
339.79	94.62
340.018	90.62
340.246	96.62
340.474	89.62
340.702	76.62
340.93	73.62
341.158	86.62
341.386	102.62
341.614	100.62
341.842	89.62
342.07	73.62
342.298	80.62
342.526	95.62
342.754	76.62
342.981	86.62
343.209	78.62
343.437	83.62
343.665	90.62
343.893	73.62
344.12	97.62
344.348	90.62
344.576	93.62
344.804	83.62
345.031	68.62
345.259	89.62
345.487	93.62
345.714	90.62
345.942	90.62
346.17	89.62
346.397	69.62
346.625	92.62
346.853	90.62
347.08	84.62
347.308	102.62
347.535	89.62
347.763	99.62
347.99	87.62
348.218	98.62
348.445	90.62
348.673	102.62
348.9	99.62
349.128	100.62
349.355	97.62
349.583	92.62
349.81	79.62
350.037	96.62
350.265	86.62
350.492	97.62
350.72	84.62
350.947	91.62
351.174	98.62
351.402	112.62
351.629	88.62
351.856	98.62
352.083	108.62
352.311	88.62
352.538	89.62
352.765	102.62
352.992	102.62
353.22	101.62
353.447	115.62
353.674	76.62
353.901	92.62
354.128	100.62
354.355	89.62
354.583	92.62
354.81	88.62
355.037	89.62
355.264	93.62
355.491	84.62
355.718	82.62
355.945	81.62
356.172	94.62
356.399	78.62
356.626	86.62
356.853	98.62
357.08	72.62
357.307	95.62
357.534	88.62
357.761	71.62
357.988	88.62
358.215	97.62
358.441	99.62
358.668	100.62
358.895	89.62
359.122	92.62
359.349	85.62
359.576	94.62
359.802	107.62
360.029	98.62
360.256	99.62
360.483	102.62
360.709	82.62
360.936	99.62
361.163	94.62
361.39	89.62
361.616	96.62
361.843	93.62
362.07	84.62
362.296	100.62
362.523	79.62
362.749	75.62
362.976	79.62
363.203	92.62
363.429	86.62
363.656	89.62
363.882	80.62
364.109	104.62
364.335	90.62
364.562	91.62
364.788	91.62
365.015	94.62
365.241	96.62
365.468	89.62
365.694	106.62
365.92	97.62
366.147	87.62
366.373	79.62
366.599	83.62
366.826	76.62
367.052	82.62
367.278	89.62
367.505	82.62
367.731	76.62
367.957	83.62
368.184	83.62
368.41	104.62
368.636	100.62
368.862	118.62
369.089	93.62
369.315	94.62
369.541	87.62
369.767	87.62
369.993	71.62
370.219	96.62
370.445	87.62
370.672	86.62
370.898	80.62
371.124	88.62
371.35	103.62
371.576	74.62
371.802	82.62
372.028	74.62
372.254	92.62
372.48	89.62
372.706	81.62
372.932	94.62
373.158	82.62
373.384	93.62
373.61	90.62
373.835	87.62
374.061	80.62
374.287	98.62
374.513	83.62
374.739	88.62
374.965	88.62
375.191	83.62
375.416	90.62
375.642	106.62
375.868	92.62
376.094	88.62
376.319	73.62
376.545	101.62
376.771	80.62
376.997	103.62
377.222	95.62
377.448	78.62
377.674	85.62
377.899	96.62
378.125	82.62
378.35	85.62
378.576	80.62
378.802	94.62
379.027	102.62
379.253	100.62
379.478	99.62
379.704	92.62
379.929	91.62
380.155	81.62
380.38	94.62
380.606	89.62
380.831	96.62
381.057	103.62
381.282	90.62
381.507	90.62
381.733	91.62
381.958	108.62
382.184	99.62
382.409	95.62
382.634	92.62
382.86	72.62
383.085	100.62
383.31	96.62
383.535	115.62
383.761	85.62
383.986	92.62
384.211	104.62
384.436	102.62
384.662	89.62
384.887	95.62
385.112	85.62
385.337	99.62
385.562	102.62
385.787	99.62
386.013	116.62
386.238	109.62
386.463	115.62
386.688	104.62
386.913	95.62
387.138	90.62
387.363	103.62
387.588	105.62
387.813	92.62
388.038	99.62
388.263	105.62
388.488	97.62
388.713	89.62
388.938	83.62
389.163	89.62
389.387	94.62
389.612	84.62
389.837	82.62
390.062	89.62
390.287	96.62
390.512	83.62
390.736	88.62
390.961	90.62
391.186	84.62
391.411	99.62
391.636	77.62
391.86	68.62
392.085	90.62
392.31	95.62
392.534	86.62
392.759	79.62
392.984	76.62
393.208	80.62
393.433	109.62
393.658	86.62
393.882	92.62
394.107	79.62
394.331	83.62
394.556	86.62
394.78	91.62
395.005	95.62
395.229	101.62
395.454	88.62
395.678	80.62
395.903	86.62
396.127	88.62
396.352	80.62
396.576	80.62
396.801	84.62
397.025	86.62
397.249	67.62
397.474	80.62
397.698	87.62
397.922	92.62
398.147	82.62
398.371	96.62
398.595	83.62
398.82	80.62
399.044	85.62
399.268	81.62
399.492	97.62
399.717	85.62
399.941	90.62
400.165	85.62
400.389	99.62
400.613	71.62
400.837	92.62
401.062	89.62
401.286	89.62
401.51	88.62
401.734	88.62
401.958	95.62
402.182	116.62
402.406	142.62
402.63	96.62
402.854	75.62
403.078	80.62
403.302	80.62
403.526	89.62
403.75	91.62
403.974	83.62
404.198	88.62
404.422	87.62
404.645	92.62
404.869	79.62
405.093	88.62
405.317	95.62
405.541	93.62
405.765	99.62
405.988	108.62
406.212	159.62
406.436	197.62
406.66	126.62
406.883	94.62
407.107	86.62
407.331	86.62
407.555	90.62
407.778	94.62
408.002	97.62
408.226	86.62
408.449	80.62
408.673	79.62
408.896	85.62
409.12	86.62
409.344	92.62
409.567	88.62
409.791	70.62
410.014	96.62
410.238	103.62
410.461	87.62
410.685	91.62
410.908	101.62
411.132	95.62
411.355	87.62
411.578	75.62
411.802	80.62
412.025	87.62
412.249	89.62
412.472	81.62
412.695	92.62
412.919	78.62
413.142	83.62
413.365	70.62
413.589	93.62
413.812	79.62
414.035	71.62
414.258	71.62
414.482	71.62
414.705	92.62
414.928	95.62
415.151	84.62
415.374	93.62
415.597	98.62
415.821	86.62
416.044	83.62
416.267	98.62
416.49	75.62
416.713	76.62
416.936	89.62
417.159	86.62
417.382	80.62
417.605	83.62
417.828	101.62
418.051	88.62
418.274	76.62
418.497	104.62
418.72	93.62
418.943	86.62
419.166	81.62
419.389	78.62
419.611	86.62
419.834	91.62
420.057	91.62
420.28	88.62
420.503	75.62
420.726	86.62
420.948	102.62
421.171	100.62
421.394	92.62
421.617	90.62
421.839	66.62
422.062	71.62
422.285	86.62
422.507	97.62
422.73	91.62
422.953	95.62
423.175	80.62
423.398	86.62
423.621	85.62
423.843	80.62
424.066	73.62
424.288	88.62
424.511	72.62
424.733	71.62
424.956	97.62
425.178	89.62
425.401	95.62
425.623	104.62
425.846	92.62
426.068	92.62
426.291	84.62
426.513	86.62
426.735	83.62
426.958	80.62
427.18	104.62
427.402	107.62
427.625	144.62
427.847	111.62
428.069	100.62
428.292	81.62
428.514	78.62
428.736	80.62
428.958	83.62
429.181	80.62
429.403	76.62
429.625	94.62
429.847	79.62
430.069	95.62
430.292	71.62
430.514	83.62
430.736	70.62
430.958	87.62
431.18	65.62
431.402	71.62
431.624	74.62
431.846	85.62
432.068	85.62
432.29	81.62
432.512	95.62
432.734	75.62
432.956	88.62
433.178	92.62
433.4	101.62
433.622	76.62
433.844	84.62
434.066	86.62
434.287	81.62
434.509	80.62
434.731	91.62
434.953	85.62
435.175	92.62
435.397	91.62
435.618	84.62
435.84	113.62
436.062	110.62
436.284	108.62
436.505	101.62
436.727	84.62
436.949	81.62
437.17	77.62
437.392	85.62
437.614	88.62
437.835	90.62
438.057	110.62
438.278	98.62
438.5	93.62
438.721	116.62
438.943	100.62
439.165	87.62
439.386	85.62
439.608	89.62
439.829	99.62
440.05	105.62
440.272	126.62
440.493	88.62
440.715	86.62
440.936	79.62
441.158	83.62
441.379	91.62
441.6	88.62
441.822	102.62
442.043	89.62
442.264	76.62
442.486	84.62
442.707	89.62
442.928	90.62
443.149	127.62
443.371	119.62
443.592	96.62
443.813	87.62
444.034	103.62
444.255	83.62
444.476	90.62
444.698	84.62
444.919	87.62
445.14	133.62
445.361	110.62
445.582	114.62
445.803	104.62
446.024	124.62
446.245	125.62
446.466	97.62
446.687	77.62
446.908	92.62
447.129	80.62
447.35	82.62
447.571	91.62
447.792	95.62
448.013	107.62
448.234	118.62
448.455	86.62
448.675	85.62
448.896	113.62
449.117	95.62
449.338	101.62
449.559	108.62
449.779	125.62
450	98.62
450.221	87.62
450.442	79.62
450.662	84.62
450.883	98.62
451.104	96.62
451.324	93.62
451.545	87.62
451.766	92.62
451.986	71.62
452.207	82.62
452.428	87.62
452.648	94.62
452.869	103.62
453.089	108.62
453.31	110.62
453.53	88.62
453.751	101.62
453.971	100.62
454.192	116.62
454.412	78.62
454.633	78.62
454.853	79.62
455.073	71.62
455.294	93.62
455.514	92.62
455.734	87.62
455.955	91.62
456.175	84.62
456.395	75.62
456.616	76.62
456.836	69.62
457.056	73.62
457.276	82.62
457.497	77.62
457.717	79.62
457.937	86.62
458.157	92.62
458.377	83.62
458.598	101.62
458.818	121.62
459.038	124.62
459.258	113.62
459.478	102.62
459.698	87.62
459.918	91.62
460.138	83.62
460.358	77.62
460.578	96.62
460.798	83.62
461.018	88.62
461.238	78.62
461.458	72.62
461.678	79.62
461.898	77.62
462.118	83.62
462.338	92.62
462.558	69.62
462.777	71.62
462.997	88.62
463.217	75.62
463.437	91.62
463.657	86.62
463.876	79.62
464.096	75.62
464.316	88.62
464.536	89.62
464.755	94.62
464.975	117.62
465.195	144.62
465.414	126.62
465.634	81.62
465.854	75.62
466.073	85.62
466.293	99.62
466.512	89.62
466.732	77.62
466.951	95.62
467.171	93.62
467.391	84.62
467.61	96.62
467.829	95.62
468.049	74.62
468.268	103.62
468.488	75.62
468.707	74.62
468.927	83.62
469.146	75.62
469.365	75.62
469.585	87.62
469.804	93.62
470.023	91.62
470.243	82.62
470.462	103.62
470.681	85.62
470.901	94.62
471.12	88.62
471.339	87.62
471.558	87.62
471.777	70.62
471.997	80.62
472.216	92.62
472.435	87.62
472.654	97.62
472.873	91.62
473.092	85.62
473.311	66.62
473.53	87.62
473.749	96.62
473.968	92.62
474.187	99.62
474.406	87.62
474.625	88.62
474.844	97.62
475.063	87.62
475.282	95.62
475.501	80.62
475.72	75.62
475.939	86.62
476.158	69.62
476.377	96.62
476.596	95.62
476.814	92.62
477.033	82.62
477.252	72.62
477.471	75.62
477.69	89.62
477.908	87.62
478.127	81.62
478.346	89.62
478.564	86.62
478.783	87.62
479.002	84.62
479.22	93.62
479.439	93.62
479.658	100.62
479.876	96.62
480.095	85.62
480.313	94.62
480.532	88.62
480.751	92.62
480.969	87.62
481.188	87.62
481.406	94.62
481.624	85.62
481.843	81.62
482.061	90.62
482.28	80.62
482.498	85.62
482.717	88.62
482.935	86.62
483.153	81.62
483.372	97.62
483.59	84.62
483.808	95.62
484.027	88.62
484.245	88.62
484.463	87.62
484.681	89.62
484.9	96.62
485.118	99.62
485.336	101.62
485.554	85.62
485.772	92.62
485.99	106.62
486.209	103.62
486.427	113.62
486.645	79.62
486.863	107.62
487.081	94.62
487.299	80.62
487.517	99.62
487.735	81.62
487.953	93.62
488.171	96.62
488.389	94.62
488.607	98.62
488.825	98.62
489.043	99.62
489.261	74.62
489.479	92.62
489.696	94.62
489.914	82.62
490.132	73.62
490.35	91.62
490.568	78.62
490.786	89.62
491.003	86.62
491.221	84.62
491.439	95.62
491.657	93.62
491.874	97.62
492.092	96.62
492.31	100.62
492.527	93.62
492.745	79.62
492.963	88.62
493.18	88.62
493.398	82.62
493.615	89.62
493.833	92.62
494.05	102.62
494.268	94.62
494.485	92.62
494.703	88.62
494.92	91.62
495.138	89.62
495.355	83.62
495.573	87.62
495.79	90.62
496.008	94.62
496.225	86.62
496.442	74.62
496.66	93.62
496.877	84.62
497.094	84.62
497.312	93.62
497.529	80.62
497.746	77.62
497.963	92.62
498.181	90.62
498.398	89.62
498.615	89.62
498.832	102.62
499.049	96.62
499.267	80.62
499.484	86.62
499.701	100.62
499.918	95.62
500.135	89.62
500.352	82.62
500.569	83.62
500.786	96.62
501.003	95.62
501.22	86.62
501.437	80.62
501.654	88.62
501.871	99.62
502.088	85.62
502.305	97.62
502.522	91.62
502.739	95.62
502.956	71.62
503.172	78.62
503.389	105.62
503.606	101.62
503.823	86.62
504.04	91.62
504.256	91.62
504.473	85.62
504.69	88.62
504.907	93.62
505.123	85.62
505.34	101.62
505.557	99.62
505.773	78.62
505.99	77.62
506.207	92.62
506.423	87.62
506.64	86.62
506.856	83.62
507.073	93.62
507.289	101.62
507.506	97.62
507.722	118.62
507.939	102.62
508.155	92.62
508.372	87.62
508.588	89.62
508.805	83.62
509.021	86.62
509.238	84.62
509.454	106.62
509.67	105.62
509.887	118.62
510.103	125.62
510.319	200.62
510.536	703.62
510.752	2134.62
510.968	611.62
511.184	152.62
511.401	112.62
511.617	108.62
511.833	86.62
512.049	104.62
512.265	79.62
512.481	87.62
512.698	101.62
512.914	108.62
513.13	89.62
513.346	88.62
513.562	93.62
513.778	95.62
513.994	89.62
514.21	93.62
514.426	93.62
514.642	117.62
514.858	111.62
515.074	147.62
515.29	393.62
515.506	1263.62
515.721	467.62
515.937	137.62
516.153	88.62
516.369	104.62
516.585	95.62
516.801	90.62
517.016	95.62
