Data from Uncirc_2002_H10_HRD10591_00052.txt Node
Date: Wed Jan 03 10:39:51 EST 2024
User: Yrep
Spectrometer: HR+D1059
Trigger mode: 1
Integration Time (sec): 1.000000E-1
Scans to average: 1
Electric dark correction enabled: true
Nonlinearity correction enabled: false
Boxcar width: 0
XAxis mode: Wavelengths
Number of Pixels in Spectrum: 2048
>>>>>Begin Spectral Data<<<<<
223.165	-4.25
223.4	-4.25
223.635	-4.25
223.869	-10.25
224.104	-20.25
224.338	-23.25
224.573	-23.25
224.808	0.75
225.042	-16.25
225.277	-9.25
225.511	7.75
225.746	-6.25
225.98	1.75
226.215	-1.25
226.449	36.75
226.683	10.75
226.918	20.75
227.152	35.75
227.387	25.75
227.621	28.75
227.856	49.75
228.09	40.75
228.324	32.75
228.559	41.75
228.793	51.75
229.027	55.75
229.262	62.75
229.496	61.75
229.73	82.75
229.964	74.75
230.199	73.75
230.433	74.75
230.667	54.75
230.901	70.75
231.136	72.75
231.37	67.75
231.604	74.75
231.838	83.75
232.072	82.75
232.306	88.75
232.541	82.75
232.775	86.75
233.009	81.75
233.243	82.75
233.477	77.75
233.711	99.75
233.945	86.75
234.179	69.75
234.413	67.75
234.647	80.75
234.881	81.75
235.115	82.75
235.349	82.75
235.583	73.75
235.817	77.75
236.051	76.75
236.285	76.75
236.519	87.75
236.753	62.75
236.987	73.75
237.221	84.75
237.455	87.75
237.689	80.75
237.922	85.75
238.156	77.75
238.39	69.75
238.624	81.75
238.858	72.75
239.091	76.75
239.325	86.75
239.559	79.75
239.793	93.75
240.027	89.75
240.26	73.75
240.494	86.75
240.728	71.75
240.961	71.75
241.195	72.75
241.429	75.75
241.662	68.75
241.896	71.75
242.13	73.75
242.363	81.75
242.597	83.75
242.83	80.75
243.064	75.75
243.298	78.75
243.531	83.75
243.765	78.75
243.998	94.75
244.232	85.75
244.465	84.75
244.699	79.75
244.932	75.75
245.166	83.75
245.399	79.75
245.633	88.75
245.866	82.75
246.099	96.75
246.333	82.75
246.566	83.75
246.8	87.75
247.033	72.75
247.266	59.75
247.5	70.75
247.733	85.75
247.966	78.75
248.2	77.75
248.433	70.75
248.666	69.75
248.899	73.75
249.133	88.75
249.366	88.75
249.599	98.75
249.832	77.75
250.066	77.75
250.299	62.75
250.532	88.75
250.765	78.75
250.998	95.75
251.231	76.75
251.465	79.75
251.698	67.75
251.931	76.75
252.164	73.75
252.397	80.75
252.63	75.75
252.863	72.75
253.096	75.75
253.329	71.75
253.562	76.75
253.795	86.75
254.028	80.75
254.261	71.75
254.494	74.75
254.727	82.75
254.96	72.75
255.193	82.75
255.426	97.75
255.659	78.75
255.892	77.75
256.124	86.75
256.357	72.75
256.59	85.75
256.823	82.75
257.056	60.75
257.289	76.75
257.521	88.75
257.754	86.75
257.987	78.75
258.22	91.75
258.452	83.75
258.685	77.75
258.918	82.75
259.151	86.75
259.383	78.75
259.616	73.75
259.849	94.75
260.081	90.75
260.314	91.75
260.547	75.75
260.779	81.75
261.012	91.75
261.244	75.75
261.477	95.75
261.71	96.75
261.942	112.75
262.175	104.75
262.407	85.75
262.64	81.75
262.872	82.75
263.105	85.75
263.337	85.75
263.57	85.75
263.802	90.75
264.035	91.75
264.267	76.75
264.499	98.75
264.732	83.75
264.964	84.75
265.197	80.75
265.429	82.75
265.661	81.75
265.894	76.75
266.126	77.75
266.358	81.75
266.591	84.75
266.823	74.75
267.055	77.75
267.287	82.75
267.52	90.75
267.752	86.75
267.984	59.75
268.216	80.75
268.448	77.75
268.681	78.75
268.913	94.75
269.145	86.75
269.377	64.75
269.609	94.75
269.841	97.75
270.073	77.75
270.306	84.75
270.538	93.75
270.77	84.75
271.002	84.75
271.234	86.75
271.466	75.75
271.698	83.75
271.93	88.75
272.162	81.75
272.394	82.75
272.626	78.75
272.858	76.75
273.09	74.75
273.322	83.75
273.553	90.75
273.785	92.75
274.017	93.75
274.249	81.75
274.481	88.75
274.713	90.75
274.945	86.75
275.176	97.75
275.408	82.75
275.64	89.75
275.872	86.75
276.104	88.75
276.335	85.75
276.567	89.75
276.799	96.75
277.031	102.75
277.262	89.75
277.494	81.75
277.726	81.75
277.957	100.75
278.189	104.75
278.421	76.75
278.652	85.75
278.884	95.75
279.115	82.75
279.347	74.75
279.579	86.75
279.81	84.75
280.042	88.75
280.273	90.75
280.505	86.75
280.736	73.75
280.968	99.75
281.199	91.75
281.431	94.75
281.662	92.75
281.894	86.75
282.125	93.75
282.356	101.75
282.588	121.75
282.819	110.75
283.051	96.75
283.282	77.75
283.513	79.75
283.745	91.75
283.976	102.75
284.207	93.75
284.439	72.75
284.67	82.75
284.901	94.75
285.132	100.75
285.364	87.75
285.595	72.75
285.826	82.75
286.057	89.75
286.288	87.75
286.52	65.75
286.751	76.75
286.982	84.75
287.213	90.75
287.444	97.75
287.675	95.75
287.906	79.75
288.138	76.75
288.369	89.75
288.6	75.75
288.831	88.75
289.062	88.75
289.293	89.75
289.524	89.75
289.755	84.75
289.986	87.75
290.217	93.75
290.448	75.75
290.679	84.75
290.91	92.75
291.141	87.75
291.371	94.75
291.602	90.75
291.833	77.75
292.064	86.75
292.295	96.75
292.526	78.75
292.757	89.75
292.987	82.75
293.218	79.75
293.449	74.75
293.68	70.75
293.91	92.75
294.141	88.75
294.372	85.75
294.603	85.75
294.833	78.75
295.064	68.75
295.295	76.75
295.525	99.75
295.756	109.75
295.987	118.75
296.217	131.75
296.448	104.75
296.679	86.75
296.909	76.75
297.14	88.75
297.37	90.75
297.601	98.75
297.831	93.75
298.062	93.75
298.292	82.75
298.523	74.75
298.753	89.75
298.984	79.75
299.214	84.75
299.445	95.75
299.675	94.75
299.905	91.75
300.136	94.75
300.366	85.75
300.597	70.75
300.827	91.75
301.057	89.75
301.288	102.75
301.518	91.75
301.748	84.75
301.979	104.75
302.209	102.75
302.439	88.75
302.669	84.75
302.9	90.75
303.13	93.75
303.36	93.75
303.59	94.75
303.82	108.75
304.051	88.75
304.281	87.75
304.511	98.75
304.741	81.75
304.971	91.75
305.201	84.75
305.431	81.75
305.661	90.75
305.891	85.75
306.121	98.75
306.352	96.75
306.582	96.75
306.812	85.75
307.042	97.75
307.272	80.75
307.502	102.75
307.731	84.75
307.961	86.75
308.191	86.75
308.421	86.75
308.651	94.75
308.881	100.75
309.111	101.75
309.341	85.75
309.571	100.75
309.8	95.75
310.03	96.75
310.26	97.75
310.49	82.75
310.72	108.75
310.949	79.75
311.179	103.75
311.409	89.75
311.639	102.75
311.868	97.75
312.098	86.75
312.328	87.75
312.557	111.75
312.787	101.75
313.017	103.75
313.246	91.75
313.476	89.75
313.706	92.75
313.935	100.75
314.165	99.75
314.394	101.75
314.624	93.75
314.853	92.75
315.083	90.75
315.312	96.75
315.542	92.75
315.771	98.75
316.001	92.75
316.23	76.75
316.46	83.75
316.689	81.75
316.919	90.75
317.148	104.75
317.377	102.75
317.607	101.75
317.836	88.75
318.065	98.75
318.295	91.75
318.524	82.75
318.753	87.75
318.983	80.75
319.212	91.75
319.441	96.75
319.67	98.75
319.9	89.75
320.129	92.75
320.358	84.75
320.587	100.75
320.816	83.75
321.046	104.75
321.275	79.75
321.504	105.75
321.733	102.75
321.962	101.75
322.191	97.75
322.42	110.75
322.649	105.75
322.878	109.75
323.108	117.75
323.337	104.75
323.566	121.75
323.795	136.75
324.024	186.75
324.253	333.75
324.482	693.75
324.71	1419.75
324.939	1807.75
325.168	673.75
325.397	211.75
325.626	144.75
325.855	107.75
326.084	123.75
326.313	113.75
326.542	126.75
326.77	208.75
326.999	410.75
327.228	805.75
327.457	1465.75
327.686	1133.75
327.914	323.75
328.143	180.75
328.372	126.75
328.6	112.75
328.829	109.75
329.058	115.75
329.287	113.75
329.515	94.75
329.744	114.75
329.972	102.75
330.201	102.75
330.43	123.75
330.658	115.75
330.887	129.75
331.115	91.75
331.344	102.75
331.572	95.75
331.801	91.75
332.03	91.75
332.258	93.75
332.486	87.75
332.715	78.75
332.943	100.75
333.172	99.75
333.4	110.75
333.629	119.75
333.857	106.75
334.085	87.75
334.314	101.75
334.542	91.75
334.771	85.75
334.999	94.75
335.227	78.75
335.455	100.75
335.684	96.75
335.912	91.75
336.14	96.75
336.369	105.75
336.597	96.75
336.825	95.75
337.053	91.75
337.281	85.75
337.51	90.75
337.738	79.75
337.966	92.75
338.194	80.75
338.422	109.75
338.65	88.75
338.878	97.75
339.106	85.75
339.334	101.75
339.562	94.75
339.79	76.75
340.018	74.75
340.246	87.75
340.474	100.75
340.702	92.75
340.93	83.75
341.158	88.75
341.386	86.75
341.614	96.75
341.842	90.75
342.07	87.75
342.298	92.75
342.526	79.75
342.754	74.75
342.981	91.75
343.209	79.75
343.437	105.75
343.665	73.75
343.893	91.75
344.12	88.75
344.348	109.75
344.576	91.75
344.804	97.75
345.031	85.75
345.259	90.75
345.487	101.75
345.714	95.75
345.942	93.75
346.17	75.75
346.397	96.75
346.625	97.75
346.853	94.75
347.08	107.75
347.308	82.75
347.535	81.75
347.763	90.75
347.99	96.75
348.218	92.75
348.445	105.75
348.673	97.75
348.9	100.75
349.128	102.75
349.355	109.75
349.583	89.75
349.81	107.75
350.037	103.75
350.265	90.75
350.492	89.75
350.72	91.75
350.947	96.75
351.174	104.75
351.402	103.75
351.629	92.75
351.856	96.75
352.083	111.75
352.311	93.75
352.538	96.75
352.765	106.75
352.992	112.75
353.22	95.75
353.447	106.75
353.674	98.75
353.901	92.75
354.128	101.75
354.355	113.75
354.583	85.75
354.81	91.75
355.037	95.75
355.264	98.75
355.491	89.75
355.718	95.75
355.945	94.75
356.172	84.75
356.399	104.75
356.626	95.75
356.853	85.75
357.08	85.75
357.307	89.75
357.534	91.75
357.761	88.75
357.988	92.75
358.215	94.75
358.441	79.75
358.668	101.75
358.895	79.75
359.122	103.75
359.349	74.75
359.576	84.75
359.802	102.75
360.029	111.75
360.256	99.75
360.483	86.75
360.709	77.75
360.936	87.75
361.163	94.75
361.39	103.75
361.616	102.75
361.843	96.75
362.07	97.75
362.296	95.75
362.523	85.75
362.749	81.75
362.976	80.75
363.203	94.75
363.429	88.75
363.656	100.75
363.882	83.75
364.109	96.75
364.335	90.75
364.562	90.75
364.788	92.75
365.015	102.75
365.241	109.75
365.468	97.75
365.694	102.75
365.92	86.75
366.147	97.75
366.373	94.75
366.599	99.75
366.826	94.75
367.052	90.75
367.278	90.75
367.505	95.75
367.731	95.75
367.957	103.75
368.184	85.75
368.41	107.75
368.636	100.75
368.862	111.75
369.089	93.75
369.315	97.75
369.541	85.75
369.767	97.75
369.993	87.75
370.219	98.75
370.445	88.75
370.672	93.75
370.898	84.75
371.124	91.75
371.35	89.75
371.576	101.75
371.802	85.75
372.028	81.75
372.254	81.75
372.48	91.75
372.706	91.75
372.932	78.75
373.158	89.75
373.384	96.75
373.61	80.75
373.835	96.75
374.061	77.75
374.287	79.75
374.513	96.75
374.739	88.75
374.965	83.75
375.191	105.75
375.416	98.75
375.642	87.75
375.868	91.75
376.094	99.75
376.319	85.75
376.545	89.75
376.771	89.75
376.997	79.75
377.222	97.75
377.448	104.75
377.674	101.75
377.899	87.75
378.125	89.75
378.35	91.75
378.576	100.75
378.802	85.75
379.027	101.75
379.253	89.75
379.478	91.75
379.704	97.75
379.929	91.75
380.155	90.75
380.38	97.75
380.606	92.75
380.831	98.75
381.057	82.75
381.282	103.75
381.507	96.75
381.733	89.75
381.958	83.75
382.184	97.75
382.409	98.75
382.634	92.75
382.86	100.75
383.085	98.75
383.31	90.75
383.535	98.75
383.761	86.75
383.986	90.75
384.211	93.75
384.436	80.75
384.662	101.75
384.887	103.75
385.112	108.75
385.337	115.75
385.562	97.75
385.787	106.75
386.013	90.75
386.238	111.75
386.463	99.75
386.688	101.75
386.913	94.75
387.138	101.75
387.363	96.75
387.588	91.75
387.813	96.75
388.038	103.75
388.263	116.75
388.488	109.75
388.713	82.75
388.938	87.75
389.163	99.75
389.387	85.75
389.612	98.75
389.837	90.75
390.062	94.75
390.287	91.75
390.512	83.75
390.736	94.75
390.961	84.75
391.186	106.75
391.411	96.75
391.636	89.75
391.86	90.75
392.085	79.75
392.31	95.75
392.534	90.75
392.759	87.75
392.984	87.75
393.208	97.75
393.433	106.75
393.658	89.75
393.882	78.75
394.107	90.75
394.331	84.75
394.556	89.75
394.78	100.75
395.005	102.75
395.229	101.75
395.454	78.75
395.678	88.75
395.903	91.75
396.127	70.75
396.352	86.75
396.576	87.75
396.801	89.75
397.025	91.75
397.249	85.75
397.474	87.75
397.698	97.75
397.922	87.75
398.147	98.75
398.371	73.75
398.595	89.75
398.82	98.75
399.044	85.75
399.268	81.75
399.492	91.75
399.717	82.75
399.941	83.75
400.165	98.75
400.389	85.75
400.613	75.75
400.837	95.75
401.062	79.75
401.286	86.75
401.51	85.75
401.734	89.75
401.958	115.75
402.182	119.75
402.406	119.75
402.63	118.75
402.854	92.75
403.078	90.75
403.302	81.75
403.526	86.75
403.75	104.75
403.974	98.75
404.198	98.75
404.422	90.75
404.645	89.75
404.869	98.75
405.093	84.75
405.317	82.75
405.541	101.75
405.765	90.75
405.988	116.75
406.212	146.75
406.436	199.75
406.66	141.75
406.883	115.75
407.107	89.75
407.331	90.75
407.555	99.75
407.778	103.75
408.002	85.75
408.226	90.75
408.449	93.75
408.673	105.75
408.896	89.75
409.12	87.75
409.344	95.75
409.567	99.75
409.791	89.75
410.014	109.75
410.238	86.75
410.461	93.75
410.685	77.75
410.908	97.75
411.132	102.75
411.355	95.75
411.578	86.75
411.802	92.75
412.025	97.75
412.249	78.75
412.472	80.75
412.695	95.75
412.919	75.75
413.142	85.75
413.365	84.75
413.589	103.75
413.812	102.75
414.035	95.75
414.258	77.75
414.482	99.75
414.705	94.75
414.928	85.75
415.151	100.75
415.374	84.75
415.597	79.75
415.821	88.75
416.044	82.75
416.267	96.75
416.49	89.75
416.713	77.75
416.936	89.75
417.159	92.75
417.382	77.75
417.605	82.75
417.828	95.75
418.051	97.75
418.274	83.75
418.497	87.75
418.72	100.75
418.943	90.75
419.166	86.75
419.389	98.75
419.611	84.75
419.834	101.75
420.057	95.75
420.28	88.75
420.503	91.75
420.726	84.75
420.948	90.75
421.171	87.75
421.394	79.75
421.617	85.75
421.839	91.75
422.062	80.75
422.285	97.75
422.507	92.75
422.73	102.75
422.953	101.75
423.175	86.75
423.398	89.75
423.621	98.75
423.843	81.75
424.066	81.75
424.288	88.75
424.511	97.75
424.733	89.75
424.956	94.75
425.178	97.75
425.401	98.75
425.623	94.75
425.846	90.75
426.068	81.75
426.291	88.75
426.513	97.75
426.735	97.75
426.958	83.75
427.18	106.75
427.402	124.75
427.625	152.75
427.847	120.75
428.069	101.75
428.292	81.75
428.514	102.75
428.736	89.75
428.958	87.75
429.181	89.75
429.403	93.75
429.625	96.75
429.847	88.75
430.069	98.75
430.292	95.75
430.514	98.75
430.736	82.75
430.958	81.75
431.18	85.75
431.402	75.75
431.624	79.75
431.846	91.75
432.068	103.75
432.29	85.75
432.512	80.75
432.734	85.75
432.956	79.75
433.178	105.75
433.4	103.75
433.622	84.75
433.844	80.75
434.066	89.75
434.287	84.75
434.509	80.75
434.731	93.75
434.953	71.75
435.175	85.75
435.397	89.75
435.618	98.75
435.84	104.75
436.062	102.75
436.284	109.75
436.505	99.75
436.727	104.75
436.949	93.75
437.17	97.75
437.392	93.75
437.614	96.75
437.835	109.75
438.057	100.75
438.278	94.75
438.5	98.75
438.721	102.75
438.943	109.75
439.165	86.75
439.386	90.75
439.608	79.75
439.829	100.75
440.05	115.75
440.272	129.75
440.493	89.75
440.715	87.75
440.936	77.75
441.158	95.75
441.379	94.75
441.6	88.75
441.822	82.75
442.043	95.75
442.264	98.75
442.486	90.75
442.707	66.75
442.928	93.75
443.149	103.75
443.371	112.75
443.592	107.75
443.813	98.75
444.034	111.75
444.255	98.75
444.476	83.75
444.698	81.75
444.919	100.75
445.14	131.75
445.361	105.75
445.582	116.75
445.803	120.75
446.024	97.75
446.245	122.75
446.466	102.75
446.687	83.75
446.908	88.75
447.129	96.75
447.35	81.75
447.571	95.75
447.792	79.75
448.013	87.75
448.234	114.75
448.455	96.75
448.675	101.75
448.896	114.75
449.117	95.75
449.338	124.75
449.559	111.75
449.779	125.75
450	100.75
450.221	91.75
450.442	97.75
450.662	90.75
450.883	95.75
451.104	109.75
451.324	79.75
451.545	90.75
451.766	81.75
451.986	84.75
452.207	76.75
452.428	99.75
452.648	105.75
452.869	96.75
453.089	113.75
453.31	111.75
453.53	84.75
453.751	86.75
453.971	101.75
454.192	98.75
454.412	109.75
454.633	79.75
454.853	88.75
455.073	80.75
455.294	88.75
455.514	89.75
455.734	97.75
455.955	88.75
456.175	75.75
456.395	78.75
456.616	90.75
456.836	81.75
457.056	67.75
457.276	86.75
457.497	77.75
457.717	89.75
457.937	90.75
458.157	86.75
458.377	73.75
458.598	93.75
458.818	144.75
459.038	161.75
459.258	126.75
459.478	91.75
459.698	74.75
459.918	88.75
460.138	78.75
460.358	85.75
460.578	103.75
460.798	90.75
461.018	97.75
461.238	88.75
461.458	83.75
461.678	78.75
461.898	83.75
462.118	85.75
462.338	78.75
462.558	82.75
462.777	82.75
462.997	82.75
463.217	68.75
463.437	89.75
463.657	82.75
463.876	79.75
464.096	97.75
464.316	83.75
464.536	97.75
464.755	89.75
464.975	103.75
465.195	137.75
465.414	145.75
465.634	103.75
465.854	87.75
466.073	87.75
466.293	92.75
466.512	91.75
466.732	74.75
466.951	77.75
467.171	101.75
467.391	87.75
467.61	105.75
467.829	97.75
468.049	89.75
468.268	95.75
468.488	86.75
468.707	79.75
468.927	85.75
469.146	86.75
469.365	83.75
469.585	87.75
469.804	109.75
470.023	99.75
470.243	73.75
470.462	101.75
470.681	97.75
470.901	94.75
471.12	98.75
471.339	87.75
471.558	79.75
471.777	98.75
471.997	104.75
472.216	80.75
472.435	94.75
472.654	94.75
472.873	75.75
473.092	89.75
473.311	105.75
473.53	90.75
473.749	72.75
473.968	94.75
474.187	101.75
474.406	96.75
474.625	86.75
474.844	84.75
475.063	93.75
475.282	86.75
475.501	73.75
475.72	84.75
475.939	83.75
476.158	94.75
476.377	78.75
476.596	97.75
476.814	77.75
477.033	89.75
477.252	85.75
477.471	105.75
477.69	91.75
477.908	89.75
478.127	85.75
478.346	85.75
478.564	104.75
478.783	98.75
479.002	85.75
479.22	90.75
479.439	95.75
479.658	84.75
479.876	87.75
480.095	84.75
480.313	82.75
480.532	96.75
480.751	76.75
480.969	102.75
481.188	118.75
481.406	101.75
481.624	104.75
481.843	89.75
482.061	94.75
482.28	81.75
482.498	104.75
482.717	89.75
482.935	97.75
483.153	102.75
483.372	95.75
483.59	83.75
483.808	94.75
484.027	93.75
484.245	90.75
484.463	79.75
484.681	94.75
484.9	90.75
485.118	86.75
485.336	87.75
485.554	91.75
485.772	109.75
485.99	101.75
486.209	105.75
486.427	100.75
486.645	97.75
486.863	105.75
487.081	103.75
487.299	85.75
487.517	93.75
487.735	87.75
487.953	103.75
488.171	90.75
488.389	109.75
488.607	91.75
488.825	87.75
489.043	83.75
489.261	102.75
489.479	90.75
489.696	90.75
489.914	96.75
490.132	85.75
490.35	86.75
490.568	82.75
490.786	75.75
491.003	98.75
491.221	91.75
491.439	96.75
491.657	80.75
491.874	90.75
492.092	77.75
492.31	101.75
492.527	96.75
492.745	93.75
492.963	91.75
493.18	86.75
493.398	87.75
493.615	91.75
493.833	96.75
494.05	90.75
494.268	93.75
494.485	89.75
494.703	94.75
494.92	95.75
495.138	82.75
495.355	99.75
495.573	98.75
495.79	91.75
496.008	96.75
496.225	102.75
496.442	106.75
496.66	107.75
496.877	83.75
497.094	82.75
497.312	88.75
497.529	87.75
497.746	91.75
497.963	90.75
498.181	86.75
498.398	89.75
498.615	97.75
498.832	106.75
499.049	91.75
499.267	91.75
499.484	95.75
499.701	105.75
499.918	86.75
500.135	88.75
500.352	82.75
500.569	86.75
500.786	83.75
501.003	87.75
501.22	83.75
501.437	75.75
501.654	77.75
501.871	106.75
502.088	91.75
502.305	87.75
502.522	102.75
502.739	99.75
502.956	82.75
503.172	91.75
503.389	83.75
503.606	105.75
503.823	94.75
504.04	89.75
504.256	100.75
504.473	96.75
504.69	84.75
504.907	80.75
505.123	79.75
505.34	89.75
505.557	102.75
505.773	82.75
505.99	99.75
506.207	87.75
506.423	84.75
506.64	102.75
506.856	98.75
507.073	87.75
507.289	102.75
507.506	91.75
507.722	103.75
507.939	106.75
508.155	95.75
508.372	102.75
508.588	85.75
508.805	94.75
509.021	90.75
509.238	96.75
509.454	105.75
509.67	114.75
509.887	117.75
510.103	117.75
510.319	193.75
510.536	661.75
510.752	2037.75
510.968	594.75
511.184	153.75
511.401	106.75
511.617	107.75
511.833	100.75
512.049	91.75
512.265	90.75
512.481	93.75
512.698	103.75
512.914	104.75
513.13	83.75
513.346	86.75
513.562	92.75
513.778	107.75
513.994	108.75
514.21	103.75
514.426	125.75
514.642	114.75
514.858	110.75
515.074	164.75
515.29	386.75
515.506	1229.75
515.721	467.75
515.937	138.75
516.153	96.75
