Data from Uncirc_2002_H10_HRD10591_00004.txt Node
Date: Wed Jan 03 10:39:42 EST 2024
User: Yrep
Spectrometer: HR+D1059
Trigger mode: 1
Integration Time (sec): 1.000000E-1
Scans to average: 1
Electric dark correction enabled: true
Nonlinearity correction enabled: false
Boxcar width: 0
XAxis mode: Wavelengths
Number of Pixels in Spectrum: 2048
>>>>>Begin Spectral Data<<<<<
223.165	-18.31
223.4	-18.31
223.635	-18.31
223.869	-11.31
224.104	-17.31
224.338	-12.31
224.573	-11.31
224.808	-14.31
225.042	-19.31
225.277	-11.31
225.511	4.69
225.746	7.69
225.98	-7.31
226.215	10.69
226.449	17.69
226.683	16.69
226.918	37.69
227.152	27.69
227.387	35.69
227.621	31.69
227.856	40.69
228.09	38.69
228.324	53.69
228.559	52.69
228.793	54.69
229.027	54.69
229.262	63.69
229.496	63.69
229.73	67.69
229.964	79.69
230.199	65.69
230.433	79.69
230.667	77.69
230.901	78.69
231.136	72.69
231.37	71.69
231.604	72.69
231.838	70.69
232.072	78.69
232.306	85.69
232.541	87.69
232.775	64.69
233.009	78.69
233.243	72.69
233.477	69.69
233.711	75.69
233.945	75.69
234.179	84.69
234.413	77.69
234.647	86.69
234.881	70.69
235.115	70.69
235.349	66.69
235.583	64.69
235.817	86.69
236.051	70.69
236.285	73.69
236.519	71.69
236.753	68.69
236.987	71.69
237.221	77.69
237.455	80.69
237.689	81.69
237.922	71.69
238.156	63.69
238.39	61.69
238.624	70.69
238.858	91.69
239.091	65.69
239.325	79.69
239.559	77.69
239.793	85.69
240.027	88.69
240.26	79.69
240.494	70.69
240.728	73.69
240.961	72.69
241.195	61.69
241.429	72.69
241.662	80.69
241.896	76.69
242.13	68.69
242.363	82.69
242.597	79.69
242.83	83.69
243.064	81.69
243.298	69.69
243.531	72.69
243.765	73.69
243.998	78.69
244.232	73.69
244.465	76.69
244.699	73.69
244.932	73.69
245.166	84.69
245.399	68.69
245.633	77.69
245.866	92.69
246.099	77.69
246.333	71.69
246.566	61.69
246.8	76.69
247.033	75.69
247.266	82.69
247.5	72.69
247.733	91.69
247.966	84.69
248.2	77.69
248.433	79.69
248.666	75.69
248.899	88.69
249.133	85.69
249.366	98.69
249.599	77.69
249.832	77.69
250.066	83.69
250.299	72.69
250.532	85.69
250.765	83.69
250.998	85.69
251.231	79.69
251.465	74.69
251.698	74.69
251.931	71.69
252.164	75.69
252.397	73.69
252.63	89.69
252.863	84.69
253.096	78.69
253.329	86.69
253.562	76.69
253.795	66.69
254.028	77.69
254.261	75.69
254.494	92.69
254.727	82.69
254.96	73.69
255.193	92.69
255.426	76.69
255.659	58.69
255.892	70.69
256.124	83.69
256.357	68.69
256.59	83.69
256.823	54.69
257.056	79.69
257.289	81.69
257.521	70.69
257.754	76.69
257.987	81.69
258.22	84.69
258.452	89.69
258.685	69.69
258.918	70.69
259.151	61.69
259.383	84.69
259.616	82.69
259.849	89.69
260.081	87.69
260.314	92.69
260.547	85.69
260.779	77.69
261.012	71.69
261.244	74.69
261.477	83.69
261.71	85.69
261.942	84.69
262.175	85.69
262.407	88.69
262.64	102.69
262.872	87.69
263.105	82.69
263.337	86.69
263.57	79.69
263.802	80.69
264.035	70.69
264.267	73.69
264.499	79.69
264.732	68.69
264.964	78.69
265.197	81.69
265.429	80.69
265.661	69.69
265.894	75.69
266.126	94.69
266.358	78.69
266.591	85.69
266.823	92.69
267.055	85.69
267.287	82.69
267.52	86.69
267.752	79.69
267.984	78.69
268.216	82.69
268.448	83.69
268.681	77.69
268.913	88.69
269.145	82.69
269.377	80.69
269.609	79.69
269.841	75.69
270.073	81.69
270.306	82.69
270.538	84.69
270.77	85.69
271.002	77.69
271.234	81.69
271.466	84.69
271.698	83.69
271.93	74.69
272.162	86.69
272.394	89.69
272.626	88.69
272.858	85.69
273.09	85.69
273.322	81.69
273.553	89.69
273.785	87.69
274.017	79.69
274.249	87.69
274.481	83.69
274.713	77.69
274.945	78.69
275.176	92.69
275.408	82.69
275.64	83.69
275.872	77.69
276.104	76.69
276.335	82.69
276.567	96.69
276.799	99.69
277.031	105.69
277.262	79.69
277.494	72.69
277.726	81.69
277.957	83.69
278.189	88.69
278.421	90.69
278.652	91.69
278.884	97.69
279.115	99.69
279.347	82.69
279.579	75.69
279.81	76.69
280.042	88.69
280.273	73.69
280.505	87.69
280.736	84.69
280.968	83.69
281.199	79.69
281.431	101.69
281.662	80.69
281.894	80.69
282.125	82.69
282.356	103.69
282.588	109.69
282.819	112.69
283.051	91.69
283.282	79.69
283.513	92.69
283.745	87.69
283.976	88.69
284.207	83.69
284.439	90.69
284.67	64.69
284.901	84.69
285.132	77.69
285.364	89.69
285.595	80.69
285.826	91.69
286.057	87.69
286.288	89.69
286.52	89.69
286.751	83.69
286.982	83.69
287.213	89.69
287.444	70.69
287.675	88.69
287.906	87.69
288.138	76.69
288.369	97.69
288.6	93.69
288.831	86.69
289.062	80.69
289.293	79.69
289.524	81.69
289.755	92.69
289.986	84.69
290.217	83.69
290.448	88.69
290.679	83.69
290.91	82.69
291.141	89.69
291.371	88.69
291.602	94.69
291.833	84.69
292.064	75.69
292.295	73.69
292.526	89.69
292.757	75.69
292.987	85.69
293.218	91.69
293.449	98.69
293.68	73.69
293.91	94.69
294.141	88.69
294.372	87.69
294.603	86.69
294.833	83.69
295.064	93.69
295.295	87.69
295.525	91.69
295.756	86.69
295.987	100.69
296.217	115.69
296.448	98.69
296.679	91.69
296.909	99.69
297.14	81.69
297.37	82.69
297.601	82.69
297.831	69.69
298.062	85.69
298.292	96.69
298.523	88.69
298.753	73.69
298.984	99.69
299.214	91.69
299.445	88.69
299.675	88.69
299.905	92.69
300.136	86.69
300.366	79.69
300.597	78.69
300.827	105.69
301.057	92.69
301.288	94.69
301.518	73.69
301.748	89.69
301.979	85.69
302.209	95.69
302.439	96.69
302.669	101.69
302.9	84.69
303.13	82.69
303.36	96.69
303.59	86.69
303.82	76.69
304.051	95.69
304.281	81.69
304.511	92.69
304.741	95.69
304.971	92.69
305.201	95.69
305.431	85.69
305.661	77.69
305.891	79.69
306.121	85.69
306.352	89.69
306.582	84.69
306.812	87.69
307.042	96.69
307.272	73.69
307.502	87.69
307.731	89.69
307.961	91.69
308.191	107.69
308.421	95.69
308.651	90.69
308.881	96.69
309.111	92.69
309.341	93.69
309.571	99.69
309.8	93.69
310.03	92.69
310.26	91.69
310.49	81.69
310.72	83.69
310.949	79.69
311.179	107.69
311.409	88.69
311.639	87.69
311.868	91.69
312.098	86.69
312.328	95.69
312.557	87.69
312.787	94.69
313.017	91.69
313.246	84.69
313.476	89.69
313.706	88.69
313.935	83.69
314.165	83.69
314.394	93.69
314.624	104.69
314.853	90.69
315.083	95.69
315.312	86.69
315.542	95.69
315.771	88.69
316.001	86.69
316.23	79.69
316.46	97.69
316.689	76.69
316.919	87.69
317.148	81.69
317.377	89.69
317.607	95.69
317.836	103.69
318.065	88.69
318.295	98.69
318.524	84.69
318.753	94.69
318.983	89.69
319.212	100.69
319.441	87.69
319.67	96.69
319.9	100.69
320.129	89.69
320.358	102.69
320.587	97.69
320.816	86.69
321.046	95.69
321.275	94.69
321.504	87.69
321.733	92.69
321.962	93.69
322.191	109.69
322.42	111.69
322.649	100.69
322.878	104.69
323.108	97.69
323.337	116.69
323.566	122.69
323.795	141.69
324.024	170.69
324.253	301.69
324.482	584.69
324.71	1179.69
324.939	1557.69
325.168	584.69
325.397	159.69
325.626	117.69
325.855	106.69
326.084	113.69
326.313	109.69
326.542	136.69
326.77	188.69
326.999	358.69
327.228	704.69
327.457	1266.69
327.686	982.69
327.914	279.69
328.143	146.69
328.372	120.69
328.6	107.69
328.829	96.69
329.058	88.69
329.287	115.69
329.515	103.69
329.744	83.69
329.972	102.69
330.201	77.69
330.43	91.69
330.658	93.69
330.887	115.69
331.115	94.69
331.344	88.69
331.572	95.69
331.801	104.69
332.03	107.69
332.258	95.69
332.486	94.69
332.715	97.69
332.943	94.69
333.172	85.69
333.4	98.69
333.629	78.69
333.857	97.69
334.085	103.69
334.314	89.69
334.542	88.69
334.771	96.69
334.999	84.69
335.227	95.69
335.455	86.69
335.684	100.69
335.912	92.69
336.14	91.69
336.369	88.69
336.597	92.69
336.825	85.69
337.053	83.69
337.281	84.69
337.51	84.69
337.738	84.69
337.966	96.69
338.194	91.69
338.422	91.69
338.65	94.69
338.878	91.69
339.106	87.69
339.334	81.69
339.562	87.69
339.79	88.69
340.018	84.69
340.246	81.69
340.474	95.69
340.702	85.69
340.93	95.69
341.158	80.69
341.386	72.69
341.614	99.69
341.842	91.69
342.07	92.69
342.298	86.69
342.526	84.69
342.754	92.69
342.981	95.69
343.209	94.69
343.437	88.69
343.665	79.69
343.893	85.69
344.12	104.69
344.348	79.69
344.576	93.69
344.804	86.69
345.031	102.69
345.259	88.69
345.487	75.69
345.714	88.69
345.942	85.69
346.17	97.69
346.397	85.69
346.625	99.69
346.853	98.69
347.08	97.69
347.308	88.69
347.535	98.69
347.763	85.69
347.99	93.69
348.218	84.69
348.445	94.69
348.673	101.69
348.9	83.69
349.128	85.69
349.355	81.69
349.583	76.69
349.81	100.69
350.037	89.69
350.265	92.69
350.492	86.69
350.72	89.69
350.947	90.69
351.174	93.69
351.402	88.69
351.629	99.69
351.856	94.69
352.083	99.69
352.311	89.69
352.538	93.69
352.765	91.69
352.992	106.69
353.22	99.69
353.447	98.69
353.674	97.69
353.901	91.69
354.128	87.69
354.355	80.69
354.583	94.69
354.81	99.69
355.037	104.69
355.264	100.69
355.491	104.69
355.718	78.69
355.945	101.69
356.172	76.69
356.399	88.69
356.626	87.69
356.853	98.69
357.08	81.69
357.307	92.69
357.534	96.69
357.761	98.69
357.988	69.69
358.215	99.69
358.441	84.69
358.668	84.69
358.895	93.69
359.122	79.69
359.349	85.69
359.576	93.69
359.802	98.69
360.029	107.69
360.256	79.69
360.483	106.69
360.709	80.69
360.936	90.69
361.163	86.69
361.39	86.69
361.616	91.69
361.843	96.69
362.07	90.69
362.296	76.69
362.523	96.69
362.749	88.69
362.976	77.69
363.203	87.69
363.429	89.69
363.656	78.69
363.882	86.69
364.109	86.69
364.335	80.69
364.562	83.69
364.788	86.69
365.015	93.69
365.241	79.69
365.468	87.69
365.694	89.69
365.92	86.69
366.147	87.69
366.373	80.69
366.599	73.69
366.826	77.69
367.052	77.69
367.278	96.69
367.505	102.69
367.731	93.69
367.957	89.69
368.184	96.69
368.41	88.69
368.636	91.69
368.862	106.69
369.089	99.69
369.315	88.69
369.541	89.69
369.767	77.69
369.993	84.69
370.219	88.69
370.445	81.69
370.672	86.69
370.898	86.69
371.124	85.69
371.35	92.69
371.576	92.69
371.802	81.69
372.028	105.69
372.254	82.69
372.48	96.69
372.706	91.69
372.932	91.69
373.158	86.69
373.384	80.69
373.61	92.69
373.835	82.69
374.061	81.69
374.287	82.69
374.513	92.69
374.739	93.69
374.965	66.69
375.191	88.69
375.416	85.69
375.642	82.69
375.868	102.69
376.094	94.69
376.319	83.69
376.545	85.69
376.771	89.69
376.997	92.69
377.222	95.69
377.448	95.69
377.674	78.69
377.899	95.69
378.125	89.69
378.35	107.69
378.576	88.69
378.802	84.69
379.027	79.69
379.253	82.69
379.478	87.69
379.704	94.69
379.929	89.69
380.155	91.69
380.38	92.69
380.606	86.69
380.831	94.69
381.057	101.69
381.282	95.69
381.507	83.69
381.733	88.69
381.958	89.69
382.184	99.69
382.409	106.69
382.634	89.69
382.86	78.69
383.085	111.69
383.31	109.69
383.535	97.69
383.761	82.69
383.986	104.69
384.211	93.69
384.436	87.69
384.662	85.69
384.887	86.69
385.112	110.69
385.337	103.69
385.562	102.69
385.787	104.69
386.013	101.69
386.238	102.69
386.463	105.69
386.688	102.69
386.913	93.69
387.138	90.69
387.363	104.69
387.588	96.69
387.813	97.69
388.038	115.69
388.263	98.69
388.488	99.69
388.713	87.69
388.938	93.69
389.163	96.69
389.387	81.69
389.612	98.69
389.837	92.69
390.062	83.69
390.287	77.69
390.512	93.69
390.736	97.69
390.961	79.69
391.186	93.69
391.411	91.69
391.636	84.69
391.86	71.69
392.085	93.69
392.31	81.69
392.534	89.69
392.759	77.69
392.984	87.69
393.208	107.69
393.433	128.69
393.658	123.69
393.882	86.69
394.107	95.69
394.331	77.69
394.556	80.69
394.78	78.69
395.005	77.69
395.229	87.69
395.454	92.69
395.678	80.69
395.903	88.69
396.127	83.69
396.352	93.69
396.576	80.69
396.801	106.69
397.025	118.69
397.249	80.69
397.474	80.69
397.698	80.69
397.922	89.69
398.147	79.69
398.371	79.69
398.595	79.69
398.82	81.69
399.044	86.69
399.268	106.69
399.492	85.69
399.717	91.69
399.941	82.69
400.165	80.69
400.389	88.69
400.613	81.69
400.837	69.69
401.062	97.69
401.286	78.69
401.51	76.69
401.734	85.69
401.958	76.69
402.182	89.69
402.406	108.69
402.63	89.69
402.854	86.69
403.078	80.69
403.302	92.69
403.526	69.69
403.75	80.69
403.974	79.69
404.198	73.69
404.422	89.69
404.645	77.69
404.869	67.69
405.093	88.69
405.317	87.69
405.541	87.69
405.765	78.69
405.988	92.69
406.212	134.69
406.436	166.69
406.66	104.69
406.883	90.69
407.107	99.69
407.331	90.69
407.555	88.69
407.778	83.69
408.002	83.69
408.226	86.69
408.449	67.69
408.673	81.69
408.896	95.69
409.12	93.69
409.344	88.69
409.567	87.69
409.791	86.69
410.014	93.69
410.238	99.69
410.461	94.69
410.685	80.69
410.908	89.69
411.132	105.69
411.355	92.69
411.578	87.69
411.802	89.69
412.025	83.69
412.249	70.69
412.472	68.69
412.695	89.69
412.919	80.69
413.142	95.69
413.365	89.69
413.589	84.69
413.812	71.69
414.035	83.69
414.258	90.69
414.482	100.69
414.705	82.69
414.928	86.69
415.151	96.69
415.374	89.69
415.597	83.69
415.821	83.69
416.044	91.69
416.267	68.69
416.49	72.69
416.713	83.69
416.936	76.69
417.159	88.69
417.382	78.69
417.605	93.69
417.828	82.69
418.051	80.69
418.274	80.69
418.497	80.69
418.72	96.69
418.943	84.69
419.166	91.69
419.389	81.69
419.611	95.69
419.834	79.69
420.057	93.69
420.28	85.69
420.503	79.69
420.726	63.69
420.948	77.69
421.171	86.69
421.394	77.69
421.617	94.69
421.839	80.69
422.062	85.69
422.285	88.69
422.507	99.69
422.73	91.69
422.953	93.69
423.175	84.69
423.398	75.69
423.621	77.69
423.843	65.69
424.066	80.69
424.288	112.69
424.511	75.69
424.733	78.69
424.956	84.69
425.178	89.69
425.401	78.69
425.623	87.69
425.846	79.69
426.068	76.69
426.291	78.69
426.513	79.69
426.735	94.69
426.958	98.69
427.18	82.69
427.402	116.69
427.625	114.69
427.847	100.69
428.069	112.69
428.292	91.69
428.514	84.69
428.736	71.69
428.958	78.69
429.181	78.69
429.403	82.69
429.625	82.69
429.847	82.69
430.069	102.69
430.292	85.69
430.514	77.69
430.736	86.69
430.958	80.69
431.18	86.69
431.402	80.69
431.624	77.69
431.846	87.69
432.068	75.69
432.29	82.69
432.512	81.69
432.734	67.69
432.956	79.69
433.178	95.69
433.4	84.69
433.622	75.69
433.844	93.69
434.066	90.69
434.287	89.69
434.509	85.69
434.731	77.69
434.953	81.69
435.175	77.69
435.397	92.69
435.618	94.69
435.84	102.69
436.062	106.69
436.284	98.69
436.505	81.69
436.727	91.69
436.949	81.69
437.17	81.69
437.392	85.69
437.614	81.69
437.835	90.69
438.057	104.69
438.278	92.69
438.5	82.69
438.721	93.69
438.943	86.69
439.165	86.69
439.386	78.69
439.608	85.69
439.829	92.69
440.05	101.69
440.272	128.69
440.493	101.69
440.715	84.69
440.936	79.69
441.158	83.69
441.379	67.69
441.6	60.69
441.822	90.69
442.043	87.69
442.264	89.69
442.486	89.69
442.707	93.69
442.928	86.69
443.149	103.69
443.371	110.69
443.592	96.69
443.813	110.69
444.034	97.69
444.255	87.69
444.476	93.69
444.698	71.69
444.919	81.69
445.14	131.69
445.361	113.69
445.582	105.69
445.803	115.69
446.024	119.69
446.245	108.69
446.466	93.69
446.687	85.69
446.908	85.69
447.129	89.69
447.35	89.69
447.571	88.69
447.792	89.69
448.013	89.69
448.234	103.69
448.455	93.69
448.675	109.69
448.896	96.69
449.117	91.69
449.338	89.69
449.559	122.69
449.779	100.69
450	87.69
450.221	73.69
450.442	64.69
450.662	81.69
450.883	92.69
451.104	96.69
451.324	88.69
451.545	101.69
451.766	76.69
451.986	92.69
452.207	88.69
452.428	98.69
452.648	93.69
452.869	94.69
453.089	93.69
453.31	93.69
453.53	101.69
453.751	97.69
453.971	81.69
454.192	99.69
454.412	75.69
454.633	82.69
454.853	87.69
455.073	94.69
455.294	87.69
455.514	92.69
455.734	80.69
455.955	79.69
456.175	74.69
456.395	68.69
456.616	86.69
456.836	88.69
457.056	89.69
457.276	64.69
457.497	86.69
457.717	92.69
457.937	95.69
458.157	84.69
458.377	89.69
458.598	104.69
458.818	102.69
459.038	109.69
459.258	95.69
459.478	88.69
459.698	77.69
459.918	69.69
460.138	70.69
460.358	82.69
460.578	84.69
460.798	95.69
461.018	82.69
461.238	78.69
461.458	80.69
461.678	92.69
461.898	76.69
462.118	83.69
462.338	72.69
462.558	91.69
462.777	72.69
462.997	93.69
463.217	87.69
463.437	82.69
463.657	80.69
463.876	80.69
464.096	83.69
464.316	85.69
464.536	95.69
464.755	96.69
464.975	93.69
465.195	111.69
465.414	119.69
465.634	97.69
465.854	88.69
466.073	97.69
466.293	96.69
466.512	91.69
466.732	89.69
466.951	74.69
467.171	82.69
467.391	79.69
467.61	95.69
467.829	73.69
468.049	85.69
468.268	89.69
468.488	78.69
468.707	73.69
468.927	90.69
469.146	90.69
469.365	66.69
469.585	84.69
469.804	94.69
470.023	89.69
470.243	85.69
470.462	79.69
470.681	87.69
470.901	97.69
471.12	91.69
471.339	80.69
471.558	79.69
471.777	82.69
471.997	82.69
472.216	89.69
472.435	86.69
472.654	86.69
472.873	83.69
473.092	78.69
473.311	67.69
473.53	64.69
473.749	73.69
473.968	95.69
474.187	94.69
474.406	71.69
474.625	77.69
474.844	93.69
475.063	75.69
475.282	71.69
475.501	88.69
475.72	86.69
475.939	74.69
476.158	84.69
476.377	97.69
476.596	81.69
476.814	84.69
477.033	99.69
477.252	76.69
477.471	77.69
477.69	83.69
477.908	74.69
478.127	79.69
478.346	73.69
478.564	85.69
478.783	75.69
479.002	96.69
479.22	93.69
479.439	95.69
479.658	106.69
479.876	88.69
480.095	80.69
480.313	84.69
480.532	84.69
480.751	84.69
480.969	79.69
481.188	102.69
481.406	108.69
481.624	94.69
481.843	86.69
482.061	74.69
482.28	81.69
482.498	74.69
482.717	84.69
482.935	89.69
483.153	85.69
483.372	84.69
483.59	86.69
483.808	79.69
484.027	79.69
484.245	103.69
484.463	95.69
484.681	93.69
484.9	94.69
485.118	101.69
485.336	106.69
485.554	89.69
485.772	101.69
485.99	95.69
486.209	89.69
486.427	95.69
486.645	102.69
486.863	103.69
487.081	94.69
487.299	101.69
487.517	100.69
487.735	93.69
487.953	83.69
488.171	78.69
488.389	100.69
488.607	87.69
488.825	105.69
489.043	89.69
489.261	77.69
489.479	71.69
489.696	84.69
489.914	88.69
490.132	81.69
490.35	98.69
490.568	94.69
490.786	84.69
491.003	71.69
491.221	87.69
491.439	92.69
491.657	91.69
491.874	91.69
492.092	90.69
492.31	80.69
492.527	71.69
492.745	84.69
492.963	83.69
493.18	79.69
493.398	76.69
493.615	93.69
493.833	104.69
494.05	78.69
494.268	89.69
494.485	74.69
494.703	96.69
494.92	86.69
495.138	89.69
495.355	97.69
495.573	68.69
495.79	83.69
496.008	80.69
496.225	84.69
496.442	79.69
496.66	93.69
496.877	95.69
497.094	96.69
497.312	82.69
497.529	92.69
497.746	86.69
497.963	110.69
498.181	85.69
498.398	79.69
498.615	107.69
498.832	97.69
499.049	98.69
499.267	95.69
499.484	92.69
499.701	87.69
499.918	91.69
500.135	93.69
500.352	79.69
500.569	84.69
500.786	84.69
501.003	87.69
501.22	83.69
501.437	86.69
501.654	71.69
501.871	90.69
502.088	82.69
502.305	86.69
502.522	88.69
502.739	86.69
502.956	103.69
503.172	87.69
503.389	91.69
503.606	93.69
503.823	85.69
504.04	82.69
504.256	95.69
504.473	88.69
504.69	89.69
504.907	84.69
505.123	95.69
505.34	86.69
505.557	77.69
505.773	75.69
505.99	92.69
506.207	94.69
506.423	87.69
506.64	81.69
506.856	97.69
507.073	94.69
507.289	86.69
507.506	97.69
507.722	102.69
507.939	98.69
508.155	84.69
508.372	88.69
508.588	92.69
508.805	87.69
509.021	94.69
509.238	90.69
509.454	79.69
509.67	106.69
509.887	99.69
510.103	120.69
510.319	176.69
510.536	524.69
510.752	1556.69
510.968	459.69
511.184	129.69
511.401	118.69
511.617	89.69
511.833	86.69
512.049	77.69
512.265	87.69
512.481	79.69
512.698	94.69
512.914	92.69
513.13	81.69
513.346	91.69
513.562	87.69
513.778	90.69
513.994	83.69
514.21	91.69
514.426	103.69
514.642	101.69
514.858	85.69
515.074	116.69
515.29	280.69
515.506	875.69
515.721	360.69
515.937	138.69
516.153	100.69
516.369	99.69
516.585	82.69
516.801	118.69
517.016	101.69
517.232	94.69
517.448	95.69
517.664	93.69
