Data from Uncirc_2002_H10_HRD10591_00049.txt Node
Date: Wed Jan 03 10:39:51 EST 2024
User: Yrep
Spectrometer: HR+D1059
Trigger mode: 1
Integration Time (sec): 1.000000E-1
Scans to average: 1
Electric dark correction enabled: true
Nonlinearity correction enabled: false
Boxcar width: 0
XAxis mode: Wavelengths
Number of Pixels in Spectrum: 2048
>>>>>Begin Spectral Data<<<<<
223.165	-15.5
223.4	-15.5
223.635	-15.5
223.869	-28.5
224.104	-27.5
224.338	-18.5
224.573	-8.5
224.808	-9.5
225.042	-9.5
225.277	-0.5
225.511	-1.5
225.746	-0.5
225.98	16.5
226.215	0.5
226.449	17.5
226.683	29.5
226.918	36.5
227.152	19.5
227.387	30.5
227.621	38.5
227.856	37.5
228.09	36.5
228.324	48.5
228.559	60.5
228.793	51.5
229.027	60.5
229.262	69.5
229.496	81.5
229.73	70.5
229.964	83.5
230.199	76.5
230.433	70.5
230.667	69.5
230.901	81.5
231.136	88.5
231.37	73.5
231.604	79.5
231.838	70.5
232.072	72.5
232.306	78.5
232.541	78.5
232.775	74.5
233.009	75.5
233.243	74.5
233.477	84.5
233.711	77.5
233.945	79.5
234.179	63.5
234.413	90.5
234.647	83.5
234.881	49.5
235.115	93.5
235.349	83.5
235.583	66.5
235.817	71.5
236.051	72.5
236.285	73.5
236.519	78.5
236.753	80.5
236.987	56.5
237.221	72.5
237.455	75.5
237.689	84.5
237.922	69.5
238.156	69.5
238.39	78.5
238.624	73.5
238.858	78.5
239.091	75.5
239.325	80.5
239.559	70.5
239.793	77.5
240.027	73.5
240.26	68.5
240.494	72.5
240.728	87.5
240.961	72.5
241.195	75.5
241.429	71.5
241.662	63.5
241.896	82.5
242.13	56.5
242.363	63.5
242.597	77.5
242.83	70.5
243.064	74.5
243.298	62.5
243.531	66.5
243.765	87.5
243.998	67.5
244.232	68.5
244.465	79.5
244.699	63.5
244.932	72.5
245.166	73.5
245.399	67.5
245.633	69.5
245.866	83.5
246.099	85.5
246.333	78.5
246.566	71.5
246.8	79.5
247.033	76.5
247.266	82.5
247.5	89.5
247.733	82.5
247.966	81.5
248.2	91.5
248.433	64.5
248.666	80.5
248.899	75.5
249.133	82.5
249.366	94.5
249.599	93.5
249.832	73.5
250.066	76.5
250.299	84.5
250.532	75.5
250.765	86.5
250.998	70.5
251.231	72.5
251.465	70.5
251.698	85.5
251.931	75.5
252.164	73.5
252.397	78.5
252.63	79.5
252.863	72.5
253.096	72.5
253.329	74.5
253.562	64.5
253.795	79.5
254.028	75.5
254.261	83.5
254.494	76.5
254.727	81.5
254.96	79.5
255.193	70.5
255.426	65.5
255.659	74.5
255.892	85.5
256.124	83.5
256.357	70.5
256.59	85.5
256.823	67.5
257.056	76.5
257.289	96.5
257.521	68.5
257.754	82.5
257.987	79.5
258.22	76.5
258.452	78.5
258.685	83.5
258.918	77.5
259.151	91.5
259.383	87.5
259.616	85.5
259.849	64.5
260.081	81.5
260.314	67.5
260.547	72.5
260.779	80.5
261.012	80.5
261.244	60.5
261.477	80.5
261.71	107.5
261.942	96.5
262.175	87.5
262.407	85.5
262.64	86.5
262.872	76.5
263.105	91.5
263.337	89.5
263.57	84.5
263.802	97.5
264.035	90.5
264.267	68.5
264.499	84.5
264.732	73.5
264.964	89.5
265.197	100.5
265.429	81.5
265.661	84.5
265.894	71.5
266.126	76.5
266.358	80.5
266.591	88.5
266.823	87.5
267.055	79.5
267.287	79.5
267.52	79.5
267.752	85.5
267.984	81.5
268.216	71.5
268.448	70.5
268.681	83.5
268.913	86.5
269.145	75.5
269.377	84.5
269.609	100.5
269.841	77.5
270.073	78.5
270.306	88.5
270.538	75.5
270.77	75.5
271.002	79.5
271.234	80.5
271.466	86.5
271.698	85.5
271.93	74.5
272.162	88.5
272.394	88.5
272.626	84.5
272.858	86.5
273.09	83.5
273.322	90.5
273.553	72.5
273.785	76.5
274.017	83.5
274.249	88.5
274.481	90.5
274.713	72.5
274.945	91.5
275.176	92.5
275.408	88.5
275.64	78.5
275.872	64.5
276.104	80.5
276.335	89.5
276.567	93.5
276.799	91.5
277.031	100.5
277.262	87.5
277.494	93.5
277.726	74.5
277.957	82.5
278.189	84.5
278.421	85.5
278.652	84.5
278.884	79.5
279.115	77.5
279.347	84.5
279.579	70.5
279.81	82.5
280.042	94.5
280.273	84.5
280.505	63.5
280.736	83.5
280.968	89.5
281.199	68.5
281.431	91.5
281.662	76.5
281.894	95.5
282.125	96.5
282.356	108.5
282.588	119.5
282.819	104.5
283.051	84.5
283.282	81.5
283.513	87.5
283.745	89.5
283.976	91.5
284.207	71.5
284.439	87.5
284.67	88.5
284.901	78.5
285.132	77.5
285.364	71.5
285.595	87.5
285.826	87.5
286.057	84.5
286.288	88.5
286.52	79.5
286.751	80.5
286.982	74.5
287.213	92.5
287.444	89.5
287.675	82.5
287.906	88.5
288.138	84.5
288.369	90.5
288.6	87.5
288.831	98.5
289.062	87.5
289.293	97.5
289.524	81.5
289.755	79.5
289.986	81.5
290.217	87.5
290.448	85.5
290.679	92.5
290.91	90.5
291.141	87.5
291.371	85.5
291.602	85.5
291.833	76.5
292.064	80.5
292.295	85.5
292.526	74.5
292.757	88.5
292.987	80.5
293.218	78.5
293.449	78.5
293.68	92.5
293.91	87.5
294.141	96.5
294.372	79.5
294.603	92.5
294.833	93.5
295.064	89.5
295.295	89.5
295.525	103.5
295.756	109.5
295.987	104.5
296.217	111.5
296.448	97.5
296.679	84.5
296.909	97.5
297.14	77.5
297.37	91.5
297.601	79.5
297.831	93.5
298.062	74.5
298.292	71.5
298.523	79.5
298.753	95.5
298.984	85.5
299.214	85.5
299.445	77.5
299.675	101.5
299.905	100.5
300.136	97.5
300.366	82.5
300.597	76.5
300.827	100.5
301.057	95.5
301.288	94.5
301.518	85.5
301.748	88.5
301.979	106.5
302.209	80.5
302.439	81.5
302.669	90.5
302.9	88.5
303.13	70.5
303.36	86.5
303.59	108.5
303.82	111.5
304.051	87.5
304.281	93.5
304.511	86.5
304.741	95.5
304.971	76.5
305.201	88.5
305.431	102.5
305.661	88.5
305.891	82.5
306.121	80.5
306.352	105.5
306.582	95.5
306.812	95.5
307.042	99.5
307.272	89.5
307.502	85.5
307.731	88.5
307.961	86.5
308.191	91.5
308.421	85.5
308.651	82.5
308.881	84.5
309.111	96.5
309.341	93.5
309.571	96.5
309.8	97.5
310.03	95.5
310.26	90.5
310.49	95.5
310.72	93.5
310.949	99.5
311.179	84.5
311.409	93.5
311.639	85.5
311.868	92.5
312.098	92.5
312.328	89.5
312.557	93.5
312.787	95.5
313.017	98.5
313.246	87.5
313.476	88.5
313.706	77.5
313.935	86.5
314.165	94.5
314.394	114.5
314.624	96.5
314.853	95.5
315.083	95.5
315.312	90.5
315.542	84.5
315.771	81.5
316.001	89.5
316.23	96.5
316.46	86.5
316.689	101.5
316.919	99.5
317.148	91.5
317.377	87.5
317.607	85.5
317.836	72.5
318.065	93.5
318.295	107.5
318.524	77.5
318.753	90.5
318.983	99.5
319.212	89.5
319.441	103.5
319.67	101.5
319.9	103.5
320.129	90.5
320.358	100.5
320.587	86.5
320.816	91.5
321.046	98.5
321.275	106.5
321.504	86.5
321.733	88.5
321.962	91.5
322.191	91.5
322.42	100.5
322.649	98.5
322.878	101.5
323.108	94.5
323.337	128.5
323.566	140.5
323.795	144.5
324.024	184.5
324.253	333.5
324.482	689.5
324.71	1382.5
324.939	1793.5
325.168	678.5
325.397	214.5
325.626	127.5
325.855	120.5
326.084	110.5
326.313	125.5
326.542	136.5
326.77	212.5
326.999	395.5
327.228	789.5
327.457	1383.5
327.686	1098.5
327.914	313.5
328.143	189.5
328.372	131.5
328.6	108.5
328.829	103.5
329.058	112.5
329.287	118.5
329.515	97.5
329.744	93.5
329.972	92.5
330.201	99.5
330.43	101.5
330.658	98.5
330.887	128.5
331.115	111.5
331.344	100.5
331.572	99.5
331.801	92.5
332.03	91.5
332.258	85.5
332.486	80.5
332.715	97.5
332.943	84.5
333.172	79.5
333.4	85.5
333.629	92.5
333.857	101.5
334.085	104.5
334.314	95.5
334.542	86.5
334.771	107.5
334.999	86.5
335.227	86.5
335.455	93.5
335.684	85.5
335.912	95.5
336.14	90.5
336.369	97.5
336.597	89.5
336.825	94.5
337.053	89.5
337.281	92.5
337.51	87.5
337.738	89.5
337.966	97.5
338.194	97.5
338.422	87.5
338.65	93.5
338.878	83.5
339.106	94.5
339.334	85.5
339.562	87.5
339.79	94.5
340.018	88.5
340.246	90.5
340.474	93.5
340.702	84.5
340.93	84.5
341.158	96.5
341.386	83.5
341.614	84.5
341.842	89.5
342.07	89.5
342.298	87.5
342.526	96.5
342.754	81.5
342.981	91.5
343.209	92.5
343.437	89.5
343.665	82.5
343.893	83.5
344.12	67.5
344.348	88.5
344.576	82.5
344.804	81.5
345.031	103.5
345.259	96.5
345.487	93.5
345.714	93.5
345.942	92.5
346.17	75.5
346.397	89.5
346.625	73.5
346.853	95.5
347.08	91.5
347.308	81.5
347.535	92.5
347.763	95.5
347.99	96.5
348.218	104.5
348.445	84.5
348.673	90.5
348.9	91.5
349.128	95.5
349.355	78.5
349.583	92.5
349.81	88.5
350.037	92.5
350.265	81.5
350.492	86.5
350.72	92.5
350.947	100.5
351.174	97.5
351.402	108.5
351.629	116.5
351.856	107.5
352.083	105.5
352.311	110.5
352.538	98.5
352.765	91.5
352.992	103.5
353.22	111.5
353.447	96.5
353.674	98.5
353.901	95.5
354.128	95.5
354.355	99.5
354.583	98.5
354.81	103.5
355.037	99.5
355.264	104.5
355.491	94.5
355.718	86.5
355.945	97.5
356.172	94.5
356.399	83.5
356.626	87.5
356.853	71.5
357.08	92.5
357.307	87.5
357.534	82.5
357.761	82.5
357.988	92.5
358.215	88.5
358.441	95.5
358.668	89.5
358.895	87.5
359.122	82.5
359.349	91.5
359.576	87.5
359.802	88.5
360.029	108.5
360.256	94.5
360.483	107.5
360.709	89.5
360.936	91.5
361.163	97.5
361.39	96.5
361.616	94.5
361.843	92.5
362.07	84.5
362.296	76.5
362.523	92.5
362.749	89.5
362.976	81.5
363.203	99.5
363.429	92.5
363.656	93.5
363.882	93.5
364.109	84.5
364.335	86.5
364.562	83.5
364.788	90.5
365.015	88.5
365.241	84.5
365.468	91.5
365.694	97.5
365.92	99.5
366.147	99.5
366.373	89.5
366.599	93.5
366.826	88.5
367.052	93.5
367.278	97.5
367.505	92.5
367.731	87.5
367.957	90.5
368.184	83.5
368.41	89.5
368.636	89.5
368.862	118.5
369.089	99.5
369.315	89.5
369.541	99.5
369.767	87.5
369.993	94.5
370.219	91.5
370.445	76.5
370.672	79.5
370.898	78.5
371.124	81.5
371.35	84.5
371.576	73.5
371.802	90.5
372.028	84.5
372.254	80.5
372.48	81.5
372.706	92.5
372.932	74.5
373.158	75.5
373.384	87.5
373.61	89.5
373.835	100.5
374.061	75.5
374.287	83.5
374.513	87.5
374.739	79.5
374.965	93.5
375.191	104.5
375.416	71.5
375.642	94.5
375.868	86.5
376.094	98.5
376.319	84.5
376.545	91.5
376.771	96.5
376.997	86.5
377.222	99.5
377.448	100.5
377.674	95.5
377.899	82.5
378.125	90.5
378.35	87.5
378.576	81.5
378.802	106.5
379.027	93.5
379.253	83.5
379.478	83.5
379.704	93.5
379.929	91.5
380.155	96.5
380.38	97.5
380.606	78.5
380.831	104.5
381.057	102.5
381.282	96.5
381.507	92.5
381.733	100.5
381.958	104.5
382.184	95.5
382.409	92.5
382.634	105.5
382.86	84.5
383.085	97.5
383.31	99.5
383.535	101.5
383.761	87.5
383.986	87.5
384.211	96.5
384.436	83.5
384.662	93.5
384.887	98.5
385.112	88.5
385.337	82.5
385.562	107.5
385.787	89.5
386.013	114.5
386.238	99.5
386.463	93.5
386.688	93.5
386.913	100.5
387.138	100.5
387.363	98.5
387.588	94.5
387.813	92.5
388.038	102.5
388.263	101.5
388.488	99.5
388.713	91.5
388.938	101.5
389.163	99.5
389.387	88.5
389.612	104.5
389.837	99.5
390.062	92.5
390.287	98.5
390.512	99.5
390.736	84.5
390.961	72.5
391.186	84.5
391.411	93.5
391.636	86.5
391.86	99.5
392.085	81.5
392.31	79.5
392.534	71.5
392.759	77.5
392.984	105.5
393.208	88.5
393.433	103.5
393.658	81.5
393.882	92.5
394.107	80.5
394.331	87.5
394.556	94.5
394.78	86.5
395.005	84.5
395.229	89.5
395.454	84.5
395.678	79.5
395.903	83.5
396.127	96.5
396.352	81.5
396.576	82.5
396.801	83.5
397.025	97.5
397.249	91.5
397.474	76.5
397.698	83.5
397.922	80.5
398.147	75.5
398.371	75.5
398.595	81.5
398.82	80.5
399.044	86.5
399.268	92.5
399.492	96.5
399.717	87.5
399.941	93.5
400.165	96.5
400.389	87.5
400.613	77.5
400.837	74.5
401.062	96.5
401.286	83.5
401.51	76.5
401.734	104.5
401.958	103.5
402.182	126.5
402.406	143.5
402.63	115.5
402.854	77.5
403.078	85.5
403.302	90.5
403.526	81.5
403.75	84.5
403.974	88.5
404.198	84.5
404.422	89.5
404.645	79.5
404.869	82.5
405.093	79.5
405.317	82.5
405.541	80.5
405.765	92.5
405.988	109.5
406.212	154.5
406.436	205.5
406.66	113.5
406.883	94.5
407.107	96.5
407.331	108.5
407.555	92.5
407.778	96.5
408.002	78.5
408.226	86.5
408.449	83.5
408.673	82.5
408.896	97.5
409.12	101.5
409.344	87.5
409.567	75.5
409.791	98.5
410.014	99.5
410.238	95.5
410.461	97.5
410.685	100.5
410.908	91.5
411.132	105.5
411.355	100.5
411.578	92.5
411.802	87.5
412.025	71.5
412.249	92.5
412.472	91.5
412.695	89.5
412.919	81.5
413.142	77.5
413.365	77.5
413.589	85.5
413.812	91.5
414.035	80.5
414.258	93.5
414.482	84.5
414.705	75.5
414.928	94.5
415.151	87.5
415.374	93.5
415.597	89.5
415.821	85.5
416.044	76.5
416.267	92.5
416.49	87.5
416.713	84.5
416.936	85.5
417.159	88.5
417.382	75.5
417.605	69.5
417.828	93.5
418.051	92.5
418.274	87.5
418.497	79.5
418.72	77.5
418.943	102.5
419.166	88.5
419.389	86.5
419.611	98.5
419.834	84.5
420.057	84.5
420.28	104.5
420.503	69.5
420.726	98.5
420.948	87.5
421.171	89.5
421.394	82.5
421.617	79.5
421.839	90.5
422.062	98.5
422.285	99.5
422.507	97.5
422.73	104.5
422.953	83.5
423.175	96.5
423.398	77.5
423.621	89.5
423.843	99.5
424.066	75.5
424.288	89.5
424.511	83.5
424.733	98.5
424.956	88.5
425.178	99.5
425.401	84.5
425.623	100.5
425.846	92.5
426.068	93.5
426.291	82.5
426.513	85.5
426.735	91.5
426.958	89.5
427.18	115.5
427.402	143.5
427.625	154.5
427.847	119.5
428.069	112.5
428.292	97.5
428.514	81.5
428.736	79.5
428.958	79.5
429.181	92.5
429.403	86.5
429.625	87.5
429.847	80.5
430.069	96.5
430.292	90.5
430.514	83.5
430.736	85.5
430.958	93.5
431.18	79.5
431.402	82.5
431.624	85.5
431.846	67.5
432.068	84.5
432.29	86.5
432.512	83.5
432.734	94.5
432.956	90.5
433.178	89.5
433.4	91.5
433.622	100.5
433.844	92.5
434.066	78.5
434.287	88.5
434.509	91.5
434.731	92.5
434.953	85.5
435.175	88.5
435.397	91.5
435.618	87.5
435.84	83.5
436.062	105.5
436.284	92.5
436.505	85.5
436.727	102.5
436.949	94.5
437.17	78.5
437.392	77.5
437.614	89.5
437.835	105.5
438.057	94.5
438.278	110.5
438.5	101.5
438.721	111.5
438.943	88.5
439.165	71.5
439.386	95.5
439.608	91.5
439.829	87.5
440.05	104.5
440.272	119.5
440.493	84.5
440.715	91.5
440.936	89.5
441.158	90.5
441.379	81.5
441.6	88.5
441.822	83.5
442.043	96.5
442.264	92.5
442.486	93.5
442.707	89.5
442.928	99.5
443.149	113.5
443.371	113.5
443.592	114.5
443.813	102.5
444.034	104.5
444.255	92.5
444.476	76.5
444.698	87.5
444.919	78.5
445.14	129.5
445.361	118.5
445.582	103.5
445.803	107.5
446.024	117.5
446.245	112.5
446.466	85.5
446.687	101.5
446.908	80.5
447.129	85.5
447.35	80.5
447.571	91.5
447.792	95.5
448.013	89.5
448.234	100.5
448.455	98.5
448.675	95.5
448.896	113.5
449.117	99.5
449.338	88.5
449.559	116.5
449.779	111.5
450	93.5
450.221	86.5
450.442	96.5
450.662	77.5
450.883	91.5
451.104	91.5
451.324	70.5
451.545	94.5
451.766	83.5
451.986	92.5
452.207	83.5
452.428	92.5
452.648	89.5
452.869	93.5
453.089	106.5
453.31	105.5
453.53	86.5
453.751	82.5
453.971	102.5
454.192	85.5
454.412	98.5
454.633	83.5
454.853	97.5
455.073	81.5
455.294	94.5
455.514	91.5
455.734	68.5
455.955	80.5
456.175	73.5
456.395	83.5
456.616	92.5
456.836	86.5
457.056	80.5
457.276	87.5
457.497	84.5
457.717	87.5
457.937	83.5
458.157	87.5
458.377	95.5
458.598	87.5
458.818	141.5
459.038	131.5
459.258	118.5
459.478	91.5
459.698	87.5
459.918	87.5
460.138	81.5
460.358	115.5
460.578	76.5
460.798	84.5
461.018	70.5
461.238	83.5
461.458	92.5
461.678	83.5
461.898	79.5
462.118	82.5
462.338	83.5
462.558	89.5
462.777	72.5
462.997	95.5
463.217	81.5
463.437	84.5
463.657	80.5
463.876	85.5
464.096	86.5
464.316	92.5
464.536	80.5
464.755	89.5
464.975	112.5
465.195	147.5
465.414	127.5
465.634	94.5
465.854	85.5
466.073	83.5
466.293	88.5
466.512	95.5
466.732	78.5
466.951	93.5
467.171	77.5
467.391	87.5
467.61	109.5
467.829	91.5
468.049	94.5
468.268	85.5
468.488	73.5
468.707	85.5
468.927	87.5
469.146	72.5
469.365	87.5
469.585	86.5
469.804	88.5
470.023	86.5
470.243	89.5
470.462	87.5
470.681	103.5
470.901	89.5
471.12	87.5
471.339	98.5
471.558	83.5
471.777	86.5
471.997	86.5
472.216	91.5
472.435	108.5
472.654	79.5
472.873	102.5
473.092	84.5
473.311	89.5
473.53	82.5
473.749	82.5
473.968	89.5
474.187	96.5
474.406	78.5
474.625	79.5
474.844	84.5
475.063	89.5
475.282	86.5
475.501	89.5
475.72	88.5
475.939	86.5
476.158	86.5
476.377	96.5
476.596	105.5
476.814	80.5
477.033	94.5
477.252	95.5
477.471	85.5
477.69	92.5
477.908	89.5
478.127	95.5
478.346	81.5
478.564	84.5
478.783	82.5
479.002	85.5
479.22	80.5
479.439	100.5
479.658	100.5
479.876	93.5
480.095	97.5
480.313	88.5
480.532	82.5
480.751	97.5
480.969	97.5
481.188	113.5
481.406	102.5
481.624	75.5
481.843	87.5
482.061	85.5
482.28	96.5
482.498	76.5
482.717	95.5
482.935	79.5
483.153	84.5
483.372	83.5
483.59	92.5
483.808	86.5
484.027	92.5
484.245	87.5
484.463	91.5
484.681	87.5
484.9	101.5
485.118	99.5
485.336	98.5
485.554	85.5
485.772	95.5
485.99	91.5
486.209	103.5
486.427	97.5
486.645	99.5
486.863	97.5
487.081	83.5
487.299	98.5
487.517	80.5
487.735	96.5
487.953	82.5
488.171	97.5
488.389	75.5
488.607	103.5
488.825	77.5
489.043	83.5
489.261	85.5
489.479	96.5
489.696	91.5
489.914	87.5
490.132	68.5
490.35	89.5
490.568	71.5
490.786	81.5
491.003	98.5
491.221	92.5
491.439	65.5
491.657	73.5
491.874	94.5
492.092	95.5
492.31	98.5
492.527	93.5
492.745	81.5
492.963	97.5
493.18	100.5
493.398	91.5
493.615	103.5
493.833	87.5
494.05	95.5
494.268	92.5
494.485	93.5
494.703	84.5
494.92	91.5
495.138	84.5
495.355	83.5
495.573	101.5
495.79	89.5
496.008	86.5
496.225	92.5
496.442	95.5
496.66	88.5
496.877	80.5
497.094	97.5
497.312	95.5
497.529	92.5
497.746	75.5
497.963	95.5
498.181	81.5
498.398	94.5
498.615	96.5
498.832	100.5
499.049	104.5
499.267	70.5
499.484	84.5
499.701	99.5
499.918	94.5
500.135	72.5
500.352	99.5
500.569	90.5
500.786	84.5
501.003	77.5
501.22	94.5
501.437	99.5
501.654	89.5
501.871	107.5
502.088	84.5
502.305	81.5
502.522	92.5
502.739	81.5
502.956	99.5
503.172	88.5
503.389	103.5
503.606	93.5
503.823	94.5
504.04	95.5
504.256	81.5
504.473	82.5
504.69	86.5
504.907	92.5
505.123	93.5
505.34	77.5
505.557	86.5
505.773	97.5
505.99	77.5
506.207	83.5
506.423	75.5
506.64	79.5
506.856	98.5
507.073	95.5
507.289	100.5
507.506	101.5
507.722	107.5
507.939	99.5
508.155	94.5
508.372	90.5
508.588	100.5
508.805	95.5
509.021	91.5
509.238	103.5
509.454	97.5
509.67	98.5
509.887	99.5
510.103	112.5
510.319	191.5
510.536	678.5
510.752	2052.5
510.968	595.5
511.184	150.5
511.401	96.5
511.617	92.5
511.833	85.5
512.049	84.5
512.265	89.5
512.481	100.5
512.698	95.5
512.914	92.5
513.13	89.5
513.346	99.5
513.562	96.5
513.778	83.5
513.994	99.5
514.21	106.5
514.426	111.5
514.642	111.5
514.858	117.5
515.074	159.5
515.29	399.5
515.506	1229.5
515.721	471.5
515.937	145.5
516.153	80.5
516.369	78.5
516.585	96.5
516.801	85.5
517.016	95.5
517.232	82.5
517.448	94.5
517.664	87.5
517.879	84.5
518.095	80.5
518.311	106.5
518.527	99.5
518.742	91.5
518.958	91.5
519.173	82.5
519.389	81.5
519.605	96.5
519.82	89.5
520.036	93.5
520.251	104.5
520.467	110.5
520.682	100.5
520.898	105.5
521.113	111.5
521.329	138.5
521.544	171.5
521.76	483.5
521.975	2037.5
522.19	1271.5
522.406	277.5
522.621	125.5
522.836	106.5
523.052	89.5
523.267	78.5
523.482	85.5
523.698	99.5
523.913	113.5
524.128	107.5
524.343	84.5
524.559	86.5
524.774	84.5
524.989	85.5
525.204	96.5
525.419	100.5
525.634	86.5
525.849	88.5
526.064	95.5
526.28	94.5
526.495	89.5
526.71	97.5
526.925	84.5
527.14	75.5
527.355	97.5
527.57	91.5
527.785	86.5
527.999	93.5
528.214	87.5
528.429	93.5
528.644	70.5
528.859	92.5
529.074	101.5
529.289	125.5
529.503	156.5
529.718	100.5
529.933	89.5
530.148	80.5
530.363	96.5
530.577	74.5
530.792	80.5
531.007	86.5
531.221	90.5
531.436	88.5
531.651	99.5
531.865	95.5
532.08	100.5
532.295	80.5
532.509	86.5
532.724	96.5
532.938	91.5
533.153	95.5
533.367	89.5
533.582	96.5
533.796	78.5
534.011	91.5
534.225	98.5
534.44	99.5
534.654	93.5
534.868	83.5
535.083	95.5
535.297	103.5
535.511	90.5
535.726	100.5
535.94	101.5
536.154	88.5
536.369	82.5
536.583	86.5
536.797	85.5
537.011	80.5
