Data from Uncirc_2002_H10_HRD10591_00082.txt Node
Date: Wed Jan 03 10:39:57 EST 2024
User: Yrep
Spectrometer: HR+D1059
Trigger mode: 1
Integration Time (sec): 1.000000E-1
Scans to average: 1
Electric dark correction enabled: true
Nonlinearity correction enabled: false
Boxcar width: 0
XAxis mode: Wavelengths
Number of Pixels in Spectrum: 2048
>>>>>Begin Spectral Data<<<<<
223.165	-28.38
223.4	-28.38
223.635	-28.38
223.869	-8.38
224.104	-16.38
224.338	-2.38
224.573	-25.38
224.808	-25.38
225.042	-18.38
225.277	-14.38
225.511	-0.38
225.746	8.62
225.98	19.62
226.215	10.62
226.449	22.62
226.683	20.62
226.918	30.62
227.152	26.62
227.387	36.62
227.621	47.62
227.856	38.62
228.09	45.62
228.324	62.62
228.559	65.62
228.793	49.62
229.027	75.62
229.262	57.62
229.496	62.62
229.73	81.62
229.964	79.62
230.199	71.62
230.433	61.62
230.667	79.62
230.901	69.62
231.136	72.62
231.37	74.62
231.604	64.62
231.838	71.62
232.072	61.62
232.306	66.62
232.541	85.62
232.775	92.62
233.009	74.62
233.243	84.62
233.477	93.62
233.711	70.62
233.945	82.62
234.179	83.62
234.413	59.62
234.647	85.62
234.881	85.62
235.115	80.62
235.349	75.62
235.583	88.62
235.817	68.62
236.051	65.62
236.285	64.62
236.519	73.62
236.753	81.62
236.987	70.62
237.221	81.62
237.455	72.62
237.689	74.62
237.922	82.62
238.156	80.62
238.39	72.62
238.624	77.62
238.858	69.62
239.091	91.62
239.325	73.62
239.559	88.62
239.793	76.62
240.027	74.62
240.26	70.62
240.494	79.62
240.728	78.62
240.961	82.62
241.195	81.62
241.429	80.62
241.662	60.62
241.896	67.62
242.13	61.62
242.363	80.62
242.597	82.62
242.83	86.62
243.064	79.62
243.298	72.62
243.531	71.62
243.765	66.62
243.998	69.62
244.232	81.62
244.465	78.62
244.699	84.62
244.932	89.62
245.166	81.62
245.399	82.62
245.633	78.62
245.866	78.62
246.099	71.62
246.333	85.62
246.566	70.62
246.8	78.62
247.033	87.62
247.266	73.62
247.5	68.62
247.733	79.62
247.966	74.62
248.2	69.62
248.433	87.62
248.666	82.62
248.899	77.62
249.133	83.62
249.366	93.62
249.599	89.62
249.832	71.62
250.066	85.62
250.299	86.62
250.532	69.62
250.765	81.62
250.998	84.62
251.231	83.62
251.465	79.62
251.698	81.62
251.931	80.62
252.164	72.62
252.397	85.62
252.63	71.62
252.863	65.62
253.096	63.62
253.329	84.62
253.562	79.62
253.795	84.62
254.028	79.62
254.261	79.62
254.494	75.62
254.727	88.62
254.96	81.62
255.193	61.62
255.426	71.62
255.659	77.62
255.892	71.62
256.124	75.62
256.357	83.62
256.59	82.62
256.823	83.62
257.056	88.62
257.289	74.62
257.521	67.62
257.754	81.62
257.987	71.62
258.22	74.62
258.452	78.62
258.685	83.62
258.918	79.62
259.151	80.62
259.383	84.62
259.616	95.62
259.849	89.62
260.081	74.62
260.314	65.62
260.547	82.62
260.779	91.62
261.012	87.62
261.244	89.62
261.477	80.62
261.71	87.62
261.942	97.62
262.175	98.62
262.407	91.62
262.64	91.62
262.872	79.62
263.105	82.62
263.337	75.62
263.57	86.62
263.802	86.62
264.035	72.62
264.267	75.62
264.499	98.62
264.732	73.62
264.964	86.62
265.197	74.62
265.429	80.62
265.661	69.62
265.894	73.62
266.126	75.62
266.358	93.62
266.591	90.62
266.823	88.62
267.055	72.62
267.287	56.62
267.52	85.62
267.752	94.62
267.984	94.62
268.216	93.62
268.448	85.62
268.681	82.62
268.913	70.62
269.145	75.62
269.377	93.62
269.609	82.62
269.841	85.62
270.073	85.62
270.306	72.62
270.538	67.62
270.77	85.62
271.002	79.62
271.234	83.62
271.466	79.62
271.698	90.62
271.93	87.62
272.162	82.62
272.394	94.62
272.626	85.62
272.858	77.62
273.09	71.62
273.322	86.62
273.553	88.62
273.785	87.62
274.017	84.62
274.249	93.62
274.481	87.62
274.713	87.62
274.945	95.62
275.176	69.62
275.408	89.62
275.64	86.62
275.872	79.62
276.104	84.62
276.335	74.62
276.567	102.62
276.799	104.62
277.031	88.62
277.262	90.62
277.494	90.62
277.726	89.62
277.957	83.62
278.189	88.62
278.421	91.62
278.652	96.62
278.884	82.62
279.115	86.62
279.347	79.62
279.579	90.62
279.81	63.62
280.042	88.62
280.273	77.62
280.505	88.62
280.736	84.62
280.968	81.62
281.199	94.62
281.431	81.62
281.662	91.62
281.894	88.62
282.125	94.62
282.356	109.62
282.588	112.62
282.819	99.62
283.051	94.62
283.282	82.62
283.513	81.62
283.745	88.62
283.976	71.62
284.207	88.62
284.439	72.62
284.67	86.62
284.901	81.62
285.132	86.62
285.364	73.62
285.595	69.62
285.826	84.62
286.057	92.62
286.288	78.62
286.52	85.62
286.751	89.62
286.982	78.62
287.213	88.62
287.444	80.62
287.675	86.62
287.906	84.62
288.138	88.62
288.369	89.62
288.6	86.62
288.831	90.62
289.062	80.62
289.293	85.62
289.524	83.62
289.755	94.62
289.986	81.62
290.217	79.62
290.448	81.62
290.679	88.62
290.91	88.62
291.141	81.62
291.371	84.62
291.602	90.62
291.833	78.62
292.064	79.62
292.295	82.62
292.526	91.62
292.757	83.62
292.987	87.62
293.218	110.62
293.449	79.62
293.68	78.62
293.91	82.62
294.141	89.62
294.372	88.62
294.603	98.62
294.833	90.62
295.064	83.62
295.295	100.62
295.525	78.62
295.756	106.62
295.987	111.62
296.217	121.62
296.448	124.62
296.679	91.62
296.909	76.62
297.14	97.62
297.37	96.62
297.601	83.62
297.831	84.62
298.062	99.62
298.292	86.62
298.523	91.62
298.753	82.62
298.984	88.62
299.214	85.62
299.445	97.62
299.675	80.62
299.905	98.62
300.136	88.62
300.366	81.62
300.597	78.62
300.827	82.62
301.057	109.62
301.288	84.62
301.518	99.62
301.748	90.62
301.979	95.62
302.209	97.62
302.439	85.62
302.669	84.62
302.9	87.62
303.13	79.62
303.36	79.62
303.59	81.62
303.82	102.62
304.051	91.62
304.281	85.62
304.511	82.62
304.741	84.62
304.971	100.62
305.201	84.62
305.431	86.62
305.661	89.62
305.891	97.62
306.121	98.62
306.352	95.62
306.582	104.62
306.812	78.62
307.042	85.62
307.272	82.62
307.502	101.62
307.731	89.62
307.961	85.62
308.191	87.62
308.421	93.62
308.651	82.62
308.881	92.62
309.111	93.62
309.341	95.62
309.571	87.62
309.8	96.62
310.03	99.62
310.26	71.62
310.49	95.62
310.72	98.62
310.949	110.62
311.179	98.62
311.409	89.62
311.639	91.62
311.868	103.62
312.098	94.62
312.328	83.62
312.557	107.62
312.787	113.62
313.017	97.62
313.246	97.62
313.476	95.62
313.706	90.62
313.935	86.62
314.165	88.62
314.394	98.62
314.624	91.62
314.853	94.62
315.083	103.62
315.312	80.62
315.542	96.62
315.771	89.62
316.001	72.62
316.23	85.62
316.46	87.62
316.689	82.62
316.919	100.62
317.148	96.62
317.377	101.62
317.607	94.62
317.836	92.62
318.065	74.62
318.295	91.62
318.524	86.62
318.753	83.62
318.983	81.62
319.212	80.62
319.441	98.62
319.67	92.62
319.9	99.62
320.129	93.62
320.358	95.62
320.587	91.62
320.816	90.62
321.046	102.62
321.275	80.62
321.504	98.62
321.733	95.62
321.962	97.62
322.191	100.62
322.42	98.62
322.649	103.62
322.878	104.62
323.108	102.62
323.337	120.62
323.566	122.62
323.795	143.62
324.024	176.62
324.253	322.62
324.482	671.62
324.71	1350.62
324.939	1775.62
325.168	687.62
325.397	201.62
325.626	136.62
325.855	111.62
326.084	108.62
326.313	115.62
326.542	125.62
326.77	220.62
326.999	391.62
327.228	785.62
327.457	1375.62
327.686	1079.62
327.914	293.62
328.143	160.62
328.372	145.62
328.6	120.62
328.829	117.62
329.058	104.62
329.287	116.62
329.515	107.62
329.744	110.62
329.972	100.62
330.201	89.62
330.43	97.62
330.658	97.62
330.887	111.62
331.115	113.62
331.344	103.62
331.572	99.62
331.801	97.62
332.03	96.62
332.258	86.62
332.486	102.62
332.715	97.62
332.943	85.62
333.172	91.62
333.4	94.62
333.629	99.62
333.857	108.62
334.085	96.62
334.314	90.62
334.542	105.62
334.771	97.62
334.999	100.62
335.227	88.62
335.455	98.62
335.684	89.62
335.912	91.62
336.14	84.62
336.369	93.62
336.597	95.62
336.825	99.62
337.053	83.62
337.281	104.62
337.51	97.62
337.738	91.62
337.966	84.62
338.194	88.62
338.422	80.62
338.65	91.62
338.878	80.62
339.106	86.62
339.334	102.62
339.562	97.62
339.79	86.62
340.018	103.62
340.246	93.62
340.474	83.62
340.702	86.62
340.93	98.62
341.158	88.62
341.386	84.62
341.614	97.62
341.842	77.62
342.07	89.62
342.298	98.62
342.526	89.62
342.754	98.62
342.981	80.62
343.209	92.62
343.437	114.62
343.665	75.62
343.893	93.62
344.12	98.62
344.348	95.62
344.576	89.62
344.804	94.62
345.031	88.62
345.259	87.62
345.487	83.62
345.714	92.62
345.942	91.62
346.17	93.62
346.397	92.62
346.625	100.62
346.853	91.62
347.08	95.62
347.308	84.62
347.535	91.62
347.763	104.62
347.99	94.62
348.218	90.62
348.445	94.62
348.673	102.62
348.9	94.62
349.128	108.62
349.355	97.62
349.583	99.62
349.81	84.62
350.037	97.62
350.265	91.62
350.492	109.62
350.72	96.62
350.947	90.62
351.174	94.62
351.402	115.62
351.629	100.62
351.856	113.62
352.083	96.62
352.311	95.62
352.538	109.62
352.765	109.62
352.992	112.62
353.22	105.62
353.447	110.62
353.674	104.62
353.901	90.62
354.128	94.62
354.355	85.62
354.583	93.62
354.81	112.62
355.037	93.62
355.264	94.62
355.491	79.62
355.718	90.62
355.945	103.62
356.172	91.62
356.399	101.62
356.626	101.62
356.853	103.62
357.08	83.62
357.307	92.62
357.534	85.62
357.761	90.62
357.988	95.62
358.215	98.62
358.441	92.62
358.668	106.62
358.895	98.62
359.122	86.62
359.349	103.62
359.576	94.62
359.802	100.62
360.029	109.62
360.256	93.62
360.483	97.62
360.709	83.62
360.936	83.62
361.163	86.62
361.39	91.62
361.616	85.62
361.843	101.62
362.07	99.62
362.296	90.62
362.523	74.62
362.749	92.62
362.976	104.62
363.203	90.62
363.429	81.62
363.656	83.62
363.882	95.62
364.109	85.62
364.335	89.62
364.562	74.62
364.788	82.62
365.015	94.62
365.241	103.62
365.468	80.62
365.694	114.62
365.92	103.62
366.147	93.62
366.373	83.62
366.599	87.62
366.826	87.62
367.052	87.62
367.278	95.62
367.505	88.62
367.731	93.62
367.957	89.62
368.184	90.62
368.41	95.62
368.636	122.62
368.862	107.62
369.089	104.62
369.315	107.62
369.541	77.62
369.767	93.62
369.993	103.62
370.219	93.62
370.445	97.62
370.672	87.62
370.898	92.62
371.124	81.62
371.35	77.62
371.576	78.62
371.802	67.62
372.028	99.62
372.254	88.62
372.48	99.62
372.706	86.62
372.932	89.62
373.158	86.62
373.384	81.62
373.61	86.62
373.835	92.62
374.061	94.62
374.287	89.62
374.513	91.62
374.739	84.62
374.965	96.62
375.191	85.62
375.416	99.62
375.642	91.62
375.868	89.62
376.094	86.62
376.319	79.62
376.545	85.62
376.771	101.62
376.997	81.62
377.222	79.62
377.448	96.62
377.674	83.62
377.899	79.62
378.125	89.62
378.35	90.62
378.576	101.62
378.802	87.62
379.027	106.62
379.253	84.62
379.478	77.62
379.704	85.62
379.929	72.62
380.155	87.62
380.38	100.62
380.606	89.62
380.831	94.62
381.057	89.62
381.282	95.62
381.507	99.62
381.733	104.62
381.958	97.62
382.184	91.62
382.409	98.62
382.634	104.62
382.86	98.62
383.085	92.62
383.31	89.62
383.535	101.62
383.761	94.62
383.986	102.62
384.211	91.62
384.436	89.62
384.662	100.62
384.887	103.62
385.112	99.62
385.337	101.62
385.562	101.62
385.787	95.62
386.013	113.62
386.238	96.62
386.463	101.62
386.688	106.62
386.913	90.62
387.138	106.62
387.363	105.62
387.588	97.62
387.813	121.62
388.038	112.62
388.263	120.62
388.488	110.62
388.713	110.62
388.938	100.62
389.163	82.62
389.387	92.62
389.612	84.62
389.837	94.62
390.062	110.62
390.287	97.62
390.512	88.62
390.736	83.62
390.961	90.62
391.186	96.62
391.411	98.62
391.636	95.62
391.86	95.62
392.085	101.62
392.31	84.62
392.534	89.62
392.759	90.62
392.984	85.62
393.208	90.62
393.433	91.62
393.658	109.62
393.882	101.62
394.107	91.62
394.331	75.62
394.556	86.62
394.78	90.62
395.005	77.62
395.229	75.62
395.454	89.62
395.678	69.62
395.903	92.62
396.127	90.62
396.352	83.62
396.576	85.62
396.801	89.62
397.025	87.62
397.249	84.62
397.474	90.62
397.698	91.62
397.922	85.62
398.147	89.62
398.371	88.62
398.595	82.62
398.82	91.62
399.044	89.62
399.268	104.62
399.492	90.62
399.717	95.62
399.941	97.62
400.165	113.62
400.389	95.62
400.613	85.62
400.837	79.62
401.062	86.62
401.286	81.62
401.51	89.62
401.734	88.62
401.958	102.62
402.182	110.62
402.406	137.62
402.63	97.62
402.854	90.62
403.078	83.62
403.302	95.62
403.526	76.62
403.75	77.62
403.974	102.62
404.198	83.62
404.422	85.62
404.645	90.62
404.869	91.62
405.093	104.62
405.317	93.62
405.541	89.62
405.765	106.62
405.988	115.62
406.212	167.62
406.436	185.62
406.66	140.62
406.883	96.62
407.107	92.62
407.331	108.62
407.555	105.62
407.778	100.62
408.002	83.62
408.226	89.62
408.449	77.62
408.673	99.62
408.896	93.62
409.12	86.62
409.344	91.62
409.567	88.62
409.791	90.62
410.014	94.62
410.238	92.62
410.461	81.62
410.685	103.62
410.908	89.62
411.132	99.62
411.355	112.62
411.578	78.62
411.802	91.62
412.025	85.62
412.249	84.62
412.472	86.62
412.695	82.62
412.919	104.62
413.142	92.62
413.365	82.62
413.589	80.62
413.812	84.62
414.035	86.62
414.258	90.62
414.482	101.62
414.705	96.62
414.928	82.62
415.151	107.62
415.374	94.62
415.597	79.62
415.821	91.62
416.044	79.62
416.267	80.62
416.49	103.62
416.713	85.62
416.936	94.62
417.159	87.62
417.382	93.62
417.605	98.62
417.828	96.62
418.051	97.62
418.274	85.62
418.497	81.62
418.72	93.62
418.943	66.62
419.166	87.62
419.389	85.62
419.611	92.62
419.834	89.62
420.057	83.62
420.28	81.62
420.503	88.62
420.726	75.62
420.948	85.62
421.171	103.62
421.394	88.62
421.617	81.62
421.839	82.62
422.062	92.62
422.285	82.62
422.507	85.62
422.73	107.62
422.953	83.62
423.175	91.62
423.398	82.62
423.621	99.62
423.843	86.62
424.066	99.62
424.288	93.62
424.511	85.62
424.733	89.62
424.956	102.62
425.178	94.62
425.401	98.62
425.623	99.62
425.846	87.62
426.068	88.62
426.291	96.62
426.513	87.62
426.735	96.62
426.958	91.62
427.18	90.62
427.402	130.62
427.625	143.62
427.847	117.62
428.069	99.62
428.292	88.62
428.514	79.62
428.736	85.62
428.958	81.62
429.181	86.62
429.403	87.62
429.625	80.62
429.847	83.62
430.069	85.62
430.292	93.62
430.514	101.62
430.736	93.62
430.958	88.62
431.18	83.62
431.402	81.62
431.624	87.62
431.846	73.62
432.068	89.62
432.29	86.62
432.512	75.62
432.734	89.62
432.956	100.62
433.178	93.62
433.4	91.62
433.622	91.62
433.844	86.62
434.066	101.62
434.287	83.62
434.509	91.62
434.731	95.62
434.953	96.62
435.175	88.62
435.397	95.62
435.618	97.62
435.84	92.62
436.062	122.62
436.284	97.62
436.505	91.62
436.727	77.62
436.949	98.62
437.17	90.62
437.392	89.62
437.614	83.62
437.835	87.62
438.057	103.62
438.278	98.62
438.5	91.62
438.721	109.62
438.943	105.62
439.165	82.62
439.386	77.62
439.608	83.62
439.829	102.62
440.05	106.62
440.272	115.62
440.493	102.62
440.715	92.62
440.936	84.62
441.158	84.62
441.379	80.62
441.6	72.62
441.822	98.62
442.043	104.62
442.264	102.62
442.486	104.62
442.707	89.62
442.928	95.62
443.149	124.62
443.371	130.62
443.592	101.62
443.813	105.62
444.034	104.62
444.255	95.62
444.476	85.62
444.698	98.62
444.919	79.62
445.14	135.62
445.361	117.62
445.582	104.62
445.803	135.62
446.024	122.62
446.245	127.62
446.466	93.62
446.687	88.62
446.908	87.62
447.129	79.62
447.35	93.62
447.571	94.62
447.792	91.62
448.013	92.62
448.234	106.62
448.455	96.62
448.675	94.62
448.896	102.62
449.117	80.62
449.338	95.62
449.559	111.62
449.779	127.62
450	102.62
450.221	77.62
450.442	74.62
450.662	77.62
450.883	97.62
451.104	95.62
451.324	87.62
451.545	86.62
451.766	82.62
451.986	76.62
452.207	78.62
452.428	85.62
452.648	98.62
452.869	104.62
453.089	103.62
453.31	109.62
453.53	98.62
453.751	97.62
453.971	115.62
454.192	102.62
454.412	92.62
454.633	100.62
454.853	82.62
455.073	88.62
455.294	88.62
455.514	102.62
455.734	74.62
455.955	85.62
456.175	85.62
456.395	79.62
456.616	82.62
456.836	95.62
457.056	81.62
457.276	92.62
457.497	83.62
457.717	86.62
457.937	95.62
458.157	90.62
458.377	81.62
458.598	96.62
458.818	119.62
459.038	158.62
459.258	103.62
459.478	91.62
459.698	77.62
459.918	90.62
460.138	89.62
460.358	72.62
460.578	85.62
460.798	83.62
461.018	78.62
461.238	97.62
461.458	81.62
461.678	89.62
461.898	87.62
462.118	87.62
462.338	90.62
462.558	78.62
462.777	80.62
462.997	95.62
463.217	80.62
463.437	101.62
463.657	91.62
463.876	80.62
464.096	74.62
464.316	92.62
464.536	97.62
464.755	101.62
464.975	103.62
465.195	144.62
465.414	155.62
465.634	114.62
465.854	95.62
466.073	78.62
466.293	96.62
466.512	86.62
466.732	77.62
466.951	95.62
467.171	89.62
467.391	100.62
467.61	97.62
467.829	86.62
468.049	88.62
468.268	88.62
468.488	80.62
468.707	78.62
468.927	80.62
469.146	82.62
469.365	88.62
469.585	100.62
469.804	99.62
470.023	86.62
470.243	98.62
470.462	87.62
470.681	109.62
470.901	87.62
471.12	95.62
471.339	89.62
471.558	92.62
471.777	100.62
471.997	89.62
472.216	89.62
472.435	98.62
472.654	71.62
472.873	78.62
473.092	81.62
473.311	90.62
473.53	88.62
473.749	81.62
473.968	96.62
474.187	106.62
474.406	89.62
474.625	81.62
474.844	75.62
475.063	86.62
475.282	78.62
475.501	82.62
475.72	90.62
475.939	90.62
476.158	84.62
476.377	85.62
476.596	86.62
476.814	89.62
477.033	90.62
477.252	86.62
477.471	79.62
477.69	88.62
477.908	76.62
478.127	83.62
478.346	87.62
478.564	88.62
478.783	79.62
479.002	87.62
479.22	96.62
479.439	99.62
479.658	87.62
479.876	86.62
480.095	87.62
480.313	98.62
480.532	93.62
480.751	86.62
480.969	88.62
481.188	106.62
481.406	104.62
481.624	96.62
481.843	78.62
482.061	81.62
482.28	93.62
482.498	96.62
482.717	91.62
482.935	89.62
483.153	91.62
483.372	86.62
483.59	83.62
483.808	87.62
484.027	95.62
484.245	77.62
484.463	80.62
484.681	92.62
484.9	91.62
485.118	86.62
485.336	105.62
485.554	95.62
485.772	88.62
485.99	94.62
486.209	85.62
486.427	109.62
486.645	107.62
486.863	99.62
487.081	93.62
487.299	107.62
487.517	87.62
487.735	71.62
487.953	94.62
488.171	89.62
488.389	85.62
488.607	80.62
488.825	80.62
489.043	84.62
489.261	66.62
489.479	85.62
489.696	101.62
489.914	89.62
490.132	90.62
490.35	93.62
490.568	85.62
490.786	94.62
491.003	76.62
491.221	86.62
491.439	97.62
491.657	79.62
491.874	77.62
492.092	78.62
492.31	74.62
492.527	84.62
492.745	101.62
492.963	93.62
493.18	84.62
493.398	104.62
493.615	90.62
493.833	104.62
494.05	88.62
494.268	90.62
494.485	89.62
494.703	84.62
494.92	100.62
495.138	88.62
495.355	96.62
495.573	81.62
495.79	91.62
496.008	102.62
496.225	101.62
496.442	84.62
496.66	93.62
496.877	96.62
497.094	102.62
497.312	109.62
497.529	91.62
497.746	96.62
497.963	85.62
498.181	88.62
498.398	87.62
498.615	117.62
498.832	98.62
499.049	87.62
499.267	95.62
499.484	80.62
499.701	77.62
499.918	88.62
500.135	81.62
500.352	85.62
500.569	91.62
500.786	94.62
501.003	84.62
501.22	82.62
501.437	90.62
501.654	115.62
501.871	94.62
502.088	91.62
502.305	83.62
502.522	84.62
502.739	75.62
502.956	89.62
503.172	96.62
503.389	93.62
503.606	101.62
503.823	95.62
504.04	106.62
504.256	88.62
504.473	90.62
504.69	75.62
504.907	87.62
505.123	90.62
505.34	103.62
505.557	93.62
505.773	87.62
505.99	86.62
506.207	91.62
506.423	89.62
506.64	101.62
506.856	83.62
507.073	89.62
507.289	98.62
507.506	104.62
507.722	104.62
507.939	102.62
508.155	100.62
508.372	96.62
508.588	97.62
508.805	93.62
509.021	86.62
509.238	99.62
509.454	110.62
509.67	90.62
509.887	104.62
510.103	129.62
510.319	210.62
510.536	692.62
510.752	2187.62
510.968	614.62
511.184	147.62
511.401	109.62
511.617	90.62
511.833	103.62
512.049	87.62
512.265	87.62
512.481	91.62
512.698	91.62
512.914	80.62
513.13	83.62
513.346	103.62
513.562	91.62
513.778	91.62
513.994	99.62
514.21	91.62
514.426	95.62
514.642	106.62
514.858	109.62
515.074	147.62
515.29	365.62
515.506	1283.62
515.721	478.62
515.937	141.62
516.153	93.62
516.369	93.62
516.585	83.62
