Data from Uncirc_2002_H10_HRD10591_00023.txt Node
Date: Wed Jan 03 10:39:45 EST 2024
User: Yrep
Spectrometer: HR+D1059
Trigger mode: 1
Integration Time (sec): 1.000000E-1
Scans to average: 1
Electric dark correction enabled: true
Nonlinearity correction enabled: false
Boxcar width: 0
XAxis mode: Wavelengths
Number of Pixels in Spectrum: 2048
>>>>>Begin Spectral Data<<<<<
223.165	-13.88
223.4	-13.88
223.635	-13.88
223.869	-19.88
224.104	-26.88
224.338	-25.88
224.573	-25.88
224.808	-9.88
225.042	-6.88
225.277	-12.88
225.511	3.12
225.746	7.12
225.98	19.12
226.215	11.12
226.449	16.12
226.683	20.12
226.918	26.12
227.152	39.12
227.387	46.12
227.621	33.12
227.856	46.12
228.09	55.12
228.324	53.12
228.559	63.12
228.793	169.12
229.027	448.12
229.262	504.12
229.496	595.12
229.73	776.12
229.964	799.12
230.199	516.12
230.433	460.12
230.667	459.12
230.901	436.12
231.136	402.12
231.37	450.12
231.604	417.12
231.838	439.12
232.072	455.12
232.306	461.12
232.541	459.12
232.775	468.12
233.009	446.12
233.243	475.12
233.477	472.12
233.711	472.12
233.945	499.12
234.179	492.12
234.413	496.12
234.647	498.12
234.881	501.12
235.115	521.12
235.349	545.12
235.583	545.12
235.817	590.12
236.051	628.12
236.285	603.12
236.519	585.12
236.753	691.12
236.987	885.12
237.221	1352.12
237.455	1478.12
237.689	880.12
237.922	712.12
238.156	698.12
238.39	649.12
238.624	642.12
238.858	639.12
239.091	631.12
239.325	666.12
239.559	654.12
239.793	676.12
240.027	754.12
240.26	874.12
240.494	932.12
240.728	931.12
240.961	878.12
241.195	791.12
241.429	750.12
241.662	760.12
241.896	745.12
242.13	762.12
242.363	745.12
242.597	768.12
242.83	827.12
243.064	825.12
243.298	812.12
243.531	801.12
243.765	830.12
243.998	832.12
244.232	822.12
244.465	887.12
244.699	880.12
244.932	888.12
245.166	870.12
245.399	897.12
245.633	855.12
245.866	887.12
246.099	884.12
246.333	920.12
246.566	926.12
246.8	959.12
247.033	1027.12
247.266	1016.12
247.5	1072.12
247.733	1166.12
247.966	1125.12
248.2	1097.12
248.433	1136.12
248.666	1224.12
248.899	1322.12
249.133	1406.12
249.366	1400.12
249.599	1288.12
249.832	1207.12
250.066	1186.12
250.299	1237.12
250.532	1316.12
250.765	1474.12
250.998	1676.12
251.231	1617.12
251.465	1461.12
251.698	1376.12
251.931	1366.12
252.164	1383.12
252.397	1386.12
252.63	1441.12
252.863	1492.12
253.096	1636.12
253.329	1734.12
253.562	1594.12
253.795	1514.12
254.028	1549.12
254.261	1593.12
254.494	1802.12
254.727	2083.12
254.96	2196.12
255.193	1901.12
255.426	1710.12
255.659	1560.12
255.892	1603.12
256.124	1544.12
256.357	1484.12
256.59	1480.12
256.823	1460.12
257.056	1516.12
257.289	1532.12
257.521	1501.12
257.754	1543.12
257.987	1476.12
258.22	1502.12
258.452	1503.12
258.685	1492.12
258.918	1542.12
259.151	1550.12
259.383	1660.12
259.616	1701.12
259.849	1700.12
260.081	1929.12
260.314	2044.12
260.547	1969.12
260.779	1826.12
261.012	1747.12
261.244	1681.12
261.477	1666.12
261.71	1638.12
261.942	1690.12
262.175	1721.12
262.407	1668.12
262.64	1576.12
262.872	1605.12
263.105	1614.12
263.337	1619.12
263.57	1629.12
263.802	1626.12
264.035	1635.12
264.267	1631.12
264.499	1645.12
264.732	1683.12
264.964	1708.12
265.197	1707.12
265.429	1706.12
265.661	1665.12
265.894	1723.12
266.126	1723.12
266.358	1738.12
266.591	1766.12
266.823	1868.12
267.055	1832.12
267.287	1842.12
267.52	1816.12
267.752	1788.12
267.984	1842.12
268.216	1882.12
268.448	1912.12
268.681	2006.12
268.913	2107.12
269.145	2324.12
269.377	2417.12
269.609	2240.12
269.841	2210.12
270.073	2387.12
270.306	2651.12
270.538	2750.12
270.77	2649.12
271.002	2482.12
271.234	2432.12
271.466	2570.12
271.698	2708.12
271.93	2726.12
272.162	2695.12
272.394	2611.12
272.626	2474.12
272.858	2370.12
273.09	2254.12
273.322	2250.12
273.553	2218.12
273.785	2194.12
274.017	2213.12
274.249	2247.12
274.481	2206.12
274.713	2244.12
274.945	2330.12
275.176	2295.12
275.408	2192.12
275.64	2238.12
275.872	2232.12
276.104	2277.12
276.335	2269.12
276.567	2383.12
276.799	2519.12
277.031	2769.12
277.262	2824.12
277.494	2750.12
277.726	2582.12
277.957	2496.12
278.189	2388.12
278.421	2387.12
278.652	2384.12
278.884	2336.12
279.115	2338.12
279.347	2366.12
279.579	2346.12
279.81	2353.12
280.042	2391.12
280.273	2408.12
280.505	2406.12
280.736	2403.12
280.968	2420.12
281.199	2427.12
281.431	2431.12
281.662	2416.12
281.894	2423.12
282.125	2555.12
282.356	2672.12
282.588	2797.12
282.819	2665.12
283.051	2491.12
283.282	2506.12
283.513	2551.12
283.745	2570.12
283.976	2617.12
284.207	2597.12
284.439	2629.12
284.67	2593.12
284.901	2636.12
285.132	2594.12
285.364	2580.12
285.595	2631.12
285.826	2607.12
286.057	2650.12
286.288	2605.12
286.52	2604.12
286.751	2643.12
286.982	2638.12
287.213	2652.12
287.444	2763.12
287.675	2784.12
287.906	2886.12
288.138	2962.12
288.369	2875.12
288.6	2876.12
288.831	2815.12
289.062	2808.12
289.293	2810.12
289.524	2815.12
289.755	2786.12
289.986	2832.12
290.217	2783.12
290.448	2766.12
290.679	2783.12
290.91	2814.12
291.141	2783.12
291.371	2786.12
291.602	2835.12
291.833	2814.12
292.064	2841.12
292.295	2787.12
292.526	2854.12
292.757	2830.12
292.987	2804.12
293.218	2783.12
293.449	2843.12
293.68	2852.12
293.91	2861.12
294.141	2823.12
294.372	2785.12
294.603	2852.12
294.833	2910.12
295.064	2875.12
295.295	2920.12
295.525	2896.12
295.756	2916.12
295.987	3041.12
296.217	3166.12
296.448	3122.12
296.679	2945.12
296.909	2952.12
297.14	2983.12
297.37	3049.12
297.601	3075.12
297.831	3076.12
298.062	3003.12
298.292	3081.12
298.523	3058.12
298.753	3127.12
298.984	3119.12
299.214	3099.12
299.445	3044.12
299.675	3151.12
299.905	3192.12
300.136	3145.12
300.366	3155.12
300.597	3164.12
300.827	3262.12
301.057	3328.12
301.288	3364.12
301.518	3331.12
301.748	3357.12
301.979	3369.12
302.209	3392.12
302.439	3336.12
302.669	3344.12
302.9	3315.12
303.13	3278.12
303.36	3300.12
303.59	3348.12
303.82	3380.12
304.051	3354.12
304.281	3373.12
304.511	3280.12
304.741	3292.12
304.971	3252.12
305.201	3283.12
305.431	3196.12
305.661	3296.12
305.891	3248.12
306.121	3276.12
306.352	3287.12
306.582	3267.12
306.812	3247.12
307.042	3255.12
307.272	3233.12
307.502	3283.12
307.731	3292.12
307.961	3276.12
308.191	3228.12
308.421	3331.12
308.651	3309.12
308.881	3241.12
309.111	3356.12
309.341	3335.12
309.571	3507.12
309.8	3528.12
310.03	3616.12
310.26	3589.12
310.49	3572.12
310.72	3656.12
310.949	3721.12
311.179	3757.12
311.409	3655.12
311.639	3602.12
311.868	3625.12
312.098	3673.12
312.328	3755.12
312.557	3882.12
312.787	3932.12
313.017	3887.12
313.246	3787.12
313.476	3708.12
313.706	3782.12
313.935	3833.12
314.165	3886.12
314.394	3929.12
314.624	3887.12
314.853	3864.12
315.083	3768.12
315.312	3822.12
315.542	3698.12
315.771	3708.12
316.001	3657.12
316.23	3689.12
316.46	3689.12
316.689	3736.12
316.919	3701.12
317.148	3807.12
317.377	3768.12
317.607	3726.12
317.836	3707.12
318.065	3703.12
318.295	3698.12
318.524	3675.12
318.753	3628.12
318.983	3672.12
319.212	3663.12
319.441	3742.12
319.67	3782.12
319.9	3666.12
320.129	3700.12
320.358	3703.12
320.587	3736.12
320.816	3782.12
321.046	3806.12
321.275	3832.12
321.504	3778.12
321.733	3886.12
321.962	3931.12
322.191	3973.12
322.42	4089.12
322.649	4182.12
322.878	4236.12
323.108	4338.12
323.337	4501.12
323.566	4670.12
323.795	4979.12
324.024	5511.12
324.253	7151.12
324.482	10594.12
324.71	15051.12
324.939	15612.12
325.168	12863.12
325.397	6583.12
325.626	5158.12
325.855	4876.12
326.084	4689.12
326.313	4766.12
326.542	4876.12
326.77	5436.12
326.999	6872.12
327.228	10086.12
327.457	14175.12
327.686	13478.12
327.914	7250.12
328.143	5742.12
328.372	5367.12
328.6	5172.12
328.829	5086.12
329.058	5295.12
329.287	5251.12
329.515	4959.12
329.744	4754.12
329.972	4794.12
330.201	4895.12
330.43	5073.12
330.658	5367.12
330.887	5718.12
331.115	5385.12
331.344	4927.12
331.572	4808.12
331.801	5010.12
332.03	4985.12
332.258	4958.12
332.486	4939.12
332.715	5019.12
332.943	5168.12
333.172	5317.12
333.4	5477.12
333.629	5481.12
333.857	5642.12
334.085	5575.12
334.314	5459.12
334.542	5359.12
334.771	5432.12
334.999	5243.12
335.227	5202.12
335.455	5129.12
335.684	5027.12
335.912	4961.12
336.14	4975.12
336.369	4920.12
336.597	4977.12
336.825	4926.12
337.053	4878.12
337.281	4803.12
337.51	4817.12
337.738	4756.12
337.966	4717.12
338.194	4740.12
338.422	4657.12
338.65	4525.12
338.878	4605.12
339.106	4512.12
339.334	4495.12
339.562	4429.12
339.79	4410.12
340.018	4416.12
340.246	4369.12
340.474	4439.12
340.702	4483.12
340.93	4399.12
341.158	4443.12
341.386	4377.12
341.614	4446.12
341.842	4374.12
342.07	4317.12
342.298	4337.12
342.526	4239.12
342.754	4331.12
342.981	4364.12
343.209	4516.12
343.437	4654.12
343.665	5007.12
343.893	5211.12
344.12	5236.12
344.348	4998.12
344.576	4763.12
344.804	4706.12
345.031	4652.12
345.259	4620.12
345.487	4463.12
345.714	4342.12
345.942	4288.12
346.17	4255.12
346.397	4212.12
346.625	4256.12
346.853	4218.12
347.08	4183.12
347.308	4210.12
347.535	4335.12
347.763	4376.12
347.99	4278.12
348.218	4288.12
348.445	4373.12
348.673	4234.12
348.9	4150.12
349.128	4184.12
349.355	4099.12
349.583	4115.12
349.81	4065.12
350.037	4081.12
350.265	4040.12
350.492	4083.12
350.72	4091.12
350.947	4084.12
351.174	4170.12
351.402	4232.12
351.629	4153.12
351.856	4188.12
352.083	4265.12
352.311	4245.12
352.538	4266.12
352.765	4198.12
352.992	4138.12
353.22	4117.12
353.447	4103.12
353.674	4037.12
353.901	3943.12
354.128	4052.12
354.355	3949.12
354.583	3993.12
354.81	3980.12
355.037	3962.12
355.264	3980.12
355.491	4002.12
355.718	4038.12
355.945	3988.12
356.172	3977.12
356.399	3986.12
356.626	4013.12
356.853	4011.12
357.08	3939.12
357.307	3956.12
357.534	3918.12
357.761	3941.12
357.988	4049.12
358.215	3964.12
358.441	4056.12
358.668	3988.12
358.895	4124.12
359.122	4027.12
359.349	4165.12
359.576	4280.12
359.802	4467.12
360.029	4590.12
360.256	4550.12
360.483	4427.12
360.709	4281.12
360.936	4162.12
361.163	4204.12
361.39	4227.12
361.616	4265.12
361.843	4199.12
362.07	4233.12
362.296	4169.12
362.523	4167.12
362.749	4189.12
362.976	4120.12
363.203	4096.12
363.429	4051.12
363.656	4127.12
363.882	4083.12
364.109	4015.12
364.335	4017.12
364.562	4061.12
364.788	4063.12
365.015	4123.12
365.241	4081.12
365.468	4083.12
365.694	4107.12
365.92	4136.12
366.147	4044.12
366.373	4061.12
366.599	4064.12
366.826	4027.12
367.052	4055.12
367.278	4049.12
367.505	4040.12
367.731	4185.12
367.957	4046.12
368.184	4118.12
368.41	4201.12
368.636	4279.12
368.862	4256.12
369.089	4149.12
369.315	4109.12
369.541	4168.12
369.767	4217.12
369.993	4151.12
370.219	4194.12
370.445	4174.12
370.672	4243.12
370.898	4281.12
371.124	4299.12
371.35	4360.12
371.576	4308.12
371.802	4364.12
372.028	4316.12
372.254	4337.12
372.48	4406.12
372.706	4455.12
372.932	4569.12
373.158	4444.12
373.384	4351.12
373.61	4392.12
373.835	4421.12
374.061	4427.12
374.287	4518.12
374.513	4558.12
374.739	4617.12
374.965	4773.12
375.191	4766.12
375.416	4724.12
375.642	4554.12
375.868	4514.12
376.094	4518.12
376.319	4379.12
376.545	4455.12
376.771	4404.12
376.997	4377.12
377.222	4374.12
377.448	4380.12
377.674	4327.12
377.899	4327.12
378.125	4331.12
378.35	4272.12
378.576	4291.12
378.802	4288.12
379.027	4347.12
379.253	4357.12
379.478	4267.12
379.704	4323.12
379.929	4343.12
380.155	4360.12
380.38	4286.12
380.606	4403.12
380.831	4352.12
381.057	4339.12
381.282	4343.12
381.507	4377.12
381.733	4456.12
381.958	4462.12
382.184	4471.12
382.409	4487.12
382.634	4556.12
382.86	4598.12
383.085	4641.12
383.31	4702.12
383.535	4804.12
383.761	4802.12
383.986	4871.12
384.211	4963.12
384.436	5141.12
384.662	5156.12
384.887	5180.12
385.112	5190.12
385.337	5233.12
385.562	5282.12
385.787	5274.12
386.013	5384.12
386.238	5390.12
386.463	5392.12
386.688	5247.12
386.913	5247.12
387.138	5200.12
387.363	5252.12
387.588	5184.12
387.813	5182.12
388.038	5187.12
388.263	5234.12
388.488	5239.12
388.713	5233.12
388.938	5222.12
389.163	5142.12
389.387	5183.12
389.612	5033.12
389.837	5148.12
390.062	5112.12
390.287	5118.12
390.512	5137.12
390.736	5265.12
390.961	5281.12
391.186	5383.12
391.411	5582.12
391.636	5643.12
391.86	5824.12
392.085	5884.12
392.31	5746.12
392.534	5687.12
392.759	5568.12
392.984	5429.12
393.208	5432.12
393.433	5415.12
393.658	5473.12
393.882	5404.12
394.107	5404.12
394.331	5506.12
394.556	5509.12
394.78	5507.12
395.005	5583.12
395.229	5612.12
395.454	5792.12
395.678	5848.12
395.903	5940.12
396.127	5954.12
396.352	5712.12
396.576	5484.12
396.801	5554.12
397.025	5620.12
397.249	5804.12
397.474	5836.12
397.698	5925.12
397.922	6002.12
398.147	6151.12
398.371	6151.12
398.595	6403.12
398.82	6674.12
399.044	7244.12
399.268	7993.12
399.492	9102.12
399.717	9683.12
399.941	9455.12
400.165	8824.12
400.389	8138.12
400.613	7321.12
400.837	6868.12
401.062	6723.12
401.286	6609.12
401.51	6545.12
401.734	6606.12
401.958	6629.12
402.182	6745.12
402.406	6911.12
402.63	7000.12
402.854	7090.12
403.078	7135.12
403.302	7230.12
403.526	7392.12
403.75	7422.12
403.974	7435.12
404.198	7391.12
404.422	7534.12
404.645	7489.12
404.869	7330.12
405.093	7540.12
405.317	7600.12
405.541	7603.12
405.765	7287.12
405.988	7282.12
406.212	7401.12
406.436	7601.12
406.66	7706.12
406.883	7735.12
407.107	8341.12
407.331	8820.12
407.555	9302.12
407.778	9104.12
408.002	8240.12
408.226	8098.12
408.449	7824.12
408.673	7668.12
408.896	7898.12
409.12	7962.12
409.344	7552.12
409.567	7244.12
409.791	7162.12
410.014	7053.12
410.238	7051.12
410.461	7089.12
410.685	7052.12
410.908	7142.12
411.132	7358.12
411.355	7412.12
411.578	6994.12
411.802	6886.12
412.025	6754.12
412.249	6926.12
412.472	6884.12
412.695	6791.12
412.919	6587.12
413.142	6435.12
413.365	6453.12
413.589	6490.12
413.812	6416.12
414.035	6358.12
414.258	6387.12
414.482	6448.12
414.705	6595.12
414.928	6476.12
415.151	6423.12
415.374	6441.12
415.597	6411.12
415.821	6235.12
416.044	6269.12
416.267	6337.12
416.49	6256.12
416.713	6233.12
416.936	6349.12
417.159	6329.12
417.382	6371.12
417.605	6385.12
417.828	6593.12
418.051	6679.12
418.274	6628.12
418.497	6480.12
418.72	6575.12
418.943	6547.12
419.166	6875.12
419.389	7318.12
419.611	7118.12
419.834	6938.12
420.057	6885.12
420.28	6625.12
420.503	6483.12
420.726	6484.12
420.948	6653.12
421.171	7104.12
421.394	7076.12
421.617	6614.12
421.839	6564.12
422.062	6706.12
422.285	6850.12
422.507	7521.12
422.73	8066.12
422.953	7461.12
423.175	7106.12
423.398	7068.12
423.621	7017.12
423.843	7357.12
424.066	7283.12
424.288	7247.12
424.511	7339.12
424.733	7856.12
424.956	8300.12
425.178	7722.12
425.401	7952.12
425.623	7909.12
425.846	6893.12
426.068	6643.12
426.291	6560.12
426.513	6508.12
426.735	6737.12
426.958	7108.12
427.18	7883.12
427.402	8977.12
427.625	9042.12
427.847	7600.12
428.069	6802.12
428.292	6440.12
428.514	6136.12
428.736	6021.12
428.958	6043.12
429.181	5802.12
429.403	5864.12
429.625	6066.12
429.847	6415.12
430.069	6941.12
430.292	6420.12
430.514	5880.12
430.736	5890.12
430.958	5876.12
431.18	5736.12
431.402	5766.12
431.624	5671.12
431.846	5834.12
432.068	5748.12
432.29	5870.12
432.512	5782.12
432.734	5877.12
432.956	5799.12
433.178	5891.12
433.4	5865.12
433.622	5788.12
433.844	5864.12
434.066	5882.12
434.287	5916.12
434.509	6146.12
434.731	6346.12
434.953	6570.12
435.175	6785.12
435.397	6729.12
435.618	6724.12
435.84	7049.12
436.062	7848.12
436.284	7758.12
436.505	6597.12
436.727	6257.12
436.949	5988.12
437.17	5895.12
437.392	5867.12
437.614	5986.12
437.835	6385.12
438.057	7296.12
438.278	7957.12
438.5	7922.12
438.721	8694.12
438.943	7718.12
439.165	6487.12
439.386	6267.12
439.608	6325.12
439.829	6418.12
440.05	6830.12
440.272	7177.12
440.493	6560.12
440.715	6195.12
440.936	6219.12
441.158	6182.12
441.379	6270.12
441.6	6619.12
441.822	6846.12
442.043	7339.12
442.264	8066.12
442.486	7782.12
442.707	6991.12
442.928	6753.12
443.149	6948.12
443.371	7252.12
443.592	7724.12
443.813	8699.12
444.034	8720.12
444.255	7488.12
444.476	7432.12
444.698	7618.12
444.919	7674.12
445.14	7442.12
445.361	7327.12
445.582	7419.12
445.803	8019.12
446.024	8768.12
446.245	8403.12
446.466	7452.12
446.687	6502.12
446.908	6173.12
447.129	5872.12
447.35	5800.12
447.571	5666.12
447.792	5562.12
448.013	5731.12
448.234	5942.12
448.455	6567.12
448.675	7803.12
448.896	8151.12
449.117	6731.12
449.338	6960.12
449.559	8299.12
449.779	8439.12
450	6432.12
450.221	5832.12
450.442	5575.12
450.662	5515.12
450.883	5570.12
451.104	5736.12
451.324	5536.12
451.545	5379.12
451.766	5280.12
451.986	5086.12
452.207	5062.12
452.428	5066.12
452.648	5132.12
452.869	5109.12
453.089	5227.12
453.31	5332.12
453.53	5099.12
453.751	5086.12
453.971	5072.12
454.192	5165.12
454.412	5030.12
454.633	4935.12
454.853	4933.12
455.073	4966.12
455.294	5449.12
455.514	5890.12
455.734	5340.12
455.955	4779.12
456.175	4739.12
456.395	4743.12
456.616	4703.12
456.836	4684.12
457.056	4662.12
457.276	4670.12
457.497	4738.12
457.717	4751.12
457.937	4786.12
458.157	4907.12
458.377	5049.12
458.598	5307.12
458.818	6066.12
459.038	6820.12
459.258	6661.12
459.478	5997.12
459.698	5886.12
459.918	5918.12
460.138	6119.12
460.358	6312.12
460.578	6368.12
460.798	6433.12
461.018	6428.12
461.238	6312.12
461.458	6334.12
461.678	6250.12
461.898	6377.12
462.118	6402.12
462.338	6789.12
462.558	6907.12
462.777	7170.12
462.997	7826.12
463.217	8170.12
463.437	7961.12
463.657	7457.12
463.876	7181.12
464.096	7190.12
464.316	7226.12
464.536	7297.12
464.755	7081.12
464.975	6996.12
465.195	7100.12
465.414	7054.12
465.634	6259.12
465.854	5913.12
466.073	5751.12
466.293	5520.12
466.512	5390.12
466.732	5246.12
466.951	5281.12
467.171	5257.12
467.391	5411.12
467.61	5324.12
467.829	5358.12
468.049	5276.12
468.268	5099.12
468.488	5049.12
468.707	5060.12
468.927	5063.12
469.146	4979.12
469.365	5112.12
469.585	5064.12
469.804	5303.12
470.023	5465.12
470.243	5488.12
470.462	5560.12
470.681	5661.12
470.901	5528.12
471.12	5400.12
471.339	5423.12
471.558	5368.12
471.777	5206.12
471.997	5141.12
472.216	5073.12
472.435	5100.12
472.654	5034.12
472.873	4993.12
473.092	4986.12
473.311	4977.12
473.53	5060.12
473.749	5180.12
473.968	5675.12
474.187	6785.12
474.406	6274.12
474.625	5310.12
474.844	5071.12
475.063	5024.12
475.282	5083.12
475.501	5108.12
475.72	5170.12
475.939	5211.12
476.158	5238.12
476.377	5254.12
476.596	5246.12
476.814	5385.12
477.033	5456.12
477.252	5490.12
477.471	5567.12
477.69	5709.12
477.908	5810.12
478.127	5981.12
478.346	5944.12
478.564	6142.12
478.783	6198.12
479.002	6357.12
479.22	6391.12
479.439	6380.12
479.658	6578.12
479.876	6705.12
480.095	6912.12
480.313	7363.12
480.532	7064.12
480.751	6912.12
480.969	6903.12
481.188	6689.12
481.406	6525.12
481.624	6314.12
481.843	6162.12
482.061	6022.12
482.28	6078.12
482.498	5897.12
482.717	5877.12
482.935	5894.12
483.153	5859.12
483.372	5873.12
483.59	5862.12
483.808	5915.12
484.027	5953.12
484.245	5867.12
484.463	6016.12
484.681	6026.12
484.9	6089.12
485.118	6199.12
485.336	6192.12
485.554	6279.12
485.772	6316.12
485.99	6350.12
486.209	6373.12
486.427	6350.12
486.645	6452.12
486.863	6542.12
487.081	6462.12
487.299	6459.12
487.517	6331.12
487.735	6361.12
