Data from Uncirc_2002_H10_HRD10591_00009.txt Node
Date: Wed Jan 03 10:39:43 EST 2024
User: Yrep
Spectrometer: HR+D1059
Trigger mode: 1
Integration Time (sec): 1.000000E-1
Scans to average: 1
Electric dark correction enabled: true
Nonlinearity correction enabled: false
Boxcar width: 0
XAxis mode: Wavelengths
Number of Pixels in Spectrum: 2048
>>>>>Begin Spectral Data<<<<<
223.165	-21.94
223.4	-21.94
223.635	-21.94
223.869	-26.94
224.104	-7.94
224.338	-14.94
224.573	-1.94
224.808	-15.94
225.042	-14.94
225.277	-9.94
225.511	-1.94
225.746	8.06
225.98	7.06
226.215	12.06
226.449	19.06
226.683	13.06
226.918	27.06
227.152	30.06
227.387	23.06
227.621	54.06
227.856	43.06
228.09	34.06
228.324	41.06
228.559	62.06
228.793	44.06
229.027	56.06
229.262	70.06
229.496	60.06
229.73	68.06
229.964	70.06
230.199	69.06
230.433	63.06
230.667	68.06
230.901	76.06
231.136	66.06
231.37	83.06
231.604	77.06
231.838	68.06
232.072	83.06
232.306	83.06
232.541	81.06
232.775	88.06
233.009	82.06
233.243	75.06
233.477	73.06
233.711	77.06
233.945	72.06
234.179	80.06
234.413	89.06
234.647	82.06
234.881	73.06
235.115	84.06
235.349	84.06
235.583	76.06
235.817	87.06
236.051	72.06
236.285	81.06
236.519	72.06
236.753	80.06
236.987	85.06
237.221	75.06
237.455	86.06
237.689	75.06
237.922	84.06
238.156	73.06
238.39	66.06
238.624	70.06
238.858	69.06
239.091	80.06
239.325	71.06
239.559	81.06
239.793	85.06
240.027	80.06
240.26	80.06
240.494	73.06
240.728	84.06
240.961	76.06
241.195	64.06
241.429	74.06
241.662	65.06
241.896	65.06
242.13	60.06
242.363	79.06
242.597	80.06
242.83	71.06
243.064	79.06
243.298	80.06
243.531	83.06
243.765	65.06
243.998	81.06
244.232	71.06
244.465	77.06
244.699	81.06
244.932	72.06
245.166	69.06
245.399	83.06
245.633	70.06
245.866	73.06
246.099	72.06
246.333	72.06
246.566	88.06
246.8	73.06
247.033	73.06
247.266	76.06
247.5	73.06
247.733	90.06
247.966	94.06
248.2	69.06
248.433	79.06
248.666	93.06
248.899	82.06
249.133	71.06
249.366	94.06
249.599	76.06
249.832	81.06
250.066	76.06
250.299	79.06
250.532	63.06
250.765	72.06
250.998	75.06
251.231	72.06
251.465	66.06
251.698	81.06
251.931	71.06
252.164	83.06
252.397	78.06
252.63	63.06
252.863	75.06
253.096	83.06
253.329	79.06
253.562	69.06
253.795	81.06
254.028	74.06
254.261	75.06
254.494	73.06
254.727	52.06
254.96	72.06
255.193	84.06
255.426	89.06
255.659	88.06
255.892	101.06
256.124	77.06
256.357	80.06
256.59	67.06
256.823	86.06
257.056	80.06
257.289	93.06
257.521	96.06
257.754	75.06
257.987	80.06
258.22	81.06
258.452	77.06
258.685	80.06
258.918	74.06
259.151	69.06
259.383	73.06
259.616	80.06
259.849	85.06
260.081	77.06
260.314	80.06
260.547	84.06
260.779	85.06
261.012	77.06
261.244	93.06
261.477	83.06
261.71	100.06
261.942	102.06
262.175	100.06
262.407	82.06
262.64	83.06
262.872	79.06
263.105	83.06
263.337	82.06
263.57	90.06
263.802	74.06
264.035	82.06
264.267	80.06
264.499	76.06
264.732	75.06
264.964	87.06
265.197	78.06
265.429	71.06
265.661	89.06
265.894	76.06
266.126	84.06
266.358	88.06
266.591	87.06
266.823	83.06
267.055	74.06
267.287	77.06
267.52	82.06
267.752	77.06
267.984	62.06
268.216	77.06
268.448	79.06
268.681	98.06
268.913	79.06
269.145	77.06
269.377	69.06
269.609	86.06
269.841	81.06
270.073	81.06
270.306	82.06
270.538	90.06
270.77	81.06
271.002	77.06
271.234	91.06
271.466	98.06
271.698	71.06
271.93	84.06
272.162	86.06
272.394	81.06
272.626	73.06
272.858	84.06
273.09	87.06
273.322	87.06
273.553	84.06
273.785	96.06
274.017	89.06
274.249	85.06
274.481	91.06
274.713	85.06
274.945	94.06
275.176	82.06
275.408	98.06
275.64	90.06
275.872	93.06
276.104	93.06
276.335	87.06
276.567	80.06
276.799	104.06
277.031	81.06
277.262	95.06
277.494	84.06
277.726	94.06
277.957	82.06
278.189	82.06
278.421	81.06
278.652	78.06
278.884	74.06
279.115	75.06
279.347	79.06
279.579	88.06
279.81	69.06
280.042	80.06
280.273	90.06
280.505	96.06
280.736	78.06
280.968	91.06
281.199	85.06
281.431	74.06
281.662	92.06
281.894	89.06
282.125	95.06
282.356	100.06
282.588	119.06
282.819	87.06
283.051	88.06
283.282	86.06
283.513	81.06
283.745	83.06
283.976	85.06
284.207	74.06
284.439	94.06
284.67	80.06
284.901	83.06
285.132	78.06
285.364	91.06
285.595	81.06
285.826	72.06
286.057	89.06
286.288	73.06
286.52	76.06
286.751	80.06
286.982	83.06
287.213	94.06
287.444	83.06
287.675	88.06
287.906	83.06
288.138	69.06
288.369	91.06
288.6	80.06
288.831	74.06
289.062	89.06
289.293	79.06
289.524	72.06
289.755	92.06
289.986	74.06
290.217	76.06
290.448	81.06
290.679	75.06
290.91	88.06
291.141	83.06
291.371	88.06
291.602	85.06
291.833	87.06
292.064	104.06
292.295	76.06
292.526	87.06
292.757	78.06
292.987	78.06
293.218	69.06
293.449	92.06
293.68	90.06
293.91	89.06
294.141	82.06
294.372	77.06
294.603	90.06
294.833	89.06
295.064	73.06
295.295	85.06
295.525	84.06
295.756	82.06
295.987	84.06
296.217	130.06
296.448	110.06
296.679	99.06
296.909	92.06
297.14	90.06
297.37	85.06
297.601	80.06
297.831	89.06
298.062	90.06
298.292	89.06
298.523	94.06
298.753	83.06
298.984	88.06
299.214	89.06
299.445	89.06
299.675	82.06
299.905	81.06
300.136	86.06
300.366	98.06
300.597	85.06
300.827	88.06
301.057	97.06
301.288	78.06
301.518	74.06
301.748	102.06
301.979	95.06
302.209	93.06
302.439	88.06
302.669	84.06
302.9	81.06
303.13	79.06
303.36	80.06
303.59	92.06
303.82	95.06
304.051	78.06
304.281	91.06
304.511	86.06
304.741	79.06
304.971	74.06
305.201	86.06
305.431	102.06
305.661	88.06
305.891	92.06
306.121	104.06
306.352	83.06
306.582	97.06
306.812	92.06
307.042	97.06
307.272	88.06
307.502	86.06
307.731	79.06
307.961	78.06
308.191	85.06
308.421	78.06
308.651	94.06
308.881	82.06
309.111	82.06
309.341	85.06
309.571	100.06
309.8	89.06
310.03	96.06
310.26	98.06
310.49	87.06
310.72	88.06
310.949	96.06
311.179	105.06
311.409	103.06
311.639	91.06
311.868	90.06
312.098	89.06
312.328	81.06
312.557	98.06
312.787	109.06
313.017	94.06
313.246	89.06
313.476	84.06
313.706	93.06
313.935	86.06
314.165	92.06
314.394	82.06
314.624	84.06
314.853	92.06
315.083	99.06
315.312	83.06
315.542	83.06
315.771	92.06
316.001	100.06
316.23	100.06
316.46	81.06
316.689	94.06
316.919	84.06
317.148	85.06
317.377	98.06
317.607	96.06
317.836	97.06
318.065	77.06
318.295	89.06
318.524	96.06
318.753	78.06
318.983	90.06
319.212	87.06
319.441	108.06
319.67	91.06
319.9	79.06
320.129	81.06
320.358	80.06
320.587	79.06
320.816	108.06
321.046	76.06
321.275	94.06
321.504	92.06
321.733	95.06
321.962	84.06
322.191	102.06
322.42	98.06
322.649	87.06
322.878	92.06
323.108	98.06
323.337	99.06
323.566	120.06
323.795	126.06
324.024	174.06
324.253	292.06
324.482	598.06
324.71	1173.06
324.939	1519.06
325.168	576.06
325.397	198.06
325.626	124.06
325.855	125.06
326.084	121.06
326.313	110.06
326.542	126.06
326.77	175.06
326.999	353.06
327.228	700.06
327.457	1209.06
327.686	958.06
327.914	276.06
328.143	157.06
328.372	125.06
328.6	116.06
328.829	118.06
329.058	99.06
329.287	113.06
329.515	94.06
329.744	102.06
329.972	92.06
330.201	101.06
330.43	106.06
330.658	118.06
330.887	122.06
331.115	116.06
331.344	99.06
331.572	96.06
331.801	94.06
332.03	88.06
332.258	85.06
332.486	82.06
332.715	83.06
332.943	80.06
333.172	83.06
333.4	97.06
333.629	84.06
333.857	90.06
334.085	85.06
334.314	97.06
334.542	103.06
334.771	98.06
334.999	90.06
335.227	97.06
335.455	96.06
335.684	90.06
335.912	95.06
336.14	109.06
336.369	88.06
336.597	104.06
336.825	95.06
337.053	95.06
337.281	94.06
337.51	79.06
337.738	96.06
337.966	97.06
338.194	103.06
338.422	86.06
338.65	85.06
338.878	96.06
339.106	87.06
339.334	93.06
339.562	94.06
339.79	78.06
340.018	85.06
340.246	89.06
340.474	92.06
340.702	66.06
340.93	87.06
341.158	94.06
341.386	100.06
341.614	98.06
341.842	84.06
342.07	82.06
342.298	84.06
342.526	88.06
342.754	89.06
342.981	87.06
343.209	85.06
343.437	88.06
343.665	74.06
343.893	97.06
344.12	85.06
344.348	98.06
344.576	100.06
344.804	90.06
345.031	81.06
345.259	93.06
345.487	92.06
345.714	100.06
345.942	89.06
346.17	92.06
346.397	80.06
346.625	97.06
346.853	84.06
347.08	82.06
347.308	87.06
347.535	95.06
347.763	81.06
347.99	96.06
348.218	89.06
348.445	85.06
348.673	89.06
348.9	93.06
349.128	80.06
349.355	90.06
349.583	96.06
349.81	93.06
350.037	93.06
350.265	82.06
350.492	111.06
350.72	93.06
350.947	98.06
351.174	94.06
351.402	99.06
351.629	87.06
351.856	94.06
352.083	100.06
352.311	95.06
352.538	98.06
352.765	102.06
352.992	98.06
353.22	103.06
353.447	102.06
353.674	99.06
353.901	105.06
354.128	98.06
354.355	94.06
354.583	92.06
354.81	93.06
355.037	94.06
355.264	108.06
355.491	82.06
355.718	87.06
355.945	94.06
356.172	92.06
356.399	80.06
356.626	90.06
356.853	70.06
357.08	105.06
357.307	93.06
357.534	87.06
357.761	96.06
357.988	98.06
358.215	89.06
358.441	88.06
358.668	83.06
358.895	98.06
359.122	84.06
359.349	95.06
359.576	89.06
359.802	104.06
360.029	104.06
360.256	86.06
360.483	97.06
360.709	78.06
360.936	90.06
361.163	97.06
361.39	81.06
361.616	95.06
361.843	85.06
362.07	80.06
362.296	99.06
362.523	85.06
362.749	86.06
362.976	81.06
363.203	84.06
363.429	92.06
363.656	86.06
363.882	91.06
364.109	87.06
364.335	66.06
364.562	87.06
364.788	85.06
365.015	96.06
365.241	103.06
365.468	107.06
365.694	90.06
365.92	82.06
366.147	98.06
366.373	82.06
366.599	96.06
366.826	87.06
367.052	88.06
367.278	75.06
367.505	78.06
367.731	82.06
367.957	85.06
368.184	91.06
368.41	89.06
368.636	81.06
368.862	100.06
369.089	95.06
369.315	88.06
369.541	104.06
369.767	93.06
369.993	76.06
370.219	81.06
370.445	83.06
370.672	95.06
370.898	76.06
371.124	98.06
371.35	87.06
371.576	93.06
371.802	94.06
372.028	92.06
372.254	85.06
372.48	81.06
372.706	97.06
372.932	93.06
373.158	88.06
373.384	94.06
373.61	92.06
373.835	90.06
374.061	76.06
374.287	86.06
374.513	95.06
374.739	98.06
374.965	88.06
375.191	90.06
375.416	84.06
375.642	82.06
375.868	87.06
376.094	88.06
376.319	90.06
376.545	99.06
376.771	84.06
376.997	84.06
377.222	81.06
377.448	94.06
377.674	84.06
377.899	90.06
378.125	80.06
378.35	80.06
378.576	88.06
378.802	72.06
379.027	95.06
379.253	102.06
379.478	78.06
379.704	82.06
379.929	91.06
380.155	88.06
380.38	80.06
380.606	98.06
380.831	98.06
381.057	93.06
381.282	110.06
381.507	100.06
381.733	100.06
381.958	97.06
382.184	101.06
382.409	83.06
382.634	94.06
382.86	101.06
383.085	102.06
383.31	98.06
383.535	83.06
383.761	92.06
383.986	105.06
384.211	107.06
384.436	113.06
384.662	106.06
384.887	90.06
385.112	110.06
385.337	110.06
385.562	108.06
385.787	92.06
386.013	119.06
386.238	105.06
386.463	100.06
386.688	115.06
386.913	103.06
387.138	115.06
387.363	110.06
387.588	112.06
387.813	103.06
388.038	116.06
388.263	117.06
388.488	119.06
388.713	107.06
388.938	83.06
389.163	98.06
389.387	94.06
389.612	97.06
389.837	82.06
390.062	100.06
390.287	97.06
390.512	96.06
390.736	88.06
390.961	89.06
391.186	96.06
391.411	106.06
391.636	82.06
391.86	88.06
392.085	70.06
392.31	84.06
392.534	76.06
392.759	85.06
392.984	86.06
393.208	117.06
393.433	128.06
393.658	118.06
393.882	88.06
394.107	82.06
394.331	95.06
394.556	82.06
394.78	80.06
395.005	91.06
395.229	87.06
395.454	84.06
395.678	99.06
395.903	85.06
396.127	95.06
396.352	95.06
396.576	86.06
396.801	108.06
397.025	115.06
397.249	92.06
397.474	103.06
397.698	78.06
397.922	74.06
398.147	97.06
398.371	88.06
398.595	93.06
398.82	80.06
399.044	85.06
399.268	80.06
399.492	69.06
399.717	78.06
399.941	94.06
400.165	79.06
400.389	105.06
400.613	101.06
400.837	95.06
401.062	90.06
401.286	98.06
401.51	97.06
401.734	99.06
401.958	90.06
402.182	118.06
402.406	124.06
402.63	105.06
402.854	79.06
403.078	94.06
403.302	76.06
403.526	79.06
403.75	75.06
403.974	94.06
404.198	80.06
404.422	88.06
404.645	74.06
404.869	96.06
405.093	97.06
405.317	91.06
405.541	92.06
405.765	92.06
405.988	114.06
406.212	140.06
406.436	173.06
406.66	121.06
406.883	85.06
407.107	89.06
407.331	91.06
407.555	87.06
407.778	102.06
408.002	86.06
408.226	84.06
408.449	72.06
408.673	90.06
408.896	87.06
409.12	97.06
409.344	83.06
409.567	97.06
409.791	90.06
410.014	97.06
410.238	89.06
410.461	87.06
410.685	106.06
410.908	89.06
411.132	90.06
411.355	90.06
411.578	84.06
411.802	85.06
412.025	90.06
412.249	79.06
412.472	87.06
412.695	91.06
412.919	100.06
413.142	89.06
413.365	93.06
413.589	66.06
413.812	92.06
414.035	90.06
414.258	89.06
414.482	99.06
414.705	83.06
414.928	89.06
415.151	88.06
415.374	83.06
415.597	85.06
415.821	99.06
416.044	79.06
416.267	93.06
416.49	80.06
416.713	100.06
416.936	76.06
417.159	75.06
417.382	86.06
417.605	86.06
417.828	86.06
418.051	87.06
418.274	84.06
418.497	74.06
418.72	89.06
418.943	94.06
419.166	67.06
419.389	84.06
419.611	80.06
419.834	97.06
420.057	86.06
420.28	84.06
420.503	89.06
420.726	88.06
420.948	68.06
421.171	71.06
421.394	88.06
421.617	95.06
421.839	92.06
422.062	85.06
422.285	101.06
422.507	97.06
422.73	94.06
422.953	98.06
423.175	76.06
423.398	88.06
423.621	91.06
423.843	83.06
424.066	85.06
424.288	87.06
424.511	96.06
424.733	76.06
424.956	101.06
425.178	90.06
425.401	90.06
425.623	79.06
425.846	93.06
426.068	100.06
426.291	92.06
426.513	105.06
426.735	97.06
426.958	81.06
427.18	105.06
427.402	115.06
427.625	131.06
427.847	98.06
428.069	89.06
428.292	82.06
428.514	92.06
428.736	72.06
428.958	78.06
429.181	81.06
429.403	84.06
429.625	82.06
429.847	87.06
430.069	87.06
430.292	89.06
430.514	85.06
430.736	85.06
430.958	82.06
431.18	75.06
431.402	77.06
431.624	96.06
431.846	90.06
432.068	79.06
432.29	82.06
432.512	87.06
432.734	96.06
432.956	86.06
433.178	86.06
433.4	88.06
433.622	91.06
433.844	85.06
434.066	91.06
434.287	85.06
434.509	92.06
434.731	79.06
434.953	86.06
435.175	84.06
435.397	84.06
435.618	84.06
435.84	93.06
436.062	97.06
436.284	96.06
436.505	81.06
436.727	102.06
436.949	80.06
437.17	85.06
437.392	71.06
437.614	84.06
437.835	102.06
438.057	107.06
438.278	110.06
438.5	98.06
438.721	108.06
438.943	73.06
439.165	78.06
439.386	87.06
439.608	85.06
439.829	95.06
440.05	91.06
440.272	113.06
440.493	90.06
440.715	85.06
440.936	93.06
441.158	82.06
441.379	100.06
441.6	100.06
441.822	90.06
442.043	90.06
442.264	90.06
442.486	100.06
442.707	95.06
442.928	79.06
443.149	99.06
443.371	136.06
443.592	98.06
443.813	91.06
444.034	92.06
444.255	79.06
444.476	83.06
444.698	99.06
444.919	89.06
445.14	132.06
445.361	117.06
445.582	110.06
445.803	121.06
446.024	114.06
446.245	107.06
446.466	92.06
446.687	72.06
446.908	86.06
447.129	86.06
447.35	106.06
447.571	71.06
447.792	94.06
448.013	90.06
448.234	91.06
448.455	101.06
448.675	98.06
448.896	98.06
449.117	100.06
449.338	99.06
449.559	117.06
449.779	128.06
450	86.06
450.221	83.06
450.442	113.06
450.662	88.06
450.883	94.06
451.104	98.06
451.324	89.06
451.545	86.06
451.766	74.06
451.986	79.06
452.207	91.06
452.428	81.06
452.648	88.06
452.869	91.06
453.089	92.06
453.31	104.06
453.53	91.06
453.751	84.06
453.971	93.06
454.192	93.06
454.412	89.06
454.633	87.06
454.853	87.06
455.073	81.06
455.294	87.06
455.514	102.06
455.734	91.06
455.955	82.06
456.175	71.06
456.395	85.06
456.616	76.06
456.836	80.06
457.056	86.06
457.276	73.06
457.497	82.06
457.717	97.06
457.937	90.06
458.157	92.06
458.377	83.06
458.598	102.06
458.818	136.06
459.038	136.06
459.258	104.06
459.478	74.06
459.698	82.06
459.918	76.06
460.138	90.06
460.358	96.06
460.578	95.06
460.798	85.06
461.018	76.06
461.238	77.06
461.458	62.06
461.678	91.06
461.898	89.06
462.118	94.06
462.338	72.06
462.558	68.06
462.777	74.06
462.997	81.06
463.217	87.06
463.437	83.06
463.657	86.06
463.876	87.06
464.096	90.06
464.316	102.06
464.536	85.06
464.755	91.06
464.975	83.06
465.195	125.06
465.414	108.06
465.634	102.06
465.854	100.06
466.073	100.06
466.293	98.06
466.512	94.06
466.732	88.06
466.951	83.06
467.171	97.06
467.391	88.06
467.61	96.06
467.829	78.06
468.049	90.06
468.268	98.06
468.488	92.06
468.707	91.06
468.927	87.06
469.146	68.06
469.365	80.06
469.585	86.06
469.804	94.06
470.023	95.06
470.243	96.06
470.462	79.06
470.681	93.06
470.901	91.06
471.12	86.06
471.339	73.06
471.558	84.06
471.777	92.06
471.997	88.06
472.216	84.06
472.435	91.06
472.654	85.06
472.873	81.06
473.092	90.06
473.311	90.06
473.53	90.06
473.749	100.06
473.968	95.06
474.187	94.06
474.406	98.06
474.625	82.06
474.844	84.06
475.063	79.06
475.282	78.06
475.501	76.06
475.72	89.06
475.939	80.06
476.158	86.06
476.377	78.06
476.596	95.06
476.814	101.06
477.033	84.06
477.252	86.06
477.471	86.06
477.69	92.06
477.908	82.06
478.127	90.06
478.346	100.06
478.564	89.06
478.783	84.06
479.002	96.06
479.22	96.06
479.439	83.06
479.658	97.06
479.876	84.06
480.095	88.06
480.313	82.06
480.532	85.06
480.751	93.06
480.969	72.06
481.188	103.06
481.406	82.06
481.624	92.06
481.843	86.06
482.061	91.06
482.28	90.06
482.498	88.06
482.717	85.06
482.935	84.06
483.153	86.06
483.372	79.06
483.59	75.06
483.808	93.06
484.027	89.06
484.245	92.06
484.463	96.06
484.681	98.06
484.9	82.06
485.118	97.06
485.336	80.06
485.554	93.06
485.772	105.06
485.99	101.06
486.209	93.06
486.427	115.06
486.645	92.06
486.863	114.06
487.081	93.06
487.299	84.06
487.517	80.06
487.735	79.06
487.953	80.06
488.171	78.06
488.389	101.06
488.607	96.06
488.825	84.06
489.043	92.06
489.261	92.06
489.479	101.06
489.696	75.06
489.914	80.06
490.132	93.06
490.35	84.06
490.568	90.06
490.786	85.06
491.003	80.06
491.221	93.06
491.439	77.06
491.657	90.06
491.874	96.06
492.092	89.06
492.31	96.06
492.527	83.06
492.745	76.06
492.963	101.06
493.18	97.06
493.398	78.06
493.615	87.06
493.833	94.06
494.05	90.06
494.268	81.06
494.485	79.06
494.703	84.06
494.92	83.06
495.138	95.06
495.355	96.06
495.573	101.06
495.79	95.06
496.008	94.06
496.225	82.06
496.442	86.06
496.66	100.06
496.877	90.06
497.094	88.06
497.312	71.06
497.529	89.06
497.746	110.06
497.963	82.06
498.181	96.06
498.398	85.06
498.615	94.06
498.832	100.06
499.049	100.06
499.267	96.06
499.484	80.06
499.701	87.06
499.918	92.06
500.135	89.06
500.352	84.06
500.569	80.06
500.786	90.06
501.003	77.06
501.22	89.06
501.437	92.06
501.654	86.06
501.871	87.06
502.088	90.06
502.305	95.06
502.522	90.06
502.739	77.06
502.956	90.06
503.172	90.06
503.389	97.06
503.606	98.06
503.823	86.06
504.04	94.06
504.256	84.06
504.473	82.06
504.69	90.06
504.907	100.06
505.123	94.06
505.34	95.06
505.557	106.06
505.773	100.06
505.99	97.06
506.207	81.06
506.423	84.06
506.64	89.06
506.856	81.06
507.073	78.06
507.289	87.06
507.506	94.06
507.722	91.06
507.939	99.06
508.155	96.06
508.372	86.06
508.588	88.06
508.805	85.06
509.021	83.06
509.238	90.06
509.454	95.06
509.67	77.06
509.887	101.06
510.103	117.06
510.319	174.06
510.536	571.06
510.752	1649.06
510.968	487.06
511.184	128.06
511.401	100.06
511.617	85.06
511.833	81.06
512.049	89.06
512.265	102.06
512.481	71.06
512.698	75.06
512.914	92.06
513.13	76.06
513.346	93.06
513.562	81.06
513.778	109.06
513.994	81.06
514.21	97.06
514.426	93.06
514.642	109.06
514.858	120.06
515.074	135.06
515.29	318.06
515.506	962.06
515.721	368.06
515.937	119.06
516.153	96.06
516.369	92.06
516.585	86.06
516.801	78.06
517.016	88.06
517.232	85.06
