Data from Uncirc_2002_H10_HRD10591_00069.txt Node
Date: Wed Jan 03 10:39:55 EST 2024
User: Yrep
Spectrometer: HR+D1059
Trigger mode: 1
Integration Time (sec): 1.000000E-1
Scans to average: 1
Electric dark correction enabled: true
Nonlinearity correction enabled: false
Boxcar width: 0
XAxis mode: Wavelengths
Number of Pixels in Spectrum: 2048
>>>>>Begin Spectral Data<<<<<
223.165	-22.38
223.4	-22.38
223.635	-22.38
223.869	-29.38
224.104	-16.38
224.338	-30.38
224.573	-17.38
224.808	-13.38
225.042	-12.38
225.277	-1.38
225.511	-16.38
225.746	-6.38
225.98	22.62
226.215	26.62
226.449	29.62
226.683	20.62
226.918	31.62
227.152	34.62
227.387	35.62
227.621	28.62
227.856	39.62
228.09	37.62
228.324	54.62
228.559	48.62
228.793	60.62
229.027	65.62
229.262	76.62
229.496	79.62
229.73	66.62
229.964	74.62
230.199	70.62
230.433	69.62
230.667	76.62
230.901	64.62
231.136	80.62
231.37	74.62
231.604	79.62
231.838	77.62
232.072	72.62
232.306	81.62
232.541	81.62
232.775	77.62
233.009	73.62
233.243	80.62
233.477	94.62
233.711	77.62
233.945	77.62
234.179	79.62
234.413	75.62
234.647	63.62
234.881	74.62
235.115	86.62
235.349	80.62
235.583	72.62
235.817	92.62
236.051	65.62
236.285	84.62
236.519	78.62
236.753	72.62
236.987	68.62
237.221	84.62
237.455	68.62
237.689	77.62
237.922	67.62
238.156	70.62
238.39	77.62
238.624	77.62
238.858	71.62
239.091	77.62
239.325	68.62
239.559	70.62
239.793	76.62
240.027	80.62
240.26	70.62
240.494	81.62
240.728	80.62
240.961	71.62
241.195	59.62
241.429	82.62
241.662	77.62
241.896	74.62
242.13	65.62
242.363	79.62
242.597	65.62
242.83	66.62
243.064	76.62
243.298	85.62
243.531	75.62
243.765	80.62
243.998	79.62
244.232	77.62
244.465	83.62
244.699	80.62
244.932	68.62
245.166	74.62
245.399	82.62
245.633	67.62
245.866	75.62
246.099	83.62
246.333	80.62
246.566	65.62
246.8	67.62
247.033	89.62
247.266	77.62
247.5	77.62
247.733	66.62
247.966	65.62
248.2	64.62
248.433	78.62
248.666	78.62
248.899	75.62
249.133	72.62
249.366	92.62
249.599	74.62
249.832	81.62
250.066	75.62
250.299	80.62
250.532	89.62
250.765	78.62
250.998	85.62
251.231	67.62
251.465	72.62
251.698	79.62
251.931	80.62
252.164	81.62
252.397	75.62
252.63	76.62
252.863	62.62
253.096	79.62
253.329	72.62
253.562	77.62
253.795	73.62
254.028	78.62
254.261	71.62
254.494	67.62
254.727	84.62
254.96	69.62
255.193	84.62
255.426	78.62
255.659	86.62
255.892	93.62
256.124	85.62
256.357	76.62
256.59	63.62
256.823	87.62
257.056	92.62
257.289	79.62
257.521	93.62
257.754	89.62
257.987	81.62
258.22	63.62
258.452	75.62
258.685	73.62
258.918	77.62
259.151	92.62
259.383	75.62
259.616	65.62
259.849	86.62
260.081	79.62
260.314	87.62
260.547	88.62
260.779	86.62
261.012	72.62
261.244	90.62
261.477	87.62
261.71	78.62
261.942	103.62
262.175	84.62
262.407	78.62
262.64	100.62
262.872	89.62
263.105	75.62
263.337	84.62
263.57	76.62
263.802	80.62
264.035	76.62
264.267	89.62
264.499	67.62
264.732	78.62
264.964	80.62
265.197	74.62
265.429	80.62
265.661	76.62
265.894	78.62
266.126	75.62
266.358	88.62
266.591	69.62
266.823	76.62
267.055	77.62
267.287	78.62
267.52	78.62
267.752	89.62
267.984	77.62
268.216	70.62
268.448	86.62
268.681	73.62
268.913	89.62
269.145	76.62
269.377	77.62
269.609	92.62
269.841	89.62
270.073	85.62
270.306	89.62
270.538	82.62
270.77	84.62
271.002	71.62
271.234	96.62
271.466	76.62
271.698	76.62
271.93	85.62
272.162	70.62
272.394	92.62
272.626	83.62
272.858	85.62
273.09	80.62
273.322	85.62
273.553	80.62
273.785	89.62
274.017	80.62
274.249	72.62
274.481	79.62
274.713	103.62
274.945	75.62
275.176	79.62
275.408	79.62
275.64	85.62
275.872	86.62
276.104	87.62
276.335	93.62
276.567	85.62
276.799	112.62
277.031	91.62
277.262	91.62
277.494	101.62
277.726	86.62
277.957	80.62
278.189	92.62
278.421	73.62
278.652	88.62
278.884	84.62
279.115	70.62
279.347	88.62
279.579	64.62
279.81	76.62
280.042	95.62
280.273	75.62
280.505	85.62
280.736	82.62
280.968	79.62
281.199	74.62
281.431	79.62
281.662	76.62
281.894	95.62
282.125	93.62
282.356	98.62
282.588	129.62
282.819	105.62
283.051	85.62
283.282	87.62
283.513	83.62
283.745	67.62
283.976	82.62
284.207	83.62
284.439	81.62
284.67	89.62
284.901	78.62
285.132	77.62
285.364	78.62
285.595	89.62
285.826	84.62
286.057	81.62
286.288	83.62
286.52	72.62
286.751	88.62
286.982	90.62
287.213	84.62
287.444	80.62
287.675	105.62
287.906	86.62
288.138	81.62
288.369	89.62
288.6	81.62
288.831	78.62
289.062	82.62
289.293	77.62
289.524	80.62
289.755	76.62
289.986	94.62
290.217	74.62
290.448	83.62
290.679	83.62
290.91	85.62
291.141	70.62
291.371	86.62
291.602	88.62
291.833	88.62
292.064	95.62
292.295	87.62
292.526	78.62
292.757	88.62
292.987	83.62
293.218	90.62
293.449	84.62
293.68	88.62
293.91	96.62
294.141	85.62
294.372	87.62
294.603	81.62
294.833	100.62
295.064	81.62
295.295	85.62
295.525	90.62
295.756	93.62
295.987	101.62
296.217	127.62
296.448	92.62
296.679	84.62
296.909	96.62
297.14	74.62
297.37	81.62
297.601	81.62
297.831	81.62
298.062	79.62
298.292	87.62
298.523	71.62
298.753	72.62
298.984	87.62
299.214	96.62
299.445	84.62
299.675	85.62
299.905	102.62
300.136	97.62
300.366	88.62
300.597	85.62
300.827	87.62
301.057	93.62
301.288	84.62
301.518	103.62
301.748	95.62
301.979	96.62
302.209	76.62
302.439	74.62
302.669	92.62
302.9	87.62
303.13	92.62
303.36	84.62
303.59	83.62
303.82	103.62
304.051	93.62
304.281	85.62
304.511	95.62
304.741	85.62
304.971	80.62
305.201	85.62
305.431	83.62
305.661	88.62
305.891	97.62
306.121	87.62
306.352	88.62
306.582	94.62
306.812	80.62
307.042	93.62
307.272	79.62
307.502	95.62
307.731	80.62
307.961	88.62
308.191	70.62
308.421	79.62
308.651	103.62
308.881	98.62
309.111	92.62
309.341	114.62
309.571	93.62
309.8	87.62
310.03	89.62
310.26	93.62
310.49	76.62
310.72	84.62
310.949	81.62
311.179	92.62
311.409	92.62
311.639	77.62
311.868	75.62
312.098	81.62
312.328	83.62
312.557	94.62
312.787	98.62
313.017	88.62
313.246	93.62
313.476	88.62
313.706	95.62
313.935	94.62
314.165	84.62
314.394	94.62
314.624	105.62
314.853	86.62
315.083	94.62
315.312	93.62
315.542	91.62
315.771	87.62
316.001	84.62
316.23	81.62
316.46	78.62
316.689	80.62
316.919	79.62
317.148	86.62
317.377	107.62
317.607	85.62
317.836	94.62
318.065	99.62
318.295	80.62
318.524	92.62
318.753	83.62
318.983	97.62
319.212	87.62
319.441	102.62
319.67	93.62
319.9	97.62
320.129	86.62
320.358	94.62
320.587	89.62
320.816	87.62
321.046	92.62
321.275	106.62
321.504	87.62
321.733	88.62
321.962	95.62
322.191	97.62
322.42	88.62
322.649	103.62
322.878	95.62
323.108	102.62
323.337	118.62
323.566	106.62
323.795	135.62
324.024	179.62
324.253	333.62
324.482	655.62
324.71	1343.62
324.939	1719.62
325.168	645.62
325.397	200.62
325.626	133.62
325.855	114.62
326.084	117.62
326.313	111.62
326.542	143.62
326.77	199.62
326.999	371.62
327.228	755.62
327.457	1352.62
327.686	1057.62
327.914	304.62
328.143	169.62
328.372	130.62
328.6	103.62
328.829	107.62
329.058	108.62
329.287	116.62
329.515	93.62
329.744	102.62
329.972	99.62
330.201	97.62
330.43	118.62
330.658	119.62
330.887	120.62
331.115	113.62
331.344	92.62
331.572	92.62
331.801	90.62
332.03	93.62
332.258	87.62
332.486	87.62
332.715	85.62
332.943	85.62
333.172	93.62
333.4	92.62
333.629	107.62
333.857	114.62
334.085	92.62
334.314	101.62
334.542	99.62
334.771	89.62
334.999	95.62
335.227	102.62
335.455	89.62
335.684	104.62
335.912	90.62
336.14	99.62
336.369	89.62
336.597	96.62
336.825	96.62
337.053	76.62
337.281	81.62
337.51	90.62
337.738	86.62
337.966	97.62
338.194	83.62
338.422	82.62
338.65	92.62
338.878	94.62
339.106	93.62
339.334	84.62
339.562	94.62
339.79	86.62
340.018	74.62
340.246	96.62
340.474	79.62
340.702	101.62
340.93	86.62
341.158	80.62
341.386	101.62
341.614	99.62
341.842	85.62
342.07	77.62
342.298	80.62
342.526	89.62
342.754	70.62
342.981	90.62
343.209	82.62
343.437	125.62
343.665	95.62
343.893	90.62
344.12	90.62
344.348	90.62
344.576	80.62
344.804	77.62
345.031	99.62
345.259	89.62
345.487	98.62
345.714	106.62
345.942	80.62
346.17	93.62
346.397	89.62
346.625	87.62
346.853	81.62
347.08	99.62
347.308	91.62
347.535	89.62
347.763	101.62
347.99	89.62
348.218	91.62
348.445	91.62
348.673	75.62
348.9	87.62
349.128	100.62
349.355	93.62
349.583	81.62
349.81	92.62
350.037	82.62
350.265	91.62
350.492	92.62
350.72	94.62
350.947	98.62
351.174	91.62
351.402	108.62
351.629	100.62
351.856	97.62
352.083	109.62
352.311	110.62
352.538	93.62
352.765	85.62
352.992	108.62
353.22	108.62
353.447	101.62
353.674	102.62
353.901	100.62
354.128	96.62
354.355	99.62
354.583	96.62
354.81	93.62
355.037	108.62
355.264	78.62
355.491	83.62
355.718	82.62
355.945	83.62
356.172	72.62
356.399	87.62
356.626	83.62
356.853	81.62
357.08	99.62
357.307	79.62
357.534	86.62
357.761	93.62
357.988	87.62
358.215	97.62
358.441	95.62
358.668	92.62
358.895	87.62
359.122	80.62
359.349	88.62
359.576	98.62
359.802	88.62
360.029	90.62
360.256	86.62
360.483	76.62
360.709	89.62
360.936	83.62
361.163	93.62
361.39	79.62
361.616	89.62
361.843	84.62
362.07	82.62
362.296	84.62
362.523	93.62
362.749	82.62
362.976	80.62
363.203	87.62
363.429	86.62
363.656	87.62
363.882	86.62
364.109	89.62
364.335	76.62
364.562	89.62
364.788	87.62
365.015	89.62
365.241	96.62
365.468	96.62
365.694	97.62
365.92	98.62
366.147	96.62
366.373	82.62
366.599	92.62
366.826	95.62
367.052	89.62
367.278	89.62
367.505	78.62
367.731	93.62
367.957	76.62
368.184	84.62
368.41	96.62
368.636	100.62
368.862	104.62
369.089	100.62
369.315	86.62
369.541	96.62
369.767	76.62
369.993	83.62
370.219	83.62
370.445	83.62
370.672	89.62
370.898	94.62
371.124	106.62
371.35	83.62
371.576	67.62
371.802	79.62
372.028	71.62
372.254	84.62
372.48	72.62
372.706	68.62
372.932	84.62
373.158	75.62
373.384	73.62
373.61	78.62
373.835	82.62
374.061	89.62
374.287	83.62
374.513	85.62
374.739	90.62
374.965	87.62
375.191	80.62
375.416	86.62
375.642	77.62
375.868	83.62
376.094	99.62
376.319	93.62
376.545	95.62
376.771	74.62
376.997	87.62
377.222	81.62
377.448	88.62
377.674	77.62
377.899	100.62
378.125	80.62
378.35	89.62
378.576	103.62
378.802	80.62
379.027	98.62
379.253	80.62
379.478	83.62
379.704	91.62
379.929	106.62
380.155	89.62
380.38	95.62
380.606	85.62
380.831	96.62
381.057	95.62
381.282	86.62
381.507	78.62
381.733	87.62
381.958	88.62
382.184	87.62
382.409	93.62
382.634	102.62
382.86	113.62
383.085	95.62
383.31	84.62
383.535	85.62
383.761	89.62
383.986	96.62
384.211	73.62
384.436	79.62
384.662	96.62
384.887	104.62
385.112	102.62
385.337	93.62
385.562	87.62
385.787	96.62
386.013	101.62
386.238	91.62
386.463	97.62
386.688	123.62
386.913	104.62
387.138	88.62
387.363	98.62
387.588	96.62
387.813	87.62
388.038	98.62
388.263	101.62
388.488	95.62
388.713	81.62
388.938	88.62
389.163	86.62
389.387	94.62
389.612	85.62
389.837	87.62
390.062	79.62
390.287	87.62
390.512	85.62
390.736	91.62
390.961	86.62
391.186	83.62
391.411	87.62
391.636	87.62
391.86	88.62
392.085	77.62
392.31	92.62
392.534	94.62
392.759	96.62
392.984	70.62
393.208	88.62
393.433	81.62
393.658	88.62
393.882	86.62
394.107	95.62
394.331	85.62
394.556	75.62
394.78	91.62
395.005	89.62
395.229	93.62
395.454	96.62
395.678	83.62
395.903	90.62
396.127	79.62
396.352	93.62
396.576	73.62
396.801	89.62
397.025	84.62
397.249	79.62
397.474	92.62
397.698	82.62
397.922	84.62
398.147	91.62
398.371	81.62
398.595	100.62
398.82	90.62
399.044	85.62
399.268	77.62
399.492	84.62
399.717	84.62
399.941	92.62
400.165	88.62
400.389	88.62
400.613	78.62
400.837	79.62
401.062	97.62
401.286	86.62
401.51	80.62
401.734	86.62
401.958	96.62
402.182	118.62
402.406	123.62
402.63	85.62
402.854	86.62
403.078	92.62
403.302	82.62
403.526	71.62
403.75	87.62
403.974	98.62
404.198	88.62
404.422	91.62
404.645	80.62
404.869	82.62
405.093	90.62
405.317	66.62
405.541	89.62
405.765	100.62
405.988	121.62
406.212	160.62
406.436	204.62
406.66	129.62
406.883	82.62
407.107	104.62
407.331	96.62
407.555	104.62
407.778	89.62
408.002	67.62
408.226	89.62
408.449	84.62
408.673	78.62
408.896	89.62
409.12	89.62
409.344	75.62
409.567	87.62
409.791	86.62
410.014	86.62
410.238	84.62
410.461	93.62
410.685	79.62
410.908	94.62
411.132	94.62
411.355	89.62
411.578	84.62
411.802	85.62
412.025	76.62
412.249	73.62
412.472	95.62
412.695	87.62
412.919	90.62
413.142	85.62
413.365	95.62
413.589	89.62
413.812	79.62
414.035	80.62
414.258	93.62
414.482	94.62
414.705	90.62
414.928	89.62
415.151	78.62
415.374	102.62
415.597	78.62
415.821	88.62
416.044	99.62
416.267	72.62
416.49	69.62
416.713	99.62
416.936	90.62
417.159	79.62
417.382	85.62
417.605	81.62
417.828	88.62
418.051	83.62
418.274	96.62
418.497	72.62
418.72	92.62
418.943	85.62
419.166	91.62
419.389	99.62
419.611	92.62
419.834	77.62
420.057	84.62
420.28	75.62
420.503	79.62
420.726	82.62
420.948	82.62
421.171	96.62
421.394	75.62
421.617	83.62
421.839	90.62
422.062	84.62
422.285	86.62
422.507	99.62
422.73	91.62
422.953	92.62
423.175	81.62
423.398	93.62
423.621	89.62
423.843	71.62
424.066	86.62
424.288	87.62
424.511	89.62
424.733	96.62
424.956	107.62
425.178	82.62
425.401	79.62
425.623	77.62
425.846	81.62
426.068	91.62
426.291	78.62
426.513	93.62
426.735	79.62
426.958	93.62
427.18	99.62
427.402	123.62
427.625	146.62
427.847	107.62
428.069	91.62
428.292	88.62
428.514	91.62
428.736	86.62
428.958	87.62
429.181	86.62
429.403	92.62
429.625	75.62
429.847	83.62
430.069	97.62
430.292	98.62
430.514	85.62
430.736	81.62
430.958	82.62
431.18	77.62
431.402	99.62
431.624	69.62
431.846	76.62
432.068	76.62
432.29	90.62
432.512	91.62
432.734	84.62
432.956	95.62
433.178	87.62
433.4	91.62
433.622	76.62
433.844	93.62
434.066	86.62
434.287	90.62
434.509	82.62
434.731	86.62
434.953	95.62
435.175	86.62
435.397	90.62
435.618	93.62
435.84	100.62
436.062	113.62
436.284	107.62
436.505	95.62
436.727	87.62
436.949	84.62
437.17	79.62
437.392	89.62
437.614	86.62
437.835	85.62
438.057	116.62
438.278	104.62
438.5	86.62
438.721	112.62
438.943	83.62
439.165	88.62
439.386	73.62
439.608	86.62
439.829	93.62
440.05	101.62
440.272	120.62
440.493	94.62
440.715	99.62
440.936	93.62
441.158	88.62
441.379	90.62
441.6	86.62
441.822	88.62
442.043	81.62
442.264	82.62
442.486	95.62
442.707	92.62
442.928	88.62
443.149	113.62
443.371	116.62
443.592	99.62
443.813	102.62
444.034	102.62
444.255	69.62
444.476	83.62
444.698	89.62
444.919	83.62
445.14	123.62
445.361	114.62
445.582	82.62
445.803	100.62
446.024	110.62
446.245	124.62
446.466	97.62
446.687	82.62
446.908	93.62
447.129	85.62
447.35	88.62
447.571	87.62
447.792	95.62
448.013	94.62
448.234	94.62
448.455	91.62
448.675	108.62
448.896	113.62
449.117	94.62
449.338	95.62
449.559	97.62
449.779	108.62
450	96.62
450.221	81.62
450.442	93.62
450.662	103.62
450.883	89.62
451.104	96.62
451.324	101.62
451.545	92.62
451.766	88.62
451.986	87.62
452.207	83.62
452.428	84.62
452.648	89.62
452.869	108.62
453.089	97.62
453.31	83.62
453.53	81.62
453.751	94.62
453.971	100.62
454.192	96.62
454.412	97.62
454.633	89.62
454.853	96.62
455.073	78.62
455.294	102.62
455.514	104.62
455.734	93.62
455.955	74.62
456.175	78.62
456.395	93.62
456.616	81.62
456.836	90.62
457.056	86.62
457.276	78.62
457.497	84.62
457.717	82.62
457.937	87.62
458.157	72.62
458.377	80.62
458.598	91.62
458.818	117.62
459.038	125.62
459.258	108.62
459.478	91.62
459.698	79.62
459.918	91.62
460.138	84.62
460.358	88.62
460.578	92.62
460.798	88.62
461.018	80.62
461.238	83.62
461.458	89.62
461.678	69.62
461.898	88.62
462.118	92.62
462.338	93.62
462.558	78.62
462.777	74.62
462.997	86.62
463.217	69.62
463.437	94.62
463.657	84.62
463.876	79.62
464.096	88.62
464.316	88.62
464.536	86.62
464.755	81.62
464.975	98.62
465.195	137.62
465.414	148.62
465.634	85.62
465.854	71.62
466.073	89.62
466.293	88.62
466.512	85.62
466.732	88.62
466.951	78.62
467.171	85.62
467.391	94.62
467.61	95.62
467.829	95.62
468.049	90.62
468.268	91.62
468.488	80.62
468.707	80.62
468.927	93.62
469.146	90.62
469.365	92.62
469.585	94.62
469.804	73.62
470.023	80.62
470.243	88.62
470.462	96.62
470.681	86.62
470.901	87.62
471.12	92.62
471.339	99.62
471.558	69.62
471.777	93.62
471.997	86.62
472.216	100.62
472.435	102.62
472.654	82.62
472.873	72.62
473.092	90.62
473.311	87.62
473.53	89.62
473.749	87.62
473.968	104.62
474.187	93.62
474.406	90.62
474.625	82.62
474.844	89.62
475.063	99.62
475.282	86.62
475.501	93.62
475.72	88.62
475.939	85.62
476.158	68.62
476.377	78.62
476.596	89.62
476.814	91.62
477.033	105.62
477.252	85.62
477.471	76.62
477.69	80.62
477.908	74.62
478.127	86.62
478.346	84.62
478.564	87.62
478.783	79.62
479.002	76.62
479.22	77.62
479.439	97.62
479.658	106.62
479.876	89.62
480.095	79.62
480.313	81.62
480.532	88.62
480.751	87.62
480.969	98.62
481.188	105.62
481.406	73.62
481.624	86.62
481.843	69.62
482.061	89.62
482.28	79.62
482.498	87.62
482.717	76.62
482.935	92.62
483.153	86.62
483.372	92.62
483.59	83.62
483.808	87.62
484.027	89.62
484.245	92.62
484.463	80.62
484.681	82.62
484.9	89.62
485.118	92.62
485.336	113.62
485.554	107.62
485.772	99.62
485.99	92.62
486.209	96.62
486.427	110.62
486.645	99.62
486.863	88.62
487.081	93.62
487.299	107.62
487.517	83.62
487.735	90.62
487.953	98.62
488.171	97.62
488.389	90.62
488.607	96.62
488.825	89.62
489.043	85.62
489.261	97.62
489.479	83.62
489.696	91.62
489.914	95.62
490.132	77.62
490.35	81.62
490.568	82.62
490.786	83.62
491.003	84.62
491.221	81.62
491.439	90.62
491.657	83.62
491.874	94.62
492.092	105.62
492.31	95.62
492.527	81.62
492.745	97.62
492.963	82.62
493.18	91.62
493.398	92.62
493.615	85.62
493.833	99.62
494.05	87.62
494.268	91.62
494.485	85.62
494.703	92.62
494.92	95.62
495.138	89.62
495.355	83.62
495.573	86.62
495.79	101.62
496.008	93.62
496.225	82.62
496.442	85.62
496.66	86.62
496.877	87.62
497.094	99.62
497.312	94.62
497.529	78.62
497.746	94.62
497.963	102.62
498.181	97.62
498.398	104.62
498.615	98.62
498.832	96.62
499.049	96.62
499.267	92.62
499.484	88.62
499.701	87.62
499.918	83.62
500.135	84.62
500.352	82.62
500.569	88.62
500.786	92.62
501.003	81.62
501.22	85.62
501.437	76.62
501.654	89.62
501.871	93.62
502.088	102.62
502.305	84.62
502.522	74.62
502.739	104.62
502.956	84.62
503.172	97.62
503.389	93.62
503.606	113.62
503.823	87.62
504.04	74.62
504.256	92.62
504.473	87.62
504.69	92.62
504.907	94.62
505.123	91.62
505.34	82.62
505.557	84.62
505.773	84.62
505.99	86.62
506.207	93.62
506.423	85.62
506.64	88.62
506.856	97.62
507.073	99.62
507.289	98.62
507.506	98.62
507.722	123.62
507.939	91.62
508.155	78.62
508.372	87.62
508.588	84.62
508.805	93.62
509.021	83.62
509.238	89.62
509.454	96.62
509.67	102.62
509.887	104.62
510.103	134.62
510.319	184.62
510.536	626.62
510.752	1933.62
510.968	543.62
511.184	129.62
511.401	97.62
511.617	91.62
511.833	89.62
512.049	83.62
512.265	84.62
512.481	94.62
512.698	97.62
512.914	91.62
513.13	86.62
513.346	85.62
513.562	80.62
513.778	84.62
513.994	83.62
514.21	95.62
514.426	108.62
514.642	124.62
514.858	107.62
515.074	131.62
515.29	355.62
515.506	1110.62
515.721	411.62
515.937	154.62
516.153	99.62
516.369	108.62
516.585	85.62
516.801	91.62
517.016	95.62
517.232	83.62
517.448	98.62
517.664	86.62
