Data from Uncirc_2002_H10_HRD10591_00020.txt Node
Date: Wed Jan 03 10:39:45 EST 2024
User: Yrep
Spectrometer: HR+D1059
Trigger mode: 1
Integration Time (sec): 1.000000E-1
Scans to average: 1
Electric dark correction enabled: true
Nonlinearity correction enabled: false
Boxcar width: 0
XAxis mode: Wavelengths
Number of Pixels in Spectrum: 2048
>>>>>Begin Spectral Data<<<<<
223.165	-13.69
223.4	-13.69
223.635	-13.69
223.869	-9.69
224.104	-28.69
224.338	0.31
224.573	-13.69
224.808	-8.69
225.042	-7.69
225.277	-11.69
225.511	-7.69
225.746	9.31
225.98	-4.69
226.215	3.31
226.449	17.31
226.683	18.31
226.918	27.31
227.152	30.31
227.387	22.31
227.621	51.31
227.856	41.31
228.09	37.31
228.324	56.31
228.559	54.31
228.793	46.31
229.027	57.31
229.262	65.31
229.496	84.31
229.73	84.31
229.964	65.31
230.199	84.31
230.433	62.31
230.667	72.31
230.901	80.31
231.136	63.31
231.37	84.31
231.604	67.31
231.838	74.31
232.072	67.31
232.306	90.31
232.541	73.31
232.775	75.31
233.009	78.31
233.243	76.31
233.477	70.31
233.711	97.31
233.945	87.31
234.179	75.31
234.413	82.31
234.647	72.31
234.881	81.31
235.115	83.31
235.349	67.31
235.583	83.31
235.817	73.31
236.051	68.31
236.285	72.31
236.519	71.31
236.753	70.31
236.987	87.31
237.221	91.31
237.455	77.31
237.689	88.31
237.922	82.31
238.156	83.31
238.39	73.31
238.624	78.31
238.858	70.31
239.091	79.31
239.325	82.31
239.559	78.31
239.793	86.31
240.027	73.31
240.26	91.31
240.494	73.31
240.728	80.31
240.961	76.31
241.195	74.31
241.429	95.31
241.662	74.31
241.896	76.31
242.13	74.31
242.363	72.31
242.597	73.31
242.83	72.31
243.064	74.31
243.298	78.31
243.531	69.31
243.765	72.31
243.998	79.31
244.232	69.31
244.465	80.31
244.699	77.31
244.932	65.31
245.166	81.31
245.399	78.31
245.633	69.31
245.866	87.31
246.099	78.31
246.333	78.31
246.566	80.31
246.8	60.31
247.033	81.31
247.266	71.31
247.5	83.31
247.733	73.31
247.966	68.31
248.2	83.31
248.433	87.31
248.666	77.31
248.899	74.31
249.133	93.31
249.366	101.31
249.599	92.31
249.832	78.31
250.066	71.31
250.299	77.31
250.532	56.31
250.765	77.31
250.998	87.31
251.231	79.31
251.465	65.31
251.698	80.31
251.931	78.31
252.164	75.31
252.397	78.31
252.63	83.31
252.863	82.31
253.096	80.31
253.329	81.31
253.562	74.31
253.795	87.31
254.028	81.31
254.261	87.31
254.494	68.31
254.727	84.31
254.96	76.31
255.193	75.31
255.426	71.31
255.659	84.31
255.892	97.31
256.124	66.31
256.357	79.31
256.59	84.31
256.823	66.31
257.056	74.31
257.289	97.31
257.521	84.31
257.754	78.31
257.987	85.31
258.22	87.31
258.452	90.31
258.685	88.31
258.918	71.31
259.151	87.31
259.383	77.31
259.616	70.31
259.849	87.31
260.081	81.31
260.314	85.31
260.547	88.31
260.779	81.31
261.012	81.31
261.244	87.31
261.477	96.31
261.71	96.31
261.942	107.31
262.175	100.31
262.407	91.31
262.64	74.31
262.872	70.31
263.105	68.31
263.337	89.31
263.57	92.31
263.802	86.31
264.035	78.31
264.267	87.31
264.499	85.31
264.732	72.31
264.964	71.31
265.197	73.31
265.429	80.31
265.661	80.31
265.894	79.31
266.126	85.31
266.358	79.31
266.591	76.31
266.823	74.31
267.055	74.31
267.287	79.31
267.52	80.31
267.752	91.31
267.984	83.31
268.216	83.31
268.448	93.31
268.681	83.31
268.913	85.31
269.145	87.31
269.377	79.31
269.609	77.31
269.841	77.31
270.073	81.31
270.306	94.31
270.538	98.31
270.77	93.31
271.002	78.31
271.234	80.31
271.466	87.31
271.698	83.31
271.93	79.31
272.162	83.31
272.394	92.31
272.626	84.31
272.858	83.31
273.09	88.31
273.322	82.31
273.553	91.31
273.785	81.31
274.017	65.31
274.249	87.31
274.481	75.31
274.713	83.31
274.945	76.31
275.176	77.31
275.408	74.31
275.64	79.31
275.872	90.31
276.104	91.31
276.335	89.31
276.567	80.31
276.799	103.31
277.031	93.31
277.262	80.31
277.494	98.31
277.726	82.31
277.957	86.31
278.189	84.31
278.421	90.31
278.652	95.31
278.884	84.31
279.115	91.31
279.347	88.31
279.579	83.31
279.81	97.31
280.042	99.31
280.273	95.31
280.505	83.31
280.736	84.31
280.968	88.31
281.199	97.31
281.431	72.31
281.662	90.31
281.894	75.31
282.125	86.31
282.356	103.31
282.588	116.31
282.819	108.31
283.051	88.31
283.282	82.31
283.513	100.31
283.745	91.31
283.976	97.31
284.207	100.31
284.439	96.31
284.67	83.31
284.901	96.31
285.132	82.31
285.364	92.31
285.595	82.31
285.826	102.31
286.057	84.31
286.288	96.31
286.52	80.31
286.751	83.31
286.982	87.31
287.213	97.31
287.444	84.31
287.675	87.31
287.906	76.31
288.138	84.31
288.369	92.31
288.6	78.31
288.831	78.31
289.062	91.31
289.293	79.31
289.524	88.31
289.755	81.31
289.986	84.31
290.217	81.31
290.448	82.31
290.679	78.31
290.91	81.31
291.141	89.31
291.371	97.31
291.602	69.31
291.833	92.31
292.064	103.31
292.295	78.31
292.526	80.31
292.757	86.31
292.987	92.31
293.218	89.31
293.449	85.31
293.68	76.31
293.91	105.31
294.141	96.31
294.372	102.31
294.603	91.31
294.833	97.31
295.064	84.31
295.295	96.31
295.525	80.31
295.756	85.31
295.987	92.31
296.217	126.31
296.448	115.31
296.679	80.31
296.909	86.31
297.14	86.31
297.37	84.31
297.601	78.31
297.831	90.31
298.062	83.31
298.292	74.31
298.523	92.31
298.753	86.31
298.984	82.31
299.214	82.31
299.445	112.31
299.675	90.31
299.905	98.31
300.136	78.31
300.366	92.31
300.597	93.31
300.827	93.31
301.057	87.31
301.288	96.31
301.518	83.31
301.748	68.31
301.979	102.31
302.209	90.31
302.439	84.31
302.669	84.31
302.9	88.31
303.13	84.31
303.36	103.31
303.59	102.31
303.82	100.31
304.051	78.31
304.281	88.31
304.511	96.31
304.741	84.31
304.971	86.31
305.201	93.31
305.431	100.31
305.661	91.31
305.891	87.31
306.121	105.31
306.352	102.31
306.582	110.31
306.812	83.31
307.042	89.31
307.272	84.31
307.502	80.31
307.731	81.31
307.961	92.31
308.191	89.31
308.421	96.31
308.651	92.31
308.881	88.31
309.111	81.31
309.341	95.31
309.571	83.31
309.8	94.31
310.03	82.31
310.26	95.31
310.49	104.31
310.72	92.31
310.949	95.31
311.179	90.31
311.409	91.31
311.639	96.31
311.868	100.31
312.098	105.31
312.328	110.31
312.557	94.31
312.787	95.31
313.017	97.31
313.246	90.31
313.476	81.31
313.706	89.31
313.935	104.31
314.165	94.31
314.394	101.31
314.624	73.31
314.853	92.31
315.083	98.31
315.312	80.31
315.542	89.31
315.771	88.31
316.001	89.31
316.23	100.31
316.46	92.31
316.689	99.31
316.919	80.31
317.148	83.31
317.377	84.31
317.607	107.31
317.836	82.31
318.065	94.31
318.295	90.31
318.524	89.31
318.753	91.31
318.983	96.31
319.212	88.31
319.441	98.31
319.67	95.31
319.9	98.31
320.129	83.31
320.358	92.31
320.587	90.31
320.816	97.31
321.046	93.31
321.275	91.31
321.504	85.31
321.733	110.31
321.962	97.31
322.191	95.31
322.42	100.31
322.649	106.31
322.878	99.31
323.108	113.31
323.337	106.31
323.566	112.31
323.795	140.31
324.024	171.31
324.253	323.31
324.482	670.31
324.71	1333.31
324.939	1727.31
325.168	635.31
325.397	215.31
325.626	126.31
325.855	113.31
326.084	110.31
326.313	128.31
326.542	147.31
326.77	184.31
326.999	374.31
327.228	769.31
327.457	1385.31
327.686	1064.31
327.914	314.31
328.143	177.31
328.372	123.31
328.6	117.31
328.829	116.31
329.058	121.31
329.287	112.31
329.515	99.31
329.744	92.31
329.972	92.31
330.201	80.31
330.43	97.31
330.658	117.31
330.887	129.31
331.115	122.31
331.344	85.31
331.572	83.31
331.801	104.31
332.03	88.31
332.258	93.31
332.486	98.31
332.715	93.31
332.943	91.31
333.172	97.31
333.4	97.31
333.629	107.31
333.857	110.31
334.085	100.31
334.314	112.31
334.542	104.31
334.771	103.31
334.999	100.31
335.227	95.31
335.455	95.31
335.684	87.31
335.912	101.31
336.14	104.31
336.369	98.31
336.597	90.31
336.825	100.31
337.053	94.31
337.281	88.31
337.51	98.31
337.738	95.31
337.966	97.31
338.194	90.31
338.422	105.31
338.65	91.31
338.878	92.31
339.106	88.31
339.334	98.31
339.562	91.31
339.79	92.31
340.018	87.31
340.246	97.31
340.474	98.31
340.702	92.31
340.93	78.31
341.158	96.31
341.386	92.31
341.614	74.31
341.842	96.31
342.07	87.31
342.298	99.31
342.526	88.31
342.754	98.31
342.981	85.31
343.209	83.31
343.437	88.31
343.665	87.31
343.893	89.31
344.12	90.31
344.348	95.31
344.576	77.31
344.804	92.31
345.031	90.31
345.259	90.31
345.487	95.31
345.714	89.31
345.942	94.31
346.17	88.31
346.397	90.31
346.625	91.31
346.853	90.31
347.08	98.31
347.308	96.31
347.535	99.31
347.763	91.31
347.99	90.31
348.218	112.31
348.445	97.31
348.673	91.31
348.9	91.31
349.128	88.31
349.355	101.31
349.583	94.31
349.81	83.31
350.037	83.31
350.265	94.31
350.492	97.31
350.72	90.31
350.947	99.31
351.174	105.31
351.402	118.31
351.629	90.31
351.856	98.31
352.083	92.31
352.311	93.31
352.538	104.31
352.765	103.31
352.992	107.31
353.22	105.31
353.447	91.31
353.674	96.31
353.901	101.31
354.128	91.31
354.355	97.31
354.583	96.31
354.81	96.31
355.037	111.31
355.264	89.31
355.491	96.31
355.718	88.31
355.945	78.31
356.172	102.31
356.399	94.31
356.626	91.31
356.853	98.31
357.08	96.31
357.307	92.31
357.534	103.31
357.761	92.31
357.988	99.31
358.215	100.31
358.441	87.31
358.668	98.31
358.895	89.31
359.122	98.31
359.349	83.31
359.576	106.31
359.802	88.31
360.029	103.31
360.256	102.31
360.483	101.31
360.709	83.31
360.936	91.31
361.163	87.31
361.39	94.31
361.616	101.31
361.843	86.31
362.07	95.31
362.296	87.31
362.523	84.31
362.749	97.31
362.976	87.31
363.203	87.31
363.429	103.31
363.656	89.31
363.882	83.31
364.109	86.31
364.335	92.31
364.562	85.31
364.788	87.31
365.015	88.31
365.241	100.31
365.468	97.31
365.694	100.31
365.92	88.31
366.147	92.31
366.373	82.31
366.599	90.31
366.826	74.31
367.052	99.31
367.278	84.31
367.505	94.31
367.731	90.31
367.957	90.31
368.184	76.31
368.41	96.31
368.636	105.31
368.862	121.31
369.089	98.31
369.315	97.31
369.541	108.31
369.767	88.31
369.993	101.31
370.219	84.31
370.445	91.31
370.672	88.31
370.898	84.31
371.124	72.31
371.35	88.31
371.576	85.31
371.802	85.31
372.028	84.31
372.254	87.31
372.48	86.31
372.706	103.31
372.932	94.31
373.158	93.31
373.384	87.31
373.61	96.31
373.835	88.31
374.061	88.31
374.287	87.31
374.513	83.31
374.739	89.31
374.965	86.31
375.191	73.31
375.416	81.31
375.642	71.31
375.868	93.31
376.094	78.31
376.319	80.31
376.545	85.31
376.771	77.31
376.997	87.31
377.222	83.31
377.448	69.31
377.674	81.31
377.899	88.31
378.125	81.31
378.35	85.31
378.576	79.31
378.802	80.31
379.027	101.31
379.253	100.31
379.478	95.31
379.704	90.31
379.929	99.31
380.155	92.31
380.38	98.31
380.606	89.31
380.831	104.31
381.057	98.31
381.282	88.31
381.507	102.31
381.733	93.31
381.958	82.31
382.184	97.31
382.409	100.31
382.634	102.31
382.86	114.31
383.085	90.31
383.31	108.31
383.535	109.31
383.761	100.31
383.986	96.31
384.211	96.31
384.436	101.31
384.662	106.31
384.887	94.31
385.112	98.31
385.337	93.31
385.562	115.31
385.787	100.31
386.013	119.31
386.238	105.31
386.463	98.31
386.688	94.31
386.913	107.31
387.138	94.31
387.363	92.31
387.588	103.31
387.813	100.31
388.038	113.31
388.263	96.31
388.488	110.31
388.713	91.31
388.938	104.31
389.163	93.31
389.387	95.31
389.612	106.31
389.837	104.31
390.062	91.31
390.287	99.31
390.512	88.31
390.736	88.31
390.961	88.31
391.186	86.31
391.411	95.31
391.636	97.31
391.86	82.31
392.085	77.31
392.31	88.31
392.534	76.31
392.759	96.31
392.984	88.31
393.208	90.31
393.433	116.31
393.658	102.31
393.882	87.31
394.107	90.31
394.331	79.31
394.556	84.31
394.78	87.31
395.005	94.31
395.229	85.31
395.454	92.31
395.678	84.31
395.903	83.31
396.127	90.31
396.352	89.31
396.576	102.31
396.801	84.31
397.025	94.31
397.249	95.31
397.474	90.31
397.698	76.31
397.922	84.31
398.147	94.31
398.371	88.31
398.595	97.31
398.82	76.31
399.044	90.31
399.268	90.31
399.492	79.31
399.717	95.31
399.941	94.31
400.165	101.31
400.389	79.31
400.613	91.31
400.837	74.31
401.062	71.31
401.286	83.31
401.51	66.31
401.734	89.31
401.958	99.31
402.182	109.31
402.406	124.31
402.63	105.31
402.854	85.31
403.078	92.31
403.302	104.31
403.526	93.31
403.75	90.31
403.974	81.31
404.198	99.31
404.422	87.31
404.645	100.31
404.869	91.31
405.093	90.31
405.317	90.31
405.541	89.31
405.765	95.31
405.988	115.31
406.212	151.31
406.436	193.31
406.66	124.31
406.883	95.31
407.107	99.31
407.331	80.31
407.555	102.31
407.778	86.31
408.002	91.31
408.226	89.31
408.449	90.31
408.673	99.31
408.896	95.31
409.12	94.31
409.344	96.31
409.567	91.31
409.791	102.31
410.014	94.31
410.238	110.31
410.461	89.31
410.685	98.31
410.908	85.31
411.132	94.31
411.355	86.31
411.578	99.31
411.802	91.31
412.025	90.31
412.249	98.31
412.472	74.31
412.695	90.31
412.919	99.31
413.142	98.31
413.365	87.31
413.589	83.31
413.812	103.31
414.035	96.31
414.258	105.31
414.482	96.31
414.705	79.31
414.928	74.31
415.151	104.31
415.374	82.31
415.597	93.31
415.821	89.31
416.044	86.31
416.267	90.31
416.49	79.31
416.713	88.31
416.936	88.31
417.159	90.31
417.382	90.31
417.605	95.31
417.828	98.31
418.051	99.31
418.274	99.31
418.497	78.31
418.72	73.31
418.943	95.31
419.166	91.31
419.389	90.31
419.611	93.31
419.834	86.31
420.057	90.31
420.28	91.31
420.503	89.31
420.726	98.31
420.948	92.31
421.171	94.31
421.394	91.31
421.617	89.31
421.839	97.31
422.062	89.31
422.285	93.31
422.507	99.31
422.73	98.31
422.953	99.31
423.175	88.31
423.398	90.31
423.621	85.31
423.843	90.31
424.066	86.31
424.288	84.31
424.511	98.31
424.733	89.31
424.956	98.31
425.178	112.31
425.401	99.31
425.623	110.31
425.846	97.31
426.068	91.31
426.291	94.31
426.513	86.31
426.735	75.31
426.958	87.31
427.18	101.31
427.402	132.31
427.625	156.31
427.847	119.31
428.069	92.31
428.292	101.31
428.514	87.31
428.736	83.31
428.958	80.31
429.181	84.31
429.403	102.31
429.625	86.31
429.847	90.31
430.069	101.31
430.292	94.31
430.514	101.31
430.736	86.31
430.958	98.31
431.18	81.31
431.402	67.31
431.624	83.31
431.846	92.31
432.068	82.31
432.29	85.31
432.512	101.31
432.734	90.31
432.956	95.31
433.178	91.31
433.4	86.31
433.622	87.31
433.844	87.31
434.066	88.31
434.287	96.31
434.509	90.31
434.731	90.31
434.953	77.31
435.175	89.31
435.397	88.31
435.618	89.31
435.84	86.31
436.062	108.31
436.284	99.31
436.505	88.31
436.727	101.31
436.949	89.31
437.17	94.31
437.392	92.31
437.614	92.31
437.835	110.31
438.057	112.31
438.278	101.31
438.5	92.31
438.721	117.31
438.943	89.31
439.165	94.31
439.386	89.31
439.608	75.31
439.829	88.31
440.05	115.31
440.272	132.31
440.493	100.31
440.715	95.31
440.936	93.31
441.158	98.31
441.379	91.31
441.6	92.31
441.822	87.31
442.043	95.31
442.264	99.31
442.486	111.31
442.707	75.31
442.928	106.31
443.149	121.31
443.371	112.31
443.592	99.31
443.813	117.31
444.034	87.31
444.255	98.31
444.476	78.31
444.698	92.31
444.919	88.31
445.14	133.31
445.361	125.31
445.582	115.31
445.803	117.31
446.024	128.31
446.245	126.31
446.466	101.31
446.687	87.31
446.908	90.31
447.129	87.31
447.35	84.31
447.571	86.31
447.792	87.31
448.013	87.31
448.234	89.31
448.455	100.31
448.675	110.31
448.896	115.31
449.117	98.31
449.338	112.31
449.559	119.31
449.779	122.31
450	89.31
450.221	85.31
450.442	90.31
450.662	83.31
450.883	103.31
451.104	102.31
451.324	104.31
451.545	91.31
451.766	97.31
451.986	89.31
452.207	95.31
452.428	87.31
452.648	88.31
452.869	95.31
453.089	108.31
453.31	90.31
453.53	80.31
453.751	84.31
453.971	96.31
454.192	106.31
454.412	80.31
454.633	83.31
454.853	80.31
455.073	84.31
455.294	74.31
455.514	99.31
455.734	81.31
455.955	96.31
456.175	92.31
456.395	93.31
456.616	80.31
456.836	89.31
457.056	89.31
457.276	73.31
457.497	95.31
457.717	88.31
457.937	90.31
458.157	74.31
458.377	98.31
458.598	100.31
458.818	129.31
459.038	127.31
459.258	90.31
459.478	82.31
459.698	75.31
459.918	89.31
460.138	94.31
460.358	103.31
460.578	80.31
460.798	91.31
461.018	91.31
461.238	77.31
461.458	86.31
461.678	76.31
461.898	79.31
462.118	84.31
462.338	91.31
462.558	77.31
462.777	87.31
462.997	91.31
463.217	76.31
463.437	71.31
463.657	81.31
463.876	88.31
464.096	98.31
464.316	92.31
464.536	98.31
464.755	98.31
464.975	101.31
465.195	128.31
465.414	147.31
465.634	93.31
465.854	91.31
466.073	101.31
466.293	80.31
466.512	82.31
466.732	83.31
466.951	102.31
467.171	82.31
467.391	96.31
467.61	99.31
467.829	95.31
468.049	83.31
468.268	97.31
468.488	97.31
468.707	85.31
468.927	88.31
469.146	89.31
469.365	87.31
469.585	86.31
469.804	98.31
470.023	97.31
470.243	89.31
470.462	102.31
470.681	76.31
470.901	89.31
471.12	83.31
471.339	89.31
471.558	64.31
471.777	88.31
471.997	103.31
472.216	94.31
472.435	84.31
472.654	79.31
472.873	87.31
473.092	91.31
473.311	91.31
473.53	75.31
473.749	89.31
473.968	97.31
474.187	96.31
474.406	95.31
474.625	79.31
474.844	88.31
475.063	86.31
475.282	84.31
475.501	92.31
475.72	103.31
475.939	86.31
476.158	89.31
476.377	94.31
476.596	103.31
476.814	88.31
477.033	90.31
477.252	94.31
477.471	79.31
477.69	97.31
477.908	103.31
478.127	91.31
478.346	92.31
478.564	95.31
478.783	80.31
479.002	93.31
479.22	98.31
479.439	102.31
479.658	95.31
479.876	92.31
480.095	87.31
480.313	109.31
480.532	82.31
480.751	87.31
480.969	100.31
481.188	111.31
481.406	88.31
481.624	110.31
481.843	98.31
482.061	91.31
482.28	88.31
482.498	82.31
482.717	86.31
482.935	96.31
483.153	84.31
483.372	93.31
483.59	89.31
483.808	96.31
484.027	90.31
484.245	99.31
484.463	98.31
484.681	91.31
484.9	95.31
485.118	82.31
485.336	88.31
485.554	82.31
485.772	88.31
485.99	106.31
486.209	109.31
486.427	101.31
486.645	95.31
486.863	107.31
487.081	92.31
487.299	96.31
487.517	91.31
487.735	95.31
487.953	101.31
488.171	106.31
488.389	96.31
488.607	83.31
488.825	88.31
489.043	88.31
489.261	86.31
489.479	92.31
489.696	87.31
489.914	83.31
490.132	91.31
490.35	82.31
490.568	82.31
490.786	95.31
491.003	92.31
491.221	85.31
491.439	74.31
491.657	88.31
491.874	98.31
492.092	86.31
492.31	92.31
492.527	90.31
492.745	90.31
492.963	97.31
493.18	80.31
493.398	89.31
493.615	87.31
493.833	88.31
494.05	72.31
494.268	95.31
494.485	90.31
494.703	90.31
494.92	82.31
495.138	83.31
495.355	85.31
495.573	90.31
495.79	93.31
496.008	102.31
496.225	83.31
496.442	99.31
496.66	96.31
496.877	84.31
497.094	89.31
497.312	79.31
497.529	100.31
497.746	81.31
497.963	103.31
498.181	91.31
498.398	100.31
498.615	110.31
498.832	105.31
499.049	95.31
499.267	93.31
499.484	83.31
499.701	98.31
499.918	92.31
500.135	97.31
500.352	100.31
500.569	102.31
500.786	71.31
501.003	100.31
501.22	103.31
501.437	102.31
501.654	94.31
501.871	95.31
502.088	97.31
502.305	89.31
502.522	91.31
502.739	82.31
502.956	91.31
503.172	85.31
503.389	89.31
503.606	117.31
503.823	103.31
504.04	94.31
504.256	85.31
504.473	92.31
504.69	74.31
504.907	89.31
505.123	85.31
505.34	96.31
505.557	95.31
505.773	85.31
505.99	90.31
506.207	83.31
506.423	97.31
506.64	96.31
506.856	95.31
507.073	77.31
507.289	94.31
507.506	94.31
507.722	100.31
507.939	97.31
508.155	100.31
508.372	92.31
508.588	90.31
508.805	94.31
509.021	87.31
509.238	90.31
509.454	98.31
509.67	98.31
509.887	94.31
510.103	128.31
510.319	176.31
510.536	595.31
510.752	1875.31
510.968	536.31
511.184	134.31
511.401	107.31
511.617	84.31
511.833	96.31
512.049	91.31
512.265	96.31
512.481	98.31
512.698	82.31
512.914	83.31
513.13	97.31
513.346	97.31
513.562	104.31
513.778	87.31
513.994	101.31
514.21	98.31
514.426	117.31
514.642	122.31
514.858	126.31
515.074	144.31
515.29	354.31
515.506	1081.31
515.721	432.31
515.937	144.31
516.153	101.31
516.369	101.31
516.585	89.31
