Data from Uncirc_2002_H10_HRD10591_00050.txt Node
Date: Wed Jan 03 10:39:51 EST 2024
User: Yrep
Spectrometer: HR+D1059
Trigger mode: 1
Integration Time (sec): 1.000000E-1
Scans to average: 1
Electric dark correction enabled: true
Nonlinearity correction enabled: false
Boxcar width: 0
XAxis mode: Wavelengths
Number of Pixels in Spectrum: 2048
>>>>>Begin Spectral Data<<<<<
223.165	-24.44
223.4	-24.44
223.635	-24.44
223.869	-29.44
224.104	-5.44
224.338	-30.44
224.573	-6.44
224.808	-9.44
225.042	-6.44
225.277	-4.44
225.511	0.56
225.746	1.56
225.98	17.56
226.215	15.56
226.449	23.56
226.683	7.56
226.918	30.56
227.152	19.56
227.387	34.56
227.621	26.56
227.856	30.56
228.09	45.56
228.324	50.56
228.559	59.56
228.793	64.56
229.027	69.56
229.262	61.56
229.496	69.56
229.73	73.56
229.964	73.56
230.199	87.56
230.433	70.56
230.667	71.56
230.901	70.56
231.136	94.56
231.37	75.56
231.604	76.56
231.838	81.56
232.072	80.56
232.306	82.56
232.541	81.56
232.775	82.56
233.009	92.56
233.243	91.56
233.477	81.56
233.711	78.56
233.945	68.56
234.179	78.56
234.413	69.56
234.647	80.56
234.881	75.56
235.115	72.56
235.349	84.56
235.583	75.56
235.817	80.56
236.051	65.56
236.285	78.56
236.519	80.56
236.753	90.56
236.987	84.56
237.221	80.56
237.455	90.56
237.689	87.56
237.922	78.56
238.156	82.56
238.39	70.56
238.624	73.56
238.858	80.56
239.091	81.56
239.325	81.56
239.559	72.56
239.793	82.56
240.027	92.56
240.26	73.56
240.494	84.56
240.728	71.56
240.961	81.56
241.195	86.56
241.429	73.56
241.662	70.56
241.896	76.56
242.13	69.56
242.363	76.56
242.597	76.56
242.83	88.56
243.064	80.56
243.298	81.56
243.531	77.56
243.765	68.56
243.998	73.56
244.232	86.56
244.465	92.56
244.699	74.56
244.932	90.56
245.166	86.56
245.399	75.56
245.633	89.56
245.866	80.56
246.099	86.56
246.333	79.56
246.566	77.56
246.8	73.56
247.033	86.56
247.266	67.56
247.5	88.56
247.733	72.56
247.966	75.56
248.2	77.56
248.433	83.56
248.666	88.56
248.899	89.56
249.133	71.56
249.366	80.56
249.599	94.56
249.832	65.56
250.066	57.56
250.299	89.56
250.532	78.56
250.765	84.56
250.998	73.56
251.231	67.56
251.465	78.56
251.698	77.56
251.931	80.56
252.164	70.56
252.397	65.56
252.63	92.56
252.863	78.56
253.096	67.56
253.329	92.56
253.562	76.56
253.795	84.56
254.028	96.56
254.261	71.56
254.494	81.56
254.727	94.56
254.96	79.56
255.193	72.56
255.426	72.56
255.659	87.56
255.892	70.56
256.124	79.56
256.357	73.56
256.59	77.56
256.823	67.56
257.056	93.56
257.289	85.56
257.521	90.56
257.754	74.56
257.987	78.56
258.22	88.56
258.452	81.56
258.685	83.56
258.918	89.56
259.151	82.56
259.383	86.56
259.616	78.56
259.849	76.56
260.081	80.56
260.314	82.56
260.547	78.56
260.779	77.56
261.012	86.56
261.244	93.56
261.477	93.56
261.71	99.56
261.942	111.56
262.175	106.56
262.407	98.56
262.64	89.56
262.872	76.56
263.105	81.56
263.337	56.56
263.57	74.56
263.802	77.56
264.035	74.56
264.267	80.56
264.499	84.56
264.732	84.56
264.964	84.56
265.197	81.56
265.429	105.56
265.661	76.56
265.894	88.56
266.126	81.56
266.358	78.56
266.591	78.56
266.823	89.56
267.055	98.56
267.287	74.56
267.52	85.56
267.752	90.56
267.984	78.56
268.216	86.56
268.448	79.56
268.681	88.56
268.913	88.56
269.145	88.56
269.377	85.56
269.609	87.56
269.841	88.56
270.073	89.56
270.306	87.56
270.538	73.56
270.77	72.56
271.002	84.56
271.234	87.56
271.466	82.56
271.698	90.56
271.93	84.56
272.162	89.56
272.394	93.56
272.626	88.56
272.858	78.56
273.09	83.56
273.322	87.56
273.553	89.56
273.785	88.56
274.017	90.56
274.249	82.56
274.481	87.56
274.713	87.56
274.945	94.56
275.176	92.56
275.408	76.56
275.64	76.56
275.872	70.56
276.104	83.56
276.335	84.56
276.567	89.56
276.799	101.56
277.031	91.56
277.262	96.56
277.494	83.56
277.726	89.56
277.957	78.56
278.189	75.56
278.421	86.56
278.652	91.56
278.884	89.56
279.115	82.56
279.347	79.56
279.579	97.56
279.81	83.56
280.042	76.56
280.273	87.56
280.505	87.56
280.736	85.56
280.968	83.56
281.199	95.56
281.431	80.56
281.662	92.56
281.894	83.56
282.125	91.56
282.356	92.56
282.588	121.56
282.819	112.56
283.051	93.56
283.282	88.56
283.513	89.56
283.745	86.56
283.976	94.56
284.207	65.56
284.439	101.56
284.67	79.56
284.901	80.56
285.132	71.56
285.364	91.56
285.595	97.56
285.826	92.56
286.057	87.56
286.288	66.56
286.52	82.56
286.751	76.56
286.982	90.56
287.213	84.56
287.444	78.56
287.675	86.56
287.906	80.56
288.138	84.56
288.369	90.56
288.6	78.56
288.831	87.56
289.062	87.56
289.293	88.56
289.524	84.56
289.755	71.56
289.986	96.56
290.217	97.56
290.448	76.56
290.679	84.56
290.91	89.56
291.141	83.56
291.371	97.56
291.602	90.56
291.833	78.56
292.064	85.56
292.295	91.56
292.526	86.56
292.757	88.56
292.987	85.56
293.218	82.56
293.449	74.56
293.68	87.56
293.91	79.56
294.141	107.56
294.372	88.56
294.603	83.56
294.833	85.56
295.064	100.56
295.295	97.56
295.525	90.56
295.756	93.56
295.987	111.56
296.217	112.56
296.448	118.56
296.679	81.56
296.909	97.56
297.14	73.56
297.37	87.56
297.601	78.56
297.831	86.56
298.062	79.56
298.292	74.56
298.523	94.56
298.753	85.56
298.984	82.56
299.214	85.56
299.445	91.56
299.675	88.56
299.905	100.56
300.136	89.56
300.366	84.56
300.597	77.56
300.827	85.56
301.057	106.56
301.288	92.56
301.518	94.56
301.748	87.56
301.979	103.56
302.209	96.56
302.439	106.56
302.669	90.56
302.9	82.56
303.13	84.56
303.36	89.56
303.59	98.56
303.82	90.56
304.051	87.56
304.281	82.56
304.511	89.56
304.741	82.56
304.971	91.56
305.201	94.56
305.431	81.56
305.661	88.56
305.891	87.56
306.121	100.56
306.352	93.56
306.582	92.56
306.812	88.56
307.042	89.56
307.272	98.56
307.502	84.56
307.731	80.56
307.961	87.56
308.191	85.56
308.421	82.56
308.651	88.56
308.881	79.56
309.111	91.56
309.341	109.56
309.571	95.56
309.8	109.56
310.03	94.56
310.26	99.56
310.49	92.56
310.72	83.56
310.949	80.56
311.179	96.56
311.409	70.56
311.639	84.56
311.868	100.56
312.098	93.56
312.328	76.56
312.557	89.56
312.787	94.56
313.017	94.56
313.246	92.56
313.476	95.56
313.706	87.56
313.935	91.56
314.165	96.56
314.394	84.56
314.624	90.56
314.853	105.56
315.083	85.56
315.312	95.56
315.542	95.56
315.771	97.56
316.001	95.56
316.23	72.56
316.46	85.56
316.689	87.56
316.919	90.56
317.148	87.56
317.377	88.56
317.607	92.56
317.836	81.56
318.065	85.56
318.295	87.56
318.524	93.56
318.753	77.56
318.983	93.56
319.212	106.56
319.441	103.56
319.67	88.56
319.9	82.56
320.129	81.56
320.358	101.56
320.587	96.56
320.816	97.56
321.046	81.56
321.275	86.56
321.504	80.56
321.733	88.56
321.962	88.56
322.191	92.56
322.42	100.56
322.649	107.56
322.878	105.56
323.108	100.56
323.337	117.56
323.566	146.56
323.795	158.56
324.024	192.56
324.253	343.56
324.482	704.56
324.71	1360.56
324.939	1828.56
325.168	695.56
325.397	207.56
325.626	148.56
325.855	124.56
326.084	113.56
326.313	117.56
326.542	144.56
326.77	211.56
326.999	420.56
327.228	786.56
327.457	1452.56
327.686	1162.56
327.914	322.56
328.143	178.56
328.372	116.56
328.6	105.56
328.829	96.56
329.058	122.56
329.287	129.56
329.515	110.56
329.744	83.56
329.972	97.56
330.201	94.56
330.43	99.56
330.658	108.56
330.887	122.56
331.115	101.56
331.344	97.56
331.572	115.56
331.801	88.56
332.03	96.56
332.258	100.56
332.486	92.56
332.715	106.56
332.943	83.56
333.172	92.56
333.4	102.56
333.629	108.56
333.857	108.56
334.085	100.56
334.314	111.56
334.542	103.56
334.771	104.56
334.999	104.56
335.227	104.56
335.455	95.56
335.684	96.56
335.912	96.56
336.14	90.56
336.369	97.56
336.597	93.56
336.825	85.56
337.053	94.56
337.281	83.56
337.51	90.56
337.738	90.56
337.966	82.56
338.194	85.56
338.422	92.56
338.65	87.56
338.878	96.56
339.106	85.56
339.334	103.56
339.562	87.56
339.79	98.56
340.018	81.56
340.246	86.56
340.474	92.56
340.702	103.56
340.93	107.56
341.158	88.56
341.386	105.56
341.614	103.56
341.842	85.56
342.07	102.56
342.298	83.56
342.526	76.56
342.754	69.56
342.981	92.56
343.209	88.56
343.437	95.56
343.665	87.56
343.893	85.56
344.12	89.56
344.348	88.56
344.576	82.56
344.804	84.56
345.031	88.56
345.259	90.56
345.487	95.56
345.714	100.56
345.942	94.56
346.17	89.56
346.397	90.56
346.625	85.56
346.853	86.56
347.08	88.56
347.308	88.56
347.535	87.56
347.763	90.56
347.99	86.56
348.218	125.56
348.445	91.56
348.673	110.56
348.9	96.56
349.128	97.56
349.355	78.56
349.583	97.56
349.81	103.56
350.037	83.56
350.265	87.56
350.492	91.56
350.72	99.56
350.947	101.56
351.174	102.56
351.402	106.56
351.629	84.56
351.856	99.56
352.083	83.56
352.311	104.56
352.538	93.56
352.765	86.56
352.992	103.56
353.22	121.56
353.447	109.56
353.674	96.56
353.901	100.56
354.128	85.56
354.355	84.56
354.583	97.56
354.81	90.56
355.037	98.56
355.264	96.56
355.491	99.56
355.718	82.56
355.945	82.56
356.172	88.56
356.399	86.56
356.626	91.56
356.853	95.56
357.08	94.56
357.307	88.56
357.534	91.56
357.761	102.56
357.988	84.56
358.215	84.56
358.441	90.56
358.668	92.56
358.895	92.56
359.122	85.56
359.349	84.56
359.576	94.56
359.802	104.56
360.029	92.56
360.256	96.56
360.483	80.56
360.709	90.56
360.936	84.56
361.163	87.56
361.39	90.56
361.616	74.56
361.843	77.56
362.07	86.56
362.296	97.56
362.523	93.56
362.749	89.56
362.976	84.56
363.203	110.56
363.429	86.56
363.656	96.56
363.882	92.56
364.109	100.56
364.335	76.56
364.562	88.56
364.788	74.56
365.015	96.56
365.241	103.56
365.468	91.56
365.694	102.56
365.92	87.56
366.147	78.56
366.373	83.56
366.599	86.56
366.826	79.56
367.052	81.56
367.278	102.56
367.505	85.56
367.731	87.56
367.957	78.56
368.184	80.56
368.41	97.56
368.636	106.56
368.862	115.56
369.089	102.56
369.315	96.56
369.541	96.56
369.767	88.56
369.993	74.56
370.219	85.56
370.445	74.56
370.672	76.56
370.898	92.56
371.124	77.56
371.35	97.56
371.576	76.56
371.802	77.56
372.028	82.56
372.254	82.56
372.48	88.56
372.706	94.56
372.932	90.56
373.158	87.56
373.384	85.56
373.61	83.56
373.835	97.56
374.061	102.56
374.287	89.56
374.513	89.56
374.739	90.56
374.965	97.56
375.191	92.56
375.416	102.56
375.642	82.56
375.868	87.56
376.094	87.56
376.319	84.56
376.545	81.56
376.771	94.56
376.997	75.56
377.222	103.56
377.448	85.56
377.674	81.56
377.899	96.56
378.125	94.56
378.35	96.56
378.576	88.56
378.802	96.56
379.027	88.56
379.253	85.56
379.478	85.56
379.704	71.56
379.929	84.56
380.155	84.56
380.38	92.56
380.606	94.56
380.831	101.56
381.057	89.56
381.282	93.56
381.507	79.56
381.733	99.56
381.958	95.56
382.184	89.56
382.409	91.56
382.634	90.56
382.86	92.56
383.085	93.56
383.31	90.56
383.535	95.56
383.761	96.56
383.986	93.56
384.211	92.56
384.436	96.56
384.662	95.56
384.887	92.56
385.112	100.56
385.337	109.56
385.562	98.56
385.787	96.56
386.013	109.56
386.238	95.56
386.463	111.56
386.688	104.56
386.913	97.56
387.138	98.56
387.363	94.56
387.588	104.56
387.813	101.56
388.038	99.56
388.263	110.56
388.488	98.56
388.713	91.56
388.938	80.56
389.163	101.56
389.387	81.56
389.612	89.56
389.837	90.56
390.062	98.56
390.287	91.56
390.512	97.56
390.736	81.56
390.961	90.56
391.186	105.56
391.411	89.56
391.636	92.56
391.86	91.56
392.085	86.56
392.31	80.56
392.534	84.56
392.759	90.56
392.984	85.56
393.208	97.56
393.433	91.56
393.658	87.56
393.882	87.56
394.107	87.56
394.331	76.56
394.556	78.56
394.78	80.56
395.005	79.56
395.229	69.56
395.454	83.56
395.678	70.56
395.903	80.56
396.127	86.56
396.352	82.56
396.576	87.56
396.801	93.56
397.025	82.56
397.249	70.56
397.474	82.56
397.698	73.56
397.922	88.56
398.147	94.56
398.371	82.56
398.595	81.56
398.82	83.56
399.044	88.56
399.268	83.56
399.492	84.56
399.717	91.56
399.941	82.56
400.165	86.56
400.389	89.56
400.613	95.56
400.837	87.56
401.062	79.56
401.286	92.56
401.51	88.56
401.734	90.56
401.958	94.56
402.182	115.56
402.406	157.56
402.63	103.56
402.854	95.56
403.078	86.56
403.302	88.56
403.526	78.56
403.75	82.56
403.974	84.56
404.198	83.56
404.422	92.56
404.645	85.56
404.869	87.56
405.093	74.56
405.317	90.56
405.541	80.56
405.765	88.56
405.988	110.56
406.212	136.56
406.436	198.56
406.66	131.56
406.883	106.56
407.107	88.56
407.331	83.56
407.555	107.56
407.778	85.56
408.002	90.56
408.226	84.56
408.449	92.56
408.673	91.56
408.896	71.56
409.12	81.56
409.344	82.56
409.567	92.56
409.791	81.56
410.014	95.56
410.238	100.56
410.461	93.56
410.685	98.56
410.908	90.56
411.132	115.56
411.355	104.56
411.578	107.56
411.802	85.56
412.025	84.56
412.249	84.56
412.472	95.56
412.695	72.56
412.919	90.56
413.142	91.56
413.365	92.56
413.589	86.56
413.812	86.56
414.035	85.56
414.258	73.56
414.482	88.56
414.705	81.56
414.928	93.56
415.151	83.56
415.374	93.56
415.597	102.56
415.821	95.56
416.044	89.56
416.267	90.56
416.49	68.56
416.713	91.56
416.936	79.56
417.159	80.56
417.382	89.56
417.605	80.56
417.828	99.56
418.051	84.56
418.274	87.56
418.497	97.56
418.72	90.56
418.943	96.56
419.166	86.56
419.389	81.56
419.611	106.56
419.834	92.56
420.057	90.56
420.28	76.56
420.503	89.56
420.726	78.56
420.948	83.56
421.171	95.56
421.394	88.56
421.617	81.56
421.839	87.56
422.062	93.56
422.285	80.56
422.507	99.56
422.73	97.56
422.953	98.56
423.175	101.56
423.398	97.56
423.621	87.56
423.843	87.56
424.066	95.56
424.288	88.56
424.511	102.56
424.733	109.56
424.956	98.56
425.178	89.56
425.401	90.56
425.623	100.56
425.846	90.56
426.068	80.56
426.291	82.56
426.513	84.56
426.735	87.56
426.958	95.56
427.18	103.56
427.402	113.56
427.625	152.56
427.847	121.56
428.069	98.56
428.292	89.56
428.514	86.56
428.736	90.56
428.958	90.56
429.181	77.56
429.403	75.56
429.625	90.56
429.847	87.56
430.069	73.56
430.292	96.56
430.514	90.56
430.736	79.56
430.958	84.56
431.18	75.56
431.402	85.56
431.624	83.56
431.846	85.56
432.068	75.56
432.29	81.56
432.512	83.56
432.734	72.56
432.956	84.56
433.178	88.56
433.4	95.56
433.622	97.56
433.844	82.56
434.066	95.56
434.287	90.56
434.509	74.56
434.731	72.56
434.953	90.56
435.175	88.56
435.397	99.56
435.618	90.56
435.84	89.56
436.062	98.56
436.284	105.56
436.505	102.56
436.727	90.56
436.949	86.56
437.17	90.56
437.392	106.56
437.614	96.56
437.835	111.56
438.057	109.56
438.278	102.56
438.5	95.56
438.721	114.56
438.943	98.56
439.165	97.56
439.386	75.56
439.608	77.56
439.829	94.56
440.05	110.56
440.272	135.56
440.493	98.56
440.715	72.56
440.936	88.56
441.158	83.56
441.379	78.56
441.6	83.56
441.822	100.56
442.043	100.56
442.264	93.56
442.486	99.56
442.707	97.56
442.928	96.56
443.149	120.56
443.371	131.56
443.592	108.56
443.813	99.56
444.034	100.56
444.255	90.56
444.476	79.56
444.698	92.56
444.919	76.56
445.14	126.56
445.361	109.56
445.582	118.56
445.803	135.56
446.024	110.56
446.245	129.56
446.466	98.56
446.687	89.56
446.908	101.56
447.129	82.56
447.35	89.56
447.571	93.56
447.792	80.56
448.013	89.56
448.234	103.56
448.455	100.56
448.675	113.56
448.896	108.56
449.117	100.56
449.338	86.56
449.559	123.56
449.779	115.56
450	78.56
450.221	79.56
450.442	88.56
450.662	91.56
450.883	87.56
451.104	98.56
451.324	83.56
451.545	88.56
451.766	101.56
451.986	102.56
452.207	86.56
452.428	91.56
452.648	92.56
452.869	100.56
453.089	110.56
453.31	109.56
453.53	82.56
453.751	84.56
453.971	107.56
454.192	98.56
454.412	92.56
454.633	95.56
454.853	76.56
455.073	72.56
455.294	84.56
455.514	83.56
455.734	87.56
455.955	84.56
456.175	81.56
456.395	75.56
456.616	98.56
456.836	78.56
457.056	90.56
457.276	87.56
457.497	79.56
457.717	96.56
457.937	88.56
458.157	82.56
458.377	94.56
458.598	99.56
458.818	111.56
459.038	145.56
459.258	113.56
459.478	88.56
459.698	90.56
459.918	78.56
460.138	89.56
460.358	86.56
460.578	87.56
460.798	97.56
461.018	86.56
461.238	87.56
461.458	85.56
461.678	77.56
461.898	85.56
462.118	104.56
462.338	81.56
462.558	89.56
462.777	85.56
462.997	78.56
463.217	75.56
463.437	89.56
463.657	94.56
463.876	83.56
464.096	91.56
464.316	91.56
464.536	103.56
464.755	98.56
464.975	92.56
465.195	130.56
465.414	144.56
465.634	86.56
465.854	76.56
466.073	79.56
466.293	74.56
466.512	89.56
466.732	79.56
466.951	77.56
467.171	86.56
467.391	89.56
467.61	100.56
467.829	101.56
468.049	94.56
468.268	82.56
468.488	83.56
468.707	76.56
468.927	96.56
469.146	94.56
469.365	85.56
469.585	89.56
469.804	91.56
470.023	85.56
470.243	93.56
470.462	90.56
470.681	94.56
470.901	89.56
471.12	76.56
471.339	81.56
471.558	81.56
471.777	87.56
471.997	85.56
472.216	78.56
472.435	94.56
472.654	81.56
472.873	85.56
473.092	89.56
473.311	91.56
473.53	85.56
473.749	91.56
473.968	68.56
474.187	102.56
474.406	98.56
474.625	102.56
474.844	79.56
475.063	82.56
475.282	86.56
475.501	86.56
475.72	89.56
475.939	78.56
476.158	83.56
476.377	95.56
476.596	75.56
476.814	89.56
477.033	101.56
477.252	76.56
477.471	86.56
477.69	71.56
477.908	77.56
478.127	85.56
478.346	94.56
478.564	86.56
478.783	80.56
479.002	79.56
479.22	81.56
479.439	93.56
479.658	94.56
479.876	101.56
480.095	89.56
480.313	79.56
480.532	94.56
480.751	86.56
480.969	76.56
481.188	100.56
481.406	96.56
481.624	81.56
481.843	93.56
482.061	81.56
482.28	84.56
482.498	91.56
482.717	92.56
482.935	84.56
483.153	78.56
483.372	85.56
483.59	78.56
483.808	100.56
484.027	96.56
484.245	93.56
484.463	87.56
484.681	98.56
484.9	88.56
485.118	94.56
485.336	88.56
485.554	81.56
485.772	85.56
485.99	98.56
486.209	93.56
486.427	100.56
486.645	106.56
486.863	115.56
487.081	104.56
487.299	80.56
487.517	94.56
487.735	100.56
487.953	100.56
488.171	85.56
488.389	80.56
488.607	100.56
488.825	79.56
489.043	90.56
489.261	102.56
489.479	95.56
489.696	93.56
489.914	82.56
490.132	89.56
490.35	95.56
490.568	84.56
490.786	90.56
491.003	88.56
491.221	94.56
491.439	68.56
491.657	97.56
491.874	100.56
492.092	82.56
492.31	89.56
492.527	78.56
492.745	93.56
492.963	94.56
493.18	80.56
493.398	93.56
493.615	100.56
493.833	80.56
494.05	94.56
494.268	97.56
494.485	85.56
494.703	89.56
494.92	87.56
495.138	84.56
495.355	91.56
495.573	89.56
495.79	88.56
496.008	112.56
496.225	77.56
496.442	84.56
496.66	86.56
496.877	84.56
497.094	89.56
497.312	86.56
497.529	90.56
497.746	81.56
497.963	101.56
498.181	100.56
498.398	89.56
498.615	104.56
498.832	95.56
499.049	101.56
499.267	79.56
499.484	81.56
499.701	105.56
499.918	89.56
500.135	81.56
500.352	85.56
500.569	89.56
500.786	85.56
501.003	87.56
501.22	99.56
501.437	86.56
501.654	94.56
501.871	108.56
502.088	97.56
502.305	95.56
502.522	89.56
502.739	80.56
502.956	82.56
503.172	97.56
503.389	108.56
503.606	109.56
503.823	90.56
504.04	97.56
504.256	95.56
504.473	93.56
504.69	82.56
504.907	95.56
505.123	97.56
505.34	100.56
505.557	96.56
505.773	95.56
505.99	96.56
506.207	86.56
506.423	80.56
506.64	95.56
506.856	83.56
507.073	82.56
507.289	103.56
507.506	94.56
507.722	87.56
507.939	111.56
508.155	88.56
508.372	96.56
508.588	88.56
508.805	90.56
509.021	89.56
509.238	98.56
509.454	81.56
509.67	98.56
509.887	102.56
510.103	133.56
510.319	202.56
510.536	684.56
510.752	2139.56
510.968	604.56
511.184	157.56
511.401	117.56
511.617	92.56
511.833	91.56
512.049	87.56
512.265	95.56
512.481	98.56
512.698	85.56
512.914	93.56
513.13	100.56
513.346	85.56
513.562	90.56
513.778	98.56
513.994	94.56
514.21	99.56
514.426	114.56
514.642	126.56
514.858	126.56
515.074	154.56
515.29	384.56
515.506	1278.56
515.721	470.56
515.937	142.56
516.153	98.56
516.369	98.56
516.585	91.56
516.801	96.56
517.016	87.56
