Data from Uncirc_2002_H10_HRD10591_00073.txt Node
Date: Wed Jan 03 10:39:55 EST 2024
User: Yrep
Spectrometer: HR+D1059
Trigger mode: 1
Integration Time (sec): 1.000000E-1
Scans to average: 1
Electric dark correction enabled: true
Nonlinearity correction enabled: false
Boxcar width: 0
XAxis mode: Wavelengths
Number of Pixels in Spectrum: 2048
>>>>>Begin Spectral Data<<<<<
223.165	-17.88
223.4	-17.88
223.635	-17.88
223.869	-15.88
224.104	-15.88
224.338	-9.88
224.573	-5.88
224.808	-12.88
225.042	-4.88
225.277	2.12
225.511	-15.88
225.746	-7.88
225.98	13.12
226.215	6.12
226.449	18.12
226.683	23.12
226.918	17.12
227.152	27.12
227.387	48.12
227.621	38.12
227.856	46.12
228.09	48.12
228.324	49.12
228.559	72.12
228.793	61.12
229.027	68.12
229.262	65.12
229.496	54.12
229.73	75.12
229.964	83.12
230.199	75.12
230.433	58.12
230.667	86.12
230.901	100.12
231.136	87.12
231.37	74.12
231.604	87.12
231.838	77.12
232.072	74.12
232.306	88.12
232.541	89.12
232.775	86.12
233.009	83.12
233.243	69.12
233.477	73.12
233.711	85.12
233.945	71.12
234.179	66.12
234.413	78.12
234.647	81.12
234.881	91.12
235.115	80.12
235.349	82.12
235.583	90.12
235.817	93.12
236.051	75.12
236.285	67.12
236.519	73.12
236.753	79.12
236.987	81.12
237.221	80.12
237.455	84.12
237.689	74.12
237.922	80.12
238.156	73.12
238.39	91.12
238.624	80.12
238.858	70.12
239.091	78.12
239.325	66.12
239.559	76.12
239.793	80.12
240.027	72.12
240.26	77.12
240.494	64.12
240.728	80.12
240.961	78.12
241.195	79.12
241.429	83.12
241.662	68.12
241.896	72.12
242.13	75.12
242.363	73.12
242.597	83.12
242.83	77.12
243.064	70.12
243.298	83.12
243.531	81.12
243.765	78.12
243.998	86.12
244.232	78.12
244.465	77.12
244.699	75.12
244.932	85.12
245.166	69.12
245.399	65.12
245.633	77.12
245.866	81.12
246.099	73.12
246.333	74.12
246.566	83.12
246.8	66.12
247.033	75.12
247.266	80.12
247.5	81.12
247.733	72.12
247.966	86.12
248.2	80.12
248.433	85.12
248.666	82.12
248.899	83.12
249.133	82.12
249.366	99.12
249.599	85.12
249.832	99.12
250.066	90.12
250.299	88.12
250.532	72.12
250.765	83.12
250.998	85.12
251.231	90.12
251.465	80.12
251.698	79.12
251.931	80.12
252.164	92.12
252.397	71.12
252.63	77.12
252.863	93.12
253.096	78.12
253.329	70.12
253.562	80.12
253.795	75.12
254.028	80.12
254.261	80.12
254.494	95.12
254.727	91.12
254.96	82.12
255.193	86.12
255.426	76.12
255.659	82.12
255.892	71.12
256.124	89.12
256.357	77.12
256.59	80.12
256.823	91.12
257.056	90.12
257.289	72.12
257.521	84.12
257.754	83.12
257.987	83.12
258.22	73.12
258.452	82.12
258.685	83.12
258.918	92.12
259.151	83.12
259.383	77.12
259.616	77.12
259.849	80.12
260.081	66.12
260.314	83.12
260.547	74.12
260.779	75.12
261.012	92.12
261.244	79.12
261.477	80.12
261.71	98.12
261.942	120.12
262.175	107.12
262.407	86.12
262.64	89.12
262.872	75.12
263.105	78.12
263.337	88.12
263.57	93.12
263.802	83.12
264.035	90.12
264.267	75.12
264.499	71.12
264.732	89.12
264.964	75.12
265.197	75.12
265.429	84.12
265.661	77.12
265.894	91.12
266.126	80.12
266.358	77.12
266.591	86.12
266.823	65.12
267.055	93.12
267.287	81.12
267.52	92.12
267.752	83.12
267.984	71.12
268.216	71.12
268.448	72.12
268.681	87.12
268.913	76.12
269.145	81.12
269.377	78.12
269.609	100.12
269.841	66.12
270.073	85.12
270.306	97.12
270.538	92.12
270.77	71.12
271.002	92.12
271.234	72.12
271.466	77.12
271.698	96.12
271.93	77.12
272.162	79.12
272.394	72.12
272.626	84.12
272.858	83.12
273.09	88.12
273.322	74.12
273.553	81.12
273.785	95.12
274.017	86.12
274.249	97.12
274.481	87.12
274.713	79.12
274.945	75.12
275.176	80.12
275.408	104.12
275.64	71.12
275.872	93.12
276.104	80.12
276.335	98.12
276.567	88.12
276.799	104.12
277.031	107.12
277.262	91.12
277.494	93.12
277.726	87.12
277.957	82.12
278.189	89.12
278.421	73.12
278.652	89.12
278.884	92.12
279.115	90.12
279.347	89.12
279.579	67.12
279.81	83.12
280.042	91.12
280.273	91.12
280.505	85.12
280.736	91.12
280.968	88.12
281.199	84.12
281.431	84.12
281.662	92.12
281.894	92.12
282.125	93.12
282.356	112.12
282.588	121.12
282.819	119.12
283.051	93.12
283.282	96.12
283.513	92.12
283.745	92.12
283.976	78.12
284.207	95.12
284.439	91.12
284.67	91.12
284.901	81.12
285.132	92.12
285.364	87.12
285.595	95.12
285.826	76.12
286.057	97.12
286.288	93.12
286.52	87.12
286.751	100.12
286.982	79.12
287.213	89.12
287.444	97.12
287.675	82.12
287.906	82.12
288.138	88.12
288.369	89.12
288.6	93.12
288.831	93.12
289.062	109.12
289.293	92.12
289.524	79.12
289.755	81.12
289.986	69.12
290.217	79.12
290.448	88.12
290.679	83.12
290.91	98.12
291.141	90.12
291.371	76.12
291.602	101.12
291.833	88.12
292.064	79.12
292.295	101.12
292.526	84.12
292.757	92.12
292.987	82.12
293.218	94.12
293.449	92.12
293.68	96.12
293.91	103.12
294.141	88.12
294.372	93.12
294.603	88.12
294.833	82.12
295.064	88.12
295.295	84.12
295.525	104.12
295.756	94.12
295.987	104.12
296.217	140.12
296.448	117.12
296.679	90.12
296.909	92.12
297.14	77.12
297.37	103.12
297.601	83.12
297.831	73.12
298.062	89.12
298.292	82.12
298.523	70.12
298.753	90.12
298.984	98.12
299.214	99.12
299.445	106.12
299.675	96.12
299.905	101.12
300.136	93.12
300.366	91.12
300.597	86.12
300.827	103.12
301.057	107.12
301.288	100.12
301.518	95.12
301.748	87.12
301.979	106.12
302.209	81.12
302.439	100.12
302.669	100.12
302.9	85.12
303.13	86.12
303.36	104.12
303.59	88.12
303.82	110.12
304.051	95.12
304.281	85.12
304.511	96.12
304.741	87.12
304.971	89.12
305.201	79.12
305.431	84.12
305.661	77.12
305.891	80.12
306.121	95.12
306.352	114.12
306.582	102.12
306.812	99.12
307.042	87.12
307.272	88.12
307.502	103.12
307.731	88.12
307.961	93.12
308.191	92.12
308.421	81.12
308.651	113.12
308.881	100.12
309.111	96.12
309.341	105.12
309.571	107.12
309.8	100.12
310.03	91.12
310.26	85.12
310.49	92.12
310.72	87.12
310.949	105.12
311.179	101.12
311.409	106.12
311.639	103.12
311.868	86.12
312.098	103.12
312.328	111.12
312.557	106.12
312.787	120.12
313.017	95.12
313.246	97.12
313.476	98.12
313.706	97.12
313.935	103.12
314.165	108.12
314.394	99.12
314.624	92.12
314.853	106.12
315.083	85.12
315.312	89.12
315.542	88.12
315.771	97.12
316.001	91.12
316.23	90.12
316.46	98.12
316.689	86.12
316.919	106.12
317.148	100.12
317.377	100.12
317.607	87.12
317.836	86.12
318.065	104.12
318.295	97.12
318.524	85.12
318.753	93.12
318.983	91.12
319.212	101.12
319.441	107.12
319.67	113.12
319.9	94.12
320.129	101.12
320.358	88.12
320.587	99.12
320.816	105.12
321.046	108.12
321.275	106.12
321.504	101.12
321.733	101.12
321.962	103.12
322.191	101.12
322.42	92.12
322.649	108.12
322.878	119.12
323.108	122.12
323.337	133.12
323.566	136.12
323.795	150.12
324.024	196.12
324.253	369.12
324.482	767.12
324.71	1554.12
324.939	2037.12
325.168	733.12
325.397	235.12
325.626	134.12
325.855	131.12
326.084	127.12
326.313	127.12
326.542	160.12
326.77	220.12
326.999	419.12
327.228	876.12
327.457	1551.12
327.686	1219.12
327.914	341.12
328.143	177.12
328.372	155.12
328.6	133.12
328.829	113.12
329.058	122.12
329.287	121.12
329.515	112.12
329.744	114.12
329.972	91.12
330.201	110.12
330.43	102.12
330.658	121.12
330.887	124.12
331.115	119.12
331.344	109.12
331.572	111.12
331.801	110.12
332.03	107.12
332.258	101.12
332.486	104.12
332.715	90.12
332.943	100.12
333.172	100.12
333.4	102.12
333.629	117.12
333.857	103.12
334.085	106.12
334.314	94.12
334.542	99.12
334.771	114.12
334.999	91.12
335.227	91.12
335.455	88.12
335.684	85.12
335.912	98.12
336.14	89.12
336.369	103.12
336.597	100.12
336.825	87.12
337.053	79.12
337.281	79.12
337.51	90.12
337.738	84.12
337.966	91.12
338.194	82.12
338.422	84.12
338.65	116.12
338.878	102.12
339.106	95.12
339.334	92.12
339.562	88.12
339.79	88.12
340.018	99.12
340.246	84.12
340.474	96.12
340.702	103.12
340.93	91.12
341.158	88.12
341.386	83.12
341.614	84.12
341.842	102.12
342.07	87.12
342.298	86.12
342.526	87.12
342.754	100.12
342.981	91.12
343.209	107.12
343.437	100.12
343.665	82.12
343.893	68.12
344.12	92.12
344.348	102.12
344.576	111.12
344.804	97.12
345.031	87.12
345.259	105.12
345.487	89.12
345.714	96.12
345.942	99.12
346.17	91.12
346.397	99.12
346.625	90.12
346.853	92.12
347.08	95.12
347.308	100.12
347.535	105.12
347.763	88.12
347.99	105.12
348.218	88.12
348.445	99.12
348.673	114.12
348.9	98.12
349.128	97.12
349.355	98.12
349.583	95.12
349.81	89.12
350.037	95.12
350.265	107.12
350.492	99.12
350.72	104.12
350.947	108.12
351.174	103.12
351.402	107.12
351.629	110.12
351.856	90.12
352.083	102.12
352.311	105.12
352.538	108.12
352.765	118.12
352.992	107.12
353.22	118.12
353.447	105.12
353.674	106.12
353.901	94.12
354.128	103.12
354.355	106.12
354.583	103.12
354.81	102.12
355.037	101.12
355.264	84.12
355.491	110.12
355.718	94.12
355.945	90.12
356.172	98.12
356.399	95.12
356.626	88.12
356.853	100.12
357.08	95.12
357.307	93.12
357.534	77.12
357.761	94.12
357.988	103.12
358.215	84.12
358.441	105.12
358.668	103.12
358.895	100.12
359.122	103.12
359.349	81.12
359.576	107.12
359.802	98.12
360.029	99.12
360.256	113.12
360.483	103.12
360.709	88.12
360.936	120.12
361.163	85.12
361.39	92.12
361.616	100.12
361.843	88.12
362.07	95.12
362.296	89.12
362.523	90.12
362.749	96.12
362.976	90.12
363.203	91.12
363.429	75.12
363.656	93.12
363.882	85.12
364.109	85.12
364.335	85.12
364.562	93.12
364.788	80.12
365.015	93.12
365.241	92.12
365.468	103.12
365.694	101.12
365.92	96.12
366.147	101.12
366.373	84.12
366.599	100.12
366.826	87.12
367.052	88.12
367.278	91.12
367.505	89.12
367.731	96.12
367.957	85.12
368.184	92.12
368.41	85.12
368.636	115.12
368.862	114.12
369.089	100.12
369.315	98.12
369.541	93.12
369.767	91.12
369.993	101.12
370.219	91.12
370.445	91.12
370.672	87.12
370.898	86.12
371.124	106.12
371.35	90.12
371.576	83.12
371.802	89.12
372.028	102.12
372.254	85.12
372.48	91.12
372.706	92.12
372.932	96.12
373.158	81.12
373.384	96.12
373.61	86.12
373.835	86.12
374.061	102.12
374.287	86.12
374.513	76.12
374.739	102.12
374.965	79.12
375.191	103.12
375.416	85.12
375.642	91.12
375.868	97.12
376.094	91.12
376.319	89.12
376.545	94.12
376.771	86.12
376.997	91.12
377.222	90.12
377.448	101.12
377.674	93.12
377.899	104.12
378.125	96.12
378.35	108.12
378.576	100.12
378.802	96.12
379.027	84.12
379.253	99.12
379.478	89.12
379.704	82.12
379.929	92.12
380.155	99.12
380.38	107.12
380.606	92.12
380.831	94.12
381.057	85.12
381.282	72.12
381.507	105.12
381.733	87.12
381.958	90.12
382.184	101.12
382.409	94.12
382.634	101.12
382.86	99.12
383.085	97.12
383.31	107.12
383.535	108.12
383.761	88.12
383.986	98.12
384.211	87.12
384.436	106.12
384.662	94.12
384.887	107.12
385.112	87.12
385.337	99.12
385.562	97.12
385.787	100.12
386.013	106.12
386.238	108.12
386.463	100.12
386.688	99.12
386.913	100.12
387.138	99.12
387.363	99.12
387.588	96.12
387.813	106.12
388.038	100.12
388.263	98.12
388.488	107.12
388.713	113.12
388.938	95.12
389.163	100.12
389.387	104.12
389.612	106.12
389.837	88.12
390.062	96.12
390.287	93.12
390.512	102.12
390.736	97.12
390.961	99.12
391.186	92.12
391.411	89.12
391.636	92.12
391.86	88.12
392.085	88.12
392.31	88.12
392.534	96.12
392.759	86.12
392.984	85.12
393.208	82.12
393.433	96.12
393.658	90.12
393.882	97.12
394.107	95.12
394.331	77.12
394.556	79.12
394.78	79.12
395.005	88.12
395.229	84.12
395.454	77.12
395.678	84.12
395.903	87.12
396.127	83.12
396.352	83.12
396.576	83.12
396.801	88.12
397.025	104.12
397.249	100.12
397.474	88.12
397.698	93.12
397.922	89.12
398.147	83.12
398.371	87.12
398.595	99.12
398.82	96.12
399.044	81.12
399.268	98.12
399.492	95.12
399.717	98.12
399.941	91.12
400.165	99.12
400.389	99.12
400.613	84.12
400.837	88.12
401.062	96.12
401.286	100.12
401.51	102.12
401.734	105.12
401.958	99.12
402.182	127.12
402.406	162.12
402.63	129.12
402.854	97.12
403.078	98.12
403.302	82.12
403.526	89.12
403.75	90.12
403.974	97.12
404.198	81.12
404.422	91.12
404.645	78.12
404.869	90.12
405.093	94.12
405.317	109.12
405.541	112.12
405.765	101.12
405.988	104.12
406.212	148.12
406.436	232.12
406.66	137.12
406.883	96.12
407.107	106.12
407.331	106.12
407.555	97.12
407.778	94.12
408.002	88.12
408.226	80.12
408.449	101.12
408.673	88.12
408.896	98.12
409.12	89.12
409.344	88.12
409.567	105.12
409.791	95.12
410.014	89.12
410.238	90.12
410.461	87.12
410.685	99.12
410.908	87.12
411.132	116.12
411.355	97.12
411.578	91.12
411.802	99.12
412.025	96.12
412.249	73.12
412.472	90.12
412.695	78.12
412.919	91.12
413.142	93.12
413.365	99.12
413.589	93.12
413.812	87.12
414.035	91.12
414.258	92.12
414.482	77.12
414.705	93.12
414.928	92.12
415.151	99.12
415.374	95.12
415.597	92.12
415.821	86.12
416.044	99.12
416.267	91.12
416.49	91.12
416.713	73.12
416.936	82.12
417.159	102.12
417.382	85.12
417.605	92.12
417.828	88.12
418.051	103.12
418.274	75.12
418.497	85.12
418.72	79.12
418.943	95.12
419.166	80.12
419.389	91.12
419.611	90.12
419.834	96.12
420.057	97.12
420.28	84.12
420.503	86.12
420.726	92.12
420.948	96.12
421.171	89.12
421.394	90.12
421.617	91.12
421.839	97.12
422.062	98.12
422.285	97.12
422.507	100.12
422.73	95.12
422.953	96.12
423.175	99.12
423.398	89.12
423.621	97.12
423.843	89.12
424.066	96.12
424.288	82.12
424.511	93.12
424.733	92.12
424.956	102.12
425.178	105.12
425.401	107.12
425.623	105.12
425.846	100.12
426.068	87.12
426.291	86.12
426.513	87.12
426.735	85.12
426.958	88.12
427.18	107.12
427.402	140.12
427.625	151.12
427.847	112.12
428.069	101.12
428.292	92.12
428.514	86.12
428.736	74.12
428.958	91.12
429.181	79.12
429.403	95.12
429.625	84.12
429.847	90.12
430.069	112.12
430.292	101.12
430.514	86.12
430.736	91.12
430.958	94.12
431.18	109.12
431.402	101.12
431.624	88.12
431.846	91.12
432.068	96.12
432.29	83.12
432.512	105.12
432.734	78.12
432.956	81.12
433.178	95.12
433.4	86.12
433.622	74.12
433.844	85.12
434.066	99.12
434.287	96.12
434.509	88.12
434.731	75.12
434.953	85.12
435.175	79.12
435.397	97.12
435.618	86.12
435.84	95.12
436.062	115.12
436.284	127.12
436.505	115.12
436.727	100.12
436.949	96.12
437.17	87.12
437.392	81.12
437.614	91.12
437.835	108.12
438.057	107.12
438.278	103.12
438.5	107.12
438.721	123.12
438.943	92.12
439.165	101.12
439.386	87.12
439.608	82.12
439.829	108.12
440.05	113.12
440.272	131.12
440.493	96.12
440.715	93.12
440.936	91.12
441.158	92.12
441.379	88.12
441.6	92.12
441.822	100.12
442.043	83.12
442.264	110.12
442.486	112.12
442.707	97.12
442.928	103.12
443.149	128.12
443.371	127.12
443.592	108.12
443.813	92.12
444.034	106.12
444.255	97.12
444.476	89.12
444.698	84.12
444.919	84.12
445.14	120.12
445.361	133.12
445.582	119.12
445.803	117.12
446.024	122.12
446.245	134.12
446.466	117.12
446.687	83.12
446.908	89.12
447.129	97.12
447.35	89.12
447.571	91.12
447.792	100.12
448.013	83.12
448.234	100.12
448.455	104.12
448.675	109.12
448.896	112.12
449.117	85.12
449.338	116.12
449.559	128.12
449.779	135.12
450	97.12
450.221	89.12
450.442	93.12
450.662	93.12
450.883	93.12
451.104	90.12
451.324	94.12
451.545	79.12
451.766	84.12
451.986	91.12
452.207	94.12
452.428	94.12
452.648	98.12
452.869	102.12
453.089	103.12
453.31	114.12
453.53	96.12
453.751	82.12
453.971	89.12
454.192	104.12
454.412	89.12
454.633	98.12
454.853	107.12
455.073	98.12
455.294	98.12
455.514	107.12
455.734	92.12
455.955	88.12
456.175	79.12
456.395	75.12
456.616	83.12
456.836	85.12
457.056	91.12
457.276	81.12
457.497	83.12
457.717	97.12
457.937	90.12
458.157	84.12
458.377	89.12
458.598	95.12
458.818	136.12
459.038	160.12
459.258	117.12
459.478	84.12
459.698	77.12
459.918	92.12
460.138	86.12
460.358	83.12
460.578	73.12
460.798	91.12
461.018	93.12
461.238	80.12
461.458	109.12
461.678	97.12
461.898	86.12
462.118	91.12
462.338	93.12
462.558	77.12
462.777	90.12
462.997	92.12
463.217	86.12
463.437	77.12
463.657	83.12
463.876	87.12
464.096	87.12
464.316	87.12
464.536	104.12
464.755	92.12
464.975	108.12
465.195	169.12
465.414	137.12
465.634	91.12
465.854	98.12
466.073	91.12
466.293	86.12
466.512	87.12
466.732	82.12
466.951	85.12
467.171	96.12
467.391	82.12
467.61	106.12
467.829	105.12
468.049	98.12
468.268	84.12
468.488	82.12
468.707	91.12
468.927	84.12
469.146	82.12
469.365	91.12
469.585	81.12
469.804	80.12
470.023	91.12
470.243	86.12
470.462	98.12
470.681	111.12
470.901	84.12
471.12	81.12
471.339	79.12
471.558	88.12
471.777	85.12
471.997	96.12
472.216	90.12
472.435	100.12
472.654	89.12
472.873	94.12
473.092	83.12
473.311	101.12
473.53	90.12
473.749	85.12
473.968	82.12
474.187	92.12
474.406	95.12
474.625	85.12
474.844	87.12
475.063	75.12
475.282	78.12
475.501	83.12
475.72	86.12
475.939	82.12
476.158	96.12
476.377	89.12
476.596	99.12
476.814	97.12
477.033	84.12
477.252	88.12
477.471	88.12
477.69	82.12
477.908	84.12
478.127	85.12
478.346	78.12
478.564	82.12
478.783	94.12
479.002	96.12
479.22	87.12
479.439	100.12
479.658	105.12
479.876	102.12
480.095	94.12
480.313	92.12
480.532	79.12
480.751	91.12
480.969	90.12
481.188	116.12
481.406	111.12
481.624	90.12
481.843	79.12
482.061	94.12
482.28	96.12
482.498	81.12
482.717	85.12
482.935	80.12
483.153	88.12
483.372	87.12
483.59	87.12
483.808	87.12
484.027	80.12
484.245	82.12
484.463	84.12
484.681	94.12
484.9	91.12
485.118	97.12
485.336	91.12
485.554	92.12
485.772	93.12
485.99	90.12
486.209	104.12
486.427	100.12
486.645	102.12
486.863	109.12
487.081	98.12
487.299	84.12
487.517	90.12
487.735	84.12
487.953	104.12
488.171	94.12
488.389	101.12
488.607	95.12
488.825	84.12
489.043	103.12
489.261	94.12
489.479	88.12
489.696	93.12
489.914	72.12
490.132	82.12
490.35	88.12
490.568	89.12
490.786	86.12
491.003	91.12
491.221	92.12
491.439	86.12
491.657	86.12
491.874	97.12
492.092	101.12
492.31	87.12
492.527	84.12
492.745	101.12
492.963	83.12
493.18	84.12
493.398	81.12
493.615	100.12
493.833	90.12
494.05	90.12
494.268	79.12
494.485	99.12
494.703	88.12
494.92	99.12
495.138	83.12
495.355	92.12
495.573	108.12
495.79	89.12
496.008	97.12
496.225	99.12
496.442	67.12
496.66	93.12
496.877	97.12
497.094	96.12
497.312	96.12
497.529	99.12
497.746	101.12
497.963	83.12
498.181	92.12
498.398	88.12
498.615	96.12
498.832	92.12
499.049	86.12
499.267	91.12
499.484	85.12
499.701	76.12
499.918	83.12
500.135	95.12
500.352	92.12
500.569	92.12
500.786	83.12
501.003	103.12
501.22	92.12
501.437	88.12
501.654	91.12
501.871	108.12
502.088	105.12
502.305	111.12
502.522	83.12
502.739	94.12
502.956	97.12
503.172	85.12
503.389	103.12
503.606	117.12
503.823	90.12
504.04	96.12
504.256	89.12
504.473	80.12
504.69	102.12
504.907	106.12
505.123	94.12
505.34	85.12
505.557	90.12
505.773	87.12
505.99	85.12
506.207	93.12
506.423	87.12
506.64	96.12
506.856	88.12
507.073	93.12
507.289	91.12
507.506	96.12
507.722	108.12
507.939	87.12
508.155	95.12
508.372	77.12
508.588	84.12
508.805	96.12
509.021	92.12
509.238	97.12
509.454	91.12
509.67	93.12
509.887	112.12
510.103	134.12
510.319	206.12
510.536	736.12
510.752	2295.12
510.968	636.12
511.184	151.12
511.401	105.12
511.617	92.12
511.833	100.12
512.049	103.12
512.265	91.12
512.481	95.12
512.698	104.12
512.914	87.12
513.13	102.12
513.346	93.12
513.562	84.12
513.778	95.12
513.994	89.12
514.21	100.12
514.426	121.12
514.642	127.12
514.858	114.12
515.074	152.12
515.29	416.12
