Data from Uncirc_2002_H10_HRD10591_00084.txt Node
Date: Wed Jan 03 10:39:58 EST 2024
User: Yrep
Spectrometer: HR+D1059
Trigger mode: 1
Integration Time (sec): 1.000000E-1
Scans to average: 1
Electric dark correction enabled: true
Nonlinearity correction enabled: false
Boxcar width: 0
XAxis mode: Wavelengths
Number of Pixels in Spectrum: 2048
>>>>>Begin Spectral Data<<<<<
223.165	-20.5
223.4	-20.5
223.635	-20.5
223.869	-23.5
224.104	-28.5
224.338	1.5
224.573	-26.5
224.808	-10.5
225.042	-2.5
225.277	-3.5
225.511	-3.5
225.746	2.5
225.98	12.5
226.215	6.5
226.449	12.5
226.683	18.5
226.918	33.5
227.152	31.5
227.387	42.5
227.621	42.5
227.856	37.5
228.09	64.5
228.324	49.5
228.559	59.5
228.793	73.5
229.027	69.5
229.262	71.5
229.496	75.5
229.73	92.5
229.964	79.5
230.199	73.5
230.433	71.5
230.667	91.5
230.901	87.5
231.136	69.5
231.37	76.5
231.604	82.5
231.838	72.5
232.072	86.5
232.306	81.5
232.541	72.5
232.775	92.5
233.009	84.5
233.243	76.5
233.477	82.5
233.711	71.5
233.945	70.5
234.179	85.5
234.413	77.5
234.647	69.5
234.881	82.5
235.115	82.5
235.349	91.5
235.583	76.5
235.817	84.5
236.051	73.5
236.285	91.5
236.519	63.5
236.753	82.5
236.987	84.5
237.221	79.5
237.455	76.5
237.689	77.5
237.922	80.5
238.156	86.5
238.39	67.5
238.624	66.5
238.858	82.5
239.091	82.5
239.325	90.5
239.559	87.5
239.793	83.5
240.027	83.5
240.26	79.5
240.494	79.5
240.728	64.5
240.961	86.5
241.195	86.5
241.429	67.5
241.662	77.5
241.896	76.5
242.13	92.5
242.363	74.5
242.597	76.5
242.83	86.5
243.064	73.5
243.298	81.5
243.531	84.5
243.765	79.5
243.998	85.5
244.232	72.5
244.465	76.5
244.699	78.5
244.932	70.5
245.166	84.5
245.399	91.5
245.633	85.5
245.866	87.5
246.099	79.5
246.333	83.5
246.566	82.5
246.8	96.5
247.033	75.5
247.266	90.5
247.5	81.5
247.733	81.5
247.966	82.5
248.2	88.5
248.433	74.5
248.666	83.5
248.899	84.5
249.133	88.5
249.366	93.5
249.599	88.5
249.832	86.5
250.066	88.5
250.299	81.5
250.532	80.5
250.765	85.5
250.998	88.5
251.231	72.5
251.465	77.5
251.698	74.5
251.931	87.5
252.164	86.5
252.397	67.5
252.63	69.5
252.863	78.5
253.096	81.5
253.329	80.5
253.562	67.5
253.795	89.5
254.028	96.5
254.261	82.5
254.494	84.5
254.727	88.5
254.96	84.5
255.193	73.5
255.426	86.5
255.659	84.5
255.892	81.5
256.124	90.5
256.357	87.5
256.59	80.5
256.823	74.5
257.056	74.5
257.289	81.5
257.521	84.5
257.754	74.5
257.987	80.5
258.22	83.5
258.452	80.5
258.685	80.5
258.918	87.5
259.151	100.5
259.383	81.5
259.616	74.5
259.849	82.5
260.081	75.5
260.314	73.5
260.547	89.5
260.779	91.5
261.012	86.5
261.244	82.5
261.477	98.5
261.71	83.5
261.942	94.5
262.175	112.5
262.407	90.5
262.64	78.5
262.872	77.5
263.105	91.5
263.337	68.5
263.57	91.5
263.802	66.5
264.035	70.5
264.267	90.5
264.499	81.5
264.732	101.5
264.964	86.5
265.197	87.5
265.429	70.5
265.661	69.5
265.894	94.5
266.126	79.5
266.358	91.5
266.591	66.5
266.823	94.5
267.055	82.5
267.287	72.5
267.52	78.5
267.752	90.5
267.984	86.5
268.216	74.5
268.448	80.5
268.681	71.5
268.913	85.5
269.145	83.5
269.377	89.5
269.609	67.5
269.841	96.5
270.073	89.5
270.306	96.5
270.538	87.5
270.77	82.5
271.002	73.5
271.234	76.5
271.466	95.5
271.698	105.5
271.93	72.5
272.162	78.5
272.394	87.5
272.626	79.5
272.858	85.5
273.09	98.5
273.322	99.5
273.553	86.5
273.785	82.5
274.017	98.5
274.249	98.5
274.481	87.5
274.713	98.5
274.945	78.5
275.176	85.5
275.408	93.5
275.64	74.5
275.872	77.5
276.104	88.5
276.335	95.5
276.567	96.5
276.799	116.5
277.031	92.5
277.262	83.5
277.494	87.5
277.726	84.5
277.957	74.5
278.189	87.5
278.421	78.5
278.652	86.5
278.884	95.5
279.115	78.5
279.347	83.5
279.579	87.5
279.81	77.5
280.042	90.5
280.273	76.5
280.505	91.5
280.736	95.5
280.968	86.5
281.199	94.5
281.431	91.5
281.662	92.5
281.894	91.5
282.125	99.5
282.356	112.5
282.588	130.5
282.819	95.5
283.051	86.5
283.282	82.5
283.513	86.5
283.745	102.5
283.976	88.5
284.207	85.5
284.439	88.5
284.67	92.5
284.901	89.5
285.132	83.5
285.364	84.5
285.595	88.5
285.826	88.5
286.057	83.5
286.288	81.5
286.52	88.5
286.751	94.5
286.982	84.5
287.213	78.5
287.444	100.5
287.675	87.5
287.906	67.5
288.138	70.5
288.369	78.5
288.6	76.5
288.831	86.5
289.062	80.5
289.293	89.5
289.524	80.5
289.755	96.5
289.986	97.5
290.217	82.5
290.448	92.5
290.679	92.5
290.91	85.5
291.141	76.5
291.371	83.5
291.602	84.5
291.833	95.5
292.064	76.5
292.295	79.5
292.526	86.5
292.757	86.5
292.987	90.5
293.218	79.5
293.449	101.5
293.68	71.5
293.91	86.5
294.141	88.5
294.372	101.5
294.603	85.5
294.833	95.5
295.064	94.5
295.295	95.5
295.525	90.5
295.756	85.5
295.987	115.5
296.217	128.5
296.448	115.5
296.679	76.5
296.909	71.5
297.14	91.5
297.37	81.5
297.601	98.5
297.831	80.5
298.062	92.5
298.292	89.5
298.523	102.5
298.753	74.5
298.984	80.5
299.214	89.5
299.445	84.5
299.675	86.5
299.905	109.5
300.136	78.5
300.366	95.5
300.597	100.5
300.827	84.5
301.057	87.5
301.288	99.5
301.518	89.5
301.748	100.5
301.979	102.5
302.209	87.5
302.439	67.5
302.669	94.5
302.9	92.5
303.13	88.5
303.36	105.5
303.59	94.5
303.82	90.5
304.051	96.5
304.281	96.5
304.511	85.5
304.741	78.5
304.971	92.5
305.201	98.5
305.431	99.5
305.661	85.5
305.891	92.5
306.121	91.5
306.352	83.5
306.582	102.5
306.812	99.5
307.042	81.5
307.272	85.5
307.502	96.5
307.731	95.5
307.961	81.5
308.191	99.5
308.421	86.5
308.651	99.5
308.881	86.5
309.111	90.5
309.341	88.5
309.571	93.5
309.8	103.5
310.03	86.5
310.26	99.5
310.49	92.5
310.72	93.5
310.949	96.5
311.179	107.5
311.409	88.5
311.639	98.5
311.868	90.5
312.098	94.5
312.328	100.5
312.557	97.5
312.787	97.5
313.017	93.5
313.246	100.5
313.476	93.5
313.706	86.5
313.935	104.5
314.165	93.5
314.394	90.5
314.624	94.5
314.853	90.5
315.083	98.5
315.312	98.5
315.542	109.5
315.771	82.5
316.001	97.5
316.23	92.5
316.46	97.5
316.689	100.5
316.919	95.5
317.148	102.5
317.377	80.5
317.607	90.5
317.836	98.5
318.065	93.5
318.295	89.5
318.524	94.5
318.753	87.5
318.983	96.5
319.212	101.5
319.441	98.5
319.67	99.5
319.9	88.5
320.129	101.5
320.358	93.5
320.587	92.5
320.816	90.5
321.046	105.5
321.275	113.5
321.504	95.5
321.733	94.5
321.962	95.5
322.191	94.5
322.42	96.5
322.649	114.5
322.878	115.5
323.108	106.5
323.337	105.5
323.566	126.5
323.795	133.5
324.024	190.5
324.253	330.5
324.482	656.5
324.71	1434.5
324.939	1856.5
325.168	702.5
325.397	213.5
325.626	137.5
325.855	133.5
326.084	122.5
326.313	117.5
326.542	154.5
326.77	210.5
326.999	393.5
327.228	804.5
327.457	1408.5
327.686	1114.5
327.914	323.5
328.143	172.5
328.372	140.5
328.6	119.5
328.829	99.5
329.058	111.5
329.287	115.5
329.515	112.5
329.744	110.5
329.972	102.5
330.201	84.5
330.43	114.5
330.658	111.5
330.887	133.5
331.115	119.5
331.344	99.5
331.572	104.5
331.801	104.5
332.03	99.5
332.258	87.5
332.486	92.5
332.715	92.5
332.943	96.5
333.172	98.5
333.4	92.5
333.629	104.5
333.857	111.5
334.085	102.5
334.314	92.5
334.542	100.5
334.771	92.5
334.999	92.5
335.227	109.5
335.455	100.5
335.684	96.5
335.912	94.5
336.14	84.5
336.369	90.5
336.597	111.5
336.825	95.5
337.053	110.5
337.281	91.5
337.51	89.5
337.738	95.5
337.966	81.5
338.194	95.5
338.422	99.5
338.65	92.5
338.878	95.5
339.106	100.5
339.334	91.5
339.562	81.5
339.79	88.5
340.018	82.5
340.246	91.5
340.474	99.5
340.702	82.5
340.93	102.5
341.158	92.5
341.386	102.5
341.614	90.5
341.842	87.5
342.07	87.5
342.298	90.5
342.526	97.5
342.754	87.5
342.981	74.5
343.209	94.5
343.437	87.5
343.665	81.5
343.893	91.5
344.12	88.5
344.348	88.5
344.576	103.5
344.804	95.5
345.031	100.5
345.259	101.5
345.487	84.5
345.714	96.5
345.942	88.5
346.17	85.5
346.397	87.5
346.625	86.5
346.853	92.5
347.08	105.5
347.308	103.5
347.535	92.5
347.763	102.5
347.99	100.5
348.218	102.5
348.445	96.5
348.673	90.5
348.9	84.5
349.128	98.5
349.355	90.5
349.583	110.5
349.81	85.5
350.037	96.5
350.265	87.5
350.492	91.5
350.72	92.5
350.947	93.5
351.174	102.5
351.402	97.5
351.629	120.5
351.856	105.5
352.083	106.5
352.311	106.5
352.538	119.5
352.765	102.5
352.992	104.5
353.22	106.5
353.447	95.5
353.674	92.5
353.901	98.5
354.128	93.5
354.355	104.5
354.583	114.5
354.81	116.5
355.037	107.5
355.264	94.5
355.491	76.5
355.718	84.5
355.945	101.5
356.172	94.5
356.399	91.5
356.626	101.5
356.853	94.5
357.08	86.5
357.307	95.5
357.534	91.5
357.761	99.5
357.988	102.5
358.215	96.5
358.441	87.5
358.668	98.5
358.895	87.5
359.122	84.5
359.349	96.5
359.576	92.5
359.802	106.5
360.029	96.5
360.256	95.5
360.483	99.5
360.709	105.5
360.936	88.5
361.163	94.5
361.39	98.5
361.616	104.5
361.843	100.5
362.07	103.5
362.296	95.5
362.523	99.5
362.749	92.5
362.976	102.5
363.203	84.5
363.429	76.5
363.656	91.5
363.882	105.5
364.109	87.5
364.335	95.5
364.562	88.5
364.788	94.5
365.015	97.5
365.241	87.5
365.468	91.5
365.694	98.5
365.92	90.5
366.147	95.5
366.373	92.5
366.599	96.5
366.826	103.5
367.052	98.5
367.278	95.5
367.505	97.5
367.731	99.5
367.957	79.5
368.184	89.5
368.41	100.5
368.636	107.5
368.862	109.5
369.089	102.5
369.315	81.5
369.541	92.5
369.767	83.5
369.993	103.5
370.219	90.5
370.445	92.5
370.672	95.5
370.898	88.5
371.124	89.5
371.35	88.5
371.576	88.5
371.802	89.5
372.028	99.5
372.254	80.5
372.48	93.5
372.706	91.5
372.932	92.5
373.158	87.5
373.384	89.5
373.61	97.5
373.835	104.5
374.061	90.5
374.287	101.5
374.513	78.5
374.739	68.5
374.965	83.5
375.191	94.5
375.416	86.5
375.642	81.5
375.868	98.5
376.094	96.5
376.319	88.5
376.545	101.5
376.771	95.5
376.997	81.5
377.222	87.5
377.448	95.5
377.674	82.5
377.899	80.5
378.125	100.5
378.35	81.5
378.576	83.5
378.802	92.5
379.027	76.5
379.253	84.5
379.478	94.5
379.704	92.5
379.929	88.5
380.155	102.5
380.38	103.5
380.606	114.5
380.831	92.5
381.057	102.5
381.282	103.5
381.507	98.5
381.733	98.5
381.958	99.5
382.184	107.5
382.409	97.5
382.634	99.5
382.86	98.5
383.085	85.5
383.31	95.5
383.535	97.5
383.761	95.5
383.986	96.5
384.211	91.5
384.436	84.5
384.662	98.5
384.887	99.5
385.112	89.5
385.337	99.5
385.562	98.5
385.787	99.5
386.013	98.5
386.238	105.5
386.463	102.5
386.688	100.5
386.913	100.5
387.138	117.5
387.363	101.5
387.588	90.5
387.813	104.5
388.038	99.5
388.263	98.5
388.488	110.5
388.713	94.5
388.938	104.5
389.163	98.5
389.387	96.5
389.612	100.5
389.837	88.5
390.062	104.5
390.287	96.5
390.512	99.5
390.736	89.5
390.961	95.5
391.186	85.5
391.411	91.5
391.636	92.5
391.86	92.5
392.085	80.5
392.31	92.5
392.534	85.5
392.759	82.5
392.984	88.5
393.208	96.5
393.433	86.5
393.658	81.5
393.882	85.5
394.107	90.5
394.331	89.5
394.556	99.5
394.78	84.5
395.005	93.5
395.229	94.5
395.454	87.5
395.678	87.5
395.903	83.5
396.127	90.5
396.352	94.5
396.576	80.5
396.801	83.5
397.025	97.5
397.249	99.5
397.474	98.5
397.698	87.5
397.922	84.5
398.147	75.5
398.371	89.5
398.595	81.5
398.82	82.5
399.044	82.5
399.268	87.5
399.492	96.5
399.717	89.5
399.941	93.5
400.165	102.5
400.389	90.5
400.613	86.5
400.837	99.5
401.062	95.5
401.286	91.5
401.51	75.5
401.734	99.5
401.958	91.5
402.182	126.5
402.406	148.5
402.63	110.5
402.854	92.5
403.078	81.5
403.302	92.5
403.526	85.5
403.75	96.5
403.974	82.5
404.198	82.5
404.422	77.5
404.645	98.5
404.869	90.5
405.093	91.5
405.317	84.5
405.541	92.5
405.765	115.5
405.988	96.5
406.212	160.5
406.436	194.5
406.66	120.5
406.883	106.5
407.107	91.5
407.331	88.5
407.555	93.5
407.778	90.5
408.002	84.5
408.226	91.5
408.449	88.5
408.673	77.5
408.896	106.5
409.12	94.5
409.344	92.5
409.567	81.5
409.791	95.5
410.014	106.5
410.238	97.5
410.461	88.5
410.685	81.5
410.908	96.5
411.132	99.5
411.355	103.5
411.578	94.5
411.802	97.5
412.025	92.5
412.249	91.5
412.472	92.5
412.695	90.5
412.919	102.5
413.142	83.5
413.365	75.5
413.589	84.5
413.812	94.5
414.035	90.5
414.258	97.5
414.482	88.5
414.705	84.5
414.928	87.5
415.151	87.5
415.374	108.5
415.597	96.5
415.821	107.5
416.044	72.5
416.267	88.5
416.49	90.5
416.713	89.5
416.936	82.5
417.159	90.5
417.382	92.5
417.605	93.5
417.828	103.5
418.051	84.5
418.274	99.5
418.497	80.5
418.72	89.5
418.943	93.5
419.166	95.5
419.389	88.5
419.611	93.5
419.834	80.5
420.057	86.5
420.28	73.5
420.503	88.5
420.726	85.5
420.948	91.5
421.171	91.5
421.394	88.5
421.617	90.5
421.839	90.5
422.062	100.5
422.285	77.5
422.507	101.5
422.73	94.5
422.953	82.5
423.175	91.5
423.398	87.5
423.621	104.5
423.843	88.5
424.066	99.5
424.288	92.5
424.511	104.5
424.733	106.5
424.956	104.5
425.178	93.5
425.401	87.5
425.623	88.5
425.846	93.5
426.068	84.5
426.291	89.5
426.513	101.5
426.735	90.5
426.958	77.5
427.18	111.5
427.402	118.5
427.625	131.5
427.847	119.5
428.069	100.5
428.292	83.5
428.514	91.5
428.736	92.5
428.958	91.5
429.181	90.5
429.403	92.5
429.625	71.5
429.847	81.5
430.069	93.5
430.292	98.5
430.514	94.5
430.736	91.5
430.958	88.5
431.18	89.5
431.402	89.5
431.624	88.5
431.846	78.5
432.068	100.5
432.29	88.5
432.512	74.5
432.734	87.5
432.956	91.5
433.178	89.5
433.4	97.5
433.622	86.5
433.844	84.5
434.066	102.5
434.287	106.5
434.509	86.5
434.731	92.5
434.953	89.5
435.175	82.5
435.397	90.5
435.618	86.5
435.84	99.5
436.062	102.5
436.284	105.5
436.505	98.5
436.727	94.5
436.949	104.5
437.17	103.5
437.392	92.5
437.614	107.5
437.835	106.5
438.057	102.5
438.278	117.5
438.5	117.5
438.721	119.5
438.943	103.5
439.165	95.5
439.386	83.5
439.608	91.5
439.829	98.5
440.05	116.5
440.272	124.5
440.493	81.5
440.715	76.5
440.936	97.5
441.158	71.5
441.379	78.5
441.6	85.5
441.822	95.5
442.043	94.5
442.264	99.5
442.486	124.5
442.707	105.5
442.928	94.5
443.149	108.5
443.371	107.5
443.592	89.5
443.813	114.5
444.034	91.5
444.255	90.5
444.476	84.5
444.698	85.5
444.919	73.5
445.14	128.5
445.361	127.5
445.582	101.5
445.803	131.5
446.024	134.5
446.245	117.5
446.466	115.5
446.687	94.5
446.908	91.5
447.129	78.5
447.35	88.5
447.571	102.5
447.792	102.5
448.013	92.5
448.234	102.5
448.455	104.5
448.675	112.5
448.896	113.5
449.117	84.5
449.338	89.5
449.559	110.5
449.779	130.5
450	103.5
450.221	104.5
450.442	101.5
450.662	90.5
450.883	100.5
451.104	97.5
451.324	85.5
451.545	89.5
451.766	84.5
451.986	102.5
452.207	91.5
452.428	86.5
452.648	104.5
452.869	94.5
453.089	117.5
453.31	117.5
453.53	100.5
453.751	95.5
453.971	97.5
454.192	100.5
454.412	83.5
454.633	98.5
454.853	96.5
455.073	92.5
455.294	96.5
455.514	96.5
455.734	94.5
455.955	86.5
456.175	75.5
456.395	84.5
456.616	85.5
456.836	88.5
457.056	73.5
457.276	81.5
457.497	99.5
457.717	105.5
457.937	89.5
458.157	75.5
458.377	91.5
458.598	112.5
458.818	130.5
459.038	156.5
459.258	106.5
459.478	60.5
459.698	73.5
459.918	96.5
460.138	89.5
460.358	90.5
460.578	88.5
460.798	78.5
461.018	98.5
461.238	89.5
461.458	84.5
461.678	85.5
461.898	86.5
462.118	93.5
462.338	86.5
462.558	79.5
462.777	79.5
462.997	89.5
463.217	84.5
463.437	66.5
463.657	77.5
463.876	101.5
464.096	92.5
464.316	93.5
464.536	100.5
464.755	76.5
464.975	105.5
465.195	149.5
465.414	149.5
465.634	88.5
465.854	84.5
466.073	79.5
466.293	89.5
466.512	80.5
466.732	94.5
466.951	80.5
467.171	86.5
467.391	94.5
467.61	92.5
467.829	86.5
468.049	78.5
468.268	74.5
468.488	70.5
468.707	73.5
468.927	86.5
469.146	96.5
469.365	90.5
469.585	86.5
469.804	93.5
470.023	83.5
470.243	85.5
470.462	104.5
470.681	91.5
470.901	102.5
471.12	86.5
471.339	77.5
471.558	84.5
471.777	79.5
471.997	79.5
472.216	90.5
472.435	93.5
472.654	72.5
472.873	71.5
473.092	95.5
473.311	76.5
473.53	97.5
473.749	100.5
473.968	85.5
474.187	109.5
474.406	95.5
474.625	79.5
474.844	98.5
475.063	76.5
475.282	77.5
475.501	72.5
475.72	84.5
475.939	85.5
476.158	95.5
476.377	92.5
476.596	85.5
476.814	97.5
477.033	86.5
477.252	87.5
477.471	87.5
477.69	82.5
477.908	72.5
478.127	83.5
478.346	96.5
478.564	84.5
478.783	75.5
479.002	72.5
479.22	88.5
479.439	78.5
479.658	87.5
479.876	95.5
480.095	91.5
480.313	80.5
480.532	87.5
480.751	75.5
480.969	82.5
481.188	112.5
481.406	83.5
481.624	89.5
481.843	95.5
482.061	97.5
482.28	92.5
482.498	84.5
482.717	98.5
482.935	93.5
483.153	94.5
483.372	89.5
483.59	94.5
483.808	92.5
484.027	92.5
484.245	99.5
484.463	78.5
484.681	97.5
484.9	89.5
485.118	83.5
485.336	94.5
485.554	97.5
485.772	90.5
485.99	109.5
486.209	104.5
486.427	115.5
486.645	117.5
486.863	114.5
487.081	105.5
487.299	95.5
487.517	92.5
487.735	90.5
487.953	88.5
488.171	96.5
488.389	91.5
488.607	94.5
488.825	100.5
489.043	91.5
489.261	91.5
489.479	76.5
489.696	96.5
489.914	93.5
490.132	87.5
490.35	91.5
490.568	82.5
490.786	96.5
491.003	89.5
491.221	92.5
491.439	101.5
491.657	87.5
491.874	103.5
492.092	78.5
492.31	88.5
492.527	78.5
492.745	80.5
492.963	91.5
493.18	95.5
493.398	94.5
493.615	90.5
493.833	108.5
494.05	87.5
494.268	91.5
494.485	98.5
494.703	96.5
494.92	87.5
495.138	101.5
495.355	90.5
495.573	90.5
495.79	96.5
496.008	88.5
496.225	83.5
496.442	87.5
496.66	93.5
496.877	75.5
497.094	96.5
497.312	97.5
497.529	95.5
497.746	105.5
497.963	99.5
498.181	82.5
498.398	85.5
498.615	109.5
498.832	96.5
499.049	86.5
499.267	78.5
499.484	83.5
499.701	90.5
499.918	90.5
500.135	92.5
500.352	95.5
500.569	77.5
500.786	79.5
501.003	96.5
501.22	89.5
501.437	98.5
501.654	89.5
501.871	111.5
502.088	91.5
502.305	102.5
502.522	71.5
502.739	82.5
502.956	78.5
503.172	95.5
503.389	82.5
503.606	91.5
503.823	105.5
504.04	92.5
504.256	104.5
504.473	98.5
504.69	94.5
504.907	98.5
505.123	96.5
505.34	78.5
505.557	83.5
505.773	100.5
505.99	87.5
506.207	88.5
506.423	97.5
506.64	87.5
506.856	87.5
507.073	95.5
507.289	87.5
507.506	82.5
507.722	111.5
507.939	105.5
508.155	88.5
508.372	103.5
508.588	92.5
508.805	97.5
509.021	80.5
509.238	84.5
509.454	104.5
509.67	102.5
509.887	108.5
510.103	120.5
510.319	184.5
510.536	680.5
510.752	2127.5
510.968	610.5
511.184	146.5
511.401	107.5
511.617	96.5
511.833	92.5
512.049	98.5
512.265	82.5
512.481	90.5
512.698	101.5
512.914	90.5
513.13	100.5
513.346	83.5
513.562	92.5
513.778	88.5
513.994	84.5
514.21	97.5
514.426	111.5
514.642	134.5
514.858	117.5
515.074	151.5
515.29	392.5
515.506	1237.5
515.721	472.5
515.937	150.5
516.153	120.5
516.369	88.5
516.585	88.5
516.801	87.5
517.016	95.5
517.232	75.5
517.448	109.5
517.664	104.5
517.879	92.5
518.095	103.5
518.311	104.5
518.527	92.5
518.742	97.5
518.958	97.5
519.173	96.5
519.389	100.5
519.605	90.5
519.82	92.5
520.036	100.5
520.251	100.5
520.467	117.5
520.682	101.5
520.898	90.5
521.113	108.5
521.329	115.5
521.544	175.5
521.76	498.5
521.975	2040.5
522.19	1280.5
522.406	295.5
522.621	112.5
522.836	94.5
523.052	88.5
523.267	104.5
523.482	92.5
523.698	90.5
523.913	131.5
524.128	96.5
524.343	90.5
524.559	82.5
524.774	84.5
524.989	98.5
525.204	94.5
525.419	113.5
525.634	92.5
525.849	103.5
526.064	85.5
526.28	102.5
526.495	78.5
526.71	75.5
526.925	75.5
527.14	75.5
527.355	105.5
527.57	94.5
527.785	83.5
527.999	90.5
528.214	104.5
528.429	102.5
528.644	91.5
528.859	89.5
529.074	89.5
529.289	120.5
529.503	178.5
529.718	107.5
529.933	101.5
530.148	94.5
530.363	94.5
530.577	98.5
530.792	97.5
531.007	99.5
531.221	97.5
531.436	83.5
531.651	104.5
531.865	97.5
532.08	107.5
532.295	90.5
532.509	92.5
532.724	94.5
532.938	96.5
533.153	98.5
533.367	113.5
533.582	107.5
533.796	88.5
534.011	85.5
534.225	88.5
534.44	82.5
534.654	86.5
534.868	105.5
535.083	91.5
535.297	87.5
535.511	106.5
535.726	92.5
