Data from Uncirc_2002_H10_HRD10591_00081.txt Node
Date: Wed Jan 03 10:39:57 EST 2024
User: Yrep
Spectrometer: HR+D1059
Trigger mode: 1
Integration Time (sec): 1.000000E-1
Scans to average: 1
Electric dark correction enabled: true
Nonlinearity correction enabled: false
Boxcar width: 0
XAxis mode: Wavelengths
Number of Pixels in Spectrum: 2048
>>>>>Begin Spectral Data<<<<<
223.165	-17.38
223.4	-17.38
223.635	-17.38
223.869	-16.38
224.104	-17.38
224.338	-17.38
224.573	-9.38
224.808	-7.38
225.042	-7.38
225.277	-11.38
225.511	-5.38
225.746	-6.38
225.98	11.62
226.215	9.62
226.449	17.62
226.683	16.62
226.918	33.62
227.152	26.62
227.387	38.62
227.621	35.62
227.856	56.62
228.09	45.62
228.324	69.62
228.559	57.62
228.793	38.62
229.027	66.62
229.262	65.62
229.496	66.62
229.73	71.62
229.964	84.62
230.199	74.62
230.433	66.62
230.667	86.62
230.901	81.62
231.136	76.62
231.37	81.62
231.604	67.62
231.838	86.62
232.072	73.62
232.306	87.62
232.541	88.62
232.775	88.62
233.009	78.62
233.243	69.62
233.477	77.62
233.711	82.62
233.945	92.62
234.179	83.62
234.413	75.62
234.647	85.62
234.881	73.62
235.115	71.62
235.349	69.62
235.583	73.62
235.817	77.62
236.051	79.62
236.285	67.62
236.519	80.62
236.753	75.62
236.987	83.62
237.221	85.62
237.455	73.62
237.689	82.62
237.922	79.62
238.156	72.62
238.39	67.62
238.624	75.62
238.858	70.62
239.091	85.62
239.325	80.62
239.559	79.62
239.793	66.62
240.027	69.62
240.26	67.62
240.494	73.62
240.728	79.62
240.961	82.62
241.195	88.62
241.429	87.62
241.662	69.62
241.896	73.62
242.13	83.62
242.363	78.62
242.597	74.62
242.83	66.62
243.064	68.62
243.298	71.62
243.531	84.62
243.765	66.62
243.998	81.62
244.232	86.62
244.465	77.62
244.699	75.62
244.932	86.62
245.166	82.62
245.399	70.62
245.633	81.62
245.866	91.62
246.099	90.62
246.333	85.62
246.566	85.62
246.8	82.62
247.033	75.62
247.266	57.62
247.5	69.62
247.733	85.62
247.966	78.62
248.2	76.62
248.433	72.62
248.666	88.62
248.899	77.62
249.133	83.62
249.366	105.62
249.599	91.62
249.832	89.62
250.066	74.62
250.299	73.62
250.532	89.62
250.765	83.62
250.998	82.62
251.231	81.62
251.465	80.62
251.698	78.62
251.931	82.62
252.164	68.62
252.397	99.62
252.63	85.62
252.863	88.62
253.096	71.62
253.329	79.62
253.562	77.62
253.795	85.62
254.028	66.62
254.261	87.62
254.494	83.62
254.727	87.62
254.96	81.62
255.193	76.62
255.426	70.62
255.659	90.62
255.892	85.62
256.124	83.62
256.357	83.62
256.59	88.62
256.823	71.62
257.056	87.62
257.289	88.62
257.521	73.62
257.754	85.62
257.987	66.62
258.22	88.62
258.452	85.62
258.685	82.62
258.918	67.62
259.151	80.62
259.383	82.62
259.616	75.62
259.849	91.62
260.081	97.62
260.314	86.62
260.547	89.62
260.779	80.62
261.012	86.62
261.244	95.62
261.477	95.62
261.71	88.62
261.942	90.62
262.175	95.62
262.407	85.62
262.64	69.62
262.872	79.62
263.105	77.62
263.337	90.62
263.57	77.62
263.802	80.62
264.035	103.62
264.267	92.62
264.499	68.62
264.732	84.62
264.964	83.62
265.197	74.62
265.429	94.62
265.661	78.62
265.894	85.62
266.126	85.62
266.358	81.62
266.591	91.62
266.823	78.62
267.055	94.62
267.287	73.62
267.52	79.62
267.752	84.62
267.984	80.62
268.216	84.62
268.448	86.62
268.681	92.62
268.913	94.62
269.145	86.62
269.377	79.62
269.609	82.62
269.841	91.62
270.073	88.62
270.306	95.62
270.538	90.62
270.77	90.62
271.002	89.62
271.234	81.62
271.466	84.62
271.698	68.62
271.93	78.62
272.162	98.62
272.394	85.62
272.626	89.62
272.858	76.62
273.09	81.62
273.322	88.62
273.553	79.62
273.785	103.62
274.017	80.62
274.249	90.62
274.481	88.62
274.713	80.62
274.945	80.62
275.176	83.62
275.408	88.62
275.64	95.62
275.872	78.62
276.104	74.62
276.335	81.62
276.567	83.62
276.799	96.62
277.031	91.62
277.262	93.62
277.494	87.62
277.726	78.62
277.957	96.62
278.189	86.62
278.421	73.62
278.652	78.62
278.884	93.62
279.115	95.62
279.347	78.62
279.579	76.62
279.81	91.62
280.042	76.62
280.273	96.62
280.505	101.62
280.736	95.62
280.968	91.62
281.199	82.62
281.431	87.62
281.662	85.62
281.894	89.62
282.125	87.62
282.356	120.62
282.588	138.62
282.819	106.62
283.051	93.62
283.282	99.62
283.513	91.62
283.745	82.62
283.976	73.62
284.207	82.62
284.439	86.62
284.67	81.62
284.901	80.62
285.132	90.62
285.364	88.62
285.595	87.62
285.826	63.62
286.057	94.62
286.288	78.62
286.52	77.62
286.751	96.62
286.982	89.62
287.213	84.62
287.444	79.62
287.675	87.62
287.906	88.62
288.138	79.62
288.369	85.62
288.6	99.62
288.831	78.62
289.062	85.62
289.293	90.62
289.524	80.62
289.755	79.62
289.986	85.62
290.217	92.62
290.448	84.62
290.679	82.62
290.91	108.62
291.141	90.62
291.371	104.62
291.602	87.62
291.833	93.62
292.064	83.62
292.295	93.62
292.526	91.62
292.757	101.62
292.987	83.62
293.218	86.62
293.449	72.62
293.68	83.62
293.91	84.62
294.141	99.62
294.372	87.62
294.603	91.62
294.833	90.62
295.064	85.62
295.295	87.62
295.525	89.62
295.756	104.62
295.987	98.62
296.217	127.62
296.448	105.62
296.679	83.62
296.909	93.62
297.14	94.62
297.37	85.62
297.601	97.62
297.831	73.62
298.062	86.62
298.292	89.62
298.523	82.62
298.753	97.62
298.984	85.62
299.214	95.62
299.445	92.62
299.675	90.62
299.905	95.62
300.136	83.62
300.366	88.62
300.597	87.62
300.827	97.62
301.057	104.62
301.288	94.62
301.518	82.62
301.748	94.62
301.979	92.62
302.209	79.62
302.439	82.62
302.669	84.62
302.9	77.62
303.13	92.62
303.36	90.62
303.59	88.62
303.82	95.62
304.051	88.62
304.281	79.62
304.511	88.62
304.741	77.62
304.971	94.62
305.201	89.62
305.431	92.62
305.661	93.62
305.891	82.62
306.121	77.62
306.352	93.62
306.582	107.62
306.812	92.62
307.042	82.62
307.272	93.62
307.502	77.62
307.731	87.62
307.961	89.62
308.191	85.62
308.421	81.62
308.651	91.62
308.881	92.62
309.111	72.62
309.341	91.62
309.571	91.62
309.8	90.62
310.03	94.62
310.26	100.62
310.49	101.62
310.72	112.62
310.949	95.62
311.179	94.62
311.409	79.62
311.639	100.62
311.868	100.62
312.098	90.62
312.328	85.62
312.557	102.62
312.787	90.62
313.017	105.62
313.246	102.62
313.476	90.62
313.706	90.62
313.935	94.62
314.165	97.62
314.394	96.62
314.624	82.62
314.853	87.62
315.083	82.62
315.312	97.62
315.542	95.62
315.771	100.62
316.001	99.62
316.23	84.62
316.46	72.62
316.689	78.62
316.919	90.62
317.148	92.62
317.377	113.62
317.607	98.62
317.836	95.62
318.065	86.62
318.295	89.62
318.524	84.62
318.753	76.62
318.983	100.62
319.212	81.62
319.441	96.62
319.67	101.62
319.9	97.62
320.129	90.62
320.358	89.62
320.587	103.62
320.816	108.62
321.046	88.62
321.275	107.62
321.504	98.62
321.733	88.62
321.962	99.62
322.191	105.62
322.42	96.62
322.649	105.62
322.878	96.62
323.108	123.62
323.337	121.62
323.566	113.62
323.795	148.62
324.024	194.62
324.253	354.62
324.482	751.62
324.71	1502.62
324.939	1947.62
325.168	754.62
325.397	223.62
325.626	121.62
325.855	116.62
326.084	112.62
326.313	134.62
326.542	124.62
326.77	215.62
326.999	413.62
327.228	847.62
327.457	1527.62
327.686	1171.62
327.914	352.62
328.143	181.62
328.372	127.62
328.6	118.62
328.829	101.62
329.058	114.62
329.287	117.62
329.515	100.62
329.744	91.62
329.972	109.62
330.201	97.62
330.43	107.62
330.658	108.62
330.887	124.62
331.115	108.62
331.344	93.62
331.572	87.62
331.801	101.62
332.03	99.62
332.258	79.62
332.486	104.62
332.715	102.62
332.943	94.62
333.172	88.62
333.4	97.62
333.629	88.62
333.857	110.62
334.085	101.62
334.314	82.62
334.542	98.62
334.771	108.62
334.999	105.62
335.227	96.62
335.455	91.62
335.684	97.62
335.912	83.62
336.14	103.62
336.369	99.62
336.597	97.62
336.825	76.62
337.053	86.62
337.281	94.62
337.51	90.62
337.738	87.62
337.966	96.62
338.194	96.62
338.422	100.62
338.65	98.62
338.878	111.62
339.106	88.62
339.334	88.62
339.562	90.62
339.79	95.62
340.018	95.62
340.246	93.62
340.474	88.62
340.702	91.62
340.93	85.62
341.158	96.62
341.386	89.62
341.614	92.62
341.842	87.62
342.07	90.62
342.298	89.62
342.526	96.62
342.754	85.62
342.981	93.62
343.209	79.62
343.437	103.62
343.665	99.62
343.893	73.62
344.12	89.62
344.348	85.62
344.576	98.62
344.804	89.62
345.031	95.62
345.259	95.62
345.487	88.62
345.714	89.62
345.942	98.62
346.17	83.62
346.397	86.62
346.625	98.62
346.853	96.62
347.08	98.62
347.308	86.62
347.535	91.62
347.763	96.62
347.99	101.62
348.218	100.62
348.445	115.62
348.673	93.62
348.9	96.62
349.128	98.62
349.355	89.62
349.583	81.62
349.81	94.62
350.037	87.62
350.265	90.62
350.492	90.62
350.72	96.62
350.947	105.62
351.174	96.62
351.402	107.62
351.629	99.62
351.856	95.62
352.083	93.62
352.311	92.62
352.538	120.62
352.765	100.62
352.992	119.62
353.22	107.62
353.447	104.62
353.674	105.62
353.901	96.62
354.128	103.62
354.355	96.62
354.583	87.62
354.81	93.62
355.037	99.62
355.264	84.62
355.491	93.62
355.718	88.62
355.945	78.62
356.172	86.62
356.399	95.62
356.626	101.62
356.853	97.62
357.08	86.62
357.307	79.62
357.534	84.62
357.761	94.62
357.988	98.62
358.215	82.62
358.441	88.62
358.668	85.62
358.895	81.62
359.122	103.62
359.349	89.62
359.576	94.62
359.802	104.62
360.029	115.62
360.256	108.62
360.483	95.62
360.709	88.62
360.936	86.62
361.163	80.62
361.39	82.62
361.616	84.62
361.843	88.62
362.07	89.62
362.296	83.62
362.523	95.62
362.749	90.62
362.976	78.62
363.203	90.62
363.429	88.62
363.656	88.62
363.882	91.62
364.109	86.62
364.335	88.62
364.562	81.62
364.788	87.62
365.015	95.62
365.241	96.62
365.468	104.62
365.694	111.62
365.92	95.62
366.147	100.62
366.373	85.62
366.599	93.62
366.826	95.62
367.052	103.62
367.278	90.62
367.505	88.62
367.731	86.62
367.957	86.62
368.184	82.62
368.41	90.62
368.636	104.62
368.862	105.62
369.089	112.62
369.315	82.62
369.541	86.62
369.767	81.62
369.993	92.62
370.219	95.62
370.445	69.62
370.672	94.62
370.898	98.62
371.124	76.62
371.35	72.62
371.576	91.62
371.802	88.62
372.028	85.62
372.254	85.62
372.48	86.62
372.706	87.62
372.932	89.62
373.158	82.62
373.384	87.62
373.61	90.62
373.835	92.62
374.061	90.62
374.287	93.62
374.513	82.62
374.739	87.62
374.965	95.62
375.191	83.62
375.416	94.62
375.642	84.62
375.868	84.62
376.094	75.62
376.319	96.62
376.545	91.62
376.771	99.62
376.997	86.62
377.222	89.62
377.448	101.62
377.674	99.62
377.899	79.62
378.125	84.62
378.35	90.62
378.576	80.62
378.802	90.62
379.027	83.62
379.253	94.62
379.478	83.62
379.704	98.62
379.929	98.62
380.155	90.62
380.38	98.62
380.606	86.62
380.831	93.62
381.057	86.62
381.282	91.62
381.507	81.62
381.733	78.62
381.958	105.62
382.184	100.62
382.409	90.62
382.634	89.62
382.86	91.62
383.085	96.62
383.31	91.62
383.535	96.62
383.761	94.62
383.986	86.62
384.211	97.62
384.436	86.62
384.662	105.62
384.887	97.62
385.112	105.62
385.337	106.62
385.562	107.62
385.787	108.62
386.013	105.62
386.238	94.62
386.463	96.62
386.688	91.62
386.913	91.62
387.138	97.62
387.363	98.62
387.588	101.62
387.813	101.62
388.038	112.62
388.263	101.62
388.488	94.62
388.713	93.62
388.938	97.62
389.163	95.62
389.387	89.62
389.612	103.62
389.837	97.62
390.062	91.62
390.287	81.62
390.512	90.62
390.736	100.62
390.961	101.62
391.186	85.62
391.411	82.62
391.636	86.62
391.86	78.62
392.085	104.62
392.31	88.62
392.534	84.62
392.759	83.62
392.984	77.62
393.208	86.62
393.433	96.62
393.658	77.62
393.882	85.62
394.107	86.62
394.331	87.62
394.556	87.62
394.78	82.62
395.005	88.62
395.229	82.62
395.454	81.62
395.678	71.62
395.903	88.62
396.127	98.62
396.352	71.62
396.576	82.62
396.801	94.62
397.025	88.62
397.249	85.62
397.474	89.62
397.698	92.62
397.922	83.62
398.147	91.62
398.371	95.62
398.595	80.62
398.82	74.62
399.044	93.62
399.268	88.62
399.492	81.62
399.717	90.62
399.941	70.62
400.165	87.62
400.389	91.62
400.613	72.62
400.837	89.62
401.062	86.62
401.286	86.62
401.51	83.62
401.734	79.62
401.958	94.62
402.182	118.62
402.406	152.62
402.63	111.62
402.854	101.62
403.078	85.62
403.302	86.62
403.526	72.62
403.75	74.62
403.974	73.62
404.198	88.62
404.422	90.62
404.645	88.62
404.869	92.62
405.093	91.62
405.317	91.62
405.541	104.62
405.765	99.62
405.988	109.62
406.212	148.62
406.436	220.62
406.66	125.62
406.883	97.62
407.107	89.62
407.331	81.62
407.555	92.62
407.778	86.62
408.002	86.62
408.226	77.62
408.449	84.62
408.673	89.62
408.896	86.62
409.12	97.62
409.344	86.62
409.567	92.62
409.791	83.62
410.014	111.62
410.238	87.62
410.461	90.62
410.685	94.62
410.908	97.62
411.132	94.62
411.355	102.62
411.578	86.62
411.802	102.62
412.025	91.62
412.249	94.62
412.472	87.62
412.695	78.62
412.919	75.62
413.142	78.62
413.365	90.62
413.589	93.62
413.812	85.62
414.035	84.62
414.258	104.62
414.482	78.62
414.705	97.62
414.928	99.62
415.151	97.62
415.374	101.62
415.597	85.62
415.821	85.62
416.044	90.62
416.267	78.62
416.49	86.62
416.713	97.62
416.936	85.62
417.159	83.62
417.382	103.62
417.605	97.62
417.828	91.62
418.051	93.62
418.274	91.62
418.497	78.62
418.72	85.62
418.943	96.62
419.166	93.62
419.389	75.62
419.611	89.62
419.834	93.62
420.057	73.62
420.28	84.62
420.503	73.62
420.726	89.62
420.948	93.62
421.171	97.62
421.394	80.62
421.617	92.62
421.839	88.62
422.062	87.62
422.285	93.62
422.507	103.62
422.73	115.62
422.953	94.62
423.175	87.62
423.398	78.62
423.621	95.62
423.843	82.62
424.066	92.62
424.288	94.62
424.511	95.62
424.733	94.62
424.956	92.62
425.178	94.62
425.401	94.62
425.623	112.62
425.846	97.62
426.068	86.62
426.291	95.62
426.513	87.62
426.735	106.62
426.958	96.62
427.18	104.62
427.402	122.62
427.625	150.62
427.847	119.62
428.069	113.62
428.292	97.62
428.514	77.62
428.736	81.62
428.958	87.62
429.181	82.62
429.403	88.62
429.625	83.62
429.847	101.62
430.069	93.62
430.292	91.62
430.514	86.62
430.736	90.62
430.958	95.62
431.18	79.62
431.402	84.62
431.624	83.62
431.846	92.62
432.068	90.62
432.29	93.62
432.512	87.62
432.734	85.62
432.956	95.62
433.178	86.62
433.4	96.62
433.622	88.62
433.844	94.62
434.066	84.62
434.287	88.62
434.509	81.62
434.731	93.62
434.953	75.62
435.175	86.62
435.397	74.62
435.618	95.62
435.84	90.62
436.062	110.62
436.284	110.62
436.505	100.62
436.727	83.62
436.949	104.62
437.17	93.62
437.392	90.62
437.614	90.62
437.835	103.62
438.057	114.62
438.278	114.62
438.5	106.62
438.721	110.62
438.943	102.62
439.165	81.62
439.386	83.62
439.608	90.62
439.829	110.62
440.05	109.62
440.272	132.62
440.493	95.62
440.715	95.62
440.936	87.62
441.158	100.62
441.379	88.62
441.6	101.62
441.822	83.62
442.043	103.62
442.264	104.62
442.486	102.62
442.707	85.62
442.928	89.62
443.149	119.62
443.371	127.62
443.592	102.62
443.813	112.62
444.034	105.62
444.255	99.62
444.476	86.62
444.698	82.62
444.919	85.62
445.14	140.62
445.361	118.62
445.582	108.62
445.803	138.62
446.024	133.62
446.245	117.62
446.466	108.62
446.687	71.62
446.908	85.62
447.129	92.62
447.35	90.62
447.571	88.62
447.792	88.62
448.013	80.62
448.234	99.62
448.455	107.62
448.675	121.62
448.896	120.62
449.117	97.62
449.338	105.62
449.559	126.62
449.779	128.62
450	100.62
450.221	83.62
450.442	88.62
450.662	98.62
450.883	100.62
451.104	90.62
451.324	96.62
451.545	85.62
451.766	71.62
451.986	79.62
452.207	76.62
452.428	70.62
452.648	92.62
452.869	102.62
453.089	110.62
453.31	109.62
453.53	106.62
453.751	95.62
453.971	104.62
454.192	85.62
454.412	78.62
454.633	77.62
454.853	91.62
455.073	89.62
455.294	97.62
455.514	100.62
455.734	78.62
455.955	85.62
456.175	95.62
456.395	87.62
456.616	89.62
456.836	88.62
457.056	90.62
457.276	90.62
457.497	83.62
457.717	82.62
457.937	78.62
458.157	93.62
458.377	92.62
458.598	106.62
458.818	125.62
459.038	150.62
459.258	105.62
459.478	72.62
459.698	90.62
459.918	78.62
460.138	93.62
460.358	79.62
460.578	96.62
460.798	88.62
461.018	72.62
461.238	81.62
461.458	82.62
461.678	71.62
461.898	73.62
462.118	85.62
462.338	96.62
462.558	81.62
462.777	74.62
462.997	86.62
463.217	83.62
463.437	87.62
463.657	82.62
463.876	77.62
464.096	96.62
464.316	84.62
464.536	82.62
464.755	96.62
464.975	82.62
465.195	145.62
465.414	142.62
465.634	83.62
465.854	77.62
466.073	94.62
466.293	81.62
466.512	79.62
466.732	97.62
466.951	99.62
467.171	90.62
467.391	100.62
467.61	98.62
467.829	89.62
468.049	83.62
468.268	78.62
468.488	102.62
468.707	88.62
468.927	99.62
469.146	78.62
469.365	83.62
469.585	90.62
469.804	90.62
470.023	94.62
470.243	89.62
470.462	97.62
470.681	115.62
470.901	89.62
471.12	95.62
471.339	77.62
471.558	89.62
471.777	77.62
471.997	92.62
472.216	94.62
472.435	86.62
472.654	72.62
472.873	99.62
473.092	82.62
473.311	87.62
473.53	74.62
473.749	77.62
473.968	95.62
474.187	97.62
474.406	89.62
474.625	81.62
474.844	98.62
475.063	83.62
475.282	82.62
475.501	76.62
475.72	96.62
475.939	85.62
476.158	80.62
476.377	85.62
476.596	78.62
476.814	94.62
477.033	82.62
477.252	90.62
477.471	96.62
477.69	94.62
477.908	80.62
478.127	100.62
478.346	61.62
478.564	85.62
478.783	97.62
479.002	89.62
479.22	70.62
479.439	94.62
479.658	101.62
479.876	73.62
480.095	79.62
480.313	85.62
480.532	83.62
480.751	86.62
480.969	85.62
481.188	94.62
481.406	90.62
481.624	91.62
481.843	86.62
482.061	81.62
482.28	87.62
482.498	78.62
482.717	78.62
482.935	90.62
483.153	87.62
483.372	96.62
483.59	74.62
483.808	101.62
484.027	90.62
484.245	93.62
484.463	97.62
484.681	98.62
484.9	73.62
485.118	83.62
485.336	90.62
485.554	89.62
485.772	97.62
485.99	106.62
486.209	114.62
486.427	87.62
486.645	118.62
486.863	98.62
487.081	98.62
487.299	94.62
487.517	87.62
487.735	88.62
487.953	89.62
488.171	105.62
488.389	101.62
488.607	105.62
488.825	98.62
489.043	77.62
489.261	94.62
489.479	91.62
489.696	89.62
489.914	98.62
490.132	81.62
490.35	97.62
490.568	74.62
490.786	82.62
491.003	87.62
491.221	88.62
491.439	80.62
491.657	86.62
491.874	103.62
492.092	98.62
492.31	80.62
492.527	75.62
492.745	89.62
492.963	83.62
493.18	105.62
493.398	85.62
493.615	89.62
493.833	90.62
494.05	83.62
494.268	90.62
494.485	70.62
494.703	85.62
494.92	81.62
495.138	90.62
495.355	98.62
495.573	93.62
495.79	73.62
496.008	88.62
496.225	93.62
496.442	101.62
496.66	88.62
496.877	91.62
497.094	88.62
497.312	85.62
497.529	98.62
497.746	98.62
497.963	97.62
498.181	91.62
498.398	86.62
498.615	105.62
498.832	103.62
499.049	91.62
499.267	96.62
499.484	81.62
499.701	97.62
499.918	83.62
500.135	93.62
500.352	80.62
500.569	79.62
500.786	86.62
501.003	82.62
501.22	90.62
501.437	98.62
501.654	94.62
501.871	91.62
502.088	93.62
502.305	85.62
502.522	94.62
502.739	79.62
502.956	85.62
503.172	102.62
503.389	87.62
503.606	92.62
503.823	96.62
504.04	83.62
504.256	99.62
504.473	80.62
504.69	78.62
504.907	77.62
505.123	80.62
505.34	86.62
505.557	75.62
505.773	81.62
505.99	90.62
506.207	93.62
506.423	87.62
506.64	102.62
506.856	98.62
507.073	81.62
507.289	95.62
507.506	103.62
507.722	94.62
507.939	98.62
508.155	89.62
508.372	77.62
508.588	75.62
508.805	82.62
509.021	92.62
509.238	86.62
509.454	106.62
509.67	98.62
509.887	103.62
510.103	132.62
510.319	187.62
510.536	718.62
510.752	2240.62
510.968	631.62
511.184	158.62
511.401	105.62
511.617	111.62
511.833	89.62
512.049	81.62
512.265	91.62
512.481	90.62
512.698	89.62
512.914	92.62
513.13	95.62
513.346	94.62
513.562	96.62
513.778	80.62
513.994	107.62
514.21	97.62
514.426	106.62
514.642	113.62
514.858	120.62
515.074	143.62
515.29	421.62
515.506	1348.62
515.721	506.62
515.937	145.62
516.153	102.62
516.369	101.62
516.585	91.62
516.801	84.62
