Data from Uncirc_2002_H10_HRD10591_00065.txt Node
Date: Wed Jan 03 10:39:54 EST 2024
User: Yrep
Spectrometer: HR+D1059
Trigger mode: 1
Integration Time (sec): 1.000000E-1
Scans to average: 1
Electric dark correction enabled: true
Nonlinearity correction enabled: false
Boxcar width: 0
XAxis mode: Wavelengths
Number of Pixels in Spectrum: 2048
>>>>>Begin Spectral Data<<<<<
223.165	-11.94
223.4	-11.94
223.635	-11.94
223.869	-18.94
224.104	-12.94
224.338	-4.94
224.573	-12.94
224.808	-28.94
225.042	1.06
225.277	3.06
225.511	1.06
225.746	5.06
225.98	3.06
226.215	5.06
226.449	13.06
226.683	11.06
226.918	25.06
227.152	23.06
227.387	25.06
227.621	45.06
227.856	38.06
228.09	51.06
228.324	32.06
228.559	64.06
228.793	62.06
229.027	57.06
229.262	65.06
229.496	78.06
229.73	90.06
229.964	73.06
230.199	73.06
230.433	61.06
230.667	86.06
230.901	73.06
231.136	81.06
231.37	78.06
231.604	98.06
231.838	87.06
232.072	88.06
232.306	84.06
232.541	84.06
232.775	93.06
233.009	86.06
233.243	85.06
233.477	79.06
233.711	77.06
233.945	83.06
234.179	78.06
234.413	74.06
234.647	83.06
234.881	75.06
235.115	77.06
235.349	57.06
235.583	85.06
235.817	82.06
236.051	81.06
236.285	80.06
236.519	80.06
236.753	81.06
236.987	71.06
237.221	78.06
237.455	82.06
237.689	96.06
237.922	79.06
238.156	69.06
238.39	71.06
238.624	69.06
238.858	75.06
239.091	96.06
239.325	74.06
239.559	80.06
239.793	68.06
240.027	78.06
240.26	87.06
240.494	78.06
240.728	90.06
240.961	81.06
241.195	81.06
241.429	80.06
241.662	83.06
241.896	72.06
242.13	87.06
242.363	86.06
242.597	89.06
242.83	79.06
243.064	75.06
243.298	69.06
243.531	55.06
243.765	70.06
243.998	82.06
244.232	81.06
244.465	70.06
244.699	73.06
244.932	67.06
245.166	74.06
245.399	70.06
245.633	95.06
245.866	75.06
246.099	72.06
246.333	84.06
246.566	69.06
246.8	68.06
247.033	84.06
247.266	69.06
247.5	82.06
247.733	74.06
247.966	73.06
248.2	90.06
248.433	80.06
248.666	81.06
248.899	80.06
249.133	77.06
249.366	91.06
249.599	88.06
249.832	74.06
250.066	84.06
250.299	87.06
250.532	90.06
250.765	83.06
250.998	82.06
251.231	85.06
251.465	74.06
251.698	82.06
251.931	82.06
252.164	75.06
252.397	69.06
252.63	72.06
252.863	71.06
253.096	71.06
253.329	82.06
253.562	88.06
253.795	90.06
254.028	79.06
254.261	90.06
254.494	74.06
254.727	87.06
254.96	81.06
255.193	80.06
255.426	82.06
255.659	81.06
255.892	82.06
256.124	81.06
256.357	67.06
256.59	78.06
256.823	81.06
257.056	72.06
257.289	77.06
257.521	79.06
257.754	83.06
257.987	76.06
258.22	73.06
258.452	87.06
258.685	73.06
258.918	76.06
259.151	84.06
259.383	82.06
259.616	80.06
259.849	86.06
260.081	85.06
260.314	83.06
260.547	82.06
260.779	79.06
261.012	89.06
261.244	89.06
261.477	83.06
261.71	89.06
261.942	101.06
262.175	104.06
262.407	77.06
262.64	74.06
262.872	95.06
263.105	82.06
263.337	77.06
263.57	81.06
263.802	78.06
264.035	78.06
264.267	85.06
264.499	88.06
264.732	72.06
264.964	86.06
265.197	80.06
265.429	94.06
265.661	86.06
265.894	92.06
266.126	83.06
266.358	87.06
266.591	89.06
266.823	87.06
267.055	88.06
267.287	94.06
267.52	81.06
267.752	88.06
267.984	86.06
268.216	77.06
268.448	84.06
268.681	73.06
268.913	89.06
269.145	81.06
269.377	86.06
269.609	83.06
269.841	86.06
270.073	93.06
270.306	85.06
270.538	86.06
270.77	78.06
271.002	84.06
271.234	74.06
271.466	98.06
271.698	82.06
271.93	90.06
272.162	83.06
272.394	96.06
272.626	73.06
272.858	82.06
273.09	82.06
273.322	83.06
273.553	72.06
273.785	74.06
274.017	74.06
274.249	92.06
274.481	93.06
274.713	81.06
274.945	78.06
275.176	70.06
275.408	88.06
275.64	83.06
275.872	85.06
276.104	86.06
276.335	79.06
276.567	90.06
276.799	111.06
277.031	97.06
277.262	90.06
277.494	77.06
277.726	81.06
277.957	94.06
278.189	98.06
278.421	95.06
278.652	87.06
278.884	73.06
279.115	103.06
279.347	90.06
279.579	86.06
279.81	71.06
280.042	89.06
280.273	106.06
280.505	93.06
280.736	85.06
280.968	85.06
281.199	85.06
281.431	90.06
281.662	86.06
281.894	80.06
282.125	97.06
282.356	95.06
282.588	101.06
282.819	101.06
283.051	90.06
283.282	93.06
283.513	82.06
283.745	80.06
283.976	98.06
284.207	94.06
284.439	94.06
284.67	76.06
284.901	78.06
285.132	83.06
285.364	93.06
285.595	84.06
285.826	83.06
286.057	87.06
286.288	73.06
286.52	85.06
286.751	101.06
286.982	77.06
287.213	76.06
287.444	88.06
287.675	76.06
287.906	97.06
288.138	80.06
288.369	85.06
288.6	94.06
288.831	88.06
289.062	80.06
289.293	81.06
289.524	78.06
289.755	79.06
289.986	89.06
290.217	96.06
290.448	91.06
290.679	83.06
290.91	85.06
291.141	80.06
291.371	73.06
291.602	73.06
291.833	80.06
292.064	85.06
292.295	85.06
292.526	84.06
292.757	75.06
292.987	77.06
293.218	84.06
293.449	77.06
293.68	86.06
293.91	90.06
294.141	83.06
294.372	89.06
294.603	84.06
294.833	94.06
295.064	103.06
295.295	85.06
295.525	92.06
295.756	98.06
295.987	114.06
296.217	122.06
296.448	120.06
296.679	97.06
296.909	75.06
297.14	78.06
297.37	65.06
297.601	85.06
297.831	78.06
298.062	94.06
298.292	98.06
298.523	77.06
298.753	98.06
298.984	78.06
299.214	71.06
299.445	74.06
299.675	98.06
299.905	84.06
300.136	91.06
300.366	87.06
300.597	90.06
300.827	76.06
301.057	95.06
301.288	101.06
301.518	82.06
301.748	81.06
301.979	101.06
302.209	88.06
302.439	93.06
302.669	84.06
302.9	102.06
303.13	94.06
303.36	92.06
303.59	90.06
303.82	101.06
304.051	98.06
304.281	94.06
304.511	103.06
304.741	89.06
304.971	80.06
305.201	88.06
305.431	91.06
305.661	100.06
305.891	94.06
306.121	84.06
306.352	81.06
306.582	93.06
306.812	93.06
307.042	104.06
307.272	91.06
307.502	101.06
307.731	93.06
307.961	94.06
308.191	90.06
308.421	93.06
308.651	83.06
308.881	88.06
309.111	92.06
309.341	86.06
309.571	91.06
309.8	86.06
310.03	99.06
310.26	96.06
310.49	82.06
310.72	89.06
310.949	84.06
311.179	90.06
311.409	90.06
311.639	104.06
311.868	101.06
312.098	89.06
312.328	95.06
312.557	83.06
312.787	99.06
313.017	88.06
313.246	80.06
313.476	90.06
313.706	81.06
313.935	98.06
314.165	89.06
314.394	90.06
314.624	79.06
314.853	88.06
315.083	93.06
315.312	90.06
315.542	81.06
315.771	81.06
316.001	80.06
316.23	98.06
316.46	105.06
316.689	88.06
316.919	91.06
317.148	84.06
317.377	90.06
317.607	89.06
317.836	78.06
318.065	85.06
318.295	99.06
318.524	89.06
318.753	82.06
318.983	86.06
319.212	95.06
319.441	107.06
319.67	97.06
319.9	97.06
320.129	102.06
320.358	87.06
320.587	88.06
320.816	93.06
321.046	100.06
321.275	111.06
321.504	92.06
321.733	101.06
321.962	89.06
322.191	96.06
322.42	103.06
322.649	103.06
322.878	96.06
323.108	108.06
323.337	115.06
323.566	112.06
323.795	132.06
324.024	186.06
324.253	328.06
324.482	657.06
324.71	1368.06
324.939	1719.06
325.168	691.06
325.397	220.06
325.626	117.06
325.855	119.06
326.084	113.06
326.313	112.06
326.542	148.06
326.77	198.06
326.999	385.06
327.228	765.06
327.457	1378.06
327.686	1073.06
327.914	321.06
328.143	172.06
328.372	113.06
328.6	110.06
328.829	111.06
329.058	104.06
329.287	107.06
329.515	114.06
329.744	99.06
329.972	102.06
330.201	98.06
330.43	96.06
330.658	93.06
330.887	111.06
331.115	114.06
331.344	115.06
331.572	84.06
331.801	97.06
332.03	94.06
332.258	101.06
332.486	93.06
332.715	92.06
332.943	82.06
333.172	88.06
333.4	96.06
333.629	110.06
333.857	112.06
334.085	108.06
334.314	86.06
334.542	91.06
334.771	106.06
334.999	106.06
335.227	102.06
335.455	103.06
335.684	77.06
335.912	95.06
336.14	99.06
336.369	100.06
336.597	81.06
336.825	81.06
337.053	91.06
337.281	92.06
337.51	95.06
337.738	95.06
337.966	98.06
338.194	87.06
338.422	84.06
338.65	89.06
338.878	92.06
339.106	87.06
339.334	91.06
339.562	86.06
339.79	83.06
340.018	87.06
340.246	87.06
340.474	101.06
340.702	105.06
340.93	84.06
341.158	98.06
341.386	91.06
341.614	98.06
341.842	94.06
342.07	84.06
342.298	94.06
342.526	96.06
342.754	115.06
342.981	81.06
343.209	82.06
343.437	102.06
343.665	98.06
343.893	84.06
344.12	83.06
344.348	86.06
344.576	96.06
344.804	102.06
345.031	112.06
345.259	91.06
345.487	98.06
345.714	100.06
345.942	90.06
346.17	104.06
346.397	88.06
346.625	94.06
346.853	86.06
347.08	97.06
347.308	89.06
347.535	91.06
347.763	108.06
347.99	88.06
348.218	95.06
348.445	107.06
348.673	99.06
348.9	86.06
349.128	94.06
349.355	88.06
349.583	90.06
349.81	97.06
350.037	96.06
350.265	97.06
350.492	94.06
350.72	103.06
350.947	90.06
351.174	105.06
351.402	106.06
351.629	97.06
351.856	99.06
352.083	102.06
352.311	101.06
352.538	98.06
352.765	89.06
352.992	106.06
353.22	91.06
353.447	103.06
353.674	98.06
353.901	84.06
354.128	90.06
354.355	94.06
354.583	93.06
354.81	82.06
355.037	97.06
355.264	96.06
355.491	80.06
355.718	90.06
355.945	81.06
356.172	91.06
356.399	73.06
356.626	95.06
356.853	91.06
357.08	88.06
357.307	84.06
357.534	92.06
357.761	95.06
357.988	96.06
358.215	84.06
358.441	86.06
358.668	78.06
358.895	100.06
359.122	98.06
359.349	98.06
359.576	86.06
359.802	100.06
360.029	105.06
360.256	100.06
360.483	96.06
360.709	82.06
360.936	84.06
361.163	74.06
361.39	82.06
361.616	84.06
361.843	95.06
362.07	97.06
362.296	79.06
362.523	91.06
362.749	88.06
362.976	90.06
363.203	93.06
363.429	72.06
363.656	90.06
363.882	91.06
364.109	93.06
364.335	71.06
364.562	97.06
364.788	95.06
365.015	90.06
365.241	107.06
365.468	107.06
365.694	102.06
365.92	89.06
366.147	88.06
366.373	88.06
366.599	83.06
366.826	86.06
367.052	90.06
367.278	86.06
367.505	104.06
367.731	107.06
367.957	87.06
368.184	82.06
368.41	77.06
368.636	103.06
368.862	124.06
369.089	104.06
369.315	88.06
369.541	90.06
369.767	111.06
369.993	89.06
370.219	93.06
370.445	90.06
370.672	88.06
370.898	78.06
371.124	78.06
371.35	89.06
371.576	87.06
371.802	72.06
372.028	86.06
372.254	78.06
372.48	83.06
372.706	87.06
372.932	98.06
373.158	76.06
373.384	81.06
373.61	103.06
373.835	94.06
374.061	85.06
374.287	102.06
374.513	89.06
374.739	100.06
374.965	92.06
375.191	75.06
375.416	82.06
375.642	100.06
375.868	85.06
376.094	97.06
376.319	89.06
376.545	78.06
376.771	93.06
376.997	90.06
377.222	98.06
377.448	82.06
377.674	97.06
377.899	91.06
378.125	93.06
378.35	82.06
378.576	84.06
378.802	100.06
379.027	86.06
379.253	99.06
379.478	94.06
379.704	103.06
379.929	110.06
380.155	89.06
380.38	85.06
380.606	86.06
380.831	94.06
381.057	97.06
381.282	80.06
381.507	87.06
381.733	98.06
381.958	98.06
382.184	89.06
382.409	98.06
382.634	102.06
382.86	89.06
383.085	85.06
383.31	97.06
383.535	110.06
383.761	91.06
383.986	97.06
384.211	88.06
384.436	104.06
384.662	86.06
384.887	94.06
385.112	100.06
385.337	103.06
385.562	94.06
385.787	85.06
386.013	81.06
386.238	106.06
386.463	88.06
386.688	109.06
386.913	85.06
387.138	95.06
387.363	97.06
387.588	102.06
387.813	100.06
388.038	104.06
388.263	99.06
388.488	84.06
388.713	102.06
388.938	97.06
389.163	100.06
389.387	102.06
389.612	103.06
389.837	95.06
390.062	98.06
390.287	90.06
390.512	96.06
390.736	88.06
390.961	102.06
391.186	85.06
391.411	89.06
391.636	87.06
391.86	83.06
392.085	82.06
392.31	93.06
392.534	79.06
392.759	82.06
392.984	86.06
393.208	83.06
393.433	89.06
393.658	90.06
393.882	88.06
394.107	71.06
394.331	88.06
394.556	86.06
394.78	79.06
395.005	99.06
395.229	86.06
395.454	84.06
395.678	84.06
395.903	77.06
396.127	78.06
396.352	91.06
396.576	93.06
396.801	75.06
397.025	83.06
397.249	73.06
397.474	88.06
397.698	105.06
397.922	86.06
398.147	75.06
398.371	81.06
398.595	87.06
398.82	85.06
399.044	84.06
399.268	85.06
399.492	90.06
399.717	93.06
399.941	87.06
400.165	90.06
400.389	77.06
400.613	85.06
400.837	87.06
401.062	90.06
401.286	78.06
401.51	81.06
401.734	92.06
401.958	82.06
402.182	113.06
402.406	132.06
402.63	101.06
402.854	93.06
403.078	98.06
403.302	79.06
403.526	87.06
403.75	87.06
403.974	84.06
404.198	80.06
404.422	85.06
404.645	87.06
404.869	79.06
405.093	78.06
405.317	94.06
405.541	84.06
405.765	94.06
405.988	117.06
406.212	138.06
406.436	183.06
406.66	110.06
406.883	83.06
407.107	89.06
407.331	106.06
407.555	86.06
407.778	86.06
408.002	102.06
408.226	80.06
408.449	90.06
408.673	89.06
408.896	90.06
409.12	99.06
409.344	97.06
409.567	91.06
409.791	97.06
410.014	91.06
410.238	90.06
410.461	96.06
410.685	82.06
410.908	88.06
411.132	89.06
411.355	90.06
411.578	81.06
411.802	87.06
412.025	91.06
412.249	83.06
412.472	86.06
412.695	75.06
412.919	95.06
413.142	82.06
413.365	91.06
413.589	79.06
413.812	79.06
414.035	84.06
414.258	83.06
414.482	77.06
414.705	81.06
414.928	94.06
415.151	80.06
415.374	89.06
415.597	85.06
415.821	73.06
416.044	83.06
416.267	76.06
416.49	80.06
416.713	79.06
416.936	88.06
417.159	83.06
417.382	85.06
417.605	84.06
417.828	92.06
418.051	88.06
418.274	87.06
418.497	86.06
418.72	78.06
418.943	107.06
419.166	97.06
419.389	90.06
419.611	92.06
419.834	75.06
420.057	75.06
420.28	100.06
420.503	70.06
420.726	99.06
420.948	96.06
421.171	77.06
421.394	90.06
421.617	82.06
421.839	92.06
422.062	95.06
422.285	83.06
422.507	94.06
422.73	109.06
422.953	71.06
423.175	87.06
423.398	94.06
423.621	88.06
423.843	79.06
424.066	89.06
424.288	88.06
424.511	86.06
424.733	105.06
424.956	99.06
425.178	102.06
425.401	98.06
425.623	97.06
425.846	95.06
426.068	88.06
426.291	96.06
426.513	81.06
426.735	79.06
426.958	95.06
427.18	92.06
427.402	123.06
427.625	149.06
427.847	110.06
428.069	89.06
428.292	102.06
428.514	78.06
428.736	89.06
428.958	77.06
429.181	80.06
429.403	77.06
429.625	86.06
429.847	91.06
430.069	99.06
430.292	96.06
430.514	69.06
430.736	78.06
430.958	81.06
431.18	69.06
431.402	83.06
431.624	87.06
431.846	77.06
432.068	94.06
432.29	102.06
432.512	80.06
432.734	89.06
432.956	103.06
433.178	99.06
433.4	91.06
433.622	89.06
433.844	81.06
434.066	99.06
434.287	88.06
434.509	83.06
434.731	81.06
434.953	82.06
435.175	81.06
435.397	88.06
435.618	98.06
435.84	92.06
436.062	108.06
436.284	119.06
436.505	83.06
436.727	88.06
436.949	80.06
437.17	83.06
437.392	76.06
437.614	95.06
437.835	103.06
438.057	109.06
438.278	107.06
438.5	117.06
438.721	103.06
438.943	96.06
439.165	84.06
439.386	92.06
439.608	96.06
439.829	100.06
440.05	107.06
440.272	119.06
440.493	101.06
440.715	74.06
440.936	78.06
441.158	98.06
441.379	88.06
441.6	97.06
441.822	90.06
442.043	81.06
442.264	95.06
442.486	94.06
442.707	83.06
442.928	98.06
443.149	127.06
443.371	121.06
443.592	105.06
443.813	114.06
444.034	97.06
444.255	89.06
444.476	89.06
444.698	87.06
444.919	97.06
445.14	125.06
445.361	116.06
445.582	113.06
445.803	128.06
446.024	122.06
446.245	108.06
446.466	106.06
446.687	89.06
446.908	105.06
447.129	95.06
447.35	92.06
447.571	97.06
447.792	78.06
448.013	102.06
448.234	102.06
448.455	92.06
448.675	87.06
448.896	100.06
449.117	85.06
449.338	101.06
449.559	110.06
449.779	126.06
450	96.06
450.221	82.06
450.442	88.06
450.662	88.06
450.883	105.06
451.104	97.06
451.324	87.06
451.545	70.06
451.766	79.06
451.986	86.06
452.207	88.06
452.428	86.06
452.648	98.06
452.869	96.06
453.089	111.06
453.31	101.06
453.53	100.06
453.751	98.06
453.971	85.06
454.192	105.06
454.412	77.06
454.633	94.06
454.853	97.06
455.073	89.06
455.294	72.06
455.514	87.06
455.734	85.06
455.955	84.06
456.175	86.06
456.395	101.06
456.616	83.06
456.836	81.06
457.056	86.06
457.276	83.06
457.497	85.06
457.717	74.06
457.937	91.06
458.157	90.06
458.377	92.06
458.598	98.06
458.818	134.06
459.038	141.06
459.258	107.06
459.478	89.06
459.698	84.06
459.918	89.06
460.138	84.06
460.358	85.06
460.578	105.06
460.798	90.06
461.018	81.06
461.238	94.06
461.458	83.06
461.678	71.06
461.898	82.06
462.118	78.06
462.338	84.06
462.558	78.06
462.777	73.06
462.997	78.06
463.217	82.06
463.437	75.06
463.657	98.06
463.876	81.06
464.096	82.06
464.316	104.06
464.536	96.06
464.755	100.06
464.975	107.06
465.195	137.06
465.414	155.06
465.634	80.06
465.854	86.06
466.073	91.06
466.293	90.06
466.512	90.06
466.732	84.06
466.951	90.06
467.171	91.06
467.391	101.06
467.61	109.06
467.829	95.06
468.049	83.06
468.268	88.06
468.488	80.06
468.707	72.06
468.927	91.06
469.146	78.06
469.365	79.06
469.585	76.06
469.804	78.06
470.023	86.06
470.243	103.06
470.462	89.06
470.681	95.06
470.901	92.06
471.12	71.06
471.339	84.06
471.558	91.06
471.777	80.06
471.997	102.06
472.216	99.06
472.435	100.06
472.654	90.06
472.873	82.06
473.092	78.06
473.311	80.06
473.53	78.06
473.749	87.06
473.968	90.06
474.187	109.06
474.406	97.06
474.625	93.06
474.844	88.06
475.063	88.06
475.282	85.06
475.501	82.06
475.72	90.06
475.939	88.06
476.158	78.06
476.377	86.06
476.596	78.06
476.814	85.06
477.033	84.06
477.252	89.06
477.471	89.06
477.69	79.06
477.908	91.06
478.127	93.06
478.346	91.06
478.564	96.06
478.783	90.06
479.002	82.06
479.22	93.06
479.439	108.06
479.658	96.06
479.876	99.06
480.095	82.06
480.313	81.06
480.532	73.06
480.751	97.06
480.969	89.06
481.188	117.06
481.406	96.06
481.624	89.06
481.843	94.06
482.061	97.06
482.28	90.06
482.498	75.06
482.717	66.06
482.935	88.06
483.153	80.06
483.372	101.06
483.59	98.06
483.808	85.06
484.027	78.06
484.245	89.06
484.463	90.06
484.681	83.06
484.9	91.06
485.118	84.06
485.336	90.06
485.554	86.06
485.772	97.06
485.99	111.06
486.209	85.06
486.427	90.06
486.645	91.06
486.863	104.06
487.081	106.06
487.299	108.06
487.517	95.06
487.735	93.06
487.953	90.06
488.171	101.06
488.389	101.06
488.607	101.06
488.825	102.06
489.043	84.06
489.261	88.06
489.479	78.06
489.696	88.06
489.914	89.06
490.132	88.06
490.35	97.06
490.568	81.06
490.786	95.06
491.003	84.06
491.221	90.06
491.439	90.06
491.657	88.06
491.874	90.06
492.092	96.06
492.31	86.06
492.527	91.06
492.745	83.06
492.963	91.06
493.18	97.06
493.398	83.06
493.615	103.06
493.833	90.06
494.05	98.06
494.268	92.06
494.485	90.06
494.703	97.06
494.92	88.06
495.138	79.06
495.355	90.06
495.573	81.06
495.79	80.06
496.008	94.06
496.225	88.06
496.442	85.06
496.66	77.06
496.877	96.06
497.094	107.06
497.312	97.06
497.529	83.06
497.746	101.06
497.963	74.06
498.181	88.06
498.398	95.06
498.615	91.06
498.832	89.06
499.049	80.06
499.267	99.06
499.484	69.06
499.701	87.06
499.918	85.06
500.135	91.06
500.352	82.06
500.569	98.06
500.786	81.06
501.003	94.06
501.22	94.06
501.437	97.06
501.654	90.06
501.871	85.06
502.088	73.06
502.305	89.06
502.522	88.06
502.739	76.06
502.956	81.06
503.172	97.06
503.389	89.06
503.606	81.06
503.823	95.06
504.04	90.06
504.256	86.06
504.473	91.06
504.69	87.06
504.907	79.06
505.123	86.06
505.34	82.06
505.557	93.06
505.773	79.06
505.99	78.06
506.207	73.06
506.423	91.06
506.64	84.06
506.856	86.06
507.073	81.06
507.289	99.06
507.506	81.06
507.722	94.06
507.939	97.06
508.155	102.06
508.372	91.06
508.588	98.06
508.805	94.06
509.021	92.06
509.238	95.06
509.454	110.06
509.67	99.06
509.887	96.06
510.103	119.06
510.319	181.06
510.536	643.06
510.752	1955.06
510.968	576.06
511.184	149.06
511.401	106.06
511.617	93.06
511.833	99.06
512.049	99.06
512.265	92.06
512.481	100.06
512.698	104.06
512.914	103.06
513.13	101.06
513.346	88.06
513.562	91.06
513.778	91.06
513.994	103.06
514.21	111.06
514.426	112.06
514.642	117.06
514.858	103.06
515.074	137.06
515.29	366.06
515.506	1140.06
515.721	444.06
515.937	149.06
516.153	118.06
516.369	89.06
516.585	89.06
516.801	82.06
