Data from Uncirc_2002_H10_HRD10591_00086.txt Node
Date: Wed Jan 03 10:39:58 EST 2024
User: Yrep
Spectrometer: HR+D1059
Trigger mode: 1
Integration Time (sec): 1.000000E-1
Scans to average: 1
Electric dark correction enabled: true
Nonlinearity correction enabled: false
Boxcar width: 0
XAxis mode: Wavelengths
Number of Pixels in Spectrum: 2048
>>>>>Begin Spectral Data<<<<<
223.165	-12.12
223.4	-12.12
223.635	-12.12
223.869	-20.12
224.104	-25.12
224.338	-12.12
224.573	-15.12
224.808	1.88
225.042	-14.12
225.277	1.88
225.511	-9.12
225.746	-12.12
225.98	6.88
226.215	9.88
226.449	19.88
226.683	26.88
226.918	17.88
227.152	34.88
227.387	49.88
227.621	33.88
227.856	52.88
228.09	61.88
228.324	61.88
228.559	53.88
228.793	168.88
229.027	447.88
229.262	505.88
229.496	617.88
229.73	789.88
229.964	794.88
230.199	537.88
230.433	475.88
230.667	465.88
230.901	450.88
231.136	421.88
231.37	438.88
231.604	463.88
231.838	450.88
232.072	445.88
232.306	463.88
232.541	459.88
232.775	486.88
233.009	461.88
233.243	466.88
233.477	490.88
233.711	466.88
233.945	504.88
234.179	496.88
234.413	500.88
234.647	521.88
234.881	513.88
235.115	539.88
235.349	547.88
235.583	571.88
235.817	595.88
236.051	611.88
236.285	597.88
236.519	628.88
236.753	697.88
236.987	916.88
237.221	1385.88
237.455	1517.88
237.689	917.88
237.922	747.88
238.156	743.88
238.39	694.88
238.624	652.88
238.858	657.88
239.091	667.88
239.325	657.88
239.559	682.88
239.793	698.88
240.027	742.88
240.26	922.88
240.494	950.88
240.728	962.88
240.961	905.88
241.195	816.88
241.429	779.88
241.662	751.88
241.896	765.88
242.13	751.88
242.363	751.88
242.597	798.88
242.83	833.88
243.064	812.88
243.298	834.88
243.531	843.88
243.765	823.88
243.998	813.88
244.232	857.88
244.465	863.88
244.699	874.88
244.932	893.88
245.166	874.88
245.399	910.88
245.633	919.88
245.866	907.88
246.099	929.88
246.333	889.88
246.566	929.88
246.8	973.88
247.033	983.88
247.266	1029.88
247.5	1094.88
247.733	1163.88
247.966	1122.88
248.2	1151.88
248.433	1103.88
248.666	1202.88
248.899	1345.88
249.133	1464.88
249.366	1430.88
249.599	1293.88
249.832	1205.88
250.066	1186.88
250.299	1249.88
250.532	1349.88
250.765	1505.88
250.998	1685.88
251.231	1628.88
251.465	1521.88
251.698	1406.88
251.931	1383.88
252.164	1389.88
252.397	1406.88
252.63	1469.88
252.863	1541.88
253.096	1669.88
253.329	1762.88
253.562	1655.88
253.795	1560.88
254.028	1571.88
254.261	1626.88
254.494	1824.88
254.727	2158.88
254.96	2266.88
255.193	1993.88
255.426	1747.88
255.659	1633.88
255.892	1573.88
256.124	1578.88
256.357	1523.88
256.59	1477.88
256.823	1493.88
257.056	1509.88
257.289	1523.88
257.521	1517.88
257.754	1511.88
257.987	1514.88
258.22	1538.88
258.452	1544.88
258.685	1523.88
258.918	1571.88
259.151	1586.88
259.383	1680.88
259.616	1670.88
259.849	1783.88
260.081	1941.88
260.314	2096.88
260.547	2016.88
260.779	1859.88
261.012	1779.88
261.244	1719.88
261.477	1696.88
261.71	1702.88
261.942	1743.88
262.175	1727.88
262.407	1714.88
262.64	1621.88
262.872	1638.88
263.105	1638.88
263.337	1648.88
263.57	1663.88
263.802	1651.88
264.035	1660.88
264.267	1655.88
264.499	1645.88
264.732	1726.88
264.964	1688.88
265.197	1670.88
265.429	1669.88
265.661	1714.88
265.894	1722.88
266.126	1727.88
266.358	1754.88
266.591	1795.88
266.823	1855.88
267.055	1868.88
267.287	1879.88
267.52	1810.88
267.752	1843.88
267.984	1875.88
268.216	1883.88
268.448	1958.88
268.681	1998.88
268.913	2130.88
269.145	2342.88
269.377	2427.88
269.609	2316.88
269.841	2277.88
270.073	2420.88
270.306	2645.88
270.538	2874.88
270.77	2676.88
271.002	2554.88
271.234	2532.88
271.466	2632.88
271.698	2778.88
271.93	2777.88
272.162	2778.88
272.394	2635.88
272.626	2552.88
272.858	2371.88
273.09	2345.88
273.322	2301.88
273.553	2218.88
273.785	2246.88
274.017	2256.88
274.249	2270.88
274.481	2284.88
274.713	2277.88
274.945	2311.88
275.176	2304.88
275.408	2283.88
275.64	2229.88
275.872	2222.88
276.104	2237.88
276.335	2336.88
276.567	2404.88
276.799	2573.88
277.031	2791.88
277.262	2963.88
277.494	2779.88
277.726	2600.88
277.957	2484.88
278.189	2423.88
278.421	2388.88
278.652	2407.88
278.884	2393.88
279.115	2379.88
279.347	2352.88
279.579	2416.88
279.81	2370.88
280.042	2369.88
280.273	2407.88
280.505	2389.88
280.736	2436.88
280.968	2405.88
281.199	2408.88
281.431	2427.88
281.662	2490.88
281.894	2488.88
282.125	2545.88
282.356	2694.88
282.588	2813.88
282.819	2644.88
283.051	2554.88
283.282	2553.88
283.513	2590.88
283.745	2619.88
283.976	2665.88
284.207	2659.88
284.439	2681.88
284.67	2698.88
284.901	2665.88
285.132	2702.88
285.364	2662.88
285.595	2632.88
285.826	2661.88
286.057	2686.88
286.288	2661.88
286.52	2678.88
286.751	2726.88
286.982	2732.88
287.213	2739.88
287.444	2729.88
287.675	2834.88
287.906	2864.88
288.138	2982.88
288.369	2938.88
288.6	2937.88
288.831	2869.88
289.062	2849.88
289.293	2828.88
289.524	2831.88
289.755	2833.88
289.986	2878.88
290.217	2852.88
290.448	2824.88
290.679	2863.88
290.91	2813.88
291.141	2849.88
291.371	2818.88
291.602	2912.88
291.833	2801.88
292.064	2836.88
292.295	2833.88
292.526	2862.88
292.757	2850.88
292.987	2807.88
293.218	2826.88
293.449	2903.88
293.68	2922.88
293.91	2890.88
294.141	2831.88
294.372	2809.88
294.603	2878.88
294.833	2905.88
295.064	2951.88
295.295	2895.88
295.525	2910.88
295.756	2975.88
295.987	2997.88
296.217	3199.88
296.448	3159.88
296.679	2978.88
296.909	2929.88
297.14	2996.88
297.37	3073.88
297.601	3089.88
297.831	3073.88
298.062	3081.88
298.292	3091.88
298.523	3119.88
298.753	3202.88
298.984	3123.88
299.214	3153.88
299.445	3119.88
299.675	3144.88
299.905	3167.88
300.136	3137.88
300.366	3143.88
300.597	3265.88
300.827	3303.88
301.057	3405.88
301.288	3425.88
301.518	3390.88
301.748	3401.88
301.979	3457.88
302.209	3431.88
302.439	3493.88
302.669	3347.88
302.9	3339.88
303.13	3370.88
303.36	3377.88
303.59	3433.88
303.82	3416.88
304.051	3397.88
304.281	3381.88
304.511	3337.88
304.741	3326.88
304.971	3347.88
305.201	3357.88
305.431	3315.88
305.661	3314.88
305.891	3323.88
306.121	3345.88
306.352	3377.88
306.582	3406.88
306.812	3257.88
307.042	3294.88
307.272	3309.88
307.502	3358.88
307.731	3347.88
307.961	3330.88
308.191	3317.88
308.421	3351.88
308.651	3336.88
308.881	3355.88
309.111	3502.88
309.341	3379.88
309.571	3499.88
309.8	3536.88
310.03	3632.88
310.26	3663.88
310.49	3595.88
310.72	3742.88
310.949	3845.88
311.179	3820.88
311.409	3671.88
311.639	3694.88
311.868	3731.88
312.098	3766.88
312.328	3879.88
312.557	3999.88
312.787	3982.88
313.017	3922.88
313.246	3850.88
313.476	3817.88
313.706	3866.88
313.935	3937.88
314.165	4010.88
314.394	4052.88
314.624	3950.88
314.853	3893.88
315.083	3834.88
315.312	3785.88
315.542	3803.88
315.771	3657.88
316.001	3751.88
316.23	3751.88
316.46	3790.88
316.689	3797.88
316.919	3853.88
317.148	3837.88
317.377	3836.88
317.607	3793.88
317.836	3820.88
318.065	3789.88
318.295	3800.88
318.524	3743.88
318.753	3712.88
318.983	3780.88
319.212	3738.88
319.441	3831.88
319.67	3822.88
319.9	3761.88
320.129	3746.88
320.358	3762.88
320.587	3759.88
320.816	3873.88
321.046	3922.88
321.275	3931.88
321.504	3912.88
321.733	3909.88
321.962	3990.88
322.191	4100.88
322.42	4215.88
322.649	4285.88
322.878	4272.88
323.108	4294.88
323.337	4621.88
323.566	4770.88
323.795	5106.88
324.024	5663.88
324.253	7369.88
324.482	11132.88
324.71	15316.88
324.939	15611.88
325.168	13211.88
325.397	6804.88
325.626	5399.88
325.855	5009.88
326.084	4799.88
326.313	4847.88
326.542	4991.88
326.77	5607.88
326.999	7112.88
327.228	10403.88
327.457	14371.88
327.686	13560.88
327.914	7473.88
328.143	5875.88
328.372	5561.88
328.6	5317.88
328.829	5344.88
329.058	5482.88
329.287	5353.88
329.515	5100.88
329.744	4820.88
329.972	4871.88
330.201	4966.88
330.43	5245.88
330.658	5514.88
330.887	5823.88
331.115	5409.88
331.344	5123.88
331.572	4980.88
331.801	5070.88
332.03	5112.88
332.258	5027.88
332.486	5027.88
332.715	5115.88
332.943	5315.88
333.172	5313.88
333.4	5522.88
333.629	5730.88
333.857	5774.88
334.085	5694.88
334.314	5566.88
334.542	5593.88
334.771	5534.88
334.999	5422.88
335.227	5286.88
335.455	5192.88
335.684	5155.88
335.912	5088.88
336.14	4998.88
336.369	5019.88
336.597	5120.88
336.825	5025.88
337.053	4934.88
337.281	4863.88
337.51	4856.88
337.738	4829.88
337.966	4811.88
338.194	4814.88
338.422	4701.88
338.65	4663.88
338.878	4622.88
339.106	4650.88
339.334	4595.88
339.562	4559.88
339.79	4473.88
340.018	4514.88
340.246	4487.88
340.474	4532.88
340.702	4514.88
340.93	4528.88
341.158	4544.88
341.386	4435.88
341.614	4493.88
341.842	4464.88
342.07	4389.88
342.298	4467.88
342.526	4358.88
342.754	4413.88
342.981	4418.88
343.209	4501.88
343.437	4716.88
343.665	4997.88
343.893	5279.88
344.12	5347.88
344.348	5053.88
344.576	4901.88
344.804	4883.88
345.031	4755.88
345.259	4680.88
345.487	4550.88
345.714	4434.88
345.942	4291.88
346.17	4325.88
346.397	4280.88
346.625	4317.88
346.853	4245.88
347.08	4228.88
347.308	4317.88
347.535	4410.88
347.763	4449.88
347.99	4370.88
348.218	4373.88
348.445	4454.88
348.673	4293.88
348.9	4233.88
349.128	4177.88
349.355	4099.88
349.583	4168.88
349.81	4146.88
350.037	4068.88
350.265	4114.88
350.492	4143.88
350.72	4163.88
350.947	4197.88
351.174	4283.88
351.402	4257.88
351.629	4217.88
351.856	4243.88
352.083	4325.88
352.311	4316.88
352.538	4338.88
352.765	4345.88
352.992	4279.88
353.22	4194.88
353.447	4205.88
353.674	4106.88
353.901	4051.88
354.128	3994.88
354.355	4058.88
354.583	4086.88
354.81	4099.88
355.037	4140.88
355.264	4055.88
355.491	4085.88
355.718	4018.88
355.945	4021.88
356.172	4095.88
356.399	4074.88
356.626	4026.88
356.853	4115.88
357.08	3997.88
357.307	4022.88
357.534	4004.88
357.761	4034.88
357.988	4013.88
358.215	4072.88
358.441	4024.88
358.668	4148.88
358.895	4132.88
359.122	4172.88
359.349	4275.88
359.576	4389.88
359.802	4588.88
360.029	4695.88
360.256	4645.88
360.483	4517.88
360.709	4343.88
360.936	4306.88
361.163	4197.88
361.39	4325.88
361.616	4258.88
361.843	4246.88
362.07	4274.88
362.296	4296.88
362.523	4241.88
362.749	4245.88
362.976	4169.88
363.203	4159.88
363.429	4096.88
363.656	4174.88
363.882	4169.88
364.109	4143.88
364.335	4108.88
364.562	4141.88
364.788	4134.88
365.015	4162.88
365.241	4141.88
365.468	4210.88
365.694	4242.88
365.92	4206.88
366.147	4184.88
366.373	4113.88
366.599	4137.88
366.826	4103.88
367.052	4069.88
367.278	4165.88
367.505	4139.88
367.731	4152.88
367.957	4194.88
368.184	4194.88
368.41	4283.88
368.636	4330.88
368.862	4363.88
369.089	4270.88
369.315	4157.88
369.541	4177.88
369.767	4328.88
369.993	4279.88
370.219	4293.88
370.445	4279.88
370.672	4316.88
370.898	4367.88
371.124	4288.88
371.35	4407.88
371.576	4401.88
371.802	4407.88
372.028	4353.88
372.254	4399.88
372.48	4466.88
372.706	4509.88
372.932	4515.88
373.158	4525.88
373.384	4523.88
373.61	4443.88
373.835	4469.88
374.061	4494.88
374.287	4562.88
374.513	4631.88
374.739	4701.88
374.965	4809.88
375.191	4849.88
375.416	4793.88
375.642	4641.88
375.868	4529.88
376.094	4494.88
376.319	4507.88
376.545	4505.88
376.771	4496.88
376.997	4431.88
377.222	4463.88
377.448	4350.88
377.674	4385.88
377.899	4394.88
378.125	4357.88
378.35	4335.88
378.576	4276.88
378.802	4359.88
379.027	4387.88
379.253	4359.88
379.478	4417.88
379.704	4435.88
379.929	4427.88
380.155	4430.88
380.38	4378.88
380.606	4411.88
380.831	4368.88
381.057	4448.88
381.282	4419.88
381.507	4424.88
381.733	4497.88
381.958	4518.88
382.184	4548.88
382.409	4615.88
382.634	4623.88
382.86	4654.88
383.085	4732.88
383.31	4758.88
383.535	4868.88
383.761	4919.88
383.986	4943.88
384.211	5050.88
384.436	5124.88
384.662	5200.88
384.887	5293.88
385.112	5249.88
385.337	5317.88
385.562	5342.88
385.787	5348.88
386.013	5476.88
386.238	5414.88
386.463	5335.88
386.688	5448.88
386.913	5291.88
387.138	5263.88
387.363	5289.88
387.588	5189.88
387.813	5318.88
388.038	5247.88
388.263	5291.88
388.488	5318.88
388.713	5252.88
388.938	5215.88
389.163	5247.88
389.387	5281.88
389.612	5155.88
389.837	5173.88
390.062	5213.88
390.287	5167.88
390.512	5214.88
390.736	5279.88
390.961	5345.88
391.186	5360.88
391.411	5646.88
391.636	5727.88
391.86	5906.88
392.085	5971.88
392.31	5869.88
392.534	5650.88
392.759	5665.88
392.984	5539.88
393.208	5448.88
393.433	5523.88
393.658	5528.88
393.882	5495.88
394.107	5403.88
394.331	5507.88
394.556	5505.88
394.78	5628.88
395.005	5686.88
395.229	5660.88
395.454	5837.88
395.678	5981.88
395.903	5955.88
396.127	6079.88
396.352	5864.88
396.576	5617.88
396.801	5570.88
397.025	5670.88
397.249	5870.88
397.474	5983.88
397.698	5961.88
397.922	6089.88
398.147	6208.88
398.371	6287.88
398.595	6475.88
398.82	6693.88
399.044	7331.88
399.268	8137.88
399.492	9271.88
399.717	9865.88
399.941	9541.88
400.165	8951.88
400.389	8220.88
400.613	7443.88
400.837	6999.88
401.062	6828.88
401.286	6733.88
401.51	6656.88
401.734	6633.88
401.958	6884.88
402.182	6900.88
402.406	6999.88
402.63	7025.88
402.854	7149.88
403.078	7309.88
403.302	7448.88
403.526	7443.88
403.75	7533.88
403.974	7654.88
404.198	7484.88
404.422	7659.88
404.645	7593.88
404.869	7526.88
405.093	7661.88
405.317	7706.88
405.541	7789.88
405.765	7474.88
405.988	7357.88
406.212	7501.88
406.436	7783.88
406.66	7919.88
406.883	7931.88
407.107	8597.88
407.331	9103.88
407.555	9633.88
407.778	9239.88
408.002	8473.88
408.226	8122.88
408.449	8056.88
408.673	7793.88
408.896	8058.88
409.12	8166.88
409.344	7679.88
409.567	7281.88
409.791	7270.88
410.014	7158.88
410.238	7070.88
410.461	7267.88
410.685	7230.88
410.908	7245.88
411.132	7533.88
411.355	7553.88
411.578	7097.88
411.802	6850.88
412.025	6921.88
412.249	6991.88
412.472	6989.88
412.695	6951.88
412.919	6791.88
413.142	6611.88
413.365	6545.88
413.589	6619.88
413.812	6555.88
414.035	6439.88
414.258	6502.88
414.482	6601.88
414.705	6663.88
414.928	6597.88
415.151	6484.88
415.374	6507.88
415.597	6461.88
415.821	6453.88
416.044	6425.88
416.267	6430.88
416.49	6368.88
416.713	6377.88
416.936	6486.88
417.159	6461.88
417.382	6438.88
417.605	6485.88
417.828	6707.88
418.051	6841.88
418.274	6667.88
418.497	6600.88
418.72	6707.88
418.943	6671.88
419.166	7061.88
419.389	7449.88
419.611	7268.88
419.834	7078.88
420.057	6925.88
420.28	6782.88
420.503	6555.88
420.726	6623.88
420.948	6797.88
421.171	7205.88
421.394	7222.88
421.617	6707.88
421.839	6668.88
422.062	6793.88
422.285	6921.88
422.507	7580.88
422.73	8187.88
422.953	7498.88
423.175	7251.88
423.398	7181.88
423.621	7206.88
423.843	7467.88
424.066	7390.88
424.288	7225.88
424.511	7551.88
424.733	8005.88
424.956	8499.88
425.178	7923.88
425.401	8118.88
425.623	7976.88
425.846	6960.88
426.068	6818.88
426.291	6779.88
426.513	6618.88
426.735	6853.88
426.958	7263.88
427.18	8041.88
427.402	9216.88
427.625	9298.88
427.847	7739.88
428.069	6928.88
428.292	6506.88
428.514	6254.88
428.736	6106.88
428.958	6141.88
429.181	5913.88
429.403	5922.88
429.625	6148.88
429.847	6569.88
430.069	7026.88
430.292	6563.88
430.514	5927.88
430.736	6041.88
430.958	5910.88
431.18	5816.88
431.402	5799.88
431.624	5807.88
431.846	5862.88
432.068	5913.88
432.29	5898.88
432.512	5830.88
432.734	5993.88
432.956	5959.88
433.178	5885.88
433.4	5911.88
433.622	5927.88
433.844	5853.88
434.066	5952.88
434.287	6023.88
434.509	6232.88
434.731	6496.88
434.953	6643.88
435.175	6793.88
435.397	6932.88
435.618	6739.88
435.84	7160.88
436.062	7982.88
436.284	7949.88
436.505	6724.88
436.727	6386.88
436.949	6126.88
437.17	6034.88
437.392	5901.88
437.614	6107.88
437.835	6500.88
438.057	7516.88
438.278	8122.88
438.5	8115.88
438.721	8931.88
438.943	7817.88
439.165	6589.88
439.386	6388.88
439.608	6439.88
439.829	6499.88
440.05	6926.88
440.272	7228.88
440.493	6619.88
440.715	6327.88
440.936	6302.88
441.158	6272.88
441.379	6417.88
441.6	6801.88
441.822	7075.88
442.043	7491.88
442.264	8219.88
442.486	7929.88
442.707	7045.88
442.928	6993.88
443.149	7021.88
443.371	7367.88
443.592	7905.88
443.813	8897.88
444.034	8808.88
444.255	7713.88
444.476	7553.88
444.698	7695.88
444.919	7794.88
445.14	7606.88
445.361	7449.88
445.582	7576.88
445.803	8153.88
446.024	8824.88
446.245	8493.88
446.466	7664.88
446.687	6552.88
446.908	6328.88
447.129	5949.88
447.35	5813.88
447.571	5815.88
447.792	5684.88
448.013	5805.88
448.234	6030.88
448.455	6688.88
448.675	7940.88
448.896	8447.88
449.117	6935.88
449.338	7073.88
449.559	8475.88
449.779	8679.88
450	6689.88
450.221	5882.88
450.442	5653.88
450.662	5624.88
450.883	5658.88
451.104	5752.88
451.324	5647.88
451.545	5486.88
451.766	5369.88
451.986	5238.88
452.207	5156.88
452.428	5192.88
452.648	5169.88
452.869	5241.88
453.089	5297.88
453.31	5392.88
453.53	5243.88
453.751	5165.88
453.971	5215.88
454.192	5351.88
454.412	5113.88
454.633	5085.88
454.853	4994.88
455.073	5108.88
455.294	5486.88
455.514	5984.88
455.734	5502.88
455.955	4939.88
456.175	4870.88
456.395	4703.88
456.616	4753.88
456.836	4767.88
457.056	4790.88
457.276	4672.88
457.497	4873.88
457.717	4834.88
457.937	4898.88
458.157	4993.88
458.377	5091.88
458.598	5399.88
458.818	6132.88
459.038	6861.88
459.258	6851.88
459.478	6096.88
459.698	6015.88
459.918	5981.88
460.138	6239.88
460.358	6433.88
460.578	6471.88
460.798	6497.88
461.018	6575.88
461.238	6410.88
461.458	6438.88
461.678	6351.88
461.898	6472.88
462.118	6501.88
462.338	6818.88
462.558	7016.88
462.777	7295.88
462.997	7859.88
463.217	8266.88
463.437	8104.88
463.657	7511.88
463.876	7302.88
464.096	7400.88
464.316	7429.88
464.536	7446.88
464.755	7256.88
464.975	7055.88
465.195	7163.88
465.414	7186.88
465.634	6415.88
465.854	6019.88
466.073	5858.88
466.293	5616.88
466.512	5416.88
466.732	5334.88
466.951	5340.88
467.171	5366.88
467.391	5439.88
467.61	5485.88
467.829	5482.88
468.049	5340.88
468.268	5185.88
468.488	5090.88
468.707	5085.88
468.927	5120.88
469.146	5072.88
469.365	5176.88
469.585	5227.88
469.804	5312.88
470.023	5533.88
470.243	5517.88
470.462	5597.88
470.681	5794.88
470.901	5622.88
471.12	5562.88
471.339	5491.88
471.558	5405.88
471.777	5321.88
471.997	5213.88
472.216	5184.88
472.435	5196.88
472.654	5046.88
472.873	5096.88
473.092	5052.88
473.311	5029.88
473.53	5083.88
473.749	5308.88
473.968	5759.88
474.187	6826.88
474.406	6298.88
474.625	5448.88
474.844	5203.88
475.063	5169.88
475.282	5151.88
475.501	5162.88
475.72	5281.88
475.939	5283.88
476.158	5286.88
476.377	5348.88
476.596	5347.88
476.814	5474.88
477.033	5469.88
477.252	5580.88
477.471	5606.88
477.69	5795.88
477.908	5896.88
478.127	6127.88
478.346	6066.88
478.564	6237.88
478.783	6211.88
479.002	6473.88
479.22	6493.88
479.439	6547.88
479.658	6604.88
479.876	6696.88
480.095	6997.88
480.313	7393.88
480.532	7160.88
480.751	7055.88
480.969	6901.88
481.188	6969.88
481.406	6666.88
481.624	6475.88
481.843	6200.88
482.061	6132.88
482.28	6070.88
482.498	5965.88
482.717	5944.88
482.935	6000.88
483.153	5979.88
483.372	6010.88
483.59	5953.88
483.808	6006.88
484.027	6019.88
484.245	6038.88
484.463	6126.88
484.681	6180.88
484.9	6122.88
485.118	6211.88
485.336	6216.88
485.554	6367.88
485.772	6378.88
485.99	6316.88
486.209	6481.88
486.427	6437.88
486.645	6523.88
486.863	6485.88
487.081	6606.88
487.299	6539.88
487.517	6409.88
487.735	6380.88
487.953	6394.88
