Data from Uncirc_2002_H10_HRD10591_00045.txt Node
Date: Wed Jan 03 10:39:50 EST 2024
User: Yrep
Spectrometer: HR+D1059
Trigger mode: 1
Integration Time (sec): 1.000000E-1
Scans to average: 1
Electric dark correction enabled: true
Nonlinearity correction enabled: false
Boxcar width: 0
XAxis mode: Wavelengths
Number of Pixels in Spectrum: 2048
>>>>>Begin Spectral Data<<<<<
223.165	-22.44
223.4	-22.44
223.635	-22.44
223.869	-16.44
224.104	-2.44
224.338	-10.44
224.573	-19.44
224.808	-25.44
225.042	-17.44
225.277	-0.44
225.511	-11.44
225.746	19.56
225.98	19.56
226.215	14.56
226.449	17.56
226.683	17.56
226.918	3.56
227.152	33.56
227.387	34.56
227.621	41.56
227.856	31.56
228.09	51.56
228.324	44.56
228.559	49.56
228.793	52.56
229.027	51.56
229.262	67.56
229.496	58.56
229.73	101.56
229.964	79.56
230.199	91.56
230.433	75.56
230.667	73.56
230.901	80.56
231.136	63.56
231.37	70.56
231.604	72.56
231.838	81.56
232.072	78.56
232.306	83.56
232.541	77.56
232.775	78.56
233.009	88.56
233.243	77.56
233.477	83.56
233.711	78.56
233.945	77.56
234.179	71.56
234.413	78.56
234.647	73.56
234.881	76.56
235.115	88.56
235.349	79.56
235.583	83.56
235.817	84.56
236.051	71.56
236.285	73.56
236.519	78.56
236.753	66.56
236.987	76.56
237.221	78.56
237.455	82.56
237.689	80.56
237.922	68.56
238.156	83.56
238.39	67.56
238.624	79.56
238.858	67.56
239.091	77.56
239.325	71.56
239.559	76.56
239.793	87.56
240.027	82.56
240.26	78.56
240.494	64.56
240.728	86.56
240.961	79.56
241.195	63.56
241.429	73.56
241.662	53.56
241.896	75.56
242.13	86.56
242.363	78.56
242.597	65.56
242.83	78.56
243.064	68.56
243.298	65.56
243.531	71.56
243.765	72.56
243.998	81.56
244.232	68.56
244.465	80.56
244.699	77.56
244.932	76.56
245.166	72.56
245.399	65.56
245.633	78.56
245.866	70.56
246.099	75.56
246.333	84.56
246.566	76.56
246.8	93.56
247.033	84.56
247.266	79.56
247.5	56.56
247.733	81.56
247.966	92.56
248.2	82.56
248.433	83.56
248.666	79.56
248.899	89.56
249.133	61.56
249.366	84.56
249.599	73.56
249.832	79.56
250.066	73.56
250.299	73.56
250.532	81.56
250.765	83.56
250.998	70.56
251.231	75.56
251.465	85.56
251.698	68.56
251.931	81.56
252.164	73.56
252.397	83.56
252.63	76.56
252.863	76.56
253.096	81.56
253.329	84.56
253.562	87.56
253.795	79.56
254.028	95.56
254.261	91.56
254.494	81.56
254.727	77.56
254.96	65.56
255.193	86.56
255.426	75.56
255.659	71.56
255.892	80.56
256.124	78.56
256.357	66.56
256.59	85.56
256.823	81.56
257.056	84.56
257.289	72.56
257.521	76.56
257.754	70.56
257.987	88.56
258.22	84.56
258.452	102.56
258.685	73.56
258.918	78.56
259.151	67.56
259.383	78.56
259.616	85.56
259.849	72.56
260.081	71.56
260.314	69.56
260.547	65.56
260.779	86.56
261.012	69.56
261.244	76.56
261.477	90.56
261.71	90.56
261.942	89.56
262.175	112.56
262.407	88.56
262.64	72.56
262.872	84.56
263.105	85.56
263.337	76.56
263.57	88.56
263.802	88.56
264.035	81.56
264.267	91.56
264.499	82.56
264.732	79.56
264.964	83.56
265.197	79.56
265.429	81.56
265.661	88.56
265.894	83.56
266.126	87.56
266.358	80.56
266.591	84.56
266.823	87.56
267.055	77.56
267.287	86.56
267.52	84.56
267.752	75.56
267.984	82.56
268.216	70.56
268.448	88.56
268.681	83.56
268.913	70.56
269.145	85.56
269.377	68.56
269.609	76.56
269.841	89.56
270.073	80.56
270.306	96.56
270.538	78.56
270.77	78.56
271.002	85.56
271.234	78.56
271.466	89.56
271.698	88.56
271.93	84.56
272.162	77.56
272.394	87.56
272.626	79.56
272.858	76.56
273.09	86.56
273.322	75.56
273.553	75.56
273.785	75.56
274.017	78.56
274.249	68.56
274.481	80.56
274.713	75.56
274.945	86.56
275.176	82.56
275.408	87.56
275.64	77.56
275.872	70.56
276.104	86.56
276.335	79.56
276.567	96.56
276.799	89.56
277.031	75.56
277.262	91.56
277.494	79.56
277.726	88.56
277.957	79.56
278.189	83.56
278.421	75.56
278.652	101.56
278.884	78.56
279.115	86.56
279.347	75.56
279.579	85.56
279.81	77.56
280.042	80.56
280.273	84.56
280.505	80.56
280.736	79.56
280.968	80.56
281.199	83.56
281.431	92.56
281.662	76.56
281.894	76.56
282.125	100.56
282.356	108.56
282.588	124.56
282.819	115.56
283.051	84.56
283.282	92.56
283.513	83.56
283.745	73.56
283.976	82.56
284.207	82.56
284.439	85.56
284.67	83.56
284.901	89.56
285.132	80.56
285.364	92.56
285.595	79.56
285.826	87.56
286.057	84.56
286.288	79.56
286.52	93.56
286.751	96.56
286.982	82.56
287.213	81.56
287.444	86.56
287.675	86.56
287.906	87.56
288.138	89.56
288.369	105.56
288.6	80.56
288.831	103.56
289.062	77.56
289.293	86.56
289.524	82.56
289.755	78.56
289.986	70.56
290.217	85.56
290.448	88.56
290.679	78.56
290.91	92.56
291.141	84.56
291.371	77.56
291.602	67.56
291.833	81.56
292.064	83.56
292.295	90.56
292.526	101.56
292.757	89.56
292.987	89.56
293.218	87.56
293.449	83.56
293.68	89.56
293.91	88.56
294.141	90.56
294.372	86.56
294.603	87.56
294.833	88.56
295.064	89.56
295.295	90.56
295.525	81.56
295.756	107.56
295.987	100.56
296.217	122.56
296.448	94.56
296.679	98.56
296.909	97.56
297.14	86.56
297.37	76.56
297.601	91.56
297.831	89.56
298.062	69.56
298.292	93.56
298.523	101.56
298.753	84.56
298.984	74.56
299.214	79.56
299.445	92.56
299.675	90.56
299.905	88.56
300.136	77.56
300.366	88.56
300.597	92.56
300.827	95.56
301.057	105.56
301.288	96.56
301.518	83.56
301.748	94.56
301.979	93.56
302.209	104.56
302.439	90.56
302.669	75.56
302.9	77.56
303.13	85.56
303.36	85.56
303.59	98.56
303.82	96.56
304.051	85.56
304.281	80.56
304.511	84.56
304.741	85.56
304.971	87.56
305.201	95.56
305.431	77.56
305.661	87.56
305.891	76.56
306.121	91.56
306.352	86.56
306.582	112.56
306.812	89.56
307.042	93.56
307.272	107.56
307.502	89.56
307.731	96.56
307.961	92.56
308.191	99.56
308.421	78.56
308.651	87.56
308.881	100.56
309.111	80.56
309.341	83.56
309.571	99.56
309.8	89.56
310.03	88.56
310.26	96.56
310.49	103.56
310.72	94.56
310.949	86.56
311.179	78.56
311.409	87.56
311.639	98.56
311.868	89.56
312.098	83.56
312.328	118.56
312.557	96.56
312.787	80.56
313.017	81.56
313.246	95.56
313.476	105.56
313.706	84.56
313.935	92.56
314.165	85.56
314.394	95.56
314.624	101.56
314.853	88.56
315.083	96.56
315.312	75.56
315.542	79.56
315.771	89.56
316.001	91.56
316.23	93.56
316.46	89.56
316.689	80.56
316.919	87.56
317.148	85.56
317.377	93.56
317.607	90.56
317.836	97.56
318.065	86.56
318.295	88.56
318.524	84.56
318.753	101.56
318.983	89.56
319.212	102.56
319.441	97.56
319.67	88.56
319.9	93.56
320.129	88.56
320.358	82.56
320.587	97.56
320.816	96.56
321.046	107.56
321.275	98.56
321.504	99.56
321.733	100.56
321.962	96.56
322.191	105.56
322.42	97.56
322.649	102.56
322.878	100.56
323.108	100.56
323.337	100.56
323.566	106.56
323.795	144.56
324.024	168.56
324.253	328.56
324.482	675.56
324.71	1327.56
324.939	1733.56
325.168	640.56
325.397	209.56
325.626	130.56
325.855	108.56
326.084	109.56
326.313	108.56
326.542	132.56
326.77	184.56
326.999	385.56
327.228	745.56
327.457	1322.56
327.686	1087.56
327.914	300.56
328.143	159.56
328.372	118.56
328.6	116.56
328.829	121.56
329.058	121.56
329.287	105.56
329.515	101.56
329.744	105.56
329.972	98.56
330.201	92.56
330.43	102.56
330.658	110.56
330.887	114.56
331.115	102.56
331.344	103.56
331.572	95.56
331.801	97.56
332.03	96.56
332.258	89.56
332.486	78.56
332.715	88.56
332.943	96.56
333.172	97.56
333.4	96.56
333.629	92.56
333.857	109.56
334.085	89.56
334.314	95.56
334.542	101.56
334.771	103.56
334.999	89.56
335.227	107.56
335.455	101.56
335.684	93.56
335.912	93.56
336.14	88.56
336.369	97.56
336.597	95.56
336.825	105.56
337.053	84.56
337.281	82.56
337.51	89.56
337.738	85.56
337.966	88.56
338.194	82.56
338.422	105.56
338.65	94.56
338.878	93.56
339.106	104.56
339.334	85.56
339.562	95.56
339.79	80.56
340.018	96.56
340.246	97.56
340.474	84.56
340.702	85.56
340.93	88.56
341.158	88.56
341.386	93.56
341.614	86.56
341.842	89.56
342.07	86.56
342.298	88.56
342.526	89.56
342.754	87.56
342.981	80.56
343.209	96.56
343.437	89.56
343.665	102.56
343.893	96.56
344.12	87.56
344.348	89.56
344.576	98.56
344.804	88.56
345.031	91.56
345.259	96.56
345.487	86.56
345.714	73.56
345.942	87.56
346.17	90.56
346.397	93.56
346.625	90.56
346.853	95.56
347.08	83.56
347.308	103.56
347.535	93.56
347.763	79.56
347.99	108.56
348.218	106.56
348.445	99.56
348.673	96.56
348.9	94.56
349.128	88.56
349.355	89.56
349.583	88.56
349.81	112.56
350.037	87.56
350.265	89.56
350.492	84.56
350.72	83.56
350.947	96.56
351.174	107.56
351.402	95.56
351.629	100.56
351.856	89.56
352.083	89.56
352.311	90.56
352.538	92.56
352.765	96.56
352.992	89.56
353.22	103.56
353.447	105.56
353.674	108.56
353.901	87.56
354.128	93.56
354.355	98.56
354.583	88.56
354.81	86.56
355.037	97.56
355.264	90.56
355.491	84.56
355.718	93.56
355.945	96.56
356.172	83.56
356.399	101.56
356.626	94.56
356.853	87.56
357.08	97.56
357.307	93.56
357.534	86.56
357.761	89.56
357.988	104.56
358.215	102.56
358.441	105.56
358.668	91.56
358.895	89.56
359.122	84.56
359.349	79.56
359.576	96.56
359.802	96.56
360.029	92.56
360.256	108.56
360.483	92.56
360.709	102.56
360.936	89.56
361.163	79.56
361.39	92.56
361.616	89.56
361.843	88.56
362.07	86.56
362.296	93.56
362.523	77.56
362.749	79.56
362.976	81.56
363.203	98.56
363.429	93.56
363.656	81.56
363.882	91.56
364.109	80.56
364.335	87.56
364.562	80.56
364.788	82.56
365.015	107.56
365.241	95.56
365.468	89.56
365.694	97.56
365.92	88.56
366.147	91.56
366.373	93.56
366.599	80.56
366.826	100.56
367.052	85.56
367.278	86.56
367.505	92.56
367.731	89.56
367.957	94.56
368.184	84.56
368.41	96.56
368.636	98.56
368.862	105.56
369.089	105.56
369.315	79.56
369.541	95.56
369.767	81.56
369.993	79.56
370.219	92.56
370.445	87.56
370.672	83.56
370.898	93.56
371.124	93.56
371.35	77.56
371.576	80.56
371.802	79.56
372.028	97.56
372.254	89.56
372.48	80.56
372.706	79.56
372.932	84.56
373.158	79.56
373.384	89.56
373.61	80.56
373.835	80.56
374.061	84.56
374.287	77.56
374.513	73.56
374.739	63.56
374.965	82.56
375.191	82.56
375.416	87.56
375.642	94.56
375.868	93.56
376.094	98.56
376.319	108.56
376.545	87.56
376.771	91.56
376.997	91.56
377.222	85.56
377.448	82.56
377.674	95.56
377.899	85.56
378.125	92.56
378.35	84.56
378.576	93.56
378.802	84.56
379.027	95.56
379.253	85.56
379.478	87.56
379.704	83.56
379.929	89.56
380.155	99.56
380.38	93.56
380.606	87.56
380.831	84.56
381.057	104.56
381.282	95.56
381.507	88.56
381.733	95.56
381.958	95.56
382.184	84.56
382.409	92.56
382.634	83.56
382.86	96.56
383.085	99.56
383.31	104.56
383.535	95.56
383.761	101.56
383.986	106.56
384.211	92.56
384.436	78.56
384.662	98.56
384.887	87.56
385.112	94.56
385.337	104.56
385.562	86.56
385.787	111.56
386.013	95.56
386.238	103.56
386.463	97.56
386.688	100.56
386.913	101.56
387.138	99.56
387.363	95.56
387.588	105.56
387.813	95.56
388.038	85.56
388.263	108.56
388.488	104.56
388.713	93.56
388.938	88.56
389.163	100.56
389.387	98.56
389.612	94.56
389.837	89.56
390.062	96.56
390.287	110.56
390.512	105.56
390.736	84.56
390.961	90.56
391.186	104.56
391.411	95.56
391.636	91.56
391.86	93.56
392.085	79.56
392.31	88.56
392.534	87.56
392.759	95.56
392.984	93.56
393.208	99.56
393.433	97.56
393.658	94.56
393.882	79.56
394.107	88.56
394.331	82.56
394.556	83.56
394.78	101.56
395.005	80.56
395.229	94.56
395.454	87.56
395.678	92.56
395.903	89.56
396.127	75.56
396.352	77.56
396.576	79.56
396.801	104.56
397.025	97.56
397.249	92.56
397.474	81.56
397.698	96.56
397.922	81.56
398.147	75.56
398.371	88.56
398.595	92.56
398.82	86.56
399.044	103.56
399.268	86.56
399.492	83.56
399.717	90.56
399.941	84.56
400.165	69.56
400.389	102.56
400.613	98.56
400.837	97.56
401.062	95.56
401.286	91.56
401.51	87.56
401.734	79.56
401.958	103.56
402.182	107.56
402.406	126.56
402.63	97.56
402.854	88.56
403.078	81.56
403.302	85.56
403.526	80.56
403.75	87.56
403.974	64.56
404.198	84.56
404.422	78.56
404.645	86.56
404.869	96.56
405.093	75.56
405.317	95.56
405.541	97.56
405.765	96.56
405.988	124.56
406.212	135.56
406.436	191.56
406.66	123.56
406.883	93.56
407.107	86.56
407.331	94.56
407.555	80.56
407.778	90.56
408.002	90.56
408.226	93.56
408.449	86.56
408.673	98.56
408.896	80.56
409.12	97.56
409.344	86.56
409.567	88.56
409.791	101.56
410.014	89.56
410.238	91.56
410.461	94.56
410.685	98.56
410.908	99.56
411.132	112.56
411.355	92.56
411.578	98.56
411.802	88.56
412.025	81.56
412.249	93.56
412.472	99.56
412.695	89.56
412.919	89.56
413.142	80.56
413.365	81.56
413.589	89.56
413.812	95.56
414.035	99.56
414.258	96.56
414.482	93.56
414.705	85.56
414.928	79.56
415.151	66.56
415.374	93.56
415.597	80.56
415.821	76.56
416.044	96.56
416.267	75.56
416.49	83.56
416.713	90.56
416.936	86.56
417.159	77.56
417.382	86.56
417.605	85.56
417.828	99.56
418.051	91.56
418.274	87.56
418.497	89.56
418.72	86.56
418.943	94.56
419.166	80.56
419.389	91.56
419.611	83.56
419.834	90.56
420.057	83.56
420.28	93.56
420.503	92.56
420.726	80.56
420.948	93.56
421.171	106.56
421.394	97.56
421.617	92.56
421.839	100.56
422.062	77.56
422.285	89.56
422.507	97.56
422.73	96.56
422.953	94.56
423.175	96.56
423.398	91.56
423.621	94.56
423.843	87.56
424.066	91.56
424.288	81.56
424.511	99.56
424.733	99.56
424.956	83.56
425.178	96.56
425.401	87.56
425.623	107.56
425.846	92.56
426.068	87.56
426.291	80.56
426.513	87.56
426.735	82.56
426.958	86.56
427.18	89.56
427.402	125.56
427.625	141.56
427.847	97.56
428.069	87.56
428.292	99.56
428.514	76.56
428.736	81.56
428.958	90.56
429.181	77.56
429.403	84.56
429.625	87.56
429.847	87.56
430.069	104.56
430.292	89.56
430.514	90.56
430.736	94.56
430.958	75.56
431.18	81.56
431.402	84.56
431.624	84.56
431.846	90.56
432.068	88.56
432.29	99.56
432.512	86.56
432.734	81.56
432.956	71.56
433.178	96.56
433.4	86.56
433.622	86.56
433.844	92.56
434.066	96.56
434.287	95.56
434.509	83.56
434.731	80.56
434.953	84.56
435.175	77.56
435.397	89.56
435.618	78.56
435.84	113.56
436.062	107.56
436.284	104.56
436.505	92.56
436.727	92.56
436.949	75.56
437.17	83.56
437.392	71.56
437.614	88.56
437.835	89.56
438.057	105.56
438.278	91.56
438.5	110.56
438.721	115.56
438.943	90.56
439.165	74.56
439.386	78.56
439.608	93.56
439.829	85.56
440.05	111.56
440.272	119.56
440.493	90.56
440.715	97.56
440.936	92.56
441.158	78.56
441.379	85.56
441.6	92.56
441.822	93.56
442.043	80.56
442.264	101.56
442.486	83.56
442.707	92.56
442.928	97.56
443.149	104.56
443.371	124.56
443.592	110.56
443.813	109.56
444.034	97.56
444.255	94.56
444.476	67.56
444.698	84.56
444.919	94.56
445.14	118.56
445.361	120.56
445.582	86.56
445.803	127.56
446.024	116.56
446.245	129.56
446.466	107.56
446.687	86.56
446.908	86.56
447.129	94.56
447.35	89.56
447.571	89.56
447.792	97.56
448.013	107.56
448.234	88.56
448.455	74.56
448.675	95.56
448.896	105.56
449.117	101.56
449.338	78.56
449.559	109.56
449.779	139.56
450	99.56
450.221	92.56
450.442	94.56
450.662	85.56
450.883	84.56
451.104	84.56
451.324	76.56
451.545	76.56
451.766	76.56
451.986	83.56
452.207	82.56
452.428	97.56
452.648	83.56
452.869	86.56
453.089	112.56
453.31	101.56
453.53	100.56
453.751	84.56
453.971	88.56
454.192	97.56
454.412	73.56
454.633	88.56
454.853	83.56
455.073	79.56
455.294	77.56
455.514	91.56
455.734	86.56
455.955	87.56
456.175	86.56
456.395	72.56
456.616	81.56
456.836	70.56
457.056	80.56
457.276	83.56
457.497	75.56
457.717	86.56
457.937	84.56
458.157	91.56
458.377	99.56
458.598	89.56
458.818	131.56
459.038	131.56
459.258	104.56
459.478	90.56
459.698	94.56
459.918	92.56
460.138	77.56
460.358	87.56
460.578	83.56
460.798	95.56
461.018	89.56
461.238	80.56
461.458	86.56
461.678	91.56
461.898	82.56
462.118	84.56
462.338	79.56
462.558	67.56
462.777	74.56
462.997	85.56
463.217	93.56
463.437	101.56
463.657	77.56
463.876	71.56
464.096	65.56
464.316	86.56
464.536	88.56
464.755	79.56
464.975	101.56
465.195	141.56
465.414	137.56
465.634	81.56
465.854	72.56
466.073	82.56
466.293	81.56
466.512	72.56
466.732	86.56
466.951	77.56
467.171	83.56
467.391	87.56
467.61	84.56
467.829	80.56
468.049	86.56
468.268	90.56
468.488	101.56
468.707	72.56
468.927	88.56
469.146	72.56
469.365	89.56
469.585	101.56
469.804	104.56
470.023	89.56
470.243	95.56
470.462	88.56
470.681	98.56
470.901	93.56
471.12	81.56
471.339	78.56
471.558	72.56
471.777	78.56
471.997	79.56
472.216	87.56
472.435	106.56
472.654	84.56
472.873	78.56
473.092	73.56
473.311	72.56
473.53	73.56
473.749	79.56
473.968	97.56
474.187	85.56
474.406	99.56
474.625	63.56
474.844	81.56
475.063	87.56
475.282	71.56
475.501	78.56
475.72	98.56
475.939	102.56
476.158	96.56
476.377	92.56
476.596	102.56
476.814	82.56
477.033	86.56
477.252	76.56
477.471	80.56
477.69	88.56
477.908	94.56
478.127	87.56
478.346	93.56
478.564	94.56
478.783	97.56
479.002	84.56
479.22	92.56
479.439	104.56
479.658	97.56
479.876	98.56
480.095	80.56
480.313	92.56
480.532	74.56
480.751	83.56
480.969	95.56
481.188	92.56
481.406	100.56
481.624	92.56
481.843	84.56
482.061	98.56
482.28	82.56
482.498	70.56
482.717	78.56
482.935	90.56
483.153	64.56
483.372	85.56
483.59	102.56
483.808	86.56
484.027	86.56
484.245	89.56
484.463	87.56
484.681	82.56
484.9	103.56
485.118	88.56
485.336	94.56
485.554	94.56
485.772	97.56
485.99	100.56
486.209	110.56
486.427	111.56
486.645	89.56
486.863	103.56
487.081	87.56
487.299	99.56
487.517	86.56
487.735	95.56
487.953	83.56
488.171	85.56
488.389	86.56
488.607	89.56
488.825	101.56
489.043	94.56
489.261	84.56
489.479	77.56
489.696	94.56
489.914	93.56
490.132	84.56
490.35	86.56
490.568	92.56
490.786	78.56
491.003	93.56
491.221	87.56
491.439	86.56
491.657	97.56
491.874	83.56
492.092	81.56
492.31	89.56
492.527	83.56
492.745	80.56
492.963	90.56
493.18	89.56
493.398	85.56
493.615	89.56
493.833	94.56
494.05	98.56
494.268	98.56
494.485	84.56
494.703	85.56
494.92	93.56
495.138	88.56
495.355	81.56
495.573	100.56
495.79	91.56
496.008	79.56
496.225	87.56
496.442	103.56
496.66	96.56
496.877	87.56
497.094	89.56
497.312	73.56
497.529	82.56
497.746	88.56
497.963	97.56
498.181	105.56
498.398	79.56
498.615	95.56
498.832	81.56
499.049	88.56
499.267	88.56
499.484	90.56
499.701	81.56
499.918	87.56
500.135	85.56
500.352	88.56
500.569	95.56
500.786	87.56
501.003	79.56
501.22	81.56
501.437	73.56
501.654	95.56
501.871	97.56
502.088	94.56
502.305	88.56
502.522	87.56
502.739	100.56
502.956	84.56
503.172	67.56
503.389	84.56
503.606	90.56
503.823	94.56
504.04	85.56
504.256	77.56
504.473	80.56
504.69	88.56
504.907	102.56
505.123	86.56
505.34	82.56
505.557	84.56
505.773	81.56
505.99	82.56
506.207	67.56
506.423	91.56
506.64	94.56
506.856	83.56
507.073	93.56
507.289	103.56
507.506	95.56
507.722	98.56
507.939	110.56
508.155	100.56
508.372	98.56
508.588	86.56
508.805	90.56
509.021	97.56
509.238	72.56
509.454	88.56
509.67	79.56
509.887	100.56
510.103	118.56
510.319	190.56
510.536	638.56
510.752	1917.56
510.968	532.56
511.184	125.56
511.401	108.56
511.617	92.56
511.833	100.56
512.049	86.56
512.265	77.56
512.481	87.56
512.698	80.56
512.914	93.56
513.13	93.56
513.346	84.56
513.562	103.56
513.778	96.56
513.994	80.56
514.21	99.56
514.426	107.56
514.642	120.56
514.858	99.56
515.074	141.56
515.29	359.56
515.506	1081.56
515.721	428.56
515.937	127.56
516.153	107.56
516.369	100.56
516.585	80.56
516.801	84.56
517.016	76.56
