Data from Uncirc_2002_H10_HRD10591_00091.txt Node
Date: Wed Jan 03 10:39:59 EST 2024
User: Yrep
Spectrometer: HR+D1059
Trigger mode: 1
Integration Time (sec): 1.000000E-1
Scans to average: 1
Electric dark correction enabled: true
Nonlinearity correction enabled: false
Boxcar width: 0
XAxis mode: Wavelengths
Number of Pixels in Spectrum: 2048
>>>>>Begin Spectral Data<<<<<
223.165	-30.88
223.4	-30.88
223.635	-30.88
223.869	-20.88
224.104	-17.88
224.338	-15.88
224.573	-14.88
224.808	-14.88
225.042	-6.88
225.277	-9.88
225.511	6.12
225.746	7.12
225.98	16.12
226.215	5.12
226.449	24.12
226.683	15.12
226.918	29.12
227.152	29.12
227.387	29.12
227.621	46.12
227.856	49.12
228.09	23.12
228.324	45.12
228.559	44.12
228.793	58.12
229.027	56.12
229.262	67.12
229.496	77.12
229.73	83.12
229.964	72.12
230.199	79.12
230.433	78.12
230.667	89.12
230.901	79.12
231.136	69.12
231.37	76.12
231.604	76.12
231.838	94.12
232.072	91.12
232.306	81.12
232.541	76.12
232.775	96.12
233.009	82.12
233.243	97.12
233.477	84.12
233.711	94.12
233.945	90.12
234.179	84.12
234.413	82.12
234.647	90.12
234.881	106.12
235.115	86.12
235.349	93.12
235.583	80.12
235.817	79.12
236.051	74.12
236.285	82.12
236.519	78.12
236.753	69.12
236.987	81.12
237.221	80.12
237.455	75.12
237.689	93.12
237.922	91.12
238.156	82.12
238.39	88.12
238.624	85.12
238.858	74.12
239.091	78.12
239.325	79.12
239.559	75.12
239.793	78.12
240.027	77.12
240.26	80.12
240.494	79.12
240.728	91.12
240.961	83.12
241.195	83.12
241.429	84.12
241.662	78.12
241.896	68.12
242.13	73.12
242.363	74.12
242.597	69.12
242.83	96.12
243.064	77.12
243.298	90.12
243.531	77.12
243.765	101.12
243.998	80.12
244.232	92.12
244.465	90.12
244.699	83.12
244.932	90.12
245.166	92.12
245.399	92.12
245.633	90.12
245.866	86.12
246.099	56.12
246.333	84.12
246.566	86.12
246.8	77.12
247.033	79.12
247.266	72.12
247.5	81.12
247.733	85.12
247.966	87.12
248.2	90.12
248.433	80.12
248.666	80.12
248.899	76.12
249.133	88.12
249.366	87.12
249.599	94.12
249.832	96.12
250.066	86.12
250.299	87.12
250.532	81.12
250.765	87.12
250.998	71.12
251.231	83.12
251.465	83.12
251.698	81.12
251.931	93.12
252.164	81.12
252.397	79.12
252.63	87.12
252.863	84.12
253.096	83.12
253.329	86.12
253.562	81.12
253.795	92.12
254.028	77.12
254.261	94.12
254.494	92.12
254.727	84.12
254.96	73.12
255.193	85.12
255.426	80.12
255.659	67.12
255.892	80.12
256.124	88.12
256.357	90.12
256.59	68.12
256.823	71.12
257.056	95.12
257.289	85.12
257.521	87.12
257.754	80.12
257.987	78.12
258.22	91.12
258.452	90.12
258.685	84.12
258.918	90.12
259.151	66.12
259.383	86.12
259.616	91.12
259.849	87.12
260.081	85.12
260.314	94.12
260.547	78.12
260.779	85.12
261.012	89.12
261.244	87.12
261.477	87.12
261.71	92.12
261.942	106.12
262.175	105.12
262.407	86.12
262.64	80.12
262.872	68.12
263.105	82.12
263.337	81.12
263.57	82.12
263.802	89.12
264.035	89.12
264.267	82.12
264.499	85.12
264.732	76.12
264.964	80.12
265.197	73.12
265.429	80.12
265.661	81.12
265.894	83.12
266.126	86.12
266.358	88.12
266.591	75.12
266.823	83.12
267.055	74.12
267.287	98.12
267.52	77.12
267.752	96.12
267.984	86.12
268.216	88.12
268.448	85.12
268.681	87.12
268.913	81.12
269.145	101.12
269.377	87.12
269.609	87.12
269.841	88.12
270.073	76.12
270.306	78.12
270.538	78.12
270.77	93.12
271.002	94.12
271.234	77.12
271.466	80.12
271.698	72.12
271.93	87.12
272.162	86.12
272.394	93.12
272.626	78.12
272.858	96.12
273.09	90.12
273.322	103.12
273.553	95.12
273.785	90.12
274.017	86.12
274.249	74.12
274.481	94.12
274.713	88.12
274.945	96.12
275.176	87.12
275.408	95.12
275.64	74.12
275.872	88.12
276.104	84.12
276.335	87.12
276.567	94.12
276.799	111.12
277.031	94.12
277.262	83.12
277.494	103.12
277.726	95.12
277.957	92.12
278.189	86.12
278.421	81.12
278.652	98.12
278.884	77.12
279.115	95.12
279.347	94.12
279.579	86.12
279.81	82.12
280.042	93.12
280.273	88.12
280.505	77.12
280.736	93.12
280.968	70.12
281.199	88.12
281.431	93.12
281.662	89.12
281.894	88.12
282.125	101.12
282.356	112.12
282.588	127.12
282.819	126.12
283.051	92.12
283.282	75.12
283.513	83.12
283.745	85.12
283.976	89.12
284.207	93.12
284.439	82.12
284.67	89.12
284.901	90.12
285.132	85.12
285.364	81.12
285.595	79.12
285.826	97.12
286.057	97.12
286.288	91.12
286.52	93.12
286.751	85.12
286.982	105.12
287.213	85.12
287.444	92.12
287.675	87.12
287.906	93.12
288.138	77.12
288.369	94.12
288.6	92.12
288.831	98.12
289.062	99.12
289.293	98.12
289.524	94.12
289.755	86.12
289.986	94.12
290.217	105.12
290.448	106.12
290.679	102.12
290.91	78.12
291.141	96.12
291.371	94.12
291.602	94.12
291.833	92.12
292.064	89.12
292.295	104.12
292.526	93.12
292.757	94.12
292.987	76.12
293.218	93.12
293.449	99.12
293.68	82.12
293.91	91.12
294.141	102.12
294.372	97.12
294.603	88.12
294.833	88.12
295.064	97.12
295.295	100.12
295.525	90.12
295.756	105.12
295.987	113.12
296.217	138.12
296.448	122.12
296.679	102.12
296.909	88.12
297.14	86.12
297.37	85.12
297.601	89.12
297.831	90.12
298.062	103.12
298.292	103.12
298.523	101.12
298.753	87.12
298.984	80.12
299.214	82.12
299.445	100.12
299.675	91.12
299.905	89.12
300.136	102.12
300.366	85.12
300.597	94.12
300.827	103.12
301.057	106.12
301.288	84.12
301.518	98.12
301.748	75.12
301.979	106.12
302.209	94.12
302.439	97.12
302.669	80.12
302.9	93.12
303.13	106.12
303.36	96.12
303.59	113.12
303.82	107.12
304.051	98.12
304.281	79.12
304.511	89.12
304.741	90.12
304.971	73.12
305.201	96.12
305.431	94.12
305.661	97.12
305.891	93.12
306.121	105.12
306.352	113.12
306.582	116.12
306.812	104.12
307.042	86.12
307.272	89.12
307.502	101.12
307.731	101.12
307.961	100.12
308.191	87.12
308.421	99.12
308.651	101.12
308.881	105.12
309.111	89.12
309.341	104.12
309.571	96.12
309.8	107.12
310.03	89.12
310.26	106.12
310.49	94.12
310.72	101.12
310.949	108.12
311.179	95.12
311.409	101.12
311.639	86.12
311.868	99.12
312.098	98.12
312.328	94.12
312.557	110.12
312.787	113.12
313.017	103.12
313.246	90.12
313.476	102.12
313.706	79.12
313.935	102.12
314.165	99.12
314.394	101.12
314.624	97.12
314.853	91.12
315.083	98.12
315.312	77.12
315.542	106.12
315.771	89.12
316.001	100.12
316.23	93.12
316.46	94.12
316.689	93.12
316.919	102.12
317.148	99.12
317.377	108.12
317.607	99.12
317.836	103.12
318.065	101.12
318.295	88.12
318.524	91.12
318.753	93.12
318.983	87.12
319.212	102.12
319.441	118.12
319.67	100.12
319.9	88.12
320.129	99.12
320.358	89.12
320.587	118.12
320.816	102.12
321.046	111.12
321.275	92.12
321.504	93.12
321.733	88.12
321.962	108.12
322.191	104.12
322.42	118.12
322.649	95.12
322.878	94.12
323.108	103.12
323.337	143.12
323.566	124.12
323.795	152.12
324.024	204.12
324.253	391.12
324.482	786.12
324.71	1615.12
324.939	2195.12
325.168	785.12
325.397	243.12
325.626	143.12
325.855	120.12
326.084	125.12
326.313	131.12
326.542	158.12
326.77	229.12
326.999	469.12
327.228	923.12
327.457	1703.12
327.686	1349.12
327.914	365.12
328.143	185.12
328.372	135.12
328.6	122.12
328.829	116.12
329.058	131.12
329.287	136.12
329.515	102.12
329.744	91.12
329.972	92.12
330.201	112.12
330.43	99.12
330.658	122.12
330.887	137.12
331.115	116.12
331.344	101.12
331.572	86.12
331.801	105.12
332.03	104.12
332.258	103.12
332.486	88.12
332.715	87.12
332.943	95.12
333.172	101.12
333.4	98.12
333.629	117.12
333.857	126.12
334.085	102.12
334.314	102.12
334.542	106.12
334.771	99.12
334.999	86.12
335.227	94.12
335.455	100.12
335.684	118.12
335.912	99.12
336.14	102.12
336.369	105.12
336.597	104.12
336.825	97.12
337.053	100.12
337.281	110.12
337.51	95.12
337.738	101.12
337.966	96.12
338.194	97.12
338.422	100.12
338.65	99.12
338.878	95.12
339.106	98.12
339.334	94.12
339.562	97.12
339.79	93.12
340.018	86.12
340.246	94.12
340.474	109.12
340.702	90.12
340.93	104.12
341.158	90.12
341.386	99.12
341.614	101.12
341.842	100.12
342.07	103.12
342.298	100.12
342.526	95.12
342.754	94.12
342.981	94.12
343.209	88.12
343.437	95.12
343.665	113.12
343.893	86.12
344.12	90.12
344.348	89.12
344.576	90.12
344.804	92.12
345.031	111.12
345.259	109.12
345.487	94.12
345.714	105.12
345.942	103.12
346.17	94.12
346.397	101.12
346.625	96.12
346.853	80.12
347.08	95.12
347.308	95.12
347.535	100.12
347.763	105.12
347.99	97.12
348.218	108.12
348.445	105.12
348.673	103.12
348.9	106.12
349.128	82.12
349.355	102.12
349.583	99.12
349.81	107.12
350.037	107.12
350.265	98.12
350.492	91.12
350.72	110.12
350.947	99.12
351.174	103.12
351.402	118.12
351.629	106.12
351.856	110.12
352.083	122.12
352.311	118.12
352.538	115.12
352.765	101.12
352.992	127.12
353.22	116.12
353.447	110.12
353.674	99.12
353.901	93.12
354.128	78.12
354.355	112.12
354.583	113.12
354.81	87.12
355.037	100.12
355.264	105.12
355.491	93.12
355.718	89.12
355.945	98.12
356.172	91.12
356.399	97.12
356.626	101.12
356.853	108.12
357.08	100.12
357.307	88.12
357.534	103.12
357.761	82.12
357.988	102.12
358.215	91.12
358.441	94.12
358.668	87.12
358.895	90.12
359.122	77.12
359.349	77.12
359.576	104.12
359.802	107.12
360.029	112.12
360.256	101.12
360.483	98.12
360.709	85.12
360.936	103.12
361.163	96.12
361.39	102.12
361.616	96.12
361.843	95.12
362.07	96.12
362.296	110.12
362.523	108.12
362.749	105.12
362.976	91.12
363.203	88.12
363.429	94.12
363.656	90.12
363.882	90.12
364.109	106.12
364.335	91.12
364.562	89.12
364.788	86.12
365.015	99.12
365.241	90.12
365.468	101.12
365.694	108.12
365.92	99.12
366.147	85.12
366.373	90.12
366.599	91.12
366.826	97.12
367.052	97.12
367.278	81.12
367.505	92.12
367.731	100.12
367.957	95.12
368.184	94.12
368.41	101.12
368.636	103.12
368.862	105.12
369.089	97.12
369.315	102.12
369.541	102.12
369.767	88.12
369.993	101.12
370.219	89.12
370.445	86.12
370.672	85.12
370.898	86.12
371.124	88.12
371.35	91.12
371.576	92.12
371.802	89.12
372.028	92.12
372.254	103.12
372.48	98.12
372.706	77.12
372.932	91.12
373.158	104.12
373.384	94.12
373.61	101.12
373.835	94.12
374.061	98.12
374.287	98.12
374.513	88.12
374.739	87.12
374.965	90.12
375.191	96.12
375.416	98.12
375.642	108.12
375.868	100.12
376.094	94.12
376.319	85.12
376.545	90.12
376.771	89.12
376.997	88.12
377.222	89.12
377.448	98.12
377.674	94.12
377.899	98.12
378.125	107.12
378.35	89.12
378.576	88.12
378.802	98.12
379.027	94.12
379.253	106.12
379.478	94.12
379.704	86.12
379.929	98.12
380.155	90.12
380.38	94.12
380.606	97.12
380.831	98.12
381.057	111.12
381.282	93.12
381.507	100.12
381.733	102.12
381.958	102.12
382.184	98.12
382.409	95.12
382.634	92.12
382.86	90.12
383.085	90.12
383.31	93.12
383.535	96.12
383.761	109.12
383.986	91.12
384.211	109.12
384.436	89.12
384.662	91.12
384.887	102.12
385.112	101.12
385.337	99.12
385.562	103.12
385.787	106.12
386.013	116.12
386.238	109.12
386.463	102.12
386.688	120.12
386.913	101.12
387.138	109.12
387.363	103.12
387.588	106.12
387.813	95.12
388.038	96.12
388.263	94.12
388.488	111.12
388.713	106.12
388.938	89.12
389.163	99.12
389.387	100.12
389.612	95.12
389.837	93.12
390.062	92.12
390.287	95.12
390.512	99.12
390.736	88.12
390.961	94.12
391.186	85.12
391.411	96.12
391.636	94.12
391.86	89.12
392.085	89.12
392.31	95.12
392.534	95.12
392.759	94.12
392.984	77.12
393.208	88.12
393.433	92.12
393.658	104.12
393.882	82.12
394.107	81.12
394.331	82.12
394.556	92.12
394.78	103.12
395.005	97.12
395.229	88.12
395.454	94.12
395.678	69.12
395.903	89.12
396.127	92.12
396.352	97.12
396.576	90.12
396.801	98.12
397.025	92.12
397.249	94.12
397.474	97.12
397.698	84.12
397.922	77.12
398.147	86.12
398.371	98.12
398.595	90.12
398.82	86.12
399.044	93.12
399.268	82.12
399.492	79.12
399.717	92.12
399.941	96.12
400.165	108.12
400.389	84.12
400.613	94.12
400.837	101.12
401.062	94.12
401.286	90.12
401.51	109.12
401.734	94.12
401.958	97.12
402.182	140.12
402.406	145.12
402.63	140.12
402.854	105.12
403.078	115.12
403.302	85.12
403.526	95.12
403.75	94.12
403.974	95.12
404.198	98.12
404.422	98.12
404.645	93.12
404.869	95.12
405.093	95.12
405.317	114.12
405.541	109.12
405.765	102.12
405.988	120.12
406.212	164.12
406.436	215.12
406.66	138.12
406.883	106.12
407.107	88.12
407.331	85.12
407.555	91.12
407.778	98.12
408.002	85.12
408.226	76.12
408.449	95.12
408.673	106.12
408.896	93.12
409.12	110.12
409.344	93.12
409.567	92.12
409.791	99.12
410.014	103.12
410.238	104.12
410.461	84.12
410.685	95.12
410.908	107.12
411.132	112.12
411.355	101.12
411.578	97.12
411.802	79.12
412.025	84.12
412.249	80.12
412.472	102.12
412.695	90.12
412.919	101.12
413.142	100.12
413.365	92.12
413.589	85.12
413.812	101.12
414.035	99.12
414.258	81.12
414.482	76.12
414.705	90.12
414.928	90.12
415.151	89.12
415.374	111.12
415.597	78.12
415.821	82.12
416.044	85.12
416.267	82.12
416.49	84.12
416.713	93.12
416.936	93.12
417.159	96.12
417.382	92.12
417.605	94.12
417.828	98.12
418.051	108.12
418.274	93.12
418.497	92.12
418.72	92.12
418.943	90.12
419.166	110.12
419.389	95.12
419.611	90.12
419.834	92.12
420.057	85.12
420.28	94.12
420.503	92.12
420.726	94.12
420.948	103.12
421.171	86.12
421.394	100.12
421.617	87.12
421.839	99.12
422.062	93.12
422.285	94.12
422.507	104.12
422.73	115.12
422.953	86.12
423.175	93.12
423.398	114.12
423.621	118.12
423.843	93.12
424.066	81.12
424.288	96.12
424.511	99.12
424.733	107.12
424.956	115.12
425.178	90.12
425.401	109.12
425.623	97.12
425.846	94.12
426.068	110.12
426.291	106.12
426.513	91.12
426.735	95.12
426.958	100.12
427.18	104.12
427.402	134.12
427.625	169.12
427.847	123.12
428.069	107.12
428.292	95.12
428.514	82.12
428.736	94.12
428.958	96.12
429.181	82.12
429.403	90.12
429.625	89.12
429.847	94.12
430.069	104.12
430.292	101.12
430.514	89.12
430.736	93.12
430.958	103.12
431.18	77.12
431.402	90.12
431.624	85.12
431.846	87.12
432.068	81.12
432.29	88.12
432.512	95.12
432.734	94.12
432.956	97.12
433.178	105.12
433.4	95.12
433.622	91.12
433.844	97.12
434.066	77.12
434.287	102.12
434.509	91.12
434.731	106.12
434.953	98.12
435.175	86.12
435.397	98.12
435.618	102.12
435.84	116.12
436.062	122.12
436.284	120.12
436.505	101.12
436.727	92.12
436.949	89.12
437.17	105.12
437.392	101.12
437.614	85.12
437.835	109.12
438.057	116.12
438.278	113.12
438.5	108.12
438.721	127.12
438.943	95.12
439.165	93.12
439.386	94.12
439.608	87.12
439.829	89.12
440.05	133.12
440.272	131.12
440.493	97.12
440.715	82.12
440.936	95.12
441.158	95.12
441.379	103.12
441.6	103.12
441.822	110.12
442.043	100.12
442.264	105.12
442.486	89.12
442.707	89.12
442.928	99.12
443.149	134.12
443.371	134.12
443.592	112.12
443.813	103.12
444.034	91.12
444.255	85.12
444.476	68.12
444.698	99.12
444.919	102.12
445.14	142.12
445.361	120.12
445.582	112.12
445.803	130.12
446.024	132.12
446.245	148.12
446.466	119.12
446.687	97.12
446.908	91.12
447.129	83.12
447.35	95.12
447.571	96.12
447.792	95.12
448.013	99.12
448.234	105.12
448.455	91.12
448.675	121.12
448.896	126.12
449.117	90.12
449.338	108.12
449.559	120.12
449.779	145.12
450	101.12
450.221	82.12
450.442	102.12
450.662	103.12
450.883	105.12
451.104	96.12
451.324	94.12
451.545	87.12
451.766	84.12
451.986	90.12
452.207	100.12
452.428	97.12
452.648	102.12
452.869	108.12
453.089	117.12
453.31	130.12
453.53	89.12
453.751	91.12
453.971	107.12
454.192	119.12
454.412	84.12
454.633	90.12
454.853	84.12
455.073	81.12
455.294	98.12
455.514	110.12
455.734	114.12
455.955	86.12
456.175	92.12
456.395	79.12
456.616	73.12
456.836	81.12
457.056	90.12
457.276	84.12
457.497	85.12
457.717	76.12
457.937	93.12
458.157	101.12
458.377	107.12
458.598	108.12
458.818	138.12
459.038	145.12
459.258	111.12
459.478	88.12
459.698	89.12
459.918	105.12
460.138	99.12
460.358	105.12
460.578	93.12
460.798	99.12
461.018	101.12
461.238	82.12
461.458	103.12
461.678	87.12
461.898	96.12
462.118	85.12
462.338	85.12
462.558	98.12
462.777	92.12
462.997	95.12
463.217	93.12
463.437	100.12
463.657	82.12
463.876	77.12
464.096	105.12
464.316	87.12
464.536	85.12
464.755	99.12
464.975	105.12
465.195	157.12
465.414	145.12
465.634	105.12
465.854	100.12
466.073	106.12
466.293	93.12
466.512	79.12
466.732	85.12
466.951	108.12
467.171	89.12
467.391	93.12
467.61	108.12
467.829	95.12
468.049	90.12
468.268	84.12
468.488	88.12
468.707	101.12
468.927	91.12
469.146	101.12
469.365	80.12
469.585	84.12
469.804	99.12
470.023	108.12
470.243	94.12
470.462	111.12
470.681	122.12
470.901	97.12
471.12	85.12
471.339	85.12
471.558	86.12
471.777	95.12
471.997	92.12
472.216	95.12
472.435	99.12
472.654	99.12
472.873	89.12
473.092	86.12
473.311	95.12
473.53	86.12
473.749	88.12
473.968	103.12
474.187	115.12
474.406	110.12
474.625	102.12
474.844	92.12
475.063	100.12
475.282	94.12
475.501	82.12
475.72	93.12
475.939	89.12
476.158	82.12
476.377	95.12
476.596	77.12
476.814	94.12
477.033	89.12
477.252	91.12
477.471	96.12
477.69	99.12
477.908	85.12
478.127	86.12
478.346	95.12
478.564	94.12
478.783	112.12
479.002	91.12
479.22	93.12
479.439	118.12
479.658	103.12
479.876	92.12
480.095	94.12
480.313	84.12
480.532	98.12
480.751	91.12
480.969	70.12
481.188	110.12
481.406	104.12
481.624	108.12
481.843	93.12
482.061	87.12
482.28	89.12
482.498	90.12
482.717	86.12
482.935	97.12
483.153	96.12
483.372	84.12
483.59	101.12
483.808	98.12
484.027	104.12
484.245	105.12
484.463	94.12
484.681	87.12
484.9	96.12
485.118	87.12
485.336	95.12
485.554	98.12
485.772	94.12
485.99	98.12
486.209	100.12
486.427	116.12
486.645	110.12
486.863	119.12
487.081	98.12
487.299	102.12
487.517	101.12
487.735	103.12
487.953	97.12
488.171	101.12
488.389	102.12
488.607	102.12
488.825	103.12
489.043	93.12
489.261	103.12
489.479	105.12
489.696	96.12
489.914	87.12
490.132	94.12
490.35	88.12
490.568	94.12
490.786	92.12
491.003	89.12
491.221	95.12
491.439	81.12
491.657	98.12
491.874	95.12
492.092	97.12
492.31	101.12
492.527	77.12
492.745	88.12
492.963	109.12
493.18	105.12
493.398	90.12
493.615	102.12
493.833	87.12
494.05	85.12
494.268	95.12
494.485	79.12
494.703	88.12
494.92	95.12
495.138	89.12
495.355	100.12
495.573	98.12
495.79	105.12
496.008	93.12
496.225	91.12
496.442	100.12
496.66	101.12
496.877	98.12
497.094	77.12
497.312	87.12
497.529	104.12
497.746	92.12
497.963	85.12
498.181	88.12
498.398	90.12
498.615	117.12
498.832	103.12
499.049	100.12
499.267	91.12
499.484	91.12
499.701	85.12
499.918	90.12
500.135	101.12
500.352	95.12
500.569	82.12
500.786	98.12
501.003	96.12
501.22	91.12
501.437	99.12
501.654	95.12
501.871	93.12
502.088	92.12
502.305	84.12
502.522	103.12
502.739	86.12
502.956	87.12
503.172	90.12
503.389	94.12
503.606	109.12
503.823	100.12
504.04	116.12
504.256	90.12
504.473	102.12
504.69	104.12
504.907	91.12
505.123	98.12
505.34	96.12
505.557	87.12
505.773	95.12
505.99	87.12
506.207	89.12
506.423	94.12
506.64	94.12
506.856	96.12
507.073	97.12
507.289	99.12
507.506	110.12
507.722	99.12
507.939	107.12
508.155	101.12
508.372	91.12
508.588	93.12
508.805	104.12
509.021	101.12
509.238	102.12
509.454	92.12
509.67	100.12
509.887	100.12
510.103	137.12
510.319	200.12
510.536	697.12
510.752	2203.12
510.968	656.12
511.184	163.12
511.401	120.12
511.617	110.12
511.833	100.12
512.049	90.12
512.265	83.12
512.481	90.12
512.698	113.12
512.914	88.12
513.13	95.12
513.346	98.12
513.562	105.12
513.778	93.12
513.994	102.12
514.21	93.12
