Data from Mixheat2_HRD10591_00005.txt Node
Date: Fri Dec 27 15:09:08 EST 2024
User: Yrep
Spectrometer: HR+D1059
Trigger mode: 1
Integration Time (sec): 1.000000E-1
Scans to average: 1
Electric dark correction enabled: true
Nonlinearity correction enabled: false
Boxcar width: 0
XAxis mode: Wavelengths
Number of Pixels in Spectrum: 2048
>>>>>Begin Spectral Data<<<<<
223.165	-21.31
223.4	-21.31
223.635	-21.31
223.869	-29.31
224.104	-18.31
224.338	-8.31
224.573	-6.31
224.808	-14.31
225.042	-2.31
225.277	-3.31
225.511	-1.31
225.746	-10.31
225.98	2.69
226.215	11.69
226.449	25.69
226.683	21.69
226.918	9.69
227.152	43.69
227.387	50.69
227.621	37.69
227.856	48.69
228.09	53.69
228.324	36.69
228.559	70.69
228.793	51.69
229.027	59.69
229.262	58.69
229.496	57.69
229.73	63.69
229.964	68.69
230.199	73.69
230.433	72.69
230.667	80.69
230.901	85.69
231.136	78.69
231.37	85.69
231.604	84.69
231.838	81.69
232.072	76.69
232.306	89.69
232.541	71.69
232.775	71.69
233.009	74.69
233.243	89.69
233.477	95.69
233.711	72.69
233.945	79.69
234.179	88.69
234.413	82.69
234.647	81.69
234.881	73.69
235.115	73.69
235.349	80.69
235.583	79.69
235.817	71.69
236.051	79.69
236.285	78.69
236.519	87.69
236.753	85.69
236.987	88.69
237.221	83.69
237.455	68.69
237.689	83.69
237.922	79.69
238.156	65.69
238.39	65.69
238.624	77.69
238.858	74.69
239.091	77.69
239.325	65.69
239.559	77.69
239.793	69.69
240.027	82.69
240.26	71.69
240.494	91.69
240.728	67.69
240.961	74.69
241.195	79.69
241.429	75.69
241.662	73.69
241.896	68.69
242.13	81.69
242.363	74.69
242.597	83.69
242.83	62.69
243.064	80.69
243.298	85.69
243.531	71.69
243.765	74.69
243.998	83.69
244.232	80.69
244.465	82.69
244.699	82.69
244.932	73.69
245.166	88.69
245.399	73.69
245.633	86.69
245.866	87.69
246.099	72.69
246.333	80.69
246.566	89.69
246.8	82.69
247.033	71.69
247.266	78.69
247.5	82.69
247.733	68.69
247.966	79.69
248.2	83.69
248.433	74.69
248.666	71.69
248.899	61.69
249.133	64.69
249.366	91.69
249.599	81.69
249.832	78.69
250.066	86.69
250.299	93.69
250.532	85.69
250.765	90.69
250.998	78.69
251.231	76.69
251.465	86.69
251.698	78.69
251.931	83.69
252.164	72.69
252.397	78.69
252.63	84.69
252.863	77.69
253.096	92.69
253.329	80.69
253.562	78.69
253.795	91.69
254.028	83.69
254.261	86.69
254.494	82.69
254.727	87.69
254.96	74.69
255.193	85.69
255.426	75.69
255.659	89.69
255.892	91.69
256.124	70.69
256.357	84.69
256.59	107.69
256.823	86.69
257.056	94.69
257.289	87.69
257.521	93.69
257.754	84.69
257.987	75.69
258.22	79.69
258.452	74.69
258.685	93.69
258.918	85.69
259.151	75.69
259.383	97.69
259.616	80.69
259.849	74.69
260.081	71.69
260.314	82.69
260.547	88.69
260.779	79.69
261.012	75.69
261.244	81.69
261.477	94.69
261.71	91.69
261.942	75.69
262.175	73.69
262.407	77.69
262.64	74.69
262.872	91.69
263.105	86.69
263.337	86.69
263.57	69.69
263.802	70.69
264.035	88.69
264.267	85.69
264.499	89.69
264.732	103.69
264.964	85.69
265.197	94.69
265.429	77.69
265.661	79.69
265.894	93.69
266.126	87.69
266.358	75.69
266.591	89.69
266.823	79.69
267.055	67.69
267.287	90.69
267.52	83.69
267.752	88.69
267.984	100.69
268.216	93.69
268.448	90.69
268.681	88.69
268.913	88.69
269.145	83.69
269.377	80.69
269.609	76.69
269.841	86.69
270.073	74.69
270.306	75.69
270.538	91.69
270.77	81.69
271.002	77.69
271.234	81.69
271.466	71.69
271.698	90.69
271.93	86.69
272.162	88.69
272.394	76.69
272.626	83.69
272.858	85.69
273.09	77.69
273.322	88.69
273.553	81.69
273.785	68.69
274.017	71.69
274.249	86.69
274.481	80.69
274.713	74.69
274.945	86.69
275.176	81.69
275.408	83.69
275.64	87.69
275.872	76.69
276.104	93.69
276.335	87.69
276.567	69.69
276.799	74.69
277.031	69.69
277.262	90.69
277.494	93.69
277.726	88.69
277.957	82.69
278.189	87.69
278.421	83.69
278.652	74.69
278.884	82.69
279.115	78.69
279.347	91.69
279.579	94.69
279.81	87.69
280.042	95.69
280.273	81.69
280.505	66.69
280.736	77.69
280.968	77.69
281.199	81.69
281.431	91.69
281.662	80.69
281.894	77.69
282.125	87.69
282.356	77.69
282.588	83.69
282.819	85.69
283.051	93.69
283.282	77.69
283.513	85.69
283.745	91.69
283.976	90.69
284.207	83.69
284.439	78.69
284.67	92.69
284.901	70.69
285.132	78.69
285.364	90.69
285.595	86.69
285.826	84.69
286.057	73.69
286.288	85.69
286.52	90.69
286.751	77.69
286.982	78.69
287.213	72.69
287.444	93.69
287.675	84.69
287.906	94.69
288.138	80.69
288.369	87.69
288.6	82.69
288.831	90.69
289.062	94.69
289.293	83.69
289.524	98.69
289.755	107.69
289.986	70.69
290.217	78.69
290.448	97.69
290.679	96.69
290.91	106.69
291.141	71.69
291.371	98.69
291.602	84.69
291.833	81.69
292.064	89.69
292.295	90.69
292.526	89.69
292.757	85.69
292.987	88.69
293.218	88.69
293.449	79.69
293.68	86.69
293.91	99.69
294.141	86.69
294.372	88.69
294.603	78.69
294.833	85.69
295.064	92.69
295.295	92.69
295.525	92.69
295.756	82.69
295.987	83.69
296.217	97.69
296.448	77.69
296.679	81.69
296.909	79.69
297.14	90.69
297.37	87.69
297.601	78.69
297.831	73.69
298.062	79.69
298.292	90.69
298.523	72.69
298.753	80.69
298.984	87.69
299.214	83.69
299.445	87.69
299.675	90.69
299.905	78.69
300.136	81.69
300.366	67.69
300.597	92.69
300.827	85.69
301.057	92.69
301.288	80.69
301.518	73.69
301.748	95.69
301.979	98.69
302.209	101.69
302.439	90.69
302.669	77.69
302.9	90.69
303.13	90.69
303.36	82.69
303.59	83.69
303.82	86.69
304.051	103.69
304.281	74.69
304.511	97.69
304.741	60.69
304.971	87.69
305.201	80.69
305.431	84.69
305.661	79.69
305.891	89.69
306.121	97.69
306.352	83.69
306.582	87.69
306.812	72.69
307.042	79.69
307.272	89.69
307.502	94.69
307.731	80.69
307.961	89.69
308.191	93.69
308.421	107.69
308.651	85.69
308.881	93.69
309.111	85.69
309.341	90.69
309.571	97.69
309.8	87.69
310.03	103.69
310.26	80.69
310.49	96.69
310.72	85.69
310.949	96.69
311.179	83.69
311.409	71.69
311.639	74.69
311.868	76.69
312.098	95.69
312.328	88.69
312.557	87.69
312.787	73.69
313.017	83.69
313.246	86.69
313.476	92.69
313.706	78.69
313.935	72.69
314.165	79.69
314.394	96.69
314.624	96.69
314.853	89.69
315.083	86.69
315.312	73.69
315.542	71.69
315.771	89.69
316.001	80.69
316.23	97.69
316.46	85.69
316.689	88.69
316.919	84.69
317.148	89.69
317.377	84.69
317.607	91.69
317.836	95.69
318.065	88.69
318.295	76.69
318.524	88.69
318.753	86.69
318.983	72.69
319.212	88.69
319.441	95.69
319.67	80.69
319.9	82.69
320.129	98.69
320.358	86.69
320.587	83.69
320.816	82.69
321.046	78.69
321.275	85.69
321.504	91.69
321.733	89.69
321.962	78.69
322.191	94.69
322.42	96.69
322.649	88.69
322.878	88.69
323.108	80.69
323.337	75.69
323.566	82.69
323.795	82.69
324.024	91.69
324.253	78.69
324.482	93.69
324.71	87.69
324.939	86.69
325.168	88.69
325.397	88.69
325.626	101.69
325.855	84.69
326.084	94.69
326.313	87.69
326.542	96.69
326.77	79.69
326.999	84.69
327.228	90.69
327.457	112.69
327.686	75.69
327.914	84.69
328.143	87.69
328.372	72.69
328.6	91.69
328.829	76.69
329.058	86.69
329.287	77.69
329.515	76.69
329.744	85.69
329.972	88.69
330.201	102.69
330.43	105.69
330.658	83.69
330.887	83.69
331.115	90.69
331.344	90.69
331.572	97.69
331.801	105.69
332.03	77.69
332.258	83.69
332.486	83.69
332.715	69.69
332.943	90.69
333.172	74.69
333.4	73.69
333.629	83.69
333.857	87.69
334.085	84.69
334.314	84.69
334.542	92.69
334.771	83.69
334.999	84.69
335.227	83.69
335.455	86.69
335.684	98.69
335.912	102.69
336.14	87.69
336.369	89.69
336.597	92.69
336.825	101.69
337.053	95.69
337.281	90.69
337.51	77.69
337.738	101.69
337.966	78.69
338.194	89.69
338.422	105.69
338.65	77.69
338.878	88.69
339.106	87.69
339.334	86.69
339.562	68.69
339.79	68.69
340.018	88.69
340.246	88.69
340.474	94.69
340.702	84.69
340.93	94.69
341.158	83.69
341.386	81.69
341.614	80.69
341.842	89.69
342.07	91.69
342.298	81.69
342.526	78.69
342.754	89.69
342.981	77.69
343.209	93.69
343.437	95.69
343.665	100.69
343.893	79.69
344.12	82.69
344.348	82.69
344.576	98.69
344.804	103.69
345.031	91.69
345.259	85.69
345.487	86.69
345.714	101.69
345.942	80.69
346.17	81.69
346.397	80.69
346.625	87.69
346.853	76.69
347.08	96.69
347.308	81.69
347.535	71.69
347.763	91.69
347.99	81.69
348.218	73.69
348.445	81.69
348.673	93.69
348.9	89.69
349.128	93.69
349.355	88.69
349.583	99.69
349.81	79.69
350.037	93.69
350.265	86.69
350.492	84.69
350.72	82.69
350.947	82.69
351.174	102.69
351.402	91.69
351.629	94.69
351.856	100.69
352.083	93.69
352.311	88.69
352.538	79.69
352.765	70.69
352.992	98.69
353.22	89.69
353.447	75.69
353.674	96.69
353.901	107.69
354.128	93.69
354.355	101.69
354.583	95.69
354.81	105.69
355.037	93.69
355.264	87.69
355.491	76.69
355.718	86.69
355.945	82.69
356.172	88.69
356.399	93.69
356.626	85.69
356.853	84.69
357.08	75.69
357.307	84.69
357.534	86.69
357.761	87.69
357.988	82.69
358.215	84.69
358.441	99.69
358.668	96.69
358.895	91.69
359.122	83.69
359.349	78.69
359.576	79.69
359.802	71.69
360.029	82.69
360.256	91.69
360.483	95.69
360.709	81.69
360.936	101.69
361.163	76.69
361.39	78.69
361.616	94.69
361.843	82.69
362.07	101.69
362.296	83.69
362.523	83.69
362.749	96.69
362.976	88.69
363.203	98.69
363.429	86.69
363.656	87.69
363.882	95.69
364.109	94.69
364.335	107.69
364.562	83.69
364.788	81.69
365.015	82.69
365.241	95.69
365.468	99.69
365.694	102.69
365.92	69.69
366.147	93.69
366.373	98.69
366.599	104.69
366.826	94.69
367.052	87.69
367.278	79.69
367.505	89.69
367.731	86.69
367.957	85.69
368.184	76.69
368.41	93.69
368.636	90.69
368.862	85.69
369.089	93.69
369.315	78.69
369.541	85.69
369.767	90.69
369.993	98.69
370.219	93.69
370.445	87.69
370.672	77.69
370.898	65.69
371.124	86.69
371.35	98.69
371.576	86.69
371.802	79.69
372.028	89.69
372.254	94.69
372.48	86.69
372.706	92.69
372.932	87.69
373.158	91.69
373.384	91.69
373.61	103.69
373.835	85.69
374.061	80.69
374.287	89.69
374.513	75.69
374.739	80.69
374.965	87.69
375.191	75.69
375.416	86.69
375.642	87.69
375.868	90.69
376.094	91.69
376.319	90.69
376.545	90.69
376.771	95.69
376.997	81.69
377.222	87.69
377.448	94.69
377.674	81.69
377.899	92.69
378.125	81.69
378.35	106.69
378.576	82.69
378.802	89.69
379.027	78.69
379.253	95.69
379.478	82.69
379.704	91.69
379.929	101.69
380.155	91.69
380.38	97.69
380.606	81.69
380.831	85.69
381.057	95.69
381.282	90.69
381.507	93.69
381.733	95.69
381.958	86.69
382.184	91.69
382.409	97.69
382.634	84.69
382.86	102.69
383.085	71.69
383.31	82.69
383.535	101.69
383.761	87.69
383.986	101.69
384.211	85.69
384.436	76.69
384.662	89.69
384.887	88.69
385.112	95.69
385.337	72.69
385.562	78.69
385.787	106.69
386.013	98.69
386.238	87.69
386.463	78.69
386.688	112.69
386.913	79.69
387.138	88.69
387.363	79.69
387.588	101.69
387.813	93.69
388.038	92.69
388.263	93.69
388.488	70.69
388.713	86.69
388.938	85.69
389.163	91.69
389.387	95.69
389.612	91.69
389.837	82.69
390.062	93.69
390.287	102.69
390.512	89.69
390.736	87.69
390.961	88.69
391.186	89.69
391.411	88.69
391.636	67.69
391.86	79.69
392.085	97.69
392.31	71.69
392.534	79.69
392.759	88.69
392.984	101.69
393.208	119.69
393.433	137.69
393.658	107.69
393.882	92.69
394.107	94.69
394.331	92.69
394.556	93.69
394.78	89.69
395.005	83.69
395.229	85.69
395.454	98.69
395.678	86.69
395.903	101.69
396.127	103.69
396.352	112.69
396.576	102.69
396.801	127.69
397.025	130.69
397.249	99.69
397.474	96.69
397.698	88.69
397.922	98.69
398.147	102.69
398.371	77.69
398.595	82.69
398.82	82.69
399.044	91.69
399.268	97.69
399.492	90.69
399.717	104.69
399.941	94.69
400.165	78.69
400.389	90.69
400.613	84.69
400.837	82.69
401.062	77.69
401.286	83.69
401.51	78.69
401.734	76.69
401.958	94.69
402.182	86.69
402.406	88.69
402.63	88.69
402.854	88.69
403.078	98.69
403.302	94.69
403.526	90.69
403.75	87.69
403.974	90.69
404.198	116.69
404.422	121.69
404.645	130.69
404.869	126.69
405.093	120.69
405.317	91.69
405.541	77.69
405.765	78.69
405.988	90.69
406.212	90.69
406.436	88.69
406.66	86.69
406.883	79.69
407.107	72.69
407.331	79.69
407.555	99.69
407.778	94.69
408.002	83.69
408.226	96.69
408.449	102.69
408.673	94.69
408.896	83.69
409.12	96.69
409.344	79.69
409.567	72.69
409.791	99.69
410.014	86.69
410.238	90.69
410.461	85.69
410.685	82.69
410.908	89.69
411.132	93.69
411.355	87.69
411.578	89.69
411.802	82.69
412.025	80.69
412.249	97.69
412.472	86.69
412.695	92.69
412.919	103.69
413.142	88.69
413.365	86.69
413.589	86.69
413.812	86.69
414.035	91.69
414.258	79.69
414.482	68.69
414.705	94.69
414.928	90.69
415.151	95.69
415.374	89.69
415.597	72.69
415.821	86.69
416.044	107.69
416.267	90.69
416.49	88.69
416.713	90.69
416.936	86.69
417.159	87.69
417.382	87.69
417.605	81.69
417.828	83.69
418.051	99.69
418.274	83.69
418.497	64.69
418.72	95.69
418.943	88.69
419.166	85.69
419.389	99.69
419.611	84.69
419.834	87.69
420.057	86.69
420.28	87.69
420.503	76.69
420.726	86.69
420.948	73.69
421.171	100.69
421.394	96.69
421.617	89.69
421.839	89.69
422.062	102.69
422.285	115.69
422.507	151.69
422.73	184.69
422.953	184.69
423.175	136.69
423.398	103.69
423.621	84.69
423.843	93.69
424.066	102.69
424.288	89.69
424.511	101.69
424.733	77.69
424.956	93.69
425.178	99.69
425.401	79.69
425.623	84.69
425.846	85.69
426.068	77.69
426.291	84.69
426.513	81.69
426.735	94.69
426.958	95.69
427.18	89.69
427.402	79.69
427.625	91.69
427.847	95.69
428.069	87.69
428.292	93.69
428.514	113.69
428.736	94.69
428.958	102.69
429.181	97.69
429.403	86.69
429.625	94.69
429.847	123.69
430.069	115.69
430.292	122.69
430.514	89.69
430.736	97.69
430.958	108.69
431.18	94.69
431.402	86.69
431.624	85.69
431.846	116.69
432.068	106.69
432.29	99.69
432.512	83.69
432.734	92.69
432.956	92.69
433.178	92.69
433.4	91.69
433.622	92.69
433.844	77.69
434.066	95.69
434.287	89.69
434.509	83.69
434.731	93.69
434.953	79.69
435.175	75.69
435.397	89.69
435.618	95.69
435.84	87.69
436.062	75.69
436.284	91.69
436.505	82.69
436.727	77.69
436.949	79.69
437.17	83.69
437.392	90.69
437.614	81.69
437.835	82.69
438.057	94.69
438.278	81.69
438.5	99.69
438.721	80.69
438.943	93.69
439.165	84.69
439.386	91.69
439.608	93.69
439.829	93.69
440.05	85.69
440.272	82.69
440.493	92.69
440.715	93.69
440.936	85.69
441.158	77.69
441.379	80.69
441.6	81.69
441.822	93.69
442.043	86.69
442.264	98.69
442.486	93.69
442.707	117.69
442.928	95.69
443.149	97.69
443.371	136.69
443.592	144.69
443.813	143.69
444.034	97.69
444.255	93.69
444.476	87.69
444.698	87.69
444.919	93.69
445.14	170.69
445.361	156.69
445.582	167.69
445.803	135.69
446.024	99.69
446.245	98.69
446.466	85.69
446.687	85.69
446.908	89.69
447.129	87.69
447.35	73.69
447.571	96.69
447.792	86.69
448.013	93.69
448.234	75.69
448.455	76.69
448.675	85.69
448.896	94.69
449.117	81.69
449.338	90.69
449.559	93.69
449.779	86.69
450	99.69
450.221	94.69
450.442	102.69
450.662	92.69
450.883	84.69
451.104	92.69
451.324	75.69
451.545	92.69
451.766	79.69
451.986	81.69
452.207	98.69
452.428	83.69
452.648	80.69
452.869	101.69
453.089	103.69
453.31	80.69
453.53	73.69
453.751	108.69
453.971	85.69
454.192	101.69
454.412	93.69
454.633	87.69
454.853	82.69
455.073	73.69
455.294	95.69
455.514	88.69
455.734	81.69
455.955	92.69
456.175	100.69
456.395	91.69
456.616	84.69
456.836	97.69
457.056	87.69
457.276	79.69
457.497	84.69
457.717	80.69
457.937	94.69
458.157	106.69
458.377	100.69
458.598	93.69
458.818	102.69
459.038	85.69
459.258	81.69
459.478	95.69
459.698	81.69
459.918	99.69
460.138	78.69
460.358	88.69
460.578	106.69
460.798	97.69
461.018	96.69
461.238	87.69
461.458	92.69
461.678	77.69
461.898	74.69
462.118	85.69
462.338	90.69
462.558	88.69
462.777	70.69
462.997	97.69
463.217	74.69
463.437	80.69
463.657	74.69
463.876	94.69
464.096	85.69
464.316	92.69
464.536	80.69
464.755	89.69
464.975	85.69
465.195	87.69
465.414	73.69
465.634	90.69
465.854	98.69
466.073	78.69
466.293	85.69
466.512	96.69
466.732	93.69
466.951	92.69
467.171	88.69
467.391	86.69
467.61	77.69
467.829	91.69
468.049	82.69
468.268	91.69
468.488	88.69
468.707	87.69
468.927	80.69
469.146	80.69
469.365	87.69
469.585	89.69
469.804	84.69
470.023	73.69
470.243	85.69
470.462	78.69
470.681	79.69
470.901	93.69
471.12	73.69
471.339	85.69
471.558	96.69
471.777	97.69
471.997	81.69
472.216	91.69
472.435	91.69
472.654	77.69
472.873	96.69
473.092	62.69
473.311	95.69
473.53	93.69
473.749	80.69
473.968	91.69
474.187	94.69
474.406	85.69
474.625	95.69
474.844	88.69
475.063	87.69
475.282	93.69
475.501	87.69
475.72	85.69
475.939	85.69
476.158	90.69
476.377	88.69
476.596	82.69
476.814	77.69
477.033	82.69
477.252	82.69
477.471	90.69
477.69	89.69
477.908	82.69
478.127	95.69
478.346	76.69
478.564	84.69
478.783	101.69
479.002	83.69
479.22	87.69
479.439	87.69
479.658	87.69
479.876	93.69
480.095	68.69
480.313	89.69
480.532	99.69
480.751	84.69
480.969	92.69
481.188	88.69
481.406	82.69
481.624	81.69
481.843	85.69
482.061	96.69
482.28	90.69
482.498	91.69
482.717	88.69
482.935	73.69
483.153	86.69
483.372	91.69
483.59	86.69
483.808	77.69
484.027	103.69
484.245	101.69
484.463	92.69
484.681	93.69
484.9	76.69
485.118	81.69
485.336	76.69
485.554	93.69
485.772	99.69
485.99	91.69
486.209	87.69
486.427	85.69
486.645	79.69
486.863	87.69
487.081	76.69
487.299	93.69
487.517	94.69
487.735	89.69
487.953	103.69
488.171	109.69
488.389	98.69
488.607	83.69
488.825	90.69
489.043	85.69
489.261	90.69
489.479	90.69
489.696	90.69
489.914	93.69
490.132	98.69
490.35	77.69
490.568	89.69
490.786	87.69
491.003	82.69
491.221	88.69
491.439	98.69
491.657	77.69
491.874	94.69
492.092	82.69
492.31	99.69
492.527	103.69
492.745	79.69
492.963	85.69
493.18	90.69
493.398	79.69
493.615	90.69
493.833	73.69
494.05	90.69
494.268	87.69
494.485	93.69
494.703	93.69
494.92	78.69
495.138	78.69
495.355	95.69
495.573	96.69
495.79	78.69
496.008	86.69
496.225	89.69
496.442	90.69
496.66	82.69
496.877	76.69
497.094	86.69
497.312	73.69
497.529	80.69
497.746	94.69
497.963	82.69
498.181	95.69
498.398	101.69
498.615	109.69
498.832	95.69
499.049	101.69
499.267	96.69
499.484	87.69
499.701	88.69
499.918	101.69
500.135	101.69
500.352	93.69
500.569	80.69
500.786	96.69
501.003	83.69
501.22	86.69
501.437	96.69
501.654	97.69
501.871	100.69
502.088	87.69
502.305	93.69
502.522	103.69
502.739	97.69
502.956	79.69
503.172	83.69
503.389	94.69
503.606	94.69
503.823	96.69
504.04	103.69
504.256	87.69
504.473	93.69
504.69	77.69
504.907	88.69
505.123	76.69
505.34	75.69
505.557	68.69
505.773	92.69
505.99	90.69
506.207	89.69
506.423	85.69
506.64	88.69
506.856	98.69
507.073	91.69
507.289	81.69
507.506	93.69
507.722	84.69
507.939	87.69
508.155	80.69
508.372	77.69
508.588	96.69
508.805	90.69
509.021	86.69
509.238	81.69
509.454	87.69
509.67	96.69
509.887	71.69
510.103	85.69
510.319	95.69
510.536	90.69
510.752	86.69
510.968	79.69
511.184	79.69
511.401	88.69
511.617	80.69
511.833	91.69
512.049	93.69
512.265	91.69
512.481	75.69
512.698	85.69
512.914	92.69
513.13	81.69
513.346	78.69
513.562	84.69
513.778	87.69
513.994	75.69
514.21	76.69
514.426	93.69
514.642	91.69
514.858	87.69
515.074	83.69
515.29	83.69
515.506	85.69
515.721	86.69
515.937	80.69
516.153	67.69
516.369	94.69
516.585	93.69
516.801	103.69
517.016	85.69
517.232	79.69
517.448	91.69
517.664	96.69
517.879	78.69
518.095	91.69
518.311	87.69
518.527	90.69
518.742	88.69
