Data from Mixheat2_HRD10591_00012.txt Node
Date: Fri Dec 27 15:09:15 EST 2024
User: Yrep
Spectrometer: HR+D1059
Trigger mode: 1
Integration Time (sec): 1.000000E-1
Scans to average: 1
Electric dark correction enabled: true
Nonlinearity correction enabled: false
Boxcar width: 0
XAxis mode: Wavelengths
Number of Pixels in Spectrum: 2048
>>>>>Begin Spectral Data<<<<<
223.165	-22.06
223.4	-22.06
223.635	-22.06
223.869	-20.06
224.104	-23.06
224.338	-13.06
224.573	-24.06
224.808	-6.06
225.042	-14.06
225.277	0.94
225.511	-4.06
225.746	1.94
225.98	6.94
226.215	16.94
226.449	23.94
226.683	21.94
226.918	18.94
227.152	34.94
227.387	38.94
227.621	36.94
227.856	36.94
228.09	29.94
228.324	46.94
228.559	58.94
228.793	67.94
229.027	53.94
229.262	70.94
229.496	68.94
229.73	77.94
229.964	92.94
230.199	84.94
230.433	79.94
230.667	64.94
230.901	67.94
231.136	80.94
231.37	90.94
231.604	93.94
231.838	86.94
232.072	77.94
232.306	73.94
232.541	73.94
232.775	86.94
233.009	79.94
233.243	76.94
233.477	64.94
233.711	70.94
233.945	81.94
234.179	70.94
234.413	63.94
234.647	84.94
234.881	69.94
235.115	84.94
235.349	96.94
235.583	77.94
235.817	77.94
236.051	86.94
236.285	86.94
236.519	84.94
236.753	81.94
236.987	73.94
237.221	83.94
237.455	76.94
237.689	74.94
237.922	80.94
238.156	71.94
238.39	76.94
238.624	96.94
238.858	78.94
239.091	76.94
239.325	73.94
239.559	68.94
239.793	78.94
240.027	81.94
240.26	77.94
240.494	87.94
240.728	65.94
240.961	72.94
241.195	76.94
241.429	83.94
241.662	91.94
241.896	78.94
242.13	78.94
242.363	65.94
242.597	71.94
242.83	88.94
243.064	72.94
243.298	80.94
243.531	69.94
243.765	75.94
243.998	70.94
244.232	72.94
244.465	66.94
244.699	66.94
244.932	72.94
245.166	88.94
245.399	85.94
245.633	90.94
245.866	63.94
246.099	74.94
246.333	72.94
246.566	88.94
246.8	84.94
247.033	66.94
247.266	86.94
247.5	67.94
247.733	67.94
247.966	74.94
248.2	89.94
248.433	69.94
248.666	88.94
248.899	100.94
249.133	77.94
249.366	83.94
249.599	84.94
249.832	85.94
250.066	84.94
250.299	73.94
250.532	86.94
250.765	70.94
250.998	78.94
251.231	72.94
251.465	80.94
251.698	78.94
251.931	74.94
252.164	76.94
252.397	88.94
252.63	76.94
252.863	86.94
253.096	81.94
253.329	74.94
253.562	89.94
253.795	73.94
254.028	84.94
254.261	92.94
254.494	86.94
254.727	78.94
254.96	92.94
255.193	69.94
255.426	85.94
255.659	90.94
255.892	84.94
256.124	80.94
256.357	80.94
256.59	82.94
256.823	95.94
257.056	81.94
257.289	91.94
257.521	81.94
257.754	92.94
257.987	74.94
258.22	81.94
258.452	87.94
258.685	81.94
258.918	76.94
259.151	75.94
259.383	87.94
259.616	92.94
259.849	73.94
260.081	90.94
260.314	83.94
260.547	78.94
260.779	81.94
261.012	97.94
261.244	93.94
261.477	70.94
261.71	80.94
261.942	72.94
262.175	86.94
262.407	83.94
262.64	81.94
262.872	69.94
263.105	79.94
263.337	81.94
263.57	77.94
263.802	74.94
264.035	84.94
264.267	80.94
264.499	85.94
264.732	80.94
264.964	83.94
265.197	83.94
265.429	92.94
265.661	78.94
265.894	85.94
266.126	90.94
266.358	80.94
266.591	95.94
266.823	84.94
267.055	74.94
267.287	84.94
267.52	87.94
267.752	79.94
267.984	100.94
268.216	69.94
268.448	81.94
268.681	88.94
268.913	78.94
269.145	81.94
269.377	88.94
269.609	101.94
269.841	86.94
270.073	85.94
270.306	86.94
270.538	89.94
270.77	80.94
271.002	96.94
271.234	85.94
271.466	78.94
271.698	77.94
271.93	81.94
272.162	87.94
272.394	79.94
272.626	89.94
272.858	87.94
273.09	90.94
273.322	92.94
273.553	97.94
273.785	109.94
274.017	89.94
274.249	75.94
274.481	72.94
274.713	90.94
274.945	76.94
275.176	86.94
275.408	91.94
275.64	78.94
275.872	92.94
276.104	109.94
276.335	76.94
276.567	74.94
276.799	72.94
277.031	77.94
277.262	81.94
277.494	88.94
277.726	81.94
277.957	85.94
278.189	84.94
278.421	98.94
278.652	79.94
278.884	81.94
279.115	93.94
279.347	92.94
279.579	90.94
279.81	73.94
280.042	66.94
280.273	85.94
280.505	89.94
280.736	107.94
280.968	79.94
281.199	90.94
281.431	82.94
281.662	91.94
281.894	88.94
282.125	90.94
282.356	64.94
282.588	84.94
282.819	78.94
283.051	85.94
283.282	85.94
283.513	86.94
283.745	88.94
283.976	86.94
284.207	104.94
284.439	70.94
284.67	84.94
284.901	74.94
285.132	73.94
285.364	72.94
285.595	90.94
285.826	100.94
286.057	71.94
286.288	82.94
286.52	95.94
286.751	88.94
286.982	89.94
287.213	87.94
287.444	100.94
287.675	77.94
287.906	82.94
288.138	93.94
288.369	88.94
288.6	97.94
288.831	76.94
289.062	88.94
289.293	79.94
289.524	84.94
289.755	85.94
289.986	94.94
290.217	89.94
290.448	84.94
290.679	87.94
290.91	86.94
291.141	92.94
291.371	87.94
291.602	88.94
291.833	91.94
292.064	89.94
292.295	74.94
292.526	74.94
292.757	72.94
292.987	82.94
293.218	81.94
293.449	94.94
293.68	73.94
293.91	92.94
294.141	89.94
294.372	78.94
294.603	77.94
294.833	81.94
295.064	100.94
295.295	77.94
295.525	85.94
295.756	79.94
295.987	84.94
296.217	84.94
296.448	90.94
296.679	86.94
296.909	82.94
297.14	98.94
297.37	87.94
297.601	85.94
297.831	72.94
298.062	78.94
298.292	87.94
298.523	84.94
298.753	75.94
298.984	83.94
299.214	76.94
299.445	84.94
299.675	100.94
299.905	69.94
300.136	78.94
300.366	83.94
300.597	92.94
300.827	87.94
301.057	89.94
301.288	83.94
301.518	95.94
301.748	80.94
301.979	82.94
302.209	95.94
302.439	90.94
302.669	78.94
302.9	91.94
303.13	92.94
303.36	83.94
303.59	85.94
303.82	91.94
304.051	74.94
304.281	92.94
304.511	73.94
304.741	91.94
304.971	94.94
305.201	82.94
305.431	80.94
305.661	90.94
305.891	85.94
306.121	90.94
306.352	81.94
306.582	70.94
306.812	79.94
307.042	90.94
307.272	75.94
307.502	94.94
307.731	91.94
307.961	90.94
308.191	84.94
308.421	90.94
308.651	82.94
308.881	72.94
309.111	103.94
309.341	75.94
309.571	72.94
309.8	92.94
310.03	88.94
310.26	89.94
310.49	84.94
310.72	74.94
310.949	69.94
311.179	83.94
311.409	77.94
311.639	91.94
311.868	76.94
312.098	90.94
312.328	91.94
312.557	104.94
312.787	92.94
313.017	90.94
313.246	93.94
313.476	86.94
313.706	80.94
313.935	88.94
314.165	89.94
314.394	96.94
314.624	84.94
314.853	87.94
315.083	82.94
315.312	99.94
315.542	95.94
315.771	88.94
316.001	85.94
316.23	95.94
316.46	99.94
316.689	87.94
316.919	86.94
317.148	85.94
317.377	96.94
317.607	98.94
317.836	76.94
318.065	92.94
318.295	82.94
318.524	88.94
318.753	77.94
318.983	82.94
319.212	94.94
319.441	96.94
319.67	102.94
319.9	92.94
320.129	95.94
320.358	96.94
320.587	88.94
320.816	87.94
321.046	82.94
321.275	96.94
321.504	85.94
321.733	80.94
321.962	85.94
322.191	78.94
322.42	90.94
322.649	83.94
322.878	87.94
323.108	87.94
323.337	97.94
323.566	97.94
323.795	92.94
324.024	76.94
324.253	79.94
324.482	85.94
324.71	74.94
324.939	102.94
325.168	90.94
325.397	94.94
325.626	94.94
325.855	85.94
326.084	94.94
326.313	89.94
326.542	93.94
326.77	75.94
326.999	92.94
327.228	103.94
327.457	76.94
327.686	95.94
327.914	86.94
328.143	81.94
328.372	95.94
328.6	84.94
328.829	79.94
329.058	87.94
329.287	80.94
329.515	84.94
329.744	92.94
329.972	88.94
330.201	81.94
330.43	85.94
330.658	74.94
330.887	93.94
331.115	88.94
331.344	77.94
331.572	97.94
331.801	85.94
332.03	84.94
332.258	75.94
332.486	70.94
332.715	79.94
332.943	72.94
333.172	90.94
333.4	84.94
333.629	86.94
333.857	82.94
334.085	80.94
334.314	83.94
334.542	87.94
334.771	93.94
334.999	107.94
335.227	84.94
335.455	88.94
335.684	84.94
335.912	102.94
336.14	80.94
336.369	82.94
336.597	81.94
336.825	91.94
337.053	82.94
337.281	94.94
337.51	105.94
337.738	93.94
337.966	88.94
338.194	79.94
338.422	86.94
338.65	85.94
338.878	92.94
339.106	91.94
339.334	89.94
339.562	89.94
339.79	79.94
340.018	76.94
340.246	90.94
340.474	85.94
340.702	91.94
340.93	78.94
341.158	94.94
341.386	95.94
341.614	80.94
341.842	80.94
342.07	87.94
342.298	84.94
342.526	73.94
342.754	89.94
342.981	101.94
343.209	93.94
343.437	95.94
343.665	92.94
343.893	77.94
344.12	96.94
344.348	87.94
344.576	94.94
344.804	87.94
345.031	95.94
345.259	82.94
345.487	92.94
345.714	89.94
345.942	91.94
346.17	86.94
346.397	89.94
346.625	79.94
346.853	72.94
347.08	80.94
347.308	82.94
347.535	88.94
347.763	76.94
347.99	76.94
348.218	85.94
348.445	99.94
348.673	93.94
348.9	80.94
349.128	89.94
349.355	80.94
349.583	81.94
349.81	89.94
350.037	85.94
350.265	97.94
350.492	89.94
350.72	91.94
350.947	93.94
351.174	90.94
351.402	87.94
351.629	86.94
351.856	79.94
352.083	92.94
352.311	85.94
352.538	79.94
352.765	82.94
352.992	95.94
353.22	82.94
353.447	74.94
353.674	95.94
353.901	86.94
354.128	72.94
354.355	86.94
354.583	81.94
354.81	90.94
355.037	86.94
355.264	80.94
355.491	85.94
355.718	73.94
355.945	84.94
356.172	79.94
356.399	85.94
356.626	89.94
356.853	74.94
357.08	91.94
357.307	80.94
357.534	98.94
357.761	88.94
357.988	97.94
358.215	100.94
358.441	80.94
358.668	73.94
358.895	82.94
359.122	80.94
359.349	80.94
359.576	85.94
359.802	81.94
360.029	78.94
360.256	84.94
360.483	81.94
360.709	79.94
360.936	105.94
361.163	97.94
361.39	90.94
361.616	95.94
361.843	103.94
362.07	98.94
362.296	82.94
362.523	74.94
362.749	82.94
362.976	85.94
363.203	86.94
363.429	94.94
363.656	88.94
363.882	91.94
364.109	89.94
364.335	97.94
364.562	95.94
364.788	92.94
365.015	81.94
365.241	86.94
365.468	93.94
365.694	85.94
365.92	102.94
366.147	94.94
366.373	74.94
366.599	87.94
366.826	97.94
367.052	79.94
367.278	85.94
367.505	85.94
367.731	73.94
367.957	79.94
368.184	81.94
368.41	84.94
368.636	89.94
368.862	94.94
369.089	70.94
369.315	96.94
369.541	96.94
369.767	82.94
369.993	80.94
370.219	80.94
370.445	86.94
370.672	91.94
370.898	82.94
371.124	82.94
371.35	101.94
371.576	88.94
371.802	73.94
372.028	84.94
372.254	81.94
372.48	74.94
372.706	87.94
372.932	84.94
373.158	83.94
373.384	80.94
373.61	91.94
373.835	92.94
374.061	80.94
374.287	82.94
374.513	78.94
374.739	77.94
374.965	80.94
375.191	93.94
375.416	77.94
375.642	82.94
375.868	102.94
376.094	79.94
376.319	72.94
376.545	89.94
376.771	97.94
376.997	76.94
377.222	86.94
377.448	79.94
377.674	86.94
377.899	86.94
378.125	88.94
378.35	69.94
378.576	89.94
378.802	81.94
379.027	86.94
379.253	91.94
379.478	88.94
379.704	94.94
379.929	89.94
380.155	98.94
380.38	82.94
380.606	85.94
380.831	89.94
381.057	88.94
381.282	95.94
381.507	84.94
381.733	83.94
381.958	82.94
382.184	85.94
382.409	86.94
382.634	97.94
382.86	84.94
383.085	88.94
383.31	97.94
383.535	96.94
383.761	77.94
383.986	89.94
384.211	87.94
384.436	90.94
384.662	92.94
384.887	86.94
385.112	78.94
385.337	84.94
385.562	82.94
385.787	93.94
386.013	87.94
386.238	76.94
386.463	95.94
386.688	82.94
386.913	92.94
387.138	79.94
387.363	93.94
387.588	88.94
387.813	72.94
388.038	75.94
388.263	86.94
388.488	86.94
388.713	97.94
388.938	73.94
389.163	100.94
389.387	94.94
389.612	95.94
389.837	94.94
390.062	96.94
390.287	80.94
390.512	85.94
390.736	83.94
390.961	76.94
391.186	91.94
391.411	81.94
391.636	97.94
391.86	82.94
392.085	94.94
392.31	105.94
392.534	100.94
392.759	89.94
392.984	90.94
393.208	105.94
393.433	108.94
393.658	88.94
393.882	84.94
394.107	89.94
394.331	92.94
394.556	89.94
394.78	98.94
395.005	87.94
395.229	84.94
395.454	69.94
395.678	94.94
395.903	92.94
396.127	100.94
396.352	96.94
396.576	87.94
396.801	98.94
397.025	115.94
397.249	91.94
397.474	101.94
397.698	75.94
397.922	79.94
398.147	82.94
398.371	74.94
398.595	97.94
398.82	77.94
399.044	90.94
399.268	80.94
399.492	81.94
399.717	91.94
399.941	78.94
400.165	90.94
400.389	87.94
400.613	78.94
400.837	85.94
401.062	78.94
401.286	95.94
401.51	91.94
401.734	70.94
401.958	70.94
402.182	85.94
402.406	89.94
402.63	87.94
402.854	100.94
403.078	85.94
403.302	104.94
403.526	89.94
403.75	96.94
403.974	86.94
404.198	98.94
404.422	119.94
404.645	130.94
404.869	107.94
405.093	90.94
405.317	86.94
405.541	85.94
405.765	78.94
405.988	83.94
406.212	87.94
406.436	96.94
406.66	84.94
406.883	71.94
407.107	85.94
407.331	71.94
407.555	86.94
407.778	89.94
408.002	88.94
408.226	92.94
408.449	89.94
408.673	87.94
408.896	77.94
409.12	83.94
409.344	70.94
409.567	76.94
409.791	70.94
410.014	81.94
410.238	82.94
410.461	83.94
410.685	84.94
410.908	96.94
411.132	90.94
411.355	80.94
411.578	103.94
411.802	91.94
412.025	84.94
412.249	86.94
412.472	84.94
412.695	78.94
412.919	78.94
413.142	82.94
413.365	87.94
413.589	83.94
413.812	91.94
414.035	92.94
414.258	97.94
414.482	81.94
414.705	104.94
414.928	81.94
415.151	84.94
415.374	88.94
415.597	96.94
415.821	89.94
416.044	82.94
416.267	82.94
416.49	89.94
416.713	93.94
416.936	83.94
417.159	88.94
417.382	74.94
417.605	79.94
417.828	87.94
418.051	80.94
418.274	83.94
418.497	88.94
418.72	87.94
418.943	92.94
419.166	76.94
419.389	70.94
419.611	73.94
419.834	69.94
420.057	81.94
420.28	88.94
420.503	88.94
420.726	89.94
420.948	92.94
421.171	84.94
421.394	84.94
421.617	93.94
421.839	81.94
422.062	97.94
422.285	113.94
422.507	138.94
422.73	138.94
422.953	124.94
423.175	108.94
423.398	93.94
423.621	84.94
423.843	77.94
424.066	97.94
424.288	89.94
424.511	93.94
424.733	92.94
424.956	84.94
425.178	83.94
425.401	76.94
425.623	102.94
425.846	72.94
426.068	74.94
426.291	81.94
426.513	72.94
426.735	90.94
426.958	73.94
427.18	84.94
427.402	92.94
427.625	87.94
427.847	85.94
428.069	69.94
428.292	103.94
428.514	100.94
428.736	71.94
428.958	89.94
429.181	80.94
429.403	90.94
429.625	80.94
429.847	96.94
430.069	112.94
430.292	96.94
430.514	93.94
430.736	91.94
430.958	105.94
431.18	84.94
431.402	91.94
431.624	85.94
431.846	84.94
432.068	86.94
432.29	97.94
432.512	78.94
432.734	93.94
432.956	85.94
433.178	83.94
433.4	77.94
433.622	96.94
433.844	96.94
434.066	86.94
434.287	80.94
434.509	85.94
434.731	92.94
434.953	87.94
435.175	79.94
435.397	85.94
435.618	84.94
435.84	83.94
436.062	83.94
436.284	74.94
436.505	80.94
436.727	89.94
436.949	90.94
437.17	84.94
437.392	95.94
437.614	85.94
437.835	80.94
438.057	92.94
438.278	93.94
438.5	80.94
438.721	101.94
438.943	100.94
439.165	97.94
439.386	82.94
439.608	88.94
439.829	73.94
440.05	93.94
440.272	91.94
440.493	73.94
440.715	94.94
440.936	80.94
441.158	89.94
441.379	83.94
441.6	88.94
441.822	91.94
442.043	73.94
442.264	80.94
442.486	88.94
442.707	106.94
442.928	95.94
443.149	94.94
443.371	103.94
443.592	107.94
443.813	111.94
444.034	82.94
444.255	98.94
444.476	85.94
444.698	76.94
444.919	97.94
445.14	166.94
445.361	130.94
445.582	120.94
445.803	95.94
446.024	77.94
446.245	91.94
446.466	82.94
446.687	72.94
446.908	77.94
447.129	81.94
447.35	78.94
447.571	82.94
447.792	90.94
448.013	88.94
448.234	88.94
448.455	96.94
448.675	76.94
448.896	79.94
449.117	76.94
449.338	69.94
449.559	96.94
449.779	87.94
450	82.94
450.221	84.94
450.442	79.94
450.662	87.94
450.883	89.94
451.104	89.94
451.324	79.94
451.545	79.94
451.766	84.94
451.986	82.94
452.207	85.94
452.428	88.94
452.648	74.94
452.869	89.94
453.089	85.94
453.31	78.94
453.53	91.94
453.751	90.94
453.971	73.94
454.192	86.94
454.412	91.94
454.633	86.94
454.853	84.94
455.073	85.94
455.294	82.94
455.514	82.94
455.734	81.94
455.955	76.94
456.175	86.94
456.395	78.94
456.616	75.94
456.836	96.94
457.056	83.94
457.276	85.94
457.497	78.94
457.717	80.94
457.937	87.94
458.157	80.94
458.377	85.94
458.598	92.94
458.818	84.94
459.038	90.94
459.258	90.94
459.478	85.94
459.698	85.94
459.918	77.94
460.138	79.94
460.358	95.94
460.578	94.94
460.798	101.94
461.018	92.94
461.238	90.94
461.458	90.94
461.678	86.94
461.898	85.94
462.118	80.94
462.338	95.94
462.558	89.94
462.777	93.94
462.997	78.94
463.217	73.94
463.437	74.94
463.657	73.94
463.876	78.94
464.096	80.94
464.316	89.94
464.536	84.94
464.755	77.94
464.975	73.94
465.195	106.94
465.414	71.94
465.634	94.94
465.854	79.94
466.073	78.94
466.293	93.94
466.512	78.94
466.732	94.94
466.951	87.94
467.171	71.94
467.391	66.94
467.61	87.94
467.829	77.94
468.049	85.94
468.268	85.94
468.488	80.94
468.707	84.94
468.927	80.94
469.146	81.94
469.365	83.94
469.585	90.94
469.804	83.94
470.023	86.94
470.243	79.94
470.462	90.94
470.681	77.94
470.901	79.94
471.12	90.94
471.339	94.94
471.558	95.94
471.777	61.94
471.997	82.94
472.216	85.94
472.435	76.94
472.654	92.94
472.873	80.94
473.092	78.94
473.311	97.94
473.53	81.94
473.749	86.94
473.968	100.94
474.187	75.94
474.406	103.94
474.625	95.94
474.844	91.94
475.063	76.94
475.282	86.94
475.501	83.94
475.72	85.94
475.939	93.94
476.158	102.94
476.377	73.94
476.596	84.94
476.814	89.94
477.033	81.94
477.252	93.94
477.471	69.94
477.69	73.94
477.908	89.94
478.127	92.94
478.346	76.94
478.564	75.94
478.783	81.94
479.002	83.94
479.22	81.94
479.439	95.94
479.658	76.94
479.876	80.94
480.095	80.94
480.313	96.94
480.532	85.94
480.751	78.94
480.969	89.94
481.188	97.94
481.406	92.94
481.624	79.94
481.843	84.94
482.061	92.94
482.28	90.94
482.498	78.94
482.717	78.94
482.935	76.94
483.153	86.94
483.372	83.94
483.59	80.94
483.808	79.94
484.027	76.94
484.245	89.94
484.463	83.94
484.681	92.94
484.9	95.94
485.118	84.94
485.336	92.94
485.554	87.94
485.772	81.94
485.99	95.94
486.209	101.94
486.427	86.94
486.645	92.94
486.863	82.94
487.081	69.94
487.299	75.94
487.517	92.94
487.735	85.94
487.953	94.94
488.171	97.94
488.389	80.94
488.607	85.94
488.825	89.94
489.043	90.94
489.261	76.94
489.479	92.94
489.696	83.94
489.914	81.94
490.132	81.94
490.35	90.94
490.568	88.94
490.786	85.94
491.003	93.94
491.221	90.94
491.439	84.94
491.657	87.94
491.874	90.94
492.092	102.94
492.31	80.94
492.527	80.94
492.745	101.94
492.963	89.94
493.18	89.94
493.398	78.94
493.615	88.94
493.833	85.94
494.05	87.94
494.268	85.94
494.485	81.94
494.703	92.94
494.92	84.94
495.138	104.94
495.355	96.94
495.573	96.94
495.79	84.94
496.008	96.94
496.225	89.94
496.442	88.94
496.66	88.94
496.877	94.94
497.094	91.94
497.312	81.94
497.529	104.94
497.746	95.94
497.963	72.94
498.181	96.94
498.398	90.94
498.615	92.94
498.832	89.94
499.049	91.94
499.267	104.94
499.484	86.94
499.701	85.94
499.918	111.94
500.135	90.94
500.352	85.94
500.569	68.94
500.786	97.94
501.003	85.94
501.22	79.94
501.437	90.94
501.654	77.94
501.871	82.94
502.088	77.94
502.305	92.94
502.522	82.94
502.739	86.94
502.956	78.94
503.172	96.94
503.389	90.94
503.606	95.94
503.823	84.94
504.04	93.94
504.256	88.94
504.473	76.94
504.69	84.94
504.907	85.94
505.123	82.94
505.34	79.94
505.557	81.94
505.773	89.94
505.99	92.94
506.207	77.94
506.423	87.94
506.64	80.94
506.856	94.94
507.073	82.94
507.289	79.94
507.506	89.94
507.722	73.94
507.939	85.94
508.155	92.94
508.372	88.94
508.588	86.94
508.805	86.94
509.021	102.94
509.238	97.94
509.454	92.94
509.67	90.94
509.887	94.94
510.103	80.94
510.319	77.94
510.536	94.94
510.752	88.94
510.968	64.94
511.184	91.94
511.401	93.94
511.617	85.94
511.833	85.94
512.049	81.94
512.265	82.94
512.481	81.94
512.698	88.94
512.914	75.94
513.13	91.94
513.346	100.94
513.562	82.94
513.778	91.94
513.994	102.94
514.21	95.94
514.426	95.94
514.642	92.94
514.858	86.94
515.074	76.94
515.29	102.94
515.506	87.94
515.721	95.94
515.937	99.94
516.153	80.94
516.369	76.94
516.585	89.94
516.801	76.94
517.016	83.94
517.232	95.94
517.448	85.94
517.664	80.94
517.879	81.94
518.095	85.94
518.311	79.94
518.527	89.94
518.742	94.94
518.958	89.94
519.173	101.94
