Data from Mixheat2_HRD10591_00009.txt Node
Date: Fri Dec 27 15:09:12 EST 2024
User: Yrep
Spectrometer: HR+D1059
Trigger mode: 1
Integration Time (sec): 1.000000E-1
Scans to average: 1
Electric dark correction enabled: true
Nonlinearity correction enabled: false
Boxcar width: 0
XAxis mode: Wavelengths
Number of Pixels in Spectrum: 2048
>>>>>Begin Spectral Data<<<<<
223.165	-12.94
223.4	-12.94
223.635	-12.94
223.869	-32.94
224.104	-22.94
224.338	-8.94
224.573	-0.94
224.808	-9.94
225.042	-4.94
225.277	4.06
225.511	-4.94
225.746	1.06
225.98	4.06
226.215	17.06
226.449	14.06
226.683	19.06
226.918	20.06
227.152	19.06
227.387	37.06
227.621	43.06
227.856	51.06
228.09	41.06
228.324	59.06
228.559	58.06
228.793	62.06
229.027	57.06
229.262	64.06
229.496	72.06
229.73	71.06
229.964	61.06
230.199	68.06
230.433	79.06
230.667	79.06
230.901	77.06
231.136	82.06
231.37	84.06
231.604	74.06
231.838	73.06
232.072	79.06
232.306	81.06
232.541	74.06
232.775	81.06
233.009	80.06
233.243	72.06
233.477	75.06
233.711	78.06
233.945	80.06
234.179	87.06
234.413	88.06
234.647	82.06
234.881	85.06
235.115	82.06
235.349	87.06
235.583	89.06
235.817	86.06
236.051	92.06
236.285	69.06
236.519	83.06
236.753	69.06
236.987	83.06
237.221	82.06
237.455	77.06
237.689	76.06
237.922	91.06
238.156	76.06
238.39	87.06
238.624	78.06
238.858	82.06
239.091	72.06
239.325	81.06
239.559	71.06
239.793	88.06
240.027	83.06
240.26	81.06
240.494	87.06
240.728	83.06
240.961	71.06
241.195	88.06
241.429	78.06
241.662	64.06
241.896	82.06
242.13	77.06
242.363	83.06
242.597	92.06
242.83	69.06
243.064	82.06
243.298	81.06
243.531	91.06
243.765	78.06
243.998	63.06
244.232	85.06
244.465	75.06
244.699	82.06
244.932	76.06
245.166	78.06
245.399	67.06
245.633	77.06
245.866	75.06
246.099	80.06
246.333	74.06
246.566	83.06
246.8	88.06
247.033	81.06
247.266	69.06
247.5	82.06
247.733	80.06
247.966	86.06
248.2	78.06
248.433	86.06
248.666	84.06
248.899	96.06
249.133	79.06
249.366	68.06
249.599	93.06
249.832	77.06
250.066	85.06
250.299	84.06
250.532	76.06
250.765	88.06
250.998	75.06
251.231	96.06
251.465	91.06
251.698	84.06
251.931	90.06
252.164	90.06
252.397	84.06
252.63	91.06
252.863	74.06
253.096	79.06
253.329	89.06
253.562	107.06
253.795	107.06
254.028	77.06
254.261	90.06
254.494	87.06
254.727	75.06
254.96	81.06
255.193	81.06
255.426	87.06
255.659	96.06
255.892	77.06
256.124	88.06
256.357	83.06
256.59	68.06
256.823	88.06
257.056	92.06
257.289	93.06
257.521	93.06
257.754	103.06
257.987	85.06
258.22	105.06
258.452	70.06
258.685	89.06
258.918	76.06
259.151	87.06
259.383	86.06
259.616	90.06
259.849	77.06
260.081	84.06
260.314	80.06
260.547	87.06
260.779	95.06
261.012	79.06
261.244	72.06
261.477	90.06
261.71	72.06
261.942	84.06
262.175	80.06
262.407	82.06
262.64	92.06
262.872	87.06
263.105	81.06
263.337	81.06
263.57	90.06
263.802	77.06
264.035	96.06
264.267	89.06
264.499	94.06
264.732	79.06
264.964	100.06
265.197	89.06
265.429	75.06
265.661	85.06
265.894	88.06
266.126	88.06
266.358	80.06
266.591	82.06
266.823	80.06
267.055	78.06
267.287	89.06
267.52	90.06
267.752	79.06
267.984	69.06
268.216	87.06
268.448	93.06
268.681	103.06
268.913	100.06
269.145	93.06
269.377	91.06
269.609	89.06
269.841	79.06
270.073	79.06
270.306	78.06
270.538	71.06
270.77	104.06
271.002	85.06
271.234	85.06
271.466	89.06
271.698	79.06
271.93	95.06
272.162	73.06
272.394	74.06
272.626	89.06
272.858	89.06
273.09	90.06
273.322	92.06
273.553	89.06
273.785	94.06
274.017	93.06
274.249	100.06
274.481	97.06
274.713	97.06
274.945	88.06
275.176	94.06
275.408	92.06
275.64	86.06
275.872	87.06
276.104	80.06
276.335	82.06
276.567	96.06
276.799	79.06
277.031	91.06
277.262	93.06
277.494	81.06
277.726	95.06
277.957	81.06
278.189	89.06
278.421	82.06
278.652	92.06
278.884	84.06
279.115	75.06
279.347	74.06
279.579	90.06
279.81	89.06
280.042	93.06
280.273	71.06
280.505	86.06
280.736	76.06
280.968	80.06
281.199	88.06
281.431	91.06
281.662	93.06
281.894	97.06
282.125	87.06
282.356	93.06
282.588	89.06
282.819	66.06
283.051	93.06
283.282	85.06
283.513	88.06
283.745	97.06
283.976	105.06
284.207	87.06
284.439	81.06
284.67	91.06
284.901	81.06
285.132	86.06
285.364	107.06
285.595	87.06
285.826	91.06
286.057	83.06
286.288	83.06
286.52	92.06
286.751	84.06
286.982	90.06
287.213	84.06
287.444	77.06
287.675	88.06
287.906	82.06
288.138	97.06
288.369	92.06
288.6	92.06
288.831	81.06
289.062	82.06
289.293	94.06
289.524	87.06
289.755	99.06
289.986	81.06
290.217	88.06
290.448	86.06
290.679	90.06
290.91	82.06
291.141	95.06
291.371	80.06
291.602	89.06
291.833	83.06
292.064	96.06
292.295	109.06
292.526	102.06
292.757	89.06
292.987	87.06
293.218	79.06
293.449	89.06
293.68	77.06
293.91	75.06
294.141	99.06
294.372	91.06
294.603	82.06
294.833	84.06
295.064	80.06
295.295	75.06
295.525	89.06
295.756	103.06
295.987	90.06
296.217	88.06
296.448	82.06
296.679	73.06
296.909	79.06
297.14	96.06
297.37	96.06
297.601	73.06
297.831	87.06
298.062	88.06
298.292	79.06
298.523	102.06
298.753	93.06
298.984	76.06
299.214	80.06
299.445	101.06
299.675	99.06
299.905	88.06
300.136	87.06
300.366	97.06
300.597	82.06
300.827	92.06
301.057	85.06
301.288	90.06
301.518	95.06
301.748	92.06
301.979	112.06
302.209	87.06
302.439	89.06
302.669	104.06
302.9	80.06
303.13	90.06
303.36	100.06
303.59	86.06
303.82	85.06
304.051	80.06
304.281	103.06
304.511	91.06
304.741	95.06
304.971	97.06
305.201	79.06
305.431	100.06
305.661	87.06
305.891	105.06
306.121	99.06
306.352	88.06
306.582	88.06
306.812	98.06
307.042	100.06
307.272	74.06
307.502	77.06
307.731	74.06
307.961	86.06
308.191	93.06
308.421	99.06
308.651	81.06
308.881	103.06
309.111	89.06
309.341	86.06
309.571	88.06
309.8	84.06
310.03	79.06
310.26	88.06
310.49	87.06
310.72	83.06
310.949	86.06
311.179	92.06
311.409	91.06
311.639	88.06
311.868	95.06
312.098	97.06
312.328	94.06
312.557	93.06
312.787	85.06
313.017	99.06
313.246	73.06
313.476	92.06
313.706	83.06
313.935	92.06
314.165	79.06
314.394	73.06
314.624	79.06
314.853	99.06
315.083	91.06
315.312	83.06
315.542	86.06
315.771	84.06
316.001	92.06
316.23	94.06
316.46	71.06
316.689	85.06
316.919	92.06
317.148	95.06
317.377	93.06
317.607	98.06
317.836	93.06
318.065	89.06
318.295	92.06
318.524	79.06
318.753	90.06
318.983	94.06
319.212	75.06
319.441	94.06
319.67	96.06
319.9	83.06
320.129	92.06
320.358	92.06
320.587	95.06
320.816	83.06
321.046	83.06
321.275	83.06
321.504	103.06
321.733	90.06
321.962	83.06
322.191	87.06
322.42	82.06
322.649	87.06
322.878	100.06
323.108	86.06
323.337	103.06
323.566	83.06
323.795	92.06
324.024	94.06
324.253	93.06
324.482	91.06
324.71	89.06
324.939	83.06
325.168	93.06
325.397	103.06
325.626	92.06
325.855	82.06
326.084	87.06
326.313	99.06
326.542	91.06
326.77	85.06
326.999	93.06
327.228	104.06
327.457	75.06
327.686	86.06
327.914	94.06
328.143	98.06
328.372	80.06
328.6	82.06
328.829	84.06
329.058	95.06
329.287	81.06
329.515	90.06
329.744	73.06
329.972	75.06
330.201	88.06
330.43	77.06
330.658	84.06
330.887	73.06
331.115	93.06
331.344	105.06
331.572	95.06
331.801	70.06
332.03	79.06
332.258	97.06
332.486	94.06
332.715	96.06
332.943	93.06
333.172	77.06
333.4	95.06
333.629	80.06
333.857	89.06
334.085	88.06
334.314	78.06
334.542	92.06
334.771	107.06
334.999	89.06
335.227	86.06
335.455	81.06
335.684	85.06
335.912	88.06
336.14	88.06
336.369	76.06
336.597	96.06
336.825	89.06
337.053	111.06
337.281	93.06
337.51	82.06
337.738	74.06
337.966	85.06
338.194	87.06
338.422	97.06
338.65	92.06
338.878	88.06
339.106	92.06
339.334	91.06
339.562	100.06
339.79	87.06
340.018	85.06
340.246	77.06
340.474	81.06
340.702	95.06
340.93	85.06
341.158	97.06
341.386	85.06
341.614	98.06
341.842	84.06
342.07	93.06
342.298	103.06
342.526	85.06
342.754	80.06
342.981	86.06
343.209	97.06
343.437	104.06
343.665	95.06
343.893	84.06
344.12	99.06
344.348	92.06
344.576	87.06
344.804	97.06
345.031	98.06
345.259	96.06
345.487	89.06
345.714	90.06
345.942	87.06
346.17	86.06
346.397	91.06
346.625	81.06
346.853	76.06
347.08	73.06
347.308	102.06
347.535	81.06
347.763	74.06
347.99	92.06
348.218	80.06
348.445	93.06
348.673	95.06
348.9	93.06
349.128	90.06
349.355	76.06
349.583	67.06
349.81	93.06
350.037	93.06
350.265	100.06
350.492	79.06
350.72	95.06
350.947	93.06
351.174	100.06
351.402	85.06
351.629	77.06
351.856	73.06
352.083	99.06
352.311	74.06
352.538	90.06
352.765	89.06
352.992	97.06
353.22	107.06
353.447	83.06
353.674	88.06
353.901	82.06
354.128	76.06
354.355	93.06
354.583	89.06
354.81	89.06
355.037	81.06
355.264	80.06
355.491	83.06
355.718	83.06
355.945	87.06
356.172	89.06
356.399	90.06
356.626	85.06
356.853	104.06
357.08	101.06
357.307	86.06
357.534	88.06
357.761	86.06
357.988	80.06
358.215	89.06
358.441	85.06
358.668	84.06
358.895	96.06
359.122	82.06
359.349	89.06
359.576	73.06
359.802	94.06
360.029	97.06
360.256	84.06
360.483	82.06
360.709	79.06
360.936	83.06
361.163	91.06
361.39	98.06
361.616	86.06
361.843	80.06
362.07	78.06
362.296	96.06
362.523	96.06
362.749	85.06
362.976	101.06
363.203	93.06
363.429	87.06
363.656	84.06
363.882	81.06
364.109	93.06
364.335	92.06
364.562	98.06
364.788	89.06
365.015	96.06
365.241	91.06
365.468	99.06
365.694	92.06
365.92	100.06
366.147	93.06
366.373	88.06
366.599	84.06
366.826	84.06
367.052	93.06
367.278	83.06
367.505	97.06
367.731	92.06
367.957	87.06
368.184	100.06
368.41	80.06
368.636	91.06
368.862	84.06
369.089	85.06
369.315	85.06
369.541	76.06
369.767	81.06
369.993	96.06
370.219	79.06
370.445	81.06
370.672	77.06
370.898	85.06
371.124	84.06
371.35	89.06
371.576	85.06
371.802	87.06
372.028	92.06
372.254	89.06
372.48	80.06
372.706	90.06
372.932	95.06
373.158	82.06
373.384	80.06
373.61	89.06
373.835	83.06
374.061	84.06
374.287	93.06
374.513	80.06
374.739	82.06
374.965	98.06
375.191	84.06
375.416	94.06
375.642	81.06
375.868	92.06
376.094	88.06
376.319	85.06
376.545	84.06
376.771	92.06
376.997	92.06
377.222	73.06
377.448	80.06
377.674	104.06
377.899	103.06
378.125	79.06
378.35	81.06
378.576	91.06
378.802	93.06
379.027	91.06
379.253	74.06
379.478	89.06
379.704	83.06
379.929	90.06
380.155	96.06
380.38	84.06
380.606	93.06
380.831	91.06
381.057	98.06
381.282	83.06
381.507	80.06
381.733	89.06
381.958	93.06
382.184	87.06
382.409	92.06
382.634	90.06
382.86	89.06
383.085	100.06
383.31	83.06
383.535	75.06
383.761	76.06
383.986	89.06
384.211	91.06
384.436	91.06
384.662	92.06
384.887	93.06
385.112	99.06
385.337	98.06
385.562	89.06
385.787	91.06
386.013	92.06
386.238	84.06
386.463	84.06
386.688	99.06
386.913	94.06
387.138	84.06
387.363	85.06
387.588	86.06
387.813	81.06
388.038	89.06
388.263	88.06
388.488	91.06
388.713	83.06
388.938	96.06
389.163	89.06
389.387	89.06
389.612	96.06
389.837	77.06
390.062	78.06
390.287	91.06
390.512	89.06
390.736	92.06
390.961	84.06
391.186	74.06
391.411	92.06
391.636	80.06
391.86	94.06
392.085	84.06
392.31	84.06
392.534	88.06
392.759	91.06
392.984	101.06
393.208	120.06
393.433	109.06
393.658	109.06
393.882	92.06
394.107	95.06
394.331	104.06
394.556	99.06
394.78	89.06
395.005	91.06
395.229	100.06
395.454	83.06
395.678	102.06
395.903	89.06
396.127	94.06
396.352	90.06
396.576	93.06
396.801	103.06
397.025	113.06
397.249	82.06
397.474	89.06
397.698	94.06
397.922	91.06
398.147	89.06
398.371	90.06
398.595	89.06
398.82	83.06
399.044	103.06
399.268	96.06
399.492	90.06
399.717	88.06
399.941	82.06
400.165	89.06
400.389	92.06
400.613	83.06
400.837	73.06
401.062	93.06
401.286	90.06
401.51	100.06
401.734	91.06
401.958	87.06
402.182	76.06
402.406	69.06
402.63	99.06
402.854	97.06
403.078	89.06
403.302	88.06
403.526	71.06
403.75	93.06
403.974	66.06
404.198	101.06
404.422	127.06
404.645	107.06
404.869	113.06
405.093	108.06
405.317	89.06
405.541	79.06
405.765	80.06
405.988	82.06
406.212	93.06
406.436	85.06
406.66	93.06
406.883	89.06
407.107	88.06
407.331	83.06
407.555	99.06
407.778	76.06
408.002	99.06
408.226	103.06
408.449	99.06
408.673	96.06
408.896	100.06
409.12	63.06
409.344	88.06
409.567	97.06
409.791	87.06
410.014	91.06
410.238	94.06
410.461	84.06
410.685	105.06
410.908	96.06
411.132	98.06
411.355	85.06
411.578	100.06
411.802	84.06
412.025	85.06
412.249	94.06
412.472	93.06
412.695	79.06
412.919	83.06
413.142	98.06
413.365	93.06
413.589	92.06
413.812	94.06
414.035	107.06
414.258	89.06
414.482	87.06
414.705	88.06
414.928	85.06
415.151	91.06
415.374	84.06
415.597	78.06
415.821	87.06
416.044	73.06
416.267	89.06
416.49	95.06
416.713	87.06
416.936	101.06
417.159	90.06
417.382	86.06
417.605	91.06
417.828	94.06
418.051	76.06
418.274	88.06
418.497	83.06
418.72	83.06
418.943	95.06
419.166	83.06
419.389	84.06
419.611	89.06
419.834	94.06
420.057	77.06
420.28	85.06
420.503	81.06
420.726	92.06
420.948	93.06
421.171	89.06
421.394	88.06
421.617	89.06
421.839	103.06
422.062	107.06
422.285	107.06
422.507	136.06
422.73	155.06
422.953	131.06
423.175	112.06
423.398	92.06
423.621	109.06
423.843	87.06
424.066	85.06
424.288	84.06
424.511	90.06
424.733	92.06
424.956	90.06
425.178	92.06
425.401	84.06
425.623	78.06
425.846	91.06
426.068	86.06
426.291	74.06
426.513	93.06
426.735	76.06
426.958	79.06
427.18	79.06
427.402	90.06
427.625	92.06
427.847	94.06
428.069	105.06
428.292	99.06
428.514	106.06
428.736	108.06
428.958	90.06
429.181	105.06
429.403	105.06
429.625	81.06
429.847	81.06
430.069	105.06
430.292	111.06
430.514	104.06
430.736	101.06
430.958	96.06
431.18	80.06
431.402	91.06
431.624	90.06
431.846	95.06
432.068	100.06
432.29	88.06
432.512	95.06
432.734	99.06
432.956	95.06
433.178	104.06
433.4	89.06
433.622	100.06
433.844	79.06
434.066	82.06
434.287	82.06
434.509	77.06
434.731	76.06
434.953	76.06
435.175	82.06
435.397	89.06
435.618	83.06
435.84	69.06
436.062	66.06
436.284	90.06
436.505	92.06
436.727	89.06
436.949	86.06
437.17	88.06
437.392	85.06
437.614	89.06
437.835	79.06
438.057	86.06
438.278	78.06
438.5	90.06
438.721	84.06
438.943	80.06
439.165	72.06
439.386	83.06
439.608	91.06
439.829	82.06
440.05	94.06
440.272	95.06
440.493	89.06
440.715	90.06
440.936	97.06
441.158	90.06
441.379	83.06
441.6	81.06
441.822	91.06
442.043	90.06
442.264	95.06
442.486	99.06
442.707	95.06
442.928	93.06
443.149	92.06
443.371	104.06
443.592	123.06
443.813	113.06
444.034	96.06
444.255	91.06
444.476	90.06
444.698	93.06
444.919	97.06
445.14	178.06
445.361	123.06
445.582	117.06
445.803	112.06
446.024	94.06
446.245	85.06
446.466	95.06
446.687	96.06
446.908	78.06
447.129	87.06
447.35	90.06
447.571	104.06
447.792	94.06
448.013	77.06
448.234	95.06
448.455	69.06
448.675	82.06
448.896	95.06
449.117	96.06
449.338	80.06
449.559	92.06
449.779	85.06
450	85.06
450.221	91.06
450.442	80.06
450.662	90.06
450.883	96.06
451.104	93.06
451.324	90.06
451.545	81.06
451.766	79.06
451.986	94.06
452.207	90.06
452.428	90.06
452.648	94.06
452.869	98.06
453.089	94.06
453.31	90.06
453.53	94.06
453.751	81.06
453.971	85.06
454.192	85.06
454.412	83.06
454.633	80.06
454.853	91.06
455.073	98.06
455.294	99.06
455.514	90.06
455.734	88.06
455.955	82.06
456.175	91.06
456.395	88.06
456.616	79.06
456.836	87.06
457.056	84.06
457.276	84.06
457.497	93.06
457.717	92.06
457.937	84.06
458.157	97.06
458.377	84.06
458.598	66.06
458.818	99.06
459.038	93.06
459.258	95.06
459.478	79.06
459.698	89.06
459.918	93.06
460.138	79.06
460.358	87.06
460.578	77.06
460.798	95.06
461.018	91.06
461.238	81.06
461.458	95.06
461.678	86.06
461.898	82.06
462.118	82.06
462.338	95.06
462.558	94.06
462.777	100.06
462.997	87.06
463.217	95.06
463.437	108.06
463.657	85.06
463.876	77.06
464.096	98.06
464.316	100.06
464.536	78.06
464.755	87.06
464.975	88.06
465.195	95.06
465.414	91.06
465.634	90.06
465.854	86.06
466.073	87.06
466.293	92.06
466.512	83.06
466.732	90.06
466.951	93.06
467.171	90.06
467.391	82.06
467.61	83.06
467.829	91.06
468.049	92.06
468.268	97.06
468.488	94.06
468.707	87.06
468.927	76.06
469.146	91.06
469.365	93.06
469.585	94.06
469.804	91.06
470.023	95.06
470.243	95.06
470.462	86.06
470.681	85.06
470.901	84.06
471.12	108.06
471.339	93.06
471.558	83.06
471.777	74.06
471.997	84.06
472.216	96.06
472.435	83.06
472.654	96.06
472.873	96.06
473.092	90.06
473.311	89.06
473.53	80.06
473.749	89.06
473.968	87.06
474.187	82.06
474.406	106.06
474.625	106.06
474.844	97.06
475.063	79.06
475.282	84.06
475.501	90.06
475.72	103.06
475.939	93.06
476.158	78.06
476.377	76.06
476.596	89.06
476.814	93.06
477.033	83.06
477.252	79.06
477.471	96.06
477.69	80.06
477.908	84.06
478.127	90.06
478.346	87.06
478.564	85.06
478.783	101.06
479.002	103.06
479.22	82.06
479.439	100.06
479.658	91.06
479.876	92.06
480.095	89.06
480.313	100.06
480.532	87.06
480.751	101.06
480.969	84.06
481.188	82.06
481.406	83.06
481.624	85.06
481.843	74.06
482.061	84.06
482.28	78.06
482.498	73.06
482.717	75.06
482.935	98.06
483.153	85.06
483.372	73.06
483.59	82.06
483.808	91.06
484.027	90.06
484.245	84.06
484.463	84.06
484.681	92.06
484.9	93.06
485.118	76.06
485.336	90.06
485.554	80.06
485.772	81.06
485.99	76.06
486.209	80.06
486.427	105.06
486.645	101.06
486.863	77.06
487.081	103.06
487.299	97.06
487.517	94.06
487.735	90.06
487.953	82.06
488.171	87.06
488.389	101.06
488.607	81.06
488.825	89.06
489.043	74.06
489.261	86.06
489.479	85.06
489.696	89.06
489.914	100.06
490.132	100.06
490.35	81.06
490.568	92.06
490.786	102.06
491.003	93.06
491.221	92.06
491.439	87.06
491.657	80.06
491.874	100.06
492.092	85.06
492.31	95.06
492.527	96.06
492.745	90.06
492.963	78.06
493.18	94.06
493.398	96.06
493.615	105.06
493.833	97.06
494.05	93.06
494.268	101.06
494.485	106.06
494.703	87.06
494.92	85.06
495.138	79.06
495.355	86.06
495.573	100.06
495.79	79.06
496.008	101.06
496.225	80.06
496.442	86.06
496.66	96.06
496.877	93.06
497.094	92.06
497.312	95.06
497.529	110.06
497.746	90.06
497.963	95.06
498.181	94.06
498.398	93.06
498.615	92.06
498.832	94.06
499.049	81.06
499.267	92.06
499.484	96.06
499.701	89.06
499.918	83.06
500.135	94.06
500.352	105.06
500.569	100.06
500.786	97.06
501.003	100.06
501.22	81.06
501.437	84.06
501.654	83.06
501.871	92.06
502.088	79.06
502.305	96.06
502.522	88.06
502.739	94.06
502.956	85.06
503.172	86.06
503.389	95.06
503.606	94.06
503.823	83.06
504.04	97.06
504.256	92.06
504.473	96.06
504.69	93.06
504.907	88.06
505.123	92.06
505.34	80.06
505.557	93.06
505.773	84.06
505.99	77.06
506.207	96.06
506.423	82.06
506.64	87.06
506.856	90.06
507.073	96.06
507.289	96.06
507.506	92.06
507.722	95.06
507.939	86.06
508.155	69.06
508.372	90.06
508.588	91.06
508.805	98.06
509.021	76.06
509.238	88.06
509.454	96.06
509.67	95.06
509.887	99.06
510.103	90.06
510.319	102.06
510.536	108.06
510.752	89.06
510.968	86.06
511.184	107.06
511.401	108.06
511.617	75.06
511.833	89.06
512.049	84.06
512.265	90.06
512.481	91.06
512.698	80.06
512.914	92.06
513.13	72.06
513.346	88.06
513.562	93.06
513.778	100.06
513.994	97.06
514.21	87.06
514.426	84.06
514.642	87.06
514.858	70.06
515.074	99.06
515.29	89.06
515.506	92.06
515.721	81.06
515.937	87.06
516.153	88.06
516.369	92.06
516.585	91.06
516.801	73.06
517.016	104.06
517.232	91.06
517.448	81.06
517.664	83.06
517.879	91.06
518.095	91.06
518.311	81.06
518.527	94.06
