Data from Mixheat2_HRD10591_00011.txt Node
Date: Fri Dec 27 15:09:14 EST 2024
User: Yrep
Spectrometer: HR+D1059
Trigger mode: 1
Integration Time (sec): 1.000000E-1
Scans to average: 1
Electric dark correction enabled: true
Nonlinearity correction enabled: false
Boxcar width: 0
XAxis mode: Wavelengths
Number of Pixels in Spectrum: 2048
>>>>>Begin Spectral Data<<<<<
223.165	-23.25
223.4	-23.25
223.635	-23.25
223.869	-23.25
224.104	-17.25
224.338	-20.25
224.573	-16.25
224.808	-22.25
225.042	-7.25
225.277	1.75
225.511	-10.25
225.746	7.75
225.98	-3.25
226.215	20.75
226.449	31.75
226.683	19.75
226.918	27.75
227.152	33.75
227.387	22.75
227.621	49.75
227.856	35.75
228.09	37.75
228.324	34.75
228.559	43.75
228.793	63.75
229.027	44.75
229.262	61.75
229.496	63.75
229.73	59.75
229.964	81.75
230.199	73.75
230.433	67.75
230.667	74.75
230.901	83.75
231.136	80.75
231.37	69.75
231.604	97.75
231.838	71.75
232.072	72.75
232.306	80.75
232.541	74.75
232.775	83.75
233.009	78.75
233.243	71.75
233.477	79.75
233.711	71.75
233.945	76.75
234.179	77.75
234.413	77.75
234.647	69.75
234.881	83.75
235.115	78.75
235.349	73.75
235.583	69.75
235.817	73.75
236.051	81.75
236.285	82.75
236.519	74.75
236.753	76.75
236.987	66.75
237.221	74.75
237.455	76.75
237.689	83.75
237.922	73.75
238.156	71.75
238.39	73.75
238.624	68.75
238.858	79.75
239.091	62.75
239.325	73.75
239.559	70.75
239.793	80.75
240.027	77.75
240.26	74.75
240.494	76.75
240.728	78.75
240.961	71.75
241.195	87.75
241.429	72.75
241.662	71.75
241.896	71.75
242.13	69.75
242.363	81.75
242.597	71.75
242.83	61.75
243.064	63.75
243.298	83.75
243.531	70.75
243.765	71.75
243.998	62.75
244.232	91.75
244.465	81.75
244.699	77.75
244.932	88.75
245.166	78.75
245.399	96.75
245.633	71.75
245.866	84.75
246.099	74.75
246.333	81.75
246.566	65.75
246.8	71.75
247.033	84.75
247.266	70.75
247.5	67.75
247.733	74.75
247.966	68.75
248.2	67.75
248.433	74.75
248.666	75.75
248.899	74.75
249.133	66.75
249.366	75.75
249.599	74.75
249.832	87.75
250.066	80.75
250.299	65.75
250.532	80.75
250.765	71.75
250.998	81.75
251.231	67.75
251.465	69.75
251.698	64.75
251.931	69.75
252.164	84.75
252.397	67.75
252.63	69.75
252.863	73.75
253.096	74.75
253.329	75.75
253.562	75.75
253.795	76.75
254.028	72.75
254.261	81.75
254.494	77.75
254.727	91.75
254.96	67.75
255.193	79.75
255.426	80.75
255.659	91.75
255.892	84.75
256.124	80.75
256.357	74.75
256.59	81.75
256.823	73.75
257.056	82.75
257.289	76.75
257.521	71.75
257.754	67.75
257.987	70.75
258.22	80.75
258.452	71.75
258.685	71.75
258.918	76.75
259.151	79.75
259.383	82.75
259.616	83.75
259.849	75.75
260.081	99.75
260.314	70.75
260.547	82.75
260.779	87.75
261.012	71.75
261.244	72.75
261.477	78.75
261.71	83.75
261.942	71.75
262.175	79.75
262.407	76.75
262.64	78.75
262.872	80.75
263.105	73.75
263.337	75.75
263.57	75.75
263.802	77.75
264.035	75.75
264.267	70.75
264.499	51.75
264.732	69.75
264.964	80.75
265.197	68.75
265.429	74.75
265.661	70.75
265.894	89.75
266.126	81.75
266.358	81.75
266.591	67.75
266.823	75.75
267.055	74.75
267.287	77.75
267.52	75.75
267.752	86.75
267.984	88.75
268.216	73.75
268.448	84.75
268.681	74.75
268.913	74.75
269.145	91.75
269.377	85.75
269.609	82.75
269.841	78.75
270.073	77.75
270.306	63.75
270.538	75.75
270.77	60.75
271.002	79.75
271.234	65.75
271.466	75.75
271.698	72.75
271.93	80.75
272.162	72.75
272.394	84.75
272.626	78.75
272.858	67.75
273.09	78.75
273.322	77.75
273.553	77.75
273.785	73.75
274.017	79.75
274.249	74.75
274.481	88.75
274.713	66.75
274.945	79.75
275.176	76.75
275.408	85.75
275.64	78.75
275.872	100.75
276.104	84.75
276.335	83.75
276.567	72.75
276.799	75.75
277.031	68.75
277.262	76.75
277.494	82.75
277.726	74.75
277.957	74.75
278.189	88.75
278.421	66.75
278.652	86.75
278.884	84.75
279.115	76.75
279.347	81.75
279.579	72.75
279.81	72.75
280.042	79.75
280.273	64.75
280.505	71.75
280.736	83.75
280.968	77.75
281.199	71.75
281.431	81.75
281.662	81.75
281.894	91.75
282.125	78.75
282.356	84.75
282.588	85.75
282.819	83.75
283.051	71.75
283.282	75.75
283.513	92.75
283.745	84.75
283.976	81.75
284.207	65.75
284.439	92.75
284.67	81.75
284.901	72.75
285.132	79.75
285.364	81.75
285.595	92.75
285.826	81.75
286.057	80.75
286.288	82.75
286.52	84.75
286.751	83.75
286.982	82.75
287.213	72.75
287.444	68.75
287.675	70.75
287.906	75.75
288.138	85.75
288.369	71.75
288.6	83.75
288.831	91.75
289.062	71.75
289.293	85.75
289.524	80.75
289.755	57.75
289.986	76.75
290.217	86.75
290.448	81.75
290.679	77.75
290.91	90.75
291.141	97.75
291.371	80.75
291.602	83.75
291.833	85.75
292.064	73.75
292.295	72.75
292.526	90.75
292.757	68.75
292.987	82.75
293.218	76.75
293.449	75.75
293.68	78.75
293.91	71.75
294.141	88.75
294.372	71.75
294.603	85.75
294.833	76.75
295.064	93.75
295.295	78.75
295.525	82.75
295.756	81.75
295.987	80.75
296.217	85.75
296.448	80.75
296.679	73.75
296.909	78.75
297.14	68.75
297.37	76.75
297.601	69.75
297.831	65.75
298.062	72.75
298.292	78.75
298.523	96.75
298.753	73.75
298.984	83.75
299.214	82.75
299.445	81.75
299.675	71.75
299.905	90.75
300.136	87.75
300.366	74.75
300.597	71.75
300.827	92.75
301.057	75.75
301.288	95.75
301.518	75.75
301.748	60.75
301.979	90.75
302.209	88.75
302.439	80.75
302.669	74.75
302.9	69.75
303.13	85.75
303.36	103.75
303.59	74.75
303.82	79.75
304.051	84.75
304.281	87.75
304.511	84.75
304.741	82.75
304.971	78.75
305.201	98.75
305.431	83.75
305.661	82.75
305.891	73.75
306.121	83.75
306.352	77.75
306.582	80.75
306.812	67.75
307.042	69.75
307.272	92.75
307.502	78.75
307.731	75.75
307.961	90.75
308.191	80.75
308.421	76.75
308.651	79.75
308.881	85.75
309.111	84.75
309.341	84.75
309.571	67.75
309.8	77.75
310.03	71.75
310.26	93.75
310.49	89.75
310.72	86.75
310.949	90.75
311.179	97.75
311.409	80.75
311.639	64.75
311.868	92.75
312.098	88.75
312.328	80.75
312.557	73.75
312.787	67.75
313.017	69.75
313.246	72.75
313.476	95.75
313.706	76.75
313.935	87.75
314.165	79.75
314.394	82.75
314.624	84.75
314.853	82.75
315.083	81.75
315.312	90.75
315.542	89.75
315.771	76.75
316.001	74.75
316.23	88.75
316.46	89.75
316.689	75.75
316.919	75.75
317.148	84.75
317.377	80.75
317.607	84.75
317.836	81.75
318.065	73.75
318.295	76.75
318.524	76.75
318.753	89.75
318.983	84.75
319.212	81.75
319.441	84.75
319.67	81.75
319.9	91.75
320.129	86.75
320.358	79.75
320.587	95.75
320.816	88.75
321.046	70.75
321.275	78.75
321.504	90.75
321.733	83.75
321.962	92.75
322.191	85.75
322.42	81.75
322.649	77.75
322.878	90.75
323.108	96.75
323.337	96.75
323.566	83.75
323.795	78.75
324.024	74.75
324.253	84.75
324.482	84.75
324.71	90.75
324.939	81.75
325.168	80.75
325.397	81.75
325.626	75.75
325.855	84.75
326.084	83.75
326.313	84.75
326.542	80.75
326.77	73.75
326.999	95.75
327.228	83.75
327.457	76.75
327.686	71.75
327.914	75.75
328.143	80.75
328.372	71.75
328.6	85.75
328.829	93.75
329.058	84.75
329.287	80.75
329.515	89.75
329.744	85.75
329.972	87.75
330.201	79.75
330.43	69.75
330.658	79.75
330.887	72.75
331.115	64.75
331.344	69.75
331.572	97.75
331.801	85.75
332.03	77.75
332.258	74.75
332.486	90.75
332.715	87.75
332.943	62.75
333.172	77.75
333.4	78.75
333.629	90.75
333.857	81.75
334.085	90.75
334.314	72.75
334.542	93.75
334.771	83.75
334.999	90.75
335.227	85.75
335.455	87.75
335.684	84.75
335.912	81.75
336.14	85.75
336.369	77.75
336.597	82.75
336.825	81.75
337.053	71.75
337.281	77.75
337.51	75.75
337.738	82.75
337.966	93.75
338.194	67.75
338.422	94.75
338.65	81.75
338.878	78.75
339.106	72.75
339.334	92.75
339.562	85.75
339.79	78.75
340.018	75.75
340.246	81.75
340.474	86.75
340.702	85.75
340.93	75.75
341.158	77.75
341.386	78.75
341.614	85.75
341.842	81.75
342.07	81.75
342.298	84.75
342.526	86.75
342.754	87.75
342.981	84.75
343.209	74.75
343.437	100.75
343.665	77.75
343.893	71.75
344.12	77.75
344.348	76.75
344.576	78.75
344.804	80.75
345.031	84.75
345.259	76.75
345.487	79.75
345.714	68.75
345.942	84.75
346.17	88.75
346.397	70.75
346.625	71.75
346.853	90.75
347.08	89.75
347.308	87.75
347.535	84.75
347.763	63.75
347.99	86.75
348.218	84.75
348.445	86.75
348.673	72.75
348.9	82.75
349.128	89.75
349.355	79.75
349.583	88.75
349.81	86.75
350.037	78.75
350.265	66.75
350.492	81.75
350.72	81.75
350.947	85.75
351.174	86.75
351.402	79.75
351.629	86.75
351.856	95.75
352.083	83.75
352.311	74.75
352.538	82.75
352.765	73.75
352.992	80.75
353.22	101.75
353.447	79.75
353.674	71.75
353.901	74.75
354.128	75.75
354.355	90.75
354.583	76.75
354.81	76.75
355.037	80.75
355.264	103.75
355.491	84.75
355.718	82.75
355.945	73.75
356.172	86.75
356.399	69.75
356.626	96.75
356.853	76.75
357.08	83.75
357.307	73.75
357.534	77.75
357.761	82.75
357.988	95.75
358.215	86.75
358.441	79.75
358.668	69.75
358.895	86.75
359.122	71.75
359.349	68.75
359.576	77.75
359.802	76.75
360.029	77.75
360.256	93.75
360.483	77.75
360.709	83.75
360.936	65.75
361.163	84.75
361.39	70.75
361.616	85.75
361.843	81.75
362.07	82.75
362.296	80.75
362.523	99.75
362.749	85.75
362.976	90.75
363.203	85.75
363.429	82.75
363.656	99.75
363.882	73.75
364.109	79.75
364.335	88.75
364.562	86.75
364.788	80.75
365.015	107.75
365.241	92.75
365.468	76.75
365.694	70.75
365.92	87.75
366.147	81.75
366.373	80.75
366.599	96.75
366.826	70.75
367.052	85.75
367.278	70.75
367.505	72.75
367.731	76.75
367.957	69.75
368.184	78.75
368.41	84.75
368.636	87.75
368.862	85.75
369.089	87.75
369.315	83.75
369.541	81.75
369.767	79.75
369.993	82.75
370.219	72.75
370.445	82.75
370.672	81.75
370.898	77.75
371.124	89.75
371.35	75.75
371.576	71.75
371.802	73.75
372.028	83.75
372.254	77.75
372.48	82.75
372.706	69.75
372.932	89.75
373.158	84.75
373.384	75.75
373.61	79.75
373.835	75.75
374.061	84.75
374.287	77.75
374.513	64.75
374.739	90.75
374.965	85.75
375.191	104.75
375.416	75.75
375.642	83.75
375.868	84.75
376.094	81.75
376.319	90.75
376.545	90.75
376.771	84.75
376.997	84.75
377.222	79.75
377.448	96.75
377.674	86.75
377.899	82.75
378.125	63.75
378.35	86.75
378.576	79.75
378.802	84.75
379.027	85.75
379.253	81.75
379.478	79.75
379.704	78.75
379.929	82.75
380.155	89.75
380.38	76.75
380.606	78.75
380.831	77.75
381.057	73.75
381.282	68.75
381.507	88.75
381.733	83.75
381.958	79.75
382.184	69.75
382.409	82.75
382.634	79.75
382.86	72.75
383.085	80.75
383.31	76.75
383.535	85.75
383.761	87.75
383.986	91.75
384.211	81.75
384.436	80.75
384.662	60.75
384.887	73.75
385.112	85.75
385.337	93.75
385.562	70.75
385.787	70.75
386.013	74.75
386.238	77.75
386.463	84.75
386.688	88.75
386.913	91.75
387.138	83.75
387.363	88.75
387.588	79.75
387.813	75.75
388.038	82.75
388.263	100.75
388.488	88.75
388.713	86.75
388.938	69.75
389.163	72.75
389.387	69.75
389.612	81.75
389.837	88.75
390.062	84.75
390.287	79.75
390.512	76.75
390.736	79.75
390.961	74.75
391.186	62.75
391.411	85.75
391.636	92.75
391.86	82.75
392.085	85.75
392.31	92.75
392.534	98.75
392.759	92.75
392.984	90.75
393.208	103.75
393.433	101.75
393.658	92.75
393.882	84.75
394.107	82.75
394.331	83.75
394.556	85.75
394.78	97.75
395.005	75.75
395.229	77.75
395.454	72.75
395.678	99.75
395.903	79.75
396.127	102.75
396.352	97.75
396.576	101.75
396.801	102.75
397.025	107.75
397.249	98.75
397.474	98.75
397.698	91.75
397.922	82.75
398.147	93.75
398.371	84.75
398.595	96.75
398.82	87.75
399.044	66.75
399.268	75.75
399.492	75.75
399.717	77.75
399.941	84.75
400.165	80.75
400.389	73.75
400.613	83.75
400.837	82.75
401.062	84.75
401.286	69.75
401.51	78.75
401.734	73.75
401.958	86.75
402.182	85.75
402.406	78.75
402.63	72.75
402.854	92.75
403.078	82.75
403.302	80.75
403.526	78.75
403.75	86.75
403.974	82.75
404.198	99.75
404.422	103.75
404.645	108.75
404.869	104.75
405.093	95.75
405.317	91.75
405.541	74.75
405.765	73.75
405.988	100.75
406.212	71.75
406.436	79.75
406.66	67.75
406.883	74.75
407.107	74.75
407.331	88.75
407.555	81.75
407.778	89.75
408.002	82.75
408.226	99.75
408.449	69.75
408.673	86.75
408.896	74.75
409.12	72.75
409.344	79.75
409.567	72.75
409.791	83.75
410.014	83.75
410.238	85.75
410.461	67.75
410.685	75.75
410.908	75.75
411.132	71.75
411.355	64.75
411.578	92.75
411.802	86.75
412.025	77.75
412.249	85.75
412.472	68.75
412.695	85.75
412.919	74.75
413.142	84.75
413.365	93.75
413.589	82.75
413.812	82.75
414.035	85.75
414.258	90.75
414.482	78.75
414.705	77.75
414.928	86.75
415.151	78.75
415.374	70.75
415.597	84.75
415.821	82.75
416.044	88.75
416.267	91.75
416.49	88.75
416.713	75.75
416.936	75.75
417.159	79.75
417.382	72.75
417.605	84.75
417.828	65.75
418.051	82.75
418.274	81.75
418.497	79.75
418.72	70.75
418.943	71.75
419.166	68.75
419.389	81.75
419.611	91.75
419.834	76.75
420.057	77.75
420.28	84.75
420.503	95.75
420.726	85.75
420.948	84.75
421.171	89.75
421.394	60.75
421.617	77.75
421.839	87.75
422.062	100.75
422.285	111.75
422.507	110.75
422.73	132.75
422.953	123.75
423.175	81.75
423.398	84.75
423.621	82.75
423.843	80.75
424.066	75.75
424.288	63.75
424.511	86.75
424.733	86.75
424.956	86.75
425.178	72.75
425.401	70.75
425.623	69.75
425.846	79.75
426.068	71.75
426.291	80.75
426.513	79.75
426.735	95.75
426.958	81.75
427.18	85.75
427.402	97.75
427.625	81.75
427.847	81.75
428.069	93.75
428.292	96.75
428.514	86.75
428.736	90.75
428.958	89.75
429.181	89.75
429.403	58.75
429.625	81.75
429.847	76.75
430.069	96.75
430.292	107.75
430.514	96.75
430.736	87.75
430.958	98.75
431.18	83.75
431.402	77.75
431.624	76.75
431.846	90.75
432.068	89.75
432.29	85.75
432.512	89.75
432.734	81.75
432.956	82.75
433.178	87.75
433.4	84.75
433.622	77.75
433.844	66.75
434.066	79.75
434.287	76.75
434.509	84.75
434.731	92.75
434.953	80.75
435.175	79.75
435.397	91.75
435.618	66.75
435.84	58.75
436.062	75.75
436.284	64.75
436.505	73.75
436.727	82.75
436.949	74.75
437.17	68.75
437.392	74.75
437.614	85.75
437.835	84.75
438.057	67.75
438.278	73.75
438.5	79.75
438.721	85.75
438.943	84.75
439.165	98.75
439.386	79.75
439.608	75.75
439.829	67.75
440.05	85.75
440.272	75.75
440.493	71.75
440.715	74.75
440.936	68.75
441.158	85.75
441.379	87.75
441.6	93.75
441.822	76.75
442.043	72.75
442.264	77.75
442.486	84.75
442.707	103.75
442.928	92.75
443.149	76.75
443.371	89.75
443.592	116.75
443.813	105.75
444.034	76.75
444.255	81.75
444.476	63.75
444.698	76.75
444.919	81.75
445.14	141.75
445.361	121.75
445.582	118.75
445.803	110.75
446.024	88.75
446.245	77.75
446.466	91.75
446.687	71.75
446.908	82.75
447.129	77.75
447.35	82.75
447.571	70.75
447.792	80.75
448.013	79.75
448.234	91.75
448.455	78.75
448.675	64.75
448.896	79.75
449.117	71.75
449.338	71.75
449.559	83.75
449.779	87.75
450	76.75
450.221	81.75
450.442	74.75
450.662	76.75
450.883	79.75
451.104	93.75
451.324	76.75
451.545	69.75
451.766	98.75
451.986	85.75
452.207	85.75
452.428	86.75
452.648	85.75
452.869	81.75
453.089	67.75
453.31	87.75
453.53	73.75
453.751	79.75
453.971	98.75
454.192	76.75
454.412	97.75
454.633	76.75
454.853	74.75
455.073	81.75
455.294	61.75
455.514	85.75
455.734	68.75
455.955	71.75
456.175	76.75
456.395	87.75
456.616	83.75
456.836	94.75
457.056	84.75
457.276	85.75
457.497	87.75
457.717	79.75
457.937	69.75
458.157	80.75
458.377	79.75
458.598	76.75
458.818	78.75
459.038	85.75
459.258	81.75
459.478	76.75
459.698	76.75
459.918	87.75
460.138	85.75
460.358	88.75
460.578	82.75
460.798	87.75
461.018	88.75
461.238	66.75
461.458	81.75
461.678	77.75
461.898	85.75
462.118	75.75
462.338	78.75
462.558	84.75
462.777	84.75
462.997	77.75
463.217	71.75
463.437	63.75
463.657	84.75
463.876	73.75
464.096	98.75
464.316	98.75
464.536	71.75
464.755	91.75
464.975	82.75
465.195	91.75
465.414	73.75
465.634	74.75
465.854	77.75
466.073	95.75
466.293	81.75
466.512	87.75
466.732	82.75
466.951	85.75
467.171	76.75
467.391	80.75
467.61	84.75
467.829	86.75
468.049	76.75
468.268	71.75
468.488	71.75
468.707	91.75
468.927	84.75
469.146	78.75
469.365	95.75
469.585	85.75
469.804	75.75
470.023	68.75
470.243	79.75
470.462	81.75
470.681	87.75
470.901	97.75
471.12	101.75
471.339	83.75
471.558	76.75
471.777	95.75
471.997	73.75
472.216	86.75
472.435	87.75
472.654	76.75
472.873	74.75
473.092	84.75
473.311	79.75
473.53	84.75
473.749	85.75
473.968	88.75
474.187	105.75
474.406	66.75
474.625	82.75
474.844	91.75
475.063	72.75
475.282	81.75
475.501	73.75
475.72	74.75
475.939	83.75
476.158	82.75
476.377	76.75
476.596	76.75
476.814	87.75
477.033	85.75
477.252	85.75
477.471	96.75
477.69	77.75
477.908	68.75
478.127	91.75
478.346	87.75
478.564	85.75
478.783	85.75
479.002	80.75
479.22	87.75
479.439	96.75
479.658	89.75
479.876	89.75
480.095	84.75
480.313	79.75
480.532	88.75
480.751	71.75
480.969	86.75
481.188	91.75
481.406	87.75
481.624	81.75
481.843	93.75
482.061	83.75
482.28	97.75
482.498	88.75
482.717	91.75
482.935	72.75
483.153	76.75
483.372	83.75
483.59	89.75
483.808	87.75
484.027	79.75
484.245	81.75
484.463	83.75
484.681	85.75
484.9	83.75
485.118	69.75
485.336	84.75
485.554	80.75
485.772	84.75
485.99	60.75
486.209	102.75
486.427	75.75
486.645	80.75
486.863	56.75
487.081	74.75
487.299	74.75
487.517	72.75
487.735	95.75
487.953	78.75
488.171	100.75
488.389	88.75
488.607	72.75
488.825	80.75
489.043	91.75
489.261	76.75
489.479	74.75
489.696	86.75
489.914	67.75
490.132	74.75
490.35	74.75
490.568	56.75
490.786	83.75
491.003	82.75
491.221	95.75
491.439	88.75
491.657	80.75
491.874	95.75
492.092	83.75
492.31	83.75
492.527	80.75
492.745	81.75
492.963	77.75
493.18	71.75
493.398	82.75
493.615	78.75
493.833	89.75
494.05	74.75
494.268	72.75
494.485	91.75
494.703	91.75
494.92	70.75
495.138	76.75
495.355	68.75
495.573	74.75
495.79	76.75
496.008	99.75
496.225	77.75
496.442	86.75
496.66	71.75
496.877	73.75
497.094	88.75
497.312	83.75
497.529	83.75
497.746	81.75
497.963	83.75
498.181	79.75
498.398	88.75
498.615	90.75
498.832	82.75
499.049	70.75
499.267	85.75
499.484	90.75
499.701	99.75
499.918	71.75
500.135	77.75
500.352	87.75
500.569	78.75
500.786	77.75
501.003	77.75
501.22	56.75
501.437	81.75
501.654	85.75
501.871	88.75
502.088	70.75
502.305	84.75
502.522	67.75
502.739	78.75
502.956	79.75
503.172	77.75
503.389	82.75
503.606	68.75
503.823	81.75
504.04	90.75
504.256	90.75
504.473	74.75
504.69	87.75
504.907	83.75
505.123	77.75
505.34	86.75
505.557	88.75
505.773	77.75
505.99	73.75
506.207	79.75
506.423	69.75
506.64	78.75
506.856	84.75
507.073	78.75
507.289	85.75
507.506	83.75
507.722	84.75
507.939	85.75
508.155	86.75
508.372	79.75
508.588	92.75
508.805	80.75
509.021	77.75
509.238	81.75
509.454	75.75
509.67	73.75
509.887	92.75
510.103	81.75
510.319	79.75
510.536	87.75
510.752	74.75
510.968	79.75
511.184	77.75
511.401	83.75
511.617	80.75
511.833	83.75
512.049	78.75
512.265	71.75
512.481	71.75
512.698	85.75
512.914	82.75
513.13	77.75
513.346	69.75
513.562	97.75
513.778	80.75
513.994	93.75
514.21	89.75
514.426	73.75
514.642	86.75
514.858	69.75
515.074	90.75
515.29	87.75
515.506	73.75
515.721	77.75
515.937	75.75
516.153	84.75
516.369	77.75
516.585	87.75
516.801	75.75
517.016	80.75
517.232	84.75
517.448	69.75
517.664	84.75
517.879	92.75
518.095	73.75
518.311	74.75
518.527	86.75
518.742	88.75
518.958	94.75
519.173	90.75
519.389	82.75
519.605	96.75
519.82	78.75
