Data from Mixheat2_HRD10591_00018.txt Node
Date: Fri Dec 27 15:09:21 EST 2024
User: Yrep
Spectrometer: HR+D1059
Trigger mode: 1
Integration Time (sec): 1.000000E-1
Scans to average: 1
Electric dark correction enabled: true
Nonlinearity correction enabled: false
Boxcar width: 0
XAxis mode: Wavelengths
Number of Pixels in Spectrum: 2048
>>>>>Begin Spectral Data<<<<<
223.165	-21.25
223.4	-21.25
223.635	-21.25
223.869	-17.25
224.104	-14.25
224.338	-18.25
224.573	-15.25
224.808	-8.25
225.042	-9.25
225.277	-9.25
225.511	-10.25
225.746	4.75
225.98	4.75
226.215	14.75
226.449	11.75
226.683	10.75
226.918	36.75
227.152	39.75
227.387	41.75
227.621	42.75
227.856	40.75
228.09	44.75
228.324	48.75
228.559	62.75
228.793	55.75
229.027	60.75
229.262	77.75
229.496	57.75
229.73	67.75
229.964	75.75
230.199	68.75
230.433	69.75
230.667	72.75
230.901	68.75
231.136	60.75
231.37	81.75
231.604	98.75
231.838	78.75
232.072	66.75
232.306	74.75
232.541	78.75
232.775	78.75
233.009	79.75
233.243	80.75
233.477	79.75
233.711	73.75
233.945	67.75
234.179	75.75
234.413	86.75
234.647	98.75
234.881	72.75
235.115	76.75
235.349	59.75
235.583	74.75
235.817	62.75
236.051	75.75
236.285	65.75
236.519	74.75
236.753	75.75
236.987	78.75
237.221	69.75
237.455	82.75
237.689	75.75
237.922	54.75
238.156	86.75
238.39	69.75
238.624	64.75
238.858	80.75
239.091	75.75
239.325	80.75
239.559	75.75
239.793	76.75
240.027	67.75
240.26	63.75
240.494	83.75
240.728	71.75
240.961	80.75
241.195	65.75
241.429	71.75
241.662	67.75
241.896	75.75
242.13	73.75
242.363	70.75
242.597	82.75
242.83	79.75
243.064	83.75
243.298	83.75
243.531	83.75
243.765	83.75
243.998	81.75
244.232	82.75
244.465	85.75
244.699	72.75
244.932	73.75
245.166	75.75
245.399	72.75
245.633	79.75
245.866	84.75
246.099	66.75
246.333	91.75
246.566	78.75
246.8	68.75
247.033	79.75
247.266	69.75
247.5	82.75
247.733	72.75
247.966	84.75
248.2	70.75
248.433	65.75
248.666	66.75
248.899	86.75
249.133	78.75
249.366	81.75
249.599	80.75
249.832	68.75
250.066	80.75
250.299	73.75
250.532	84.75
250.765	75.75
250.998	80.75
251.231	78.75
251.465	76.75
251.698	73.75
251.931	72.75
252.164	69.75
252.397	79.75
252.63	75.75
252.863	84.75
253.096	54.75
253.329	88.75
253.562	56.75
253.795	79.75
254.028	88.75
254.261	75.75
254.494	92.75
254.727	91.75
254.96	76.75
255.193	89.75
255.426	74.75
255.659	67.75
255.892	74.75
256.124	74.75
256.357	95.75
256.59	87.75
256.823	84.75
257.056	84.75
257.289	80.75
257.521	86.75
257.754	63.75
257.987	76.75
258.22	58.75
258.452	72.75
258.685	64.75
258.918	82.75
259.151	70.75
259.383	70.75
259.616	83.75
259.849	90.75
260.081	84.75
260.314	73.75
260.547	74.75
260.779	89.75
261.012	73.75
261.244	77.75
261.477	76.75
261.71	74.75
261.942	79.75
262.175	82.75
262.407	81.75
262.64	79.75
262.872	74.75
263.105	60.75
263.337	85.75
263.57	71.75
263.802	82.75
264.035	85.75
264.267	82.75
264.499	78.75
264.732	87.75
264.964	87.75
265.197	83.75
265.429	94.75
265.661	68.75
265.894	79.75
266.126	84.75
266.358	78.75
266.591	89.75
266.823	85.75
267.055	69.75
267.287	71.75
267.52	74.75
267.752	74.75
267.984	76.75
268.216	82.75
268.448	79.75
268.681	86.75
268.913	83.75
269.145	88.75
269.377	91.75
269.609	64.75
269.841	83.75
270.073	89.75
270.306	83.75
270.538	73.75
270.77	73.75
271.002	80.75
271.234	84.75
271.466	86.75
271.698	78.75
271.93	91.75
272.162	84.75
272.394	86.75
272.626	84.75
272.858	74.75
273.09	86.75
273.322	92.75
273.553	93.75
273.785	86.75
274.017	72.75
274.249	87.75
274.481	76.75
274.713	76.75
274.945	75.75
275.176	69.75
275.408	84.75
275.64	88.75
275.872	73.75
276.104	71.75
276.335	78.75
276.567	80.75
276.799	68.75
277.031	74.75
277.262	70.75
277.494	94.75
277.726	90.75
277.957	77.75
278.189	72.75
278.421	83.75
278.652	77.75
278.884	82.75
279.115	77.75
279.347	82.75
279.579	79.75
279.81	82.75
280.042	72.75
280.273	66.75
280.505	77.75
280.736	84.75
280.968	78.75
281.199	77.75
281.431	94.75
281.662	81.75
281.894	81.75
282.125	81.75
282.356	71.75
282.588	72.75
282.819	77.75
283.051	81.75
283.282	78.75
283.513	81.75
283.745	66.75
283.976	74.75
284.207	81.75
284.439	84.75
284.67	79.75
284.901	91.75
285.132	76.75
285.364	69.75
285.595	88.75
285.826	88.75
286.057	91.75
286.288	83.75
286.52	84.75
286.751	75.75
286.982	78.75
287.213	90.75
287.444	83.75
287.675	74.75
287.906	95.75
288.138	84.75
288.369	84.75
288.6	83.75
288.831	73.75
289.062	72.75
289.293	78.75
289.524	70.75
289.755	87.75
289.986	86.75
290.217	104.75
290.448	77.75
290.679	88.75
290.91	67.75
291.141	95.75
291.371	79.75
291.602	81.75
291.833	82.75
292.064	86.75
292.295	94.75
292.526	99.75
292.757	90.75
292.987	80.75
293.218	79.75
293.449	92.75
293.68	77.75
293.91	79.75
294.141	86.75
294.372	85.75
294.603	86.75
294.833	79.75
295.064	62.75
295.295	84.75
295.525	82.75
295.756	68.75
295.987	75.75
296.217	83.75
296.448	88.75
296.679	78.75
296.909	76.75
297.14	77.75
297.37	74.75
297.601	74.75
297.831	94.75
298.062	75.75
298.292	78.75
298.523	84.75
298.753	64.75
298.984	79.75
299.214	84.75
299.445	103.75
299.675	85.75
299.905	83.75
300.136	77.75
300.366	83.75
300.597	77.75
300.827	91.75
301.057	80.75
301.288	83.75
301.518	77.75
301.748	75.75
301.979	100.75
302.209	84.75
302.439	72.75
302.669	81.75
302.9	88.75
303.13	92.75
303.36	91.75
303.59	88.75
303.82	87.75
304.051	90.75
304.281	71.75
304.511	88.75
304.741	79.75
304.971	75.75
305.201	68.75
305.431	87.75
305.661	69.75
305.891	81.75
306.121	86.75
306.352	89.75
306.582	91.75
306.812	83.75
307.042	81.75
307.272	84.75
307.502	72.75
307.731	84.75
307.961	75.75
308.191	76.75
308.421	74.75
308.651	87.75
308.881	94.75
309.111	81.75
309.341	91.75
309.571	86.75
309.8	81.75
310.03	81.75
310.26	82.75
310.49	86.75
310.72	71.75
310.949	85.75
311.179	71.75
311.409	72.75
311.639	79.75
311.868	85.75
312.098	93.75
312.328	77.75
312.557	83.75
312.787	71.75
313.017	80.75
313.246	84.75
313.476	99.75
313.706	86.75
313.935	79.75
314.165	79.75
314.394	67.75
314.624	82.75
314.853	76.75
315.083	84.75
315.312	78.75
315.542	71.75
315.771	79.75
316.001	85.75
316.23	84.75
316.46	73.75
316.689	78.75
316.919	77.75
317.148	80.75
317.377	89.75
317.607	87.75
317.836	84.75
318.065	83.75
318.295	74.75
318.524	89.75
318.753	77.75
318.983	69.75
319.212	88.75
319.441	83.75
319.67	65.75
319.9	80.75
320.129	75.75
320.358	91.75
320.587	71.75
320.816	71.75
321.046	76.75
321.275	76.75
321.504	75.75
321.733	76.75
321.962	93.75
322.191	64.75
322.42	82.75
322.649	75.75
322.878	90.75
323.108	84.75
323.337	95.75
323.566	88.75
323.795	75.75
324.024	76.75
324.253	80.75
324.482	73.75
324.71	66.75
324.939	78.75
325.168	99.75
325.397	77.75
325.626	87.75
325.855	85.75
326.084	75.75
326.313	85.75
326.542	100.75
326.77	80.75
326.999	87.75
327.228	79.75
327.457	82.75
327.686	90.75
327.914	65.75
328.143	86.75
328.372	69.75
328.6	69.75
328.829	92.75
329.058	67.75
329.287	72.75
329.515	79.75
329.744	92.75
329.972	103.75
330.201	82.75
330.43	83.75
330.658	95.75
330.887	80.75
331.115	82.75
331.344	80.75
331.572	73.75
331.801	74.75
332.03	80.75
332.258	74.75
332.486	92.75
332.715	97.75
332.943	88.75
333.172	68.75
333.4	81.75
333.629	93.75
333.857	87.75
334.085	84.75
334.314	90.75
334.542	85.75
334.771	92.75
334.999	92.75
335.227	80.75
335.455	77.75
335.684	83.75
335.912	82.75
336.14	79.75
336.369	86.75
336.597	88.75
336.825	93.75
337.053	96.75
337.281	85.75
337.51	82.75
337.738	78.75
337.966	90.75
338.194	80.75
338.422	74.75
338.65	83.75
338.878	89.75
339.106	92.75
339.334	89.75
339.562	85.75
339.79	84.75
340.018	75.75
340.246	88.75
340.474	96.75
340.702	88.75
340.93	79.75
341.158	91.75
341.386	83.75
341.614	82.75
341.842	94.75
342.07	83.75
342.298	77.75
342.526	70.75
342.754	81.75
342.981	81.75
343.209	87.75
343.437	84.75
343.665	79.75
343.893	77.75
344.12	76.75
344.348	103.75
344.576	87.75
344.804	85.75
345.031	84.75
345.259	79.75
345.487	97.75
345.714	76.75
345.942	93.75
346.17	92.75
346.397	85.75
346.625	86.75
346.853	95.75
347.08	86.75
347.308	88.75
347.535	71.75
347.763	85.75
347.99	92.75
348.218	80.75
348.445	87.75
348.673	90.75
348.9	79.75
349.128	90.75
349.355	75.75
349.583	71.75
349.81	82.75
350.037	83.75
350.265	79.75
350.492	84.75
350.72	75.75
350.947	83.75
351.174	79.75
351.402	87.75
351.629	95.75
351.856	80.75
352.083	84.75
352.311	81.75
352.538	70.75
352.765	73.75
352.992	83.75
353.22	80.75
353.447	80.75
353.674	71.75
353.901	82.75
354.128	85.75
354.355	70.75
354.583	94.75
354.81	84.75
355.037	85.75
355.264	93.75
355.491	77.75
355.718	71.75
355.945	86.75
356.172	84.75
356.399	88.75
356.626	89.75
356.853	80.75
357.08	90.75
357.307	88.75
357.534	83.75
357.761	94.75
357.988	103.75
358.215	82.75
358.441	84.75
358.668	85.75
358.895	75.75
359.122	79.75
359.349	81.75
359.576	71.75
359.802	76.75
360.029	88.75
360.256	81.75
360.483	71.75
360.709	82.75
360.936	70.75
361.163	74.75
361.39	94.75
361.616	71.75
361.843	106.75
362.07	86.75
362.296	79.75
362.523	78.75
362.749	93.75
362.976	92.75
363.203	79.75
363.429	74.75
363.656	68.75
363.882	86.75
364.109	86.75
364.335	78.75
364.562	79.75
364.788	78.75
365.015	88.75
365.241	81.75
365.468	85.75
365.694	61.75
365.92	93.75
366.147	90.75
366.373	94.75
366.599	83.75
366.826	98.75
367.052	72.75
367.278	84.75
367.505	80.75
367.731	80.75
367.957	80.75
368.184	70.75
368.41	87.75
368.636	85.75
368.862	76.75
369.089	76.75
369.315	77.75
369.541	84.75
369.767	75.75
369.993	82.75
370.219	80.75
370.445	78.75
370.672	82.75
370.898	73.75
371.124	86.75
371.35	79.75
371.576	99.75
371.802	86.75
372.028	70.75
372.254	80.75
372.48	76.75
372.706	94.75
372.932	80.75
373.158	86.75
373.384	81.75
373.61	87.75
373.835	93.75
374.061	80.75
374.287	83.75
374.513	93.75
374.739	88.75
374.965	85.75
375.191	91.75
375.416	69.75
375.642	93.75
375.868	91.75
376.094	86.75
376.319	91.75
376.545	79.75
376.771	83.75
376.997	74.75
377.222	83.75
377.448	82.75
377.674	92.75
377.899	80.75
378.125	74.75
378.35	91.75
378.576	91.75
378.802	76.75
379.027	82.75
379.253	80.75
379.478	73.75
379.704	82.75
379.929	70.75
380.155	82.75
380.38	75.75
380.606	74.75
380.831	81.75
381.057	87.75
381.282	87.75
381.507	80.75
381.733	85.75
381.958	78.75
382.184	74.75
382.409	70.75
382.634	93.75
382.86	90.75
383.085	85.75
383.31	91.75
383.535	88.75
383.761	82.75
383.986	86.75
384.211	84.75
384.436	72.75
384.662	81.75
384.887	70.75
385.112	80.75
385.337	91.75
385.562	79.75
385.787	90.75
386.013	77.75
386.238	89.75
386.463	84.75
386.688	95.75
386.913	86.75
387.138	67.75
387.363	86.75
387.588	79.75
387.813	85.75
388.038	79.75
388.263	94.75
388.488	77.75
388.713	86.75
388.938	80.75
389.163	86.75
389.387	77.75
389.612	87.75
389.837	86.75
390.062	93.75
390.287	77.75
390.512	84.75
390.736	82.75
390.961	80.75
391.186	89.75
391.411	80.75
391.636	70.75
391.86	87.75
392.085	85.75
392.31	89.75
392.534	84.75
392.759	100.75
392.984	93.75
393.208	109.75
393.433	114.75
393.658	102.75
393.882	71.75
394.107	82.75
394.331	94.75
394.556	86.75
394.78	90.75
395.005	75.75
395.229	80.75
395.454	81.75
395.678	85.75
395.903	87.75
396.127	85.75
396.352	110.75
396.576	108.75
396.801	107.75
397.025	117.75
397.249	108.75
397.474	104.75
397.698	92.75
397.922	88.75
398.147	93.75
398.371	79.75
398.595	88.75
398.82	79.75
399.044	86.75
399.268	77.75
399.492	88.75
399.717	89.75
399.941	82.75
400.165	83.75
400.389	74.75
400.613	77.75
400.837	82.75
401.062	75.75
401.286	75.75
401.51	87.75
401.734	83.75
401.958	72.75
402.182	90.75
402.406	74.75
402.63	81.75
402.854	76.75
403.078	77.75
403.302	82.75
403.526	78.75
403.75	92.75
403.974	84.75
404.198	97.75
404.422	98.75
404.645	125.75
404.869	106.75
405.093	91.75
405.317	73.75
405.541	67.75
405.765	84.75
405.988	84.75
406.212	77.75
406.436	64.75
406.66	84.75
406.883	85.75
407.107	90.75
407.331	87.75
407.555	89.75
407.778	84.75
408.002	87.75
408.226	85.75
408.449	75.75
408.673	81.75
408.896	76.75
409.12	85.75
409.344	79.75
409.567	85.75
409.791	83.75
410.014	86.75
410.238	73.75
410.461	87.75
410.685	79.75
410.908	76.75
411.132	80.75
411.355	89.75
411.578	75.75
411.802	94.75
412.025	80.75
412.249	80.75
412.472	74.75
412.695	94.75
412.919	86.75
413.142	79.75
413.365	79.75
413.589	91.75
413.812	84.75
414.035	79.75
414.258	94.75
414.482	93.75
414.705	96.75
414.928	71.75
415.151	76.75
415.374	83.75
415.597	77.75
415.821	85.75
416.044	90.75
416.267	84.75
416.49	88.75
416.713	95.75
416.936	73.75
417.159	89.75
417.382	89.75
417.605	85.75
417.828	85.75
418.051	75.75
418.274	73.75
418.497	90.75
418.72	83.75
418.943	70.75
419.166	82.75
419.389	87.75
419.611	90.75
419.834	82.75
420.057	91.75
420.28	88.75
420.503	77.75
420.726	78.75
420.948	83.75
421.171	66.75
421.394	82.75
421.617	88.75
421.839	78.75
422.062	91.75
422.285	111.75
422.507	126.75
422.73	143.75
422.953	132.75
423.175	103.75
423.398	103.75
423.621	84.75
423.843	83.75
424.066	67.75
424.288	88.75
424.511	83.75
424.733	80.75
424.956	73.75
425.178	85.75
425.401	80.75
425.623	82.75
425.846	80.75
426.068	82.75
426.291	86.75
426.513	79.75
426.735	82.75
426.958	92.75
427.18	72.75
427.402	80.75
427.625	84.75
427.847	83.75
428.069	92.75
428.292	97.75
428.514	98.75
428.736	87.75
428.958	101.75
429.181	94.75
429.403	83.75
429.625	92.75
429.847	88.75
430.069	101.75
430.292	118.75
430.514	86.75
430.736	81.75
430.958	88.75
431.18	84.75
431.402	75.75
431.624	88.75
431.846	77.75
432.068	79.75
432.29	81.75
432.512	94.75
432.734	84.75
432.956	84.75
433.178	80.75
433.4	78.75
433.622	84.75
433.844	77.75
434.066	70.75
434.287	67.75
434.509	68.75
434.731	84.75
434.953	86.75
435.175	93.75
435.397	80.75
435.618	67.75
435.84	77.75
436.062	82.75
436.284	74.75
436.505	87.75
436.727	84.75
436.949	79.75
437.17	78.75
437.392	71.75
437.614	79.75
437.835	71.75
438.057	63.75
438.278	86.75
438.5	70.75
438.721	71.75
438.943	72.75
439.165	85.75
439.386	85.75
439.608	84.75
439.829	84.75
440.05	63.75
440.272	74.75
440.493	88.75
440.715	86.75
440.936	93.75
441.158	87.75
441.379	101.75
441.6	85.75
441.822	79.75
442.043	100.75
442.264	99.75
442.486	87.75
442.707	80.75
442.928	93.75
443.149	84.75
443.371	108.75
443.592	118.75
443.813	104.75
444.034	104.75
444.255	90.75
444.476	77.75
444.698	108.75
444.919	76.75
445.14	147.75
445.361	133.75
445.582	132.75
445.803	118.75
446.024	102.75
446.245	82.75
446.466	85.75
446.687	77.75
446.908	76.75
447.129	80.75
447.35	88.75
447.571	89.75
447.792	75.75
448.013	83.75
448.234	78.75
448.455	81.75
448.675	83.75
448.896	80.75
449.117	100.75
449.338	94.75
449.559	74.75
449.779	69.75
450	93.75
450.221	92.75
450.442	78.75
450.662	88.75
450.883	82.75
451.104	91.75
451.324	82.75
451.545	85.75
451.766	77.75
451.986	74.75
452.207	71.75
452.428	85.75
452.648	82.75
452.869	88.75
453.089	81.75
453.31	81.75
453.53	82.75
453.751	78.75
453.971	70.75
454.192	80.75
454.412	88.75
454.633	82.75
454.853	90.75
455.073	82.75
455.294	93.75
455.514	77.75
455.734	80.75
455.955	91.75
456.175	73.75
456.395	76.75
456.616	86.75
456.836	72.75
457.056	72.75
457.276	76.75
457.497	90.75
457.717	84.75
457.937	108.75
458.157	90.75
458.377	94.75
458.598	81.75
458.818	85.75
459.038	85.75
459.258	76.75
459.478	75.75
459.698	85.75
459.918	99.75
460.138	81.75
460.358	77.75
460.578	95.75
460.798	101.75
461.018	92.75
461.238	100.75
461.458	76.75
461.678	84.75
461.898	83.75
462.118	77.75
462.338	89.75
462.558	91.75
462.777	82.75
462.997	72.75
463.217	79.75
463.437	82.75
463.657	76.75
463.876	71.75
464.096	82.75
464.316	77.75
464.536	90.75
464.755	91.75
464.975	77.75
465.195	84.75
465.414	76.75
465.634	86.75
465.854	65.75
466.073	91.75
466.293	84.75
466.512	95.75
466.732	86.75
466.951	84.75
467.171	87.75
467.391	78.75
467.61	84.75
467.829	92.75
468.049	78.75
468.268	79.75
468.488	77.75
468.707	78.75
468.927	92.75
469.146	73.75
469.365	95.75
469.585	75.75
469.804	71.75
470.023	81.75
470.243	79.75
470.462	89.75
470.681	102.75
470.901	84.75
471.12	95.75
471.339	84.75
471.558	82.75
471.777	88.75
471.997	82.75
472.216	82.75
472.435	93.75
472.654	68.75
472.873	78.75
473.092	78.75
473.311	84.75
473.53	86.75
473.749	90.75
473.968	102.75
474.187	64.75
474.406	83.75
474.625	82.75
474.844	70.75
475.063	87.75
475.282	91.75
475.501	81.75
475.72	85.75
475.939	85.75
476.158	103.75
476.377	74.75
476.596	83.75
476.814	79.75
477.033	75.75
477.252	79.75
477.471	82.75
477.69	74.75
477.908	87.75
478.127	80.75
478.346	71.75
478.564	80.75
478.783	81.75
479.002	68.75
479.22	77.75
479.439	79.75
479.658	71.75
479.876	95.75
480.095	66.75
480.313	61.75
480.532	63.75
480.751	94.75
480.969	80.75
481.188	93.75
481.406	88.75
481.624	84.75
481.843	83.75
482.061	83.75
482.28	83.75
482.498	76.75
482.717	74.75
482.935	92.75
483.153	74.75
483.372	88.75
483.59	99.75
483.808	82.75
484.027	80.75
484.245	87.75
484.463	70.75
484.681	83.75
484.9	76.75
485.118	64.75
485.336	82.75
485.554	68.75
485.772	68.75
485.99	67.75
486.209	88.75
486.427	69.75
486.645	77.75
486.863	84.75
487.081	82.75
487.299	89.75
487.517	83.75
487.735	89.75
487.953	87.75
488.171	94.75
488.389	82.75
488.607	94.75
488.825	80.75
489.043	95.75
489.261	98.75
489.479	84.75
489.696	96.75
489.914	83.75
490.132	72.75
490.35	79.75
490.568	84.75
490.786	86.75
491.003	73.75
491.221	87.75
491.439	91.75
491.657	76.75
491.874	74.75
492.092	78.75
492.31	91.75
492.527	81.75
492.745	87.75
492.963	84.75
493.18	68.75
493.398	99.75
493.615	84.75
493.833	84.75
494.05	86.75
494.268	75.75
494.485	76.75
494.703	79.75
494.92	80.75
495.138	92.75
495.355	83.75
495.573	95.75
495.79	75.75
496.008	79.75
496.225	83.75
496.442	82.75
496.66	80.75
496.877	84.75
497.094	90.75
497.312	77.75
497.529	70.75
497.746	69.75
497.963	83.75
498.181	74.75
498.398	78.75
498.615	83.75
498.832	77.75
499.049	65.75
499.267	80.75
499.484	85.75
499.701	86.75
499.918	87.75
500.135	92.75
500.352	87.75
500.569	81.75
500.786	97.75
501.003	96.75
501.22	81.75
501.437	91.75
501.654	88.75
501.871	77.75
502.088	76.75
502.305	79.75
502.522	70.75
502.739	95.75
502.956	82.75
503.172	75.75
503.389	83.75
503.606	82.75
503.823	83.75
504.04	95.75
504.256	96.75
504.473	87.75
504.69	99.75
504.907	68.75
505.123	83.75
505.34	74.75
505.557	86.75
505.773	85.75
505.99	97.75
506.207	92.75
506.423	74.75
506.64	86.75
506.856	84.75
507.073	81.75
507.289	73.75
507.506	92.75
507.722	89.75
507.939	75.75
508.155	84.75
508.372	79.75
508.588	91.75
508.805	79.75
509.021	75.75
509.238	90.75
509.454	77.75
509.67	70.75
509.887	78.75
510.103	69.75
510.319	82.75
510.536	80.75
510.752	81.75
510.968	84.75
511.184	91.75
511.401	74.75
511.617	86.75
511.833	94.75
512.049	78.75
512.265	82.75
512.481	84.75
512.698	83.75
512.914	81.75
513.13	82.75
513.346	87.75
513.562	78.75
513.778	90.75
513.994	85.75
514.21	81.75
514.426	63.75
514.642	91.75
514.858	85.75
515.074	78.75
515.29	76.75
515.506	82.75
515.721	73.75
515.937	86.75
516.153	87.75
516.369	88.75
516.585	87.75
516.801	88.75
517.016	78.75
517.232	82.75
517.448	85.75
517.664	86.75
517.879	85.75
518.095	101.75
518.311	80.75
518.527	91.75
518.742	92.75
518.958	92.75
519.173	94.75
519.389	78.75
519.605	80.75
