Data from Mixheat2_HRD10591_00002.txt Node
Date: Fri Dec 27 15:09:05 EST 2024
User: Yrep
Spectrometer: HR+D1059
Trigger mode: 1
Integration Time (sec): 1.000000E-1
Scans to average: 1
Electric dark correction enabled: true
Nonlinearity correction enabled: false
Boxcar width: 0
XAxis mode: Wavelengths
Number of Pixels in Spectrum: 2048
>>>>>Begin Spectral Data<<<<<
223.165	-5.44
223.4	-5.44
223.635	-5.44
223.869	-18.44
224.104	-26.44
224.338	-11.44
224.573	-16.44
224.808	-6.44
225.042	-23.44
225.277	2.56
225.511	-10.44
225.746	13.56
225.98	7.56
226.215	14.56
226.449	3.56
226.683	11.56
226.918	27.56
227.152	37.56
227.387	17.56
227.621	31.56
227.856	49.56
228.09	63.56
228.324	56.56
228.559	61.56
228.793	55.56
229.027	70.56
229.262	62.56
229.496	72.56
229.73	77.56
229.964	74.56
230.199	66.56
230.433	78.56
230.667	78.56
230.901	74.56
231.136	78.56
231.37	81.56
231.604	72.56
231.838	74.56
232.072	91.56
232.306	84.56
232.541	78.56
232.775	78.56
233.009	83.56
233.243	73.56
233.477	99.56
233.711	79.56
233.945	81.56
234.179	68.56
234.413	81.56
234.647	73.56
234.881	73.56
235.115	73.56
235.349	85.56
235.583	86.56
235.817	77.56
236.051	88.56
236.285	79.56
236.519	78.56
236.753	103.56
236.987	73.56
237.221	91.56
237.455	86.56
237.689	66.56
237.922	85.56
238.156	84.56
238.39	83.56
238.624	75.56
238.858	78.56
239.091	81.56
239.325	85.56
239.559	66.56
239.793	87.56
240.027	82.56
240.26	93.56
240.494	87.56
240.728	63.56
240.961	66.56
241.195	75.56
241.429	83.56
241.662	75.56
241.896	83.56
242.13	88.56
242.363	80.56
242.597	81.56
242.83	78.56
243.064	70.56
243.298	74.56
243.531	85.56
243.765	85.56
243.998	81.56
244.232	74.56
244.465	84.56
244.699	83.56
244.932	73.56
245.166	82.56
245.399	83.56
245.633	75.56
245.866	81.56
246.099	70.56
246.333	67.56
246.566	78.56
246.8	93.56
247.033	85.56
247.266	61.56
247.5	64.56
247.733	87.56
247.966	84.56
248.2	78.56
248.433	89.56
248.666	83.56
248.899	99.56
249.133	90.56
249.366	79.56
249.599	84.56
249.832	71.56
250.066	85.56
250.299	79.56
250.532	88.56
250.765	93.56
250.998	86.56
251.231	63.56
251.465	81.56
251.698	79.56
251.931	85.56
252.164	73.56
252.397	80.56
252.63	95.56
252.863	94.56
253.096	71.56
253.329	79.56
253.562	88.56
253.795	87.56
254.028	75.56
254.261	76.56
254.494	74.56
254.727	72.56
254.96	87.56
255.193	81.56
255.426	85.56
255.659	72.56
255.892	77.56
256.124	86.56
256.357	75.56
256.59	80.56
256.823	96.56
257.056	98.56
257.289	69.56
257.521	88.56
257.754	81.56
257.987	94.56
258.22	75.56
258.452	69.56
258.685	66.56
258.918	74.56
259.151	91.56
259.383	71.56
259.616	75.56
259.849	81.56
260.081	87.56
260.314	95.56
260.547	101.56
260.779	76.56
261.012	88.56
261.244	81.56
261.477	92.56
261.71	82.56
261.942	85.56
262.175	88.56
262.407	78.56
262.64	83.56
262.872	81.56
263.105	81.56
263.337	78.56
263.57	62.56
263.802	100.56
264.035	88.56
264.267	85.56
264.499	75.56
264.732	82.56
264.964	89.56
265.197	87.56
265.429	81.56
265.661	72.56
265.894	77.56
266.126	84.56
266.358	95.56
266.591	84.56
266.823	76.56
267.055	82.56
267.287	67.56
267.52	87.56
267.752	85.56
267.984	87.56
268.216	89.56
268.448	87.56
268.681	82.56
268.913	101.56
269.145	87.56
269.377	79.56
269.609	62.56
269.841	95.56
270.073	97.56
270.306	72.56
270.538	86.56
270.77	79.56
271.002	98.56
271.234	86.56
271.466	80.56
271.698	82.56
271.93	88.56
272.162	83.56
272.394	107.56
272.626	96.56
272.858	90.56
273.09	87.56
273.322	102.56
273.553	79.56
273.785	85.56
274.017	81.56
274.249	90.56
274.481	85.56
274.713	78.56
274.945	93.56
275.176	77.56
275.408	81.56
275.64	87.56
275.872	95.56
276.104	97.56
276.335	86.56
276.567	72.56
276.799	76.56
277.031	80.56
277.262	83.56
277.494	90.56
277.726	79.56
277.957	92.56
278.189	88.56
278.421	85.56
278.652	77.56
278.884	79.56
279.115	78.56
279.347	74.56
279.579	93.56
279.81	83.56
280.042	86.56
280.273	81.56
280.505	76.56
280.736	85.56
280.968	87.56
281.199	80.56
281.431	87.56
281.662	82.56
281.894	79.56
282.125	103.56
282.356	88.56
282.588	85.56
282.819	92.56
283.051	82.56
283.282	81.56
283.513	91.56
283.745	91.56
283.976	102.56
284.207	82.56
284.439	78.56
284.67	72.56
284.901	90.56
285.132	98.56
285.364	82.56
285.595	81.56
285.826	83.56
286.057	85.56
286.288	95.56
286.52	86.56
286.751	91.56
286.982	91.56
287.213	88.56
287.444	83.56
287.675	94.56
287.906	93.56
288.138	85.56
288.369	87.56
288.6	88.56
288.831	88.56
289.062	90.56
289.293	93.56
289.524	89.56
289.755	78.56
289.986	91.56
290.217	83.56
290.448	81.56
290.679	94.56
290.91	98.56
291.141	93.56
291.371	90.56
291.602	84.56
291.833	76.56
292.064	88.56
292.295	74.56
292.526	85.56
292.757	74.56
292.987	86.56
293.218	80.56
293.449	85.56
293.68	85.56
293.91	91.56
294.141	90.56
294.372	86.56
294.603	97.56
294.833	93.56
295.064	82.56
295.295	85.56
295.525	106.56
295.756	86.56
295.987	73.56
296.217	86.56
296.448	92.56
296.679	85.56
296.909	85.56
297.14	89.56
297.37	86.56
297.601	84.56
297.831	94.56
298.062	83.56
298.292	90.56
298.523	89.56
298.753	82.56
298.984	91.56
299.214	105.56
299.445	77.56
299.675	72.56
299.905	72.56
300.136	88.56
300.366	95.56
300.597	77.56
300.827	86.56
301.057	81.56
301.288	73.56
301.518	88.56
301.748	88.56
301.979	86.56
302.209	88.56
302.439	88.56
302.669	83.56
302.9	79.56
303.13	85.56
303.36	75.56
303.59	90.56
303.82	95.56
304.051	99.56
304.281	97.56
304.511	75.56
304.741	85.56
304.971	81.56
305.201	91.56
305.431	91.56
305.661	101.56
305.891	92.56
306.121	93.56
306.352	91.56
306.582	81.56
306.812	91.56
307.042	86.56
307.272	80.56
307.502	86.56
307.731	87.56
307.961	78.56
308.191	91.56
308.421	98.56
308.651	79.56
308.881	94.56
309.111	78.56
309.341	85.56
309.571	88.56
309.8	80.56
310.03	91.56
310.26	90.56
310.49	87.56
310.72	93.56
310.949	93.56
311.179	96.56
311.409	80.56
311.639	89.56
311.868	80.56
312.098	82.56
312.328	94.56
312.557	98.56
312.787	90.56
313.017	84.56
313.246	80.56
313.476	84.56
313.706	88.56
313.935	75.56
314.165	83.56
314.394	89.56
314.624	90.56
314.853	97.56
315.083	74.56
315.312	80.56
315.542	78.56
315.771	90.56
316.001	87.56
316.23	88.56
316.46	82.56
316.689	86.56
316.919	82.56
317.148	92.56
317.377	90.56
317.607	85.56
317.836	87.56
318.065	88.56
318.295	75.56
318.524	97.56
318.753	83.56
318.983	94.56
319.212	83.56
319.441	93.56
319.67	87.56
319.9	95.56
320.129	98.56
320.358	78.56
320.587	82.56
320.816	90.56
321.046	82.56
321.275	82.56
321.504	95.56
321.733	90.56
321.962	87.56
322.191	93.56
322.42	82.56
322.649	80.56
322.878	95.56
323.108	81.56
323.337	81.56
323.566	81.56
323.795	96.56
324.024	66.56
324.253	86.56
324.482	82.56
324.71	87.56
324.939	93.56
325.168	82.56
325.397	69.56
325.626	94.56
325.855	88.56
326.084	75.56
326.313	75.56
326.542	86.56
326.77	84.56
326.999	75.56
327.228	82.56
327.457	83.56
327.686	85.56
327.914	89.56
328.143	83.56
328.372	80.56
328.6	75.56
328.829	85.56
329.058	90.56
329.287	97.56
329.515	90.56
329.744	87.56
329.972	78.56
330.201	91.56
330.43	85.56
330.658	87.56
330.887	68.56
331.115	80.56
331.344	77.56
331.572	91.56
331.801	89.56
332.03	91.56
332.258	82.56
332.486	108.56
332.715	76.56
332.943	67.56
333.172	87.56
333.4	75.56
333.629	89.56
333.857	80.56
334.085	73.56
334.314	88.56
334.542	87.56
334.771	91.56
334.999	82.56
335.227	93.56
335.455	78.56
335.684	83.56
335.912	79.56
336.14	84.56
336.369	88.56
336.597	89.56
336.825	91.56
337.053	89.56
337.281	102.56
337.51	71.56
337.738	69.56
337.966	76.56
338.194	85.56
338.422	77.56
338.65	83.56
338.878	98.56
339.106	85.56
339.334	89.56
339.562	79.56
339.79	80.56
340.018	83.56
340.246	96.56
340.474	86.56
340.702	79.56
340.93	107.56
341.158	91.56
341.386	82.56
341.614	90.56
341.842	81.56
342.07	85.56
342.298	79.56
342.526	71.56
342.754	76.56
342.981	74.56
343.209	78.56
343.437	89.56
343.665	76.56
343.893	94.56
344.12	67.56
344.348	101.56
344.576	85.56
344.804	83.56
345.031	93.56
345.259	87.56
345.487	85.56
345.714	90.56
345.942	86.56
346.17	71.56
346.397	97.56
346.625	83.56
346.853	74.56
347.08	89.56
347.308	78.56
347.535	86.56
347.763	90.56
347.99	72.56
348.218	84.56
348.445	99.56
348.673	86.56
348.9	80.56
349.128	96.56
349.355	93.56
349.583	85.56
349.81	82.56
350.037	75.56
350.265	86.56
350.492	83.56
350.72	93.56
350.947	79.56
351.174	82.56
351.402	85.56
351.629	82.56
351.856	88.56
352.083	75.56
352.311	88.56
352.538	77.56
352.765	80.56
352.992	102.56
353.22	98.56
353.447	85.56
353.674	110.56
353.901	91.56
354.128	83.56
354.355	93.56
354.583	87.56
354.81	96.56
355.037	75.56
355.264	69.56
355.491	80.56
355.718	76.56
355.945	85.56
356.172	79.56
356.399	95.56
356.626	89.56
356.853	94.56
357.08	90.56
357.307	103.56
357.534	90.56
357.761	101.56
357.988	89.56
358.215	66.56
358.441	82.56
358.668	91.56
358.895	88.56
359.122	94.56
359.349	84.56
359.576	91.56
359.802	93.56
360.029	92.56
360.256	86.56
360.483	88.56
360.709	86.56
360.936	89.56
361.163	99.56
361.39	80.56
361.616	80.56
361.843	79.56
362.07	84.56
362.296	80.56
362.523	91.56
362.749	70.56
362.976	106.56
363.203	81.56
363.429	74.56
363.656	97.56
363.882	96.56
364.109	97.56
364.335	110.56
364.562	101.56
364.788	104.56
365.015	82.56
365.241	84.56
365.468	82.56
365.694	95.56
365.92	77.56
366.147	97.56
366.373	86.56
366.599	85.56
366.826	84.56
367.052	88.56
367.278	100.56
367.505	94.56
367.731	96.56
367.957	83.56
368.184	77.56
368.41	95.56
368.636	75.56
368.862	81.56
369.089	82.56
369.315	84.56
369.541	77.56
369.767	83.56
369.993	92.56
370.219	84.56
370.445	71.56
370.672	87.56
370.898	89.56
371.124	78.56
371.35	71.56
371.576	84.56
371.802	78.56
372.028	94.56
372.254	82.56
372.48	69.56
372.706	78.56
372.932	82.56
373.158	75.56
373.384	80.56
373.61	79.56
373.835	98.56
374.061	71.56
374.287	91.56
374.513	79.56
374.739	98.56
374.965	89.56
375.191	89.56
375.416	86.56
375.642	89.56
375.868	98.56
376.094	90.56
376.319	82.56
376.545	84.56
376.771	71.56
376.997	83.56
377.222	71.56
377.448	83.56
377.674	98.56
377.899	91.56
378.125	91.56
378.35	93.56
378.576	86.56
378.802	88.56
379.027	91.56
379.253	86.56
379.478	86.56
379.704	91.56
379.929	78.56
380.155	73.56
380.38	88.56
380.606	94.56
380.831	98.56
381.057	92.56
381.282	77.56
381.507	82.56
381.733	81.56
381.958	99.56
382.184	84.56
382.409	85.56
382.634	93.56
382.86	82.56
383.085	94.56
383.31	94.56
383.535	87.56
383.761	95.56
383.986	97.56
384.211	72.56
384.436	86.56
384.662	75.56
384.887	85.56
385.112	83.56
385.337	80.56
385.562	78.56
385.787	98.56
386.013	91.56
386.238	75.56
386.463	92.56
386.688	82.56
386.913	83.56
387.138	77.56
387.363	77.56
387.588	82.56
387.813	87.56
388.038	89.56
388.263	94.56
388.488	80.56
388.713	91.56
388.938	77.56
389.163	91.56
389.387	82.56
389.612	77.56
389.837	85.56
390.062	83.56
390.287	77.56
390.512	92.56
390.736	89.56
390.961	95.56
391.186	97.56
391.411	91.56
391.636	84.56
391.86	92.56
392.085	87.56
392.31	90.56
392.534	83.56
392.759	93.56
392.984	105.56
393.208	127.56
393.433	146.56
393.658	114.56
393.882	87.56
394.107	96.56
394.331	82.56
394.556	94.56
394.78	98.56
395.005	91.56
395.229	85.56
395.454	86.56
395.678	94.56
395.903	109.56
396.127	86.56
396.352	112.56
396.576	109.56
396.801	114.56
397.025	123.56
397.249	95.56
397.474	98.56
397.698	84.56
397.922	90.56
398.147	82.56
398.371	94.56
398.595	88.56
398.82	91.56
399.044	69.56
399.268	77.56
399.492	80.56
399.717	84.56
399.941	83.56
400.165	87.56
400.389	93.56
400.613	78.56
400.837	88.56
401.062	107.56
401.286	94.56
401.51	91.56
401.734	90.56
401.958	90.56
402.182	95.56
402.406	77.56
402.63	70.56
402.854	85.56
403.078	82.56
403.302	90.56
403.526	80.56
403.75	86.56
403.974	86.56
404.198	111.56
404.422	131.56
404.645	136.56
404.869	127.56
405.093	93.56
405.317	96.56
405.541	90.56
405.765	80.56
405.988	84.56
406.212	77.56
406.436	98.56
406.66	86.56
406.883	79.56
407.107	82.56
407.331	86.56
407.555	92.56
407.778	89.56
408.002	79.56
408.226	90.56
408.449	81.56
408.673	85.56
408.896	78.56
409.12	80.56
409.344	90.56
409.567	74.56
409.791	87.56
410.014	95.56
410.238	99.56
410.461	90.56
410.685	92.56
410.908	89.56
411.132	86.56
411.355	82.56
411.578	93.56
411.802	84.56
412.025	84.56
412.249	66.56
412.472	97.56
412.695	74.56
412.919	84.56
413.142	77.56
413.365	89.56
413.589	78.56
413.812	91.56
414.035	82.56
414.258	75.56
414.482	87.56
414.705	88.56
414.928	84.56
415.151	87.56
415.374	92.56
415.597	81.56
415.821	79.56
416.044	83.56
416.267	70.56
416.49	77.56
416.713	82.56
416.936	105.56
417.159	89.56
417.382	70.56
417.605	79.56
417.828	91.56
418.051	85.56
418.274	88.56
418.497	89.56
418.72	64.56
418.943	84.56
419.166	101.56
419.389	67.56
419.611	85.56
419.834	90.56
420.057	83.56
420.28	92.56
420.503	93.56
420.726	89.56
420.948	83.56
421.171	95.56
421.394	92.56
421.617	97.56
421.839	97.56
422.062	121.56
422.285	126.56
422.507	153.56
422.73	181.56
422.953	159.56
423.175	138.56
423.398	110.56
423.621	103.56
423.843	98.56
424.066	77.56
424.288	89.56
424.511	87.56
424.733	89.56
424.956	96.56
425.178	78.56
425.401	92.56
425.623	109.56
425.846	84.56
426.068	79.56
426.291	80.56
426.513	70.56
426.735	87.56
426.958	93.56
427.18	84.56
427.402	90.56
427.625	88.56
427.847	89.56
428.069	98.56
428.292	115.56
428.514	107.56
428.736	94.56
428.958	115.56
429.181	113.56
429.403	93.56
429.625	88.56
429.847	111.56
430.069	115.56
430.292	136.56
430.514	114.56
430.736	108.56
430.958	110.56
431.18	96.56
431.402	94.56
431.624	94.56
431.846	114.56
432.068	113.56
432.29	79.56
432.512	83.56
432.734	78.56
432.956	92.56
433.178	78.56
433.4	91.56
433.622	78.56
433.844	82.56
434.066	82.56
434.287	74.56
434.509	86.56
434.731	93.56
434.953	79.56
435.175	93.56
435.397	94.56
435.618	97.56
435.84	85.56
436.062	93.56
436.284	78.56
436.505	82.56
436.727	81.56
436.949	80.56
437.17	87.56
437.392	76.56
437.614	93.56
437.835	83.56
438.057	78.56
438.278	90.56
438.5	93.56
438.721	98.56
438.943	93.56
439.165	71.56
439.386	86.56
439.608	92.56
439.829	78.56
440.05	87.56
440.272	75.56
440.493	98.56
440.715	89.56
440.936	90.56
441.158	82.56
441.379	94.56
441.6	81.56
441.822	89.56
442.043	91.56
442.264	100.56
442.486	106.56
442.707	118.56
442.928	98.56
443.149	104.56
443.371	112.56
443.592	162.56
443.813	146.56
444.034	94.56
444.255	92.56
444.476	97.56
444.698	87.56
444.919	86.56
445.14	152.56
445.361	157.56
445.582	171.56
445.803	147.56
446.024	107.56
446.245	97.56
446.466	77.56
446.687	83.56
446.908	107.56
447.129	92.56
447.35	83.56
447.571	85.56
447.792	94.56
448.013	90.56
448.234	86.56
448.455	82.56
448.675	89.56
448.896	86.56
449.117	78.56
449.338	88.56
449.559	91.56
449.779	80.56
450	89.56
450.221	80.56
450.442	87.56
450.662	82.56
450.883	88.56
451.104	93.56
451.324	80.56
451.545	79.56
451.766	96.56
451.986	83.56
452.207	98.56
452.428	87.56
452.648	92.56
452.869	85.56
453.089	83.56
453.31	81.56
453.53	90.56
453.751	75.56
453.971	59.56
454.192	82.56
454.412	85.56
454.633	81.56
454.853	77.56
455.073	81.56
455.294	83.56
455.514	83.56
455.734	60.56
455.955	81.56
456.175	94.56
456.395	101.56
456.616	92.56
456.836	98.56
457.056	69.56
457.276	83.56
457.497	62.56
457.717	78.56
457.937	83.56
458.157	83.56
458.377	97.56
458.598	81.56
458.818	77.56
459.038	90.56
459.258	86.56
459.478	79.56
459.698	85.56
459.918	94.56
460.138	90.56
460.358	92.56
460.578	94.56
460.798	103.56
461.018	79.56
461.238	88.56
461.458	89.56
461.678	79.56
461.898	98.56
462.118	78.56
462.338	83.56
462.558	112.56
462.777	81.56
462.997	94.56
463.217	94.56
463.437	88.56
463.657	74.56
463.876	92.56
464.096	89.56
464.316	86.56
464.536	74.56
464.755	80.56
464.975	97.56
465.195	76.56
465.414	88.56
465.634	81.56
465.854	90.56
466.073	78.56
466.293	94.56
466.512	70.56
466.732	81.56
466.951	78.56
467.171	86.56
467.391	74.56
467.61	86.56
467.829	87.56
468.049	85.56
468.268	85.56
468.488	90.56
468.707	96.56
468.927	81.56
469.146	93.56
469.365	74.56
469.585	86.56
469.804	97.56
470.023	68.56
470.243	80.56
470.462	92.56
470.681	86.56
470.901	80.56
471.12	86.56
471.339	90.56
471.558	89.56
471.777	85.56
471.997	84.56
472.216	86.56
472.435	87.56
472.654	87.56
472.873	88.56
473.092	83.56
473.311	80.56
473.53	93.56
473.749	97.56
473.968	100.56
474.187	89.56
474.406	78.56
474.625	90.56
474.844	85.56
475.063	74.56
475.282	82.56
475.501	91.56
475.72	81.56
475.939	83.56
476.158	92.56
476.377	88.56
476.596	89.56
476.814	89.56
477.033	75.56
477.252	93.56
477.471	98.56
477.69	84.56
477.908	82.56
478.127	90.56
478.346	95.56
478.564	74.56
478.783	73.56
479.002	95.56
479.22	91.56
479.439	101.56
479.658	85.56
479.876	67.56
480.095	81.56
480.313	102.56
480.532	83.56
480.751	82.56
480.969	79.56
481.188	82.56
481.406	91.56
481.624	94.56
481.843	98.56
482.061	89.56
482.28	86.56
482.498	91.56
482.717	68.56
482.935	95.56
483.153	81.56
483.372	90.56
483.59	92.56
483.808	100.56
484.027	78.56
484.245	94.56
484.463	80.56
484.681	90.56
484.9	99.56
485.118	86.56
485.336	80.56
485.554	95.56
485.772	103.56
485.99	98.56
486.209	90.56
486.427	92.56
486.645	80.56
486.863	89.56
487.081	77.56
487.299	99.56
487.517	90.56
487.735	82.56
487.953	118.56
488.171	96.56
488.389	88.56
488.607	80.56
488.825	84.56
489.043	87.56
489.261	89.56
489.479	89.56
489.696	101.56
489.914	87.56
490.132	87.56
490.35	86.56
490.568	83.56
490.786	100.56
491.003	85.56
491.221	79.56
491.439	85.56
491.657	78.56
491.874	97.56
492.092	83.56
492.31	92.56
492.527	88.56
492.745	83.56
492.963	86.56
493.18	91.56
493.398	83.56
493.615	89.56
493.833	103.56
494.05	72.56
494.268	87.56
494.485	97.56
494.703	79.56
494.92	96.56
495.138	81.56
495.355	74.56
495.573	111.56
495.79	100.56
496.008	93.56
496.225	87.56
496.442	73.56
496.66	90.56
496.877	87.56
497.094	105.56
497.312	79.56
497.529	83.56
497.746	88.56
497.963	85.56
498.181	78.56
498.398	91.56
498.615	78.56
498.832	99.56
499.049	89.56
499.267	95.56
499.484	94.56
499.701	86.56
499.918	87.56
500.135	89.56
500.352	86.56
500.569	97.56
500.786	90.56
501.003	92.56
501.22	85.56
501.437	89.56
501.654	77.56
501.871	75.56
502.088	94.56
502.305	93.56
502.522	87.56
502.739	91.56
502.956	92.56
503.172	80.56
503.389	90.56
503.606	89.56
503.823	99.56
504.04	87.56
504.256	98.56
504.473	102.56
504.69	90.56
504.907	98.56
505.123	96.56
505.34	87.56
505.557	77.56
505.773	98.56
505.99	78.56
506.207	94.56
506.423	78.56
506.64	90.56
506.856	98.56
507.073	83.56
507.289	90.56
507.506	91.56
507.722	75.56
507.939	73.56
508.155	92.56
508.372	78.56
508.588	93.56
508.805	87.56
509.021	77.56
509.238	89.56
509.454	86.56
509.67	85.56
509.887	82.56
510.103	89.56
510.319	83.56
510.536	82.56
510.752	109.56
510.968	105.56
511.184	93.56
511.401	91.56
511.617	81.56
511.833	87.56
512.049	86.56
512.265	80.56
512.481	74.56
512.698	70.56
512.914	86.56
513.13	100.56
513.346	83.56
513.562	83.56
513.778	89.56
513.994	79.56
514.21	78.56
514.426	84.56
514.642	95.56
514.858	83.56
515.074	90.56
515.29	94.56
515.506	85.56
515.721	93.56
515.937	79.56
516.153	91.56
516.369	72.56
516.585	85.56
516.801	93.56
517.016	98.56
517.232	94.56
517.448	107.56
517.664	89.56
517.879	89.56
518.095	92.56
518.311	84.56
518.527	92.56
518.742	98.56
518.958	115.56
