Data from Mixheat2_HRD10591_00004.txt Node
Date: Fri Dec 27 15:09:07 EST 2024
User: Yrep
Spectrometer: HR+D1059
Trigger mode: 1
Integration Time (sec): 1.000000E-1
Scans to average: 1
Electric dark correction enabled: true
Nonlinearity correction enabled: false
Boxcar width: 0
XAxis mode: Wavelengths
Number of Pixels in Spectrum: 2048
>>>>>Begin Spectral Data<<<<<
223.165	-12.25
223.4	-12.25
223.635	-12.25
223.869	-24.25
224.104	-27.25
224.338	-12.25
224.573	-20.25
224.808	-5.25
225.042	-8.25
225.277	-1.25
225.511	2.75
225.746	-5.25
225.98	7.75
226.215	4.75
226.449	16.75
226.683	14.75
226.918	37.75
227.152	31.75
227.387	40.75
227.621	40.75
227.856	47.75
228.09	47.75
228.324	40.75
228.559	48.75
228.793	65.75
229.027	56.75
229.262	60.75
229.496	59.75
229.73	65.75
229.964	71.75
230.199	62.75
230.433	75.75
230.667	69.75
230.901	68.75
231.136	76.75
231.37	77.75
231.604	71.75
231.838	85.75
232.072	74.75
232.306	84.75
232.541	82.75
232.775	79.75
233.009	85.75
233.243	74.75
233.477	67.75
233.711	74.75
233.945	87.75
234.179	68.75
234.413	76.75
234.647	73.75
234.881	76.75
235.115	77.75
235.349	71.75
235.583	70.75
235.817	78.75
236.051	81.75
236.285	81.75
236.519	68.75
236.753	75.75
236.987	70.75
237.221	68.75
237.455	62.75
237.689	67.75
237.922	69.75
238.156	71.75
238.39	71.75
238.624	59.75
238.858	70.75
239.091	57.75
239.325	76.75
239.559	58.75
239.793	72.75
240.027	67.75
240.26	63.75
240.494	67.75
240.728	68.75
240.961	63.75
241.195	62.75
241.429	63.75
241.662	58.75
241.896	59.75
242.13	61.75
242.363	79.75
242.597	87.75
242.83	90.75
243.064	90.75
243.298	86.75
243.531	76.75
243.765	71.75
243.998	71.75
244.232	82.75
244.465	87.75
244.699	68.75
244.932	69.75
245.166	76.75
245.399	75.75
245.633	83.75
245.866	92.75
246.099	82.75
246.333	73.75
246.566	63.75
246.8	75.75
247.033	77.75
247.266	93.75
247.5	85.75
247.733	83.75
247.966	100.75
248.2	67.75
248.433	90.75
248.666	84.75
248.899	75.75
249.133	76.75
249.366	99.75
249.599	69.75
249.832	67.75
250.066	65.75
250.299	73.75
250.532	76.75
250.765	83.75
250.998	71.75
251.231	76.75
251.465	85.75
251.698	71.75
251.931	72.75
252.164	80.75
252.397	67.75
252.63	77.75
252.863	87.75
253.096	73.75
253.329	76.75
253.562	75.75
253.795	72.75
254.028	78.75
254.261	74.75
254.494	71.75
254.727	76.75
254.96	96.75
255.193	87.75
255.426	77.75
255.659	87.75
255.892	88.75
256.124	78.75
256.357	75.75
256.59	77.75
256.823	85.75
257.056	83.75
257.289	70.75
257.521	78.75
257.754	75.75
257.987	83.75
258.22	70.75
258.452	74.75
258.685	78.75
258.918	83.75
259.151	75.75
259.383	74.75
259.616	78.75
259.849	69.75
260.081	77.75
260.314	78.75
260.547	72.75
260.779	67.75
261.012	85.75
261.244	73.75
261.477	81.75
261.71	73.75
261.942	71.75
262.175	72.75
262.407	85.75
262.64	72.75
262.872	88.75
263.105	67.75
263.337	87.75
263.57	79.75
263.802	80.75
264.035	72.75
264.267	73.75
264.499	67.75
264.732	97.75
264.964	75.75
265.197	87.75
265.429	82.75
265.661	80.75
265.894	83.75
266.126	85.75
266.358	82.75
266.591	90.75
266.823	79.75
267.055	82.75
267.287	72.75
267.52	87.75
267.752	72.75
267.984	73.75
268.216	84.75
268.448	94.75
268.681	70.75
268.913	83.75
269.145	77.75
269.377	80.75
269.609	69.75
269.841	76.75
270.073	72.75
270.306	90.75
270.538	89.75
270.77	69.75
271.002	80.75
271.234	79.75
271.466	73.75
271.698	77.75
271.93	74.75
272.162	91.75
272.394	88.75
272.626	93.75
272.858	85.75
273.09	95.75
273.322	94.75
273.553	82.75
273.785	82.75
274.017	75.75
274.249	82.75
274.481	86.75
274.713	86.75
274.945	81.75
275.176	85.75
275.408	101.75
275.64	81.75
275.872	76.75
276.104	70.75
276.335	74.75
276.567	70.75
276.799	81.75
277.031	78.75
277.262	76.75
277.494	85.75
277.726	70.75
277.957	77.75
278.189	77.75
278.421	86.75
278.652	82.75
278.884	69.75
279.115	99.75
279.347	79.75
279.579	81.75
279.81	88.75
280.042	66.75
280.273	81.75
280.505	82.75
280.736	90.75
280.968	73.75
281.199	75.75
281.431	77.75
281.662	77.75
281.894	83.75
282.125	90.75
282.356	70.75
282.588	83.75
282.819	77.75
283.051	71.75
283.282	86.75
283.513	78.75
283.745	79.75
283.976	73.75
284.207	73.75
284.439	89.75
284.67	79.75
284.901	87.75
285.132	81.75
285.364	78.75
285.595	79.75
285.826	82.75
286.057	77.75
286.288	76.75
286.52	82.75
286.751	69.75
286.982	74.75
287.213	76.75
287.444	85.75
287.675	75.75
287.906	76.75
288.138	85.75
288.369	80.75
288.6	90.75
288.831	75.75
289.062	92.75
289.293	94.75
289.524	78.75
289.755	63.75
289.986	66.75
290.217	76.75
290.448	72.75
290.679	71.75
290.91	78.75
291.141	90.75
291.371	91.75
291.602	81.75
291.833	77.75
292.064	80.75
292.295	89.75
292.526	73.75
292.757	80.75
292.987	75.75
293.218	71.75
293.449	73.75
293.68	70.75
293.91	88.75
294.141	102.75
294.372	77.75
294.603	83.75
294.833	75.75
295.064	78.75
295.295	67.75
295.525	85.75
295.756	76.75
295.987	79.75
296.217	88.75
296.448	79.75
296.679	70.75
296.909	76.75
297.14	79.75
297.37	96.75
297.601	87.75
297.831	95.75
298.062	95.75
298.292	83.75
298.523	87.75
298.753	93.75
298.984	89.75
299.214	74.75
299.445	74.75
299.675	66.75
299.905	83.75
300.136	67.75
300.366	81.75
300.597	69.75
300.827	86.75
301.057	71.75
301.288	78.75
301.518	85.75
301.748	74.75
301.979	84.75
302.209	88.75
302.439	80.75
302.669	81.75
302.9	86.75
303.13	81.75
303.36	82.75
303.59	69.75
303.82	74.75
304.051	85.75
304.281	74.75
304.511	89.75
304.741	100.75
304.971	72.75
305.201	90.75
305.431	70.75
305.661	70.75
305.891	78.75
306.121	76.75
306.352	84.75
306.582	76.75
306.812	74.75
307.042	80.75
307.272	83.75
307.502	95.75
307.731	91.75
307.961	79.75
308.191	76.75
308.421	82.75
308.651	91.75
308.881	83.75
309.111	93.75
309.341	78.75
309.571	96.75
309.8	79.75
310.03	89.75
310.26	85.75
310.49	82.75
310.72	79.75
310.949	97.75
311.179	83.75
311.409	97.75
311.639	84.75
311.868	78.75
312.098	90.75
312.328	93.75
312.557	75.75
312.787	81.75
313.017	73.75
313.246	91.75
313.476	84.75
313.706	78.75
313.935	80.75
314.165	79.75
314.394	85.75
314.624	81.75
314.853	90.75
315.083	81.75
315.312	80.75
315.542	87.75
315.771	93.75
316.001	90.75
316.23	78.75
316.46	82.75
316.689	75.75
316.919	78.75
317.148	81.75
317.377	97.75
317.607	92.75
317.836	94.75
318.065	91.75
318.295	92.75
318.524	87.75
318.753	85.75
318.983	85.75
319.212	76.75
319.441	83.75
319.67	89.75
319.9	75.75
320.129	81.75
320.358	83.75
320.587	92.75
320.816	78.75
321.046	77.75
321.275	89.75
321.504	92.75
321.733	78.75
321.962	79.75
322.191	100.75
322.42	73.75
322.649	98.75
322.878	81.75
323.108	78.75
323.337	89.75
323.566	86.75
323.795	85.75
324.024	78.75
324.253	83.75
324.482	80.75
324.71	80.75
324.939	72.75
325.168	85.75
325.397	78.75
325.626	90.75
325.855	78.75
326.084	101.75
326.313	82.75
326.542	79.75
326.77	91.75
326.999	82.75
327.228	78.75
327.457	99.75
327.686	82.75
327.914	73.75
328.143	69.75
328.372	76.75
328.6	83.75
328.829	68.75
329.058	79.75
329.287	75.75
329.515	67.75
329.744	86.75
329.972	69.75
330.201	78.75
330.43	84.75
330.658	77.75
330.887	88.75
331.115	79.75
331.344	68.75
331.572	76.75
331.801	86.75
332.03	90.75
332.258	80.75
332.486	83.75
332.715	85.75
332.943	86.75
333.172	82.75
333.4	80.75
333.629	82.75
333.857	74.75
334.085	84.75
334.314	90.75
334.542	78.75
334.771	75.75
334.999	80.75
335.227	79.75
335.455	84.75
335.684	81.75
335.912	76.75
336.14	70.75
336.369	80.75
336.597	65.75
336.825	81.75
337.053	86.75
337.281	73.75
337.51	74.75
337.738	90.75
337.966	82.75
338.194	88.75
338.422	84.75
338.65	88.75
338.878	81.75
339.106	75.75
339.334	92.75
339.562	87.75
339.79	95.75
340.018	101.75
340.246	96.75
340.474	81.75
340.702	87.75
340.93	79.75
341.158	74.75
341.386	75.75
341.614	76.75
341.842	91.75
342.07	74.75
342.298	84.75
342.526	76.75
342.754	88.75
342.981	74.75
343.209	84.75
343.437	106.75
343.665	78.75
343.893	85.75
344.12	98.75
344.348	90.75
344.576	85.75
344.804	76.75
345.031	90.75
345.259	90.75
345.487	70.75
345.714	83.75
345.942	75.75
346.17	83.75
346.397	77.75
346.625	85.75
346.853	85.75
347.08	73.75
347.308	84.75
347.535	83.75
347.763	83.75
347.99	84.75
348.218	95.75
348.445	83.75
348.673	78.75
348.9	90.75
349.128	70.75
349.355	79.75
349.583	87.75
349.81	84.75
350.037	93.75
350.265	78.75
350.492	81.75
350.72	74.75
350.947	89.75
351.174	70.75
351.402	74.75
351.629	80.75
351.856	76.75
352.083	81.75
352.311	86.75
352.538	82.75
352.765	88.75
352.992	103.75
353.22	87.75
353.447	78.75
353.674	82.75
353.901	94.75
354.128	88.75
354.355	89.75
354.583	79.75
354.81	94.75
355.037	78.75
355.264	82.75
355.491	87.75
355.718	95.75
355.945	87.75
356.172	84.75
356.399	94.75
356.626	84.75
356.853	83.75
357.08	85.75
357.307	94.75
357.534	74.75
357.761	77.75
357.988	91.75
358.215	84.75
358.441	76.75
358.668	97.75
358.895	87.75
359.122	77.75
359.349	71.75
359.576	74.75
359.802	84.75
360.029	82.75
360.256	92.75
360.483	78.75
360.709	83.75
360.936	97.75
361.163	81.75
361.39	87.75
361.616	89.75
361.843	85.75
362.07	75.75
362.296	90.75
362.523	95.75
362.749	95.75
362.976	86.75
363.203	88.75
363.429	86.75
363.656	77.75
363.882	85.75
364.109	90.75
364.335	92.75
364.562	91.75
364.788	67.75
365.015	82.75
365.241	85.75
365.468	94.75
365.694	79.75
365.92	87.75
366.147	74.75
366.373	69.75
366.599	84.75
366.826	90.75
367.052	77.75
367.278	80.75
367.505	86.75
367.731	89.75
367.957	85.75
368.184	82.75
368.41	80.75
368.636	89.75
368.862	73.75
369.089	60.75
369.315	88.75
369.541	83.75
369.767	76.75
369.993	88.75
370.219	93.75
370.445	76.75
370.672	85.75
370.898	94.75
371.124	94.75
371.35	74.75
371.576	76.75
371.802	79.75
372.028	86.75
372.254	87.75
372.48	74.75
372.706	69.75
372.932	90.75
373.158	85.75
373.384	91.75
373.61	84.75
373.835	93.75
374.061	88.75
374.287	95.75
374.513	87.75
374.739	88.75
374.965	83.75
375.191	81.75
375.416	94.75
375.642	87.75
375.868	79.75
376.094	91.75
376.319	92.75
376.545	81.75
376.771	88.75
376.997	79.75
377.222	74.75
377.448	79.75
377.674	73.75
377.899	83.75
378.125	82.75
378.35	93.75
378.576	70.75
378.802	84.75
379.027	86.75
379.253	83.75
379.478	83.75
379.704	83.75
379.929	78.75
380.155	77.75
380.38	70.75
380.606	80.75
380.831	63.75
381.057	85.75
381.282	91.75
381.507	94.75
381.733	85.75
381.958	97.75
382.184	91.75
382.409	91.75
382.634	78.75
382.86	99.75
383.085	87.75
383.31	92.75
383.535	101.75
383.761	81.75
383.986	79.75
384.211	67.75
384.436	84.75
384.662	78.75
384.887	88.75
385.112	83.75
385.337	80.75
385.562	81.75
385.787	85.75
386.013	82.75
386.238	81.75
386.463	91.75
386.688	85.75
386.913	92.75
387.138	86.75
387.363	83.75
387.588	81.75
387.813	71.75
388.038	87.75
388.263	67.75
388.488	83.75
388.713	71.75
388.938	75.75
389.163	77.75
389.387	74.75
389.612	81.75
389.837	81.75
390.062	101.75
390.287	88.75
390.512	90.75
390.736	67.75
390.961	86.75
391.186	63.75
391.411	74.75
391.636	76.75
391.86	81.75
392.085	69.75
392.31	80.75
392.534	92.75
392.759	95.75
392.984	93.75
393.208	101.75
393.433	133.75
393.658	113.75
393.882	89.75
394.107	91.75
394.331	86.75
394.556	80.75
394.78	70.75
395.005	78.75
395.229	84.75
395.454	84.75
395.678	79.75
395.903	102.75
396.127	100.75
396.352	100.75
396.576	94.75
396.801	113.75
397.025	108.75
397.249	83.75
397.474	84.75
397.698	93.75
397.922	91.75
398.147	82.75
398.371	81.75
398.595	75.75
398.82	87.75
399.044	83.75
399.268	86.75
399.492	87.75
399.717	83.75
399.941	82.75
400.165	85.75
400.389	86.75
400.613	74.75
400.837	75.75
401.062	72.75
401.286	79.75
401.51	78.75
401.734	78.75
401.958	90.75
402.182	89.75
402.406	67.75
402.63	72.75
402.854	87.75
403.078	84.75
403.302	92.75
403.526	80.75
403.75	102.75
403.974	82.75
404.198	97.75
404.422	132.75
404.645	129.75
404.869	123.75
405.093	96.75
405.317	90.75
405.541	85.75
405.765	82.75
405.988	79.75
406.212	83.75
406.436	65.75
406.66	81.75
406.883	86.75
407.107	84.75
407.331	86.75
407.555	92.75
407.778	75.75
408.002	93.75
408.226	91.75
408.449	80.75
408.673	86.75
408.896	90.75
409.12	82.75
409.344	92.75
409.567	76.75
409.791	76.75
410.014	70.75
410.238	74.75
410.461	82.75
410.685	89.75
410.908	90.75
411.132	97.75
411.355	89.75
411.578	77.75
411.802	99.75
412.025	81.75
412.249	74.75
412.472	81.75
412.695	82.75
412.919	79.75
413.142	85.75
413.365	91.75
413.589	89.75
413.812	70.75
414.035	85.75
414.258	72.75
414.482	86.75
414.705	81.75
414.928	81.75
415.151	77.75
415.374	79.75
415.597	78.75
415.821	58.75
416.044	85.75
416.267	70.75
416.49	85.75
416.713	91.75
416.936	95.75
417.159	87.75
417.382	74.75
417.605	95.75
417.828	79.75
418.051	86.75
418.274	83.75
418.497	88.75
418.72	76.75
418.943	70.75
419.166	83.75
419.389	88.75
419.611	79.75
419.834	84.75
420.057	92.75
420.28	71.75
420.503	94.75
420.726	90.75
420.948	71.75
421.171	92.75
421.394	83.75
421.617	84.75
421.839	86.75
422.062	89.75
422.285	105.75
422.507	139.75
422.73	174.75
422.953	149.75
423.175	113.75
423.398	91.75
423.621	97.75
423.843	74.75
424.066	77.75
424.288	95.75
424.511	88.75
424.733	65.75
424.956	70.75
425.178	81.75
425.401	82.75
425.623	76.75
425.846	70.75
426.068	70.75
426.291	71.75
426.513	84.75
426.735	89.75
426.958	79.75
427.18	85.75
427.402	70.75
427.625	71.75
427.847	78.75
428.069	86.75
428.292	95.75
428.514	93.75
428.736	115.75
428.958	105.75
429.181	107.75
429.403	90.75
429.625	97.75
429.847	104.75
430.069	108.75
430.292	118.75
430.514	107.75
430.736	103.75
430.958	116.75
431.18	71.75
431.402	93.75
431.624	84.75
431.846	92.75
432.068	109.75
432.29	99.75
432.512	88.75
432.734	79.75
432.956	88.75
433.178	84.75
433.4	84.75
433.622	77.75
433.844	84.75
434.066	79.75
434.287	80.75
434.509	72.75
434.731	79.75
434.953	83.75
435.175	82.75
435.397	75.75
435.618	75.75
435.84	77.75
436.062	83.75
436.284	83.75
436.505	81.75
436.727	77.75
436.949	87.75
437.17	84.75
437.392	71.75
437.614	71.75
437.835	83.75
438.057	71.75
438.278	67.75
438.5	64.75
438.721	83.75
438.943	76.75
439.165	69.75
439.386	88.75
439.608	89.75
439.829	86.75
440.05	75.75
440.272	88.75
440.493	89.75
440.715	76.75
440.936	74.75
441.158	90.75
441.379	79.75
441.6	92.75
441.822	65.75
442.043	77.75
442.264	89.75
442.486	100.75
442.707	92.75
442.928	90.75
443.149	88.75
443.371	110.75
443.592	141.75
443.813	127.75
444.034	79.75
444.255	81.75
444.476	95.75
444.698	85.75
444.919	88.75
445.14	141.75
445.361	155.75
445.582	165.75
445.803	125.75
446.024	85.75
446.245	87.75
446.466	82.75
446.687	63.75
446.908	84.75
447.129	89.75
447.35	86.75
447.571	72.75
447.792	82.75
448.013	69.75
448.234	83.75
448.455	75.75
448.675	79.75
448.896	76.75
449.117	80.75
449.338	81.75
449.559	80.75
449.779	85.75
450	90.75
450.221	77.75
450.442	68.75
450.662	91.75
450.883	77.75
451.104	68.75
451.324	81.75
451.545	85.75
451.766	80.75
451.986	76.75
452.207	81.75
452.428	92.75
452.648	85.75
452.869	97.75
453.089	71.75
453.31	72.75
453.53	86.75
453.751	81.75
453.971	94.75
454.192	72.75
454.412	86.75
454.633	81.75
454.853	103.75
455.073	82.75
455.294	81.75
455.514	68.75
455.734	77.75
455.955	79.75
456.175	92.75
456.395	96.75
456.616	87.75
456.836	90.75
457.056	75.75
457.276	72.75
457.497	81.75
457.717	78.75
457.937	81.75
458.157	101.75
458.377	97.75
458.598	77.75
458.818	78.75
459.038	73.75
459.258	67.75
459.478	78.75
459.698	83.75
459.918	72.75
460.138	93.75
460.358	90.75
460.578	82.75
460.798	93.75
461.018	89.75
461.238	90.75
461.458	82.75
461.678	85.75
461.898	72.75
462.118	75.75
462.338	87.75
462.558	88.75
462.777	94.75
462.997	78.75
463.217	67.75
463.437	69.75
463.657	75.75
463.876	79.75
464.096	84.75
464.316	87.75
464.536	79.75
464.755	86.75
464.975	78.75
465.195	69.75
465.414	80.75
465.634	87.75
465.854	72.75
466.073	77.75
466.293	70.75
466.512	79.75
466.732	73.75
466.951	73.75
467.171	64.75
467.391	85.75
467.61	64.75
467.829	68.75
468.049	77.75
468.268	82.75
468.488	86.75
468.707	97.75
468.927	79.75
469.146	86.75
469.365	92.75
469.585	79.75
469.804	82.75
470.023	92.75
470.243	81.75
470.462	83.75
470.681	74.75
470.901	73.75
471.12	78.75
471.339	56.75
471.558	73.75
471.777	79.75
471.997	79.75
472.216	68.75
472.435	85.75
472.654	76.75
472.873	82.75
473.092	87.75
473.311	77.75
473.53	69.75
473.749	88.75
473.968	88.75
474.187	76.75
474.406	78.75
474.625	84.75
474.844	83.75
475.063	73.75
475.282	83.75
475.501	80.75
475.72	90.75
475.939	77.75
476.158	75.75
476.377	82.75
476.596	78.75
476.814	94.75
477.033	85.75
477.252	78.75
477.471	76.75
477.69	84.75
477.908	77.75
478.127	98.75
478.346	90.75
478.564	79.75
478.783	75.75
479.002	91.75
479.22	86.75
479.439	84.75
479.658	73.75
479.876	81.75
480.095	75.75
480.313	87.75
480.532	86.75
480.751	84.75
480.969	84.75
481.188	73.75
481.406	106.75
481.624	85.75
481.843	89.75
482.061	83.75
482.28	90.75
482.498	94.75
482.717	80.75
482.935	90.75
483.153	92.75
483.372	84.75
483.59	86.75
483.808	78.75
484.027	74.75
484.245	77.75
484.463	79.75
484.681	97.75
484.9	81.75
485.118	71.75
485.336	71.75
485.554	79.75
485.772	87.75
485.99	92.75
486.209	92.75
486.427	85.75
486.645	81.75
486.863	93.75
487.081	87.75
487.299	98.75
487.517	94.75
487.735	75.75
487.953	101.75
488.171	103.75
488.389	90.75
488.607	81.75
488.825	83.75
489.043	79.75
489.261	84.75
489.479	85.75
489.696	84.75
489.914	84.75
490.132	73.75
490.35	99.75
490.568	73.75
490.786	82.75
491.003	94.75
491.221	84.75
491.439	86.75
491.657	86.75
491.874	85.75
492.092	82.75
492.31	101.75
492.527	103.75
492.745	98.75
492.963	85.75
493.18	81.75
493.398	88.75
493.615	90.75
493.833	70.75
494.05	84.75
494.268	78.75
494.485	78.75
494.703	80.75
494.92	94.75
495.138	68.75
495.355	98.75
495.573	76.75
495.79	73.75
496.008	96.75
496.225	89.75
496.442	74.75
496.66	91.75
496.877	73.75
497.094	85.75
497.312	102.75
497.529	80.75
497.746	78.75
497.963	67.75
498.181	82.75
498.398	92.75
498.615	90.75
498.832	95.75
499.049	78.75
499.267	66.75
499.484	71.75
499.701	97.75
499.918	96.75
500.135	92.75
500.352	83.75
500.569	68.75
500.786	74.75
501.003	97.75
501.22	93.75
501.437	86.75
501.654	86.75
501.871	83.75
502.088	82.75
502.305	93.75
502.522	77.75
502.739	77.75
502.956	90.75
503.172	81.75
503.389	71.75
503.606	81.75
503.823	91.75
504.04	85.75
504.256	74.75
504.473	85.75
504.69	91.75
504.907	93.75
505.123	81.75
505.34	83.75
505.557	79.75
505.773	89.75
505.99	83.75
506.207	83.75
506.423	95.75
506.64	84.75
506.856	77.75
507.073	81.75
507.289	88.75
507.506	89.75
507.722	73.75
507.939	75.75
508.155	87.75
508.372	81.75
508.588	87.75
508.805	92.75
509.021	79.75
509.238	84.75
509.454	86.75
509.67	87.75
509.887	91.75
510.103	90.75
510.319	80.75
510.536	94.75
510.752	88.75
510.968	78.75
511.184	89.75
511.401	82.75
511.617	90.75
511.833	88.75
512.049	93.75
512.265	89.75
512.481	95.75
512.698	88.75
512.914	82.75
513.13	80.75
513.346	74.75
513.562	74.75
513.778	98.75
513.994	85.75
514.21	71.75
514.426	95.75
514.642	90.75
514.858	78.75
515.074	84.75
515.29	83.75
515.506	72.75
515.721	91.75
515.937	90.75
516.153	82.75
516.369	101.75
516.585	81.75
516.801	77.75
517.016	83.75
517.232	77.75
517.448	102.75
517.664	69.75
517.879	86.75
518.095	89.75
518.311	77.75
518.527	90.75
518.742	73.75
518.958	106.75
519.173	81.75
519.389	97.75
