Data from Mixheat2_HRD10591_00013.txt Node
Date: Fri Dec 27 15:09:16 EST 2024
User: Yrep
Spectrometer: HR+D1059
Trigger mode: 1
Integration Time (sec): 1.000000E-1
Scans to average: 1
Electric dark correction enabled: true
Nonlinearity correction enabled: false
Boxcar width: 0
XAxis mode: Wavelengths
Number of Pixels in Spectrum: 2048
>>>>>Begin Spectral Data<<<<<
223.165	-14.75
223.4	-14.75
223.635	-14.75
223.869	-10.75
224.104	-14.75
224.338	-19.75
224.573	-10.75
224.808	-19.75
225.042	-3.75
225.277	-13.75
225.511	-3.75
225.746	5.25
225.98	5.25
226.215	6.25
226.449	9.25
226.683	17.25
226.918	27.25
227.152	41.25
227.387	35.25
227.621	37.25
227.856	36.25
228.09	28.25
228.324	53.25
228.559	67.25
228.793	37.25
229.027	54.25
229.262	58.25
229.496	65.25
229.73	64.25
229.964	54.25
230.199	85.25
230.433	67.25
230.667	71.25
230.901	71.25
231.136	74.25
231.37	74.25
231.604	68.25
231.838	88.25
232.072	66.25
232.306	96.25
232.541	78.25
232.775	101.25
233.009	78.25
233.243	79.25
233.477	76.25
233.711	85.25
233.945	78.25
234.179	71.25
234.413	85.25
234.647	62.25
234.881	77.25
235.115	69.25
235.349	61.25
235.583	92.25
235.817	81.25
236.051	58.25
236.285	79.25
236.519	77.25
236.753	68.25
236.987	64.25
237.221	67.25
237.455	76.25
237.689	79.25
237.922	76.25
238.156	65.25
238.39	69.25
238.624	74.25
238.858	65.25
239.091	63.25
239.325	77.25
239.559	62.25
239.793	77.25
240.027	62.25
240.26	72.25
240.494	82.25
240.728	73.25
240.961	75.25
241.195	79.25
241.429	76.25
241.662	70.25
241.896	77.25
242.13	86.25
242.363	65.25
242.597	72.25
242.83	77.25
243.064	61.25
243.298	79.25
243.531	73.25
243.765	85.25
243.998	90.25
244.232	67.25
244.465	65.25
244.699	79.25
244.932	76.25
245.166	72.25
245.399	78.25
245.633	79.25
245.866	85.25
246.099	64.25
246.333	71.25
246.566	75.25
246.8	63.25
247.033	72.25
247.266	81.25
247.5	80.25
247.733	72.25
247.966	83.25
248.2	76.25
248.433	86.25
248.666	64.25
248.899	66.25
249.133	76.25
249.366	81.25
249.599	72.25
249.832	71.25
250.066	75.25
250.299	72.25
250.532	85.25
250.765	70.25
250.998	59.25
251.231	73.25
251.465	84.25
251.698	75.25
251.931	76.25
252.164	77.25
252.397	75.25
252.63	68.25
252.863	68.25
253.096	63.25
253.329	72.25
253.562	73.25
253.795	82.25
254.028	82.25
254.261	71.25
254.494	76.25
254.727	86.25
254.96	71.25
255.193	79.25
255.426	84.25
255.659	80.25
255.892	77.25
256.124	71.25
256.357	87.25
256.59	60.25
256.823	79.25
257.056	84.25
257.289	70.25
257.521	71.25
257.754	79.25
257.987	61.25
258.22	89.25
258.452	86.25
258.685	79.25
258.918	66.25
259.151	76.25
259.383	75.25
259.616	75.25
259.849	61.25
260.081	76.25
260.314	85.25
260.547	73.25
260.779	69.25
261.012	69.25
261.244	88.25
261.477	78.25
261.71	83.25
261.942	81.25
262.175	76.25
262.407	81.25
262.64	79.25
262.872	78.25
263.105	77.25
263.337	70.25
263.57	90.25
263.802	98.25
264.035	77.25
264.267	79.25
264.499	85.25
264.732	86.25
264.964	70.25
265.197	87.25
265.429	79.25
265.661	85.25
265.894	83.25
266.126	78.25
266.358	68.25
266.591	76.25
266.823	77.25
267.055	88.25
267.287	94.25
267.52	102.25
267.752	67.25
267.984	76.25
268.216	78.25
268.448	71.25
268.681	77.25
268.913	80.25
269.145	82.25
269.377	83.25
269.609	71.25
269.841	81.25
270.073	87.25
270.306	73.25
270.538	79.25
270.77	69.25
271.002	69.25
271.234	91.25
271.466	77.25
271.698	70.25
271.93	94.25
272.162	63.25
272.394	78.25
272.626	82.25
272.858	85.25
273.09	91.25
273.322	78.25
273.553	90.25
273.785	83.25
274.017	82.25
274.249	79.25
274.481	71.25
274.713	71.25
274.945	74.25
275.176	72.25
275.408	83.25
275.64	85.25
275.872	86.25
276.104	83.25
276.335	67.25
276.567	82.25
276.799	90.25
277.031	69.25
277.262	78.25
277.494	78.25
277.726	80.25
277.957	73.25
278.189	77.25
278.421	82.25
278.652	75.25
278.884	73.25
279.115	76.25
279.347	72.25
279.579	72.25
279.81	86.25
280.042	83.25
280.273	78.25
280.505	70.25
280.736	90.25
280.968	93.25
281.199	77.25
281.431	94.25
281.662	80.25
281.894	83.25
282.125	89.25
282.356	79.25
282.588	85.25
282.819	72.25
283.051	70.25
283.282	93.25
283.513	68.25
283.745	74.25
283.976	89.25
284.207	84.25
284.439	83.25
284.67	69.25
284.901	74.25
285.132	87.25
285.364	85.25
285.595	96.25
285.826	92.25
286.057	87.25
286.288	81.25
286.52	78.25
286.751	73.25
286.982	73.25
287.213	85.25
287.444	93.25
287.675	80.25
287.906	70.25
288.138	90.25
288.369	71.25
288.6	74.25
288.831	81.25
289.062	77.25
289.293	89.25
289.524	81.25
289.755	71.25
289.986	78.25
290.217	77.25
290.448	79.25
290.679	81.25
290.91	74.25
291.141	74.25
291.371	91.25
291.602	91.25
291.833	93.25
292.064	74.25
292.295	75.25
292.526	79.25
292.757	71.25
292.987	99.25
293.218	85.25
293.449	83.25
293.68	80.25
293.91	81.25
294.141	91.25
294.372	72.25
294.603	77.25
294.833	83.25
295.064	67.25
295.295	90.25
295.525	82.25
295.756	88.25
295.987	73.25
296.217	78.25
296.448	67.25
296.679	89.25
296.909	80.25
297.14	84.25
297.37	83.25
297.601	75.25
297.831	91.25
298.062	78.25
298.292	93.25
298.523	77.25
298.753	77.25
298.984	89.25
299.214	77.25
299.445	100.25
299.675	83.25
299.905	83.25
300.136	80.25
300.366	62.25
300.597	78.25
300.827	81.25
301.057	82.25
301.288	89.25
301.518	79.25
301.748	78.25
301.979	85.25
302.209	81.25
302.439	75.25
302.669	75.25
302.9	77.25
303.13	74.25
303.36	81.25
303.59	82.25
303.82	75.25
304.051	65.25
304.281	87.25
304.511	91.25
304.741	72.25
304.971	84.25
305.201	103.25
305.431	82.25
305.661	80.25
305.891	85.25
306.121	83.25
306.352	94.25
306.582	94.25
306.812	86.25
307.042	69.25
307.272	76.25
307.502	91.25
307.731	89.25
307.961	67.25
308.191	85.25
308.421	76.25
308.651	99.25
308.881	75.25
309.111	90.25
309.341	91.25
309.571	79.25
309.8	89.25
310.03	84.25
310.26	63.25
310.49	78.25
310.72	87.25
310.949	84.25
311.179	87.25
311.409	86.25
311.639	87.25
311.868	77.25
312.098	94.25
312.328	75.25
312.557	69.25
312.787	82.25
313.017	101.25
313.246	93.25
313.476	74.25
313.706	83.25
313.935	74.25
314.165	87.25
314.394	73.25
314.624	74.25
314.853	74.25
315.083	87.25
315.312	88.25
315.542	79.25
315.771	82.25
316.001	78.25
316.23	85.25
316.46	87.25
316.689	76.25
316.919	73.25
317.148	72.25
317.377	78.25
317.607	85.25
317.836	63.25
318.065	73.25
318.295	76.25
318.524	80.25
318.753	83.25
318.983	68.25
319.212	87.25
319.441	84.25
319.67	90.25
319.9	83.25
320.129	89.25
320.358	79.25
320.587	73.25
320.816	86.25
321.046	76.25
321.275	78.25
321.504	85.25
321.733	83.25
321.962	80.25
322.191	75.25
322.42	82.25
322.649	82.25
322.878	78.25
323.108	75.25
323.337	71.25
323.566	86.25
323.795	67.25
324.024	71.25
324.253	77.25
324.482	75.25
324.71	89.25
324.939	81.25
325.168	80.25
325.397	75.25
325.626	78.25
325.855	93.25
326.084	94.25
326.313	73.25
326.542	92.25
326.77	77.25
326.999	83.25
327.228	83.25
327.457	78.25
327.686	83.25
327.914	68.25
328.143	88.25
328.372	86.25
328.6	90.25
328.829	88.25
329.058	82.25
329.287	83.25
329.515	72.25
329.744	83.25
329.972	87.25
330.201	63.25
330.43	74.25
330.658	78.25
330.887	83.25
331.115	73.25
331.344	75.25
331.572	82.25
331.801	61.25
332.03	93.25
332.258	80.25
332.486	78.25
332.715	84.25
332.943	83.25
333.172	82.25
333.4	86.25
333.629	80.25
333.857	70.25
334.085	77.25
334.314	70.25
334.542	63.25
334.771	77.25
334.999	87.25
335.227	77.25
335.455	74.25
335.684	94.25
335.912	80.25
336.14	85.25
336.369	82.25
336.597	85.25
336.825	87.25
337.053	75.25
337.281	76.25
337.51	77.25
337.738	86.25
337.966	89.25
338.194	68.25
338.422	87.25
338.65	93.25
338.878	94.25
339.106	74.25
339.334	77.25
339.562	79.25
339.79	77.25
340.018	82.25
340.246	87.25
340.474	76.25
340.702	70.25
340.93	91.25
341.158	80.25
341.386	84.25
341.614	88.25
341.842	68.25
342.07	69.25
342.298	66.25
342.526	77.25
342.754	84.25
342.981	82.25
343.209	71.25
343.437	92.25
343.665	77.25
343.893	79.25
344.12	74.25
344.348	89.25
344.576	86.25
344.804	80.25
345.031	82.25
345.259	87.25
345.487	98.25
345.714	81.25
345.942	88.25
346.17	93.25
346.397	79.25
346.625	82.25
346.853	64.25
347.08	85.25
347.308	89.25
347.535	74.25
347.763	77.25
347.99	74.25
348.218	88.25
348.445	78.25
348.673	78.25
348.9	85.25
349.128	85.25
349.355	87.25
349.583	75.25
349.81	66.25
350.037	77.25
350.265	76.25
350.492	84.25
350.72	67.25
350.947	84.25
351.174	71.25
351.402	85.25
351.629	87.25
351.856	84.25
352.083	87.25
352.311	75.25
352.538	79.25
352.765	81.25
352.992	94.25
353.22	92.25
353.447	98.25
353.674	86.25
353.901	84.25
354.128	69.25
354.355	81.25
354.583	81.25
354.81	71.25
355.037	77.25
355.264	69.25
355.491	92.25
355.718	90.25
355.945	81.25
356.172	91.25
356.399	82.25
356.626	72.25
356.853	86.25
357.08	83.25
357.307	87.25
357.534	87.25
357.761	87.25
357.988	87.25
358.215	82.25
358.441	79.25
358.668	87.25
358.895	87.25
359.122	84.25
359.349	81.25
359.576	90.25
359.802	84.25
360.029	64.25
360.256	75.25
360.483	101.25
360.709	82.25
360.936	86.25
361.163	85.25
361.39	91.25
361.616	84.25
361.843	77.25
362.07	77.25
362.296	60.25
362.523	81.25
362.749	90.25
362.976	83.25
363.203	89.25
363.429	84.25
363.656	88.25
363.882	82.25
364.109	101.25
364.335	75.25
364.562	83.25
364.788	77.25
365.015	77.25
365.241	78.25
365.468	78.25
365.694	81.25
365.92	81.25
366.147	75.25
366.373	85.25
366.599	84.25
366.826	90.25
367.052	79.25
367.278	73.25
367.505	74.25
367.731	83.25
367.957	75.25
368.184	82.25
368.41	88.25
368.636	78.25
368.862	91.25
369.089	79.25
369.315	86.25
369.541	83.25
369.767	79.25
369.993	83.25
370.219	84.25
370.445	101.25
370.672	75.25
370.898	75.25
371.124	93.25
371.35	92.25
371.576	78.25
371.802	82.25
372.028	85.25
372.254	101.25
372.48	89.25
372.706	87.25
372.932	67.25
373.158	82.25
373.384	94.25
373.61	83.25
373.835	67.25
374.061	88.25
374.287	88.25
374.513	91.25
374.739	88.25
374.965	81.25
375.191	84.25
375.416	80.25
375.642	72.25
375.868	83.25
376.094	83.25
376.319	86.25
376.545	70.25
376.771	74.25
376.997	82.25
377.222	77.25
377.448	92.25
377.674	73.25
377.899	84.25
378.125	74.25
378.35	86.25
378.576	79.25
378.802	91.25
379.027	90.25
379.253	75.25
379.478	81.25
379.704	80.25
379.929	73.25
380.155	74.25
380.38	81.25
380.606	74.25
380.831	91.25
381.057	94.25
381.282	89.25
381.507	89.25
381.733	77.25
381.958	82.25
382.184	76.25
382.409	83.25
382.634	73.25
382.86	90.25
383.085	86.25
383.31	80.25
383.535	73.25
383.761	91.25
383.986	84.25
384.211	80.25
384.436	62.25
384.662	73.25
384.887	78.25
385.112	88.25
385.337	79.25
385.562	83.25
385.787	74.25
386.013	79.25
386.238	82.25
386.463	76.25
386.688	93.25
386.913	75.25
387.138	74.25
387.363	78.25
387.588	81.25
387.813	102.25
388.038	74.25
388.263	81.25
388.488	70.25
388.713	81.25
388.938	72.25
389.163	85.25
389.387	92.25
389.612	83.25
389.837	88.25
390.062	75.25
390.287	85.25
390.512	77.25
390.736	66.25
390.961	88.25
391.186	72.25
391.411	96.25
391.636	85.25
391.86	83.25
392.085	83.25
392.31	77.25
392.534	74.25
392.759	77.25
392.984	73.25
393.208	110.25
393.433	117.25
393.658	109.25
393.882	89.25
394.107	91.25
394.331	99.25
394.556	89.25
394.78	77.25
395.005	77.25
395.229	76.25
395.454	82.25
395.678	86.25
395.903	98.25
396.127	88.25
396.352	95.25
396.576	86.25
396.801	101.25
397.025	115.25
397.249	92.25
397.474	88.25
397.698	73.25
397.922	81.25
398.147	74.25
398.371	73.25
398.595	82.25
398.82	86.25
399.044	92.25
399.268	89.25
399.492	80.25
399.717	82.25
399.941	84.25
400.165	85.25
400.389	86.25
400.613	78.25
400.837	79.25
401.062	81.25
401.286	77.25
401.51	72.25
401.734	76.25
401.958	97.25
402.182	79.25
402.406	84.25
402.63	84.25
402.854	94.25
403.078	90.25
403.302	86.25
403.526	82.25
403.75	87.25
403.974	87.25
404.198	95.25
404.422	127.25
404.645	128.25
404.869	107.25
405.093	94.25
405.317	87.25
405.541	92.25
405.765	83.25
405.988	82.25
406.212	77.25
406.436	96.25
406.66	79.25
406.883	75.25
407.107	76.25
407.331	81.25
407.555	91.25
407.778	59.25
408.002	84.25
408.226	81.25
408.449	88.25
408.673	84.25
408.896	82.25
409.12	83.25
409.344	84.25
409.567	84.25
409.791	78.25
410.014	79.25
410.238	90.25
410.461	84.25
410.685	79.25
410.908	83.25
411.132	88.25
411.355	81.25
411.578	72.25
411.802	71.25
412.025	76.25
412.249	63.25
412.472	87.25
412.695	63.25
412.919	59.25
413.142	91.25
413.365	81.25
413.589	89.25
413.812	70.25
414.035	75.25
414.258	79.25
414.482	80.25
414.705	71.25
414.928	70.25
415.151	76.25
415.374	69.25
415.597	80.25
415.821	81.25
416.044	80.25
416.267	78.25
416.49	89.25
416.713	71.25
416.936	78.25
417.159	90.25
417.382	77.25
417.605	91.25
417.828	79.25
418.051	63.25
418.274	91.25
418.497	81.25
418.72	77.25
418.943	73.25
419.166	92.25
419.389	82.25
419.611	102.25
419.834	83.25
420.057	81.25
420.28	69.25
420.503	79.25
420.726	81.25
420.948	91.25
421.171	78.25
421.394	68.25
421.617	72.25
421.839	94.25
422.062	80.25
422.285	96.25
422.507	126.25
422.73	169.25
422.953	141.25
423.175	106.25
423.398	76.25
423.621	91.25
423.843	70.25
424.066	88.25
424.288	75.25
424.511	65.25
424.733	75.25
424.956	83.25
425.178	82.25
425.401	70.25
425.623	77.25
425.846	69.25
426.068	67.25
426.291	74.25
426.513	82.25
426.735	81.25
426.958	79.25
427.18	68.25
427.402	81.25
427.625	79.25
427.847	80.25
428.069	85.25
428.292	84.25
428.514	90.25
428.736	87.25
428.958	85.25
429.181	99.25
429.403	91.25
429.625	73.25
429.847	97.25
430.069	101.25
430.292	110.25
430.514	103.25
430.736	91.25
430.958	90.25
431.18	79.25
431.402	64.25
431.624	78.25
431.846	86.25
432.068	99.25
432.29	76.25
432.512	65.25
432.734	77.25
432.956	86.25
433.178	69.25
433.4	76.25
433.622	82.25
433.844	87.25
434.066	77.25
434.287	87.25
434.509	90.25
434.731	89.25
434.953	75.25
435.175	72.25
435.397	77.25
435.618	73.25
435.84	73.25
436.062	77.25
436.284	69.25
436.505	74.25
436.727	87.25
436.949	80.25
437.17	80.25
437.392	75.25
437.614	64.25
437.835	75.25
438.057	65.25
438.278	76.25
438.5	78.25
438.721	81.25
438.943	83.25
439.165	81.25
439.386	75.25
439.608	84.25
439.829	76.25
440.05	89.25
440.272	75.25
440.493	90.25
440.715	79.25
440.936	84.25
441.158	87.25
441.379	77.25
441.6	81.25
441.822	82.25
442.043	84.25
442.264	94.25
442.486	98.25
442.707	92.25
442.928	91.25
443.149	82.25
443.371	108.25
443.592	117.25
443.813	103.25
444.034	91.25
444.255	79.25
444.476	73.25
444.698	87.25
444.919	75.25
445.14	145.25
445.361	142.25
445.582	139.25
445.803	116.25
446.024	90.25
446.245	93.25
446.466	89.25
446.687	67.25
446.908	74.25
447.129	77.25
447.35	84.25
447.571	90.25
447.792	81.25
448.013	74.25
448.234	81.25
448.455	85.25
448.675	85.25
448.896	86.25
449.117	83.25
449.338	79.25
449.559	92.25
449.779	76.25
450	68.25
450.221	83.25
450.442	76.25
450.662	67.25
450.883	77.25
451.104	93.25
451.324	85.25
451.545	88.25
451.766	85.25
451.986	74.25
452.207	84.25
452.428	77.25
452.648	93.25
452.869	76.25
453.089	78.25
453.31	83.25
453.53	90.25
453.751	73.25
453.971	85.25
454.192	77.25
454.412	92.25
454.633	83.25
454.853	69.25
455.073	89.25
455.294	87.25
455.514	87.25
455.734	65.25
455.955	80.25
456.175	99.25
456.395	77.25
456.616	76.25
456.836	81.25
457.056	81.25
457.276	84.25
457.497	83.25
457.717	94.25
457.937	81.25
458.157	89.25
458.377	80.25
458.598	76.25
458.818	76.25
459.038	68.25
459.258	77.25
459.478	83.25
459.698	68.25
459.918	78.25
460.138	74.25
460.358	72.25
460.578	77.25
460.798	77.25
461.018	87.25
461.238	74.25
461.458	98.25
461.678	83.25
461.898	83.25
462.118	81.25
462.338	86.25
462.558	72.25
462.777	81.25
462.997	67.25
463.217	82.25
463.437	82.25
463.657	80.25
463.876	83.25
464.096	82.25
464.316	77.25
464.536	87.25
464.755	100.25
464.975	89.25
465.195	86.25
465.414	93.25
465.634	70.25
465.854	81.25
466.073	80.25
466.293	81.25
466.512	83.25
466.732	77.25
466.951	80.25
467.171	82.25
467.391	90.25
467.61	82.25
467.829	78.25
468.049	73.25
468.268	72.25
468.488	80.25
468.707	69.25
468.927	85.25
469.146	93.25
469.365	87.25
469.585	94.25
469.804	74.25
470.023	86.25
470.243	83.25
470.462	82.25
470.681	83.25
470.901	87.25
471.12	81.25
471.339	79.25
471.558	69.25
471.777	64.25
471.997	77.25
472.216	82.25
472.435	74.25
472.654	81.25
472.873	83.25
473.092	85.25
473.311	83.25
473.53	78.25
473.749	87.25
473.968	70.25
474.187	90.25
474.406	77.25
474.625	89.25
474.844	88.25
475.063	70.25
475.282	88.25
475.501	86.25
475.72	69.25
475.939	85.25
476.158	76.25
476.377	77.25
476.596	79.25
476.814	63.25
477.033	77.25
477.252	76.25
477.471	79.25
477.69	72.25
477.908	84.25
478.127	90.25
478.346	90.25
478.564	78.25
478.783	83.25
479.002	74.25
479.22	71.25
479.439	71.25
479.658	81.25
479.876	86.25
480.095	73.25
480.313	76.25
480.532	86.25
480.751	88.25
480.969	87.25
481.188	79.25
481.406	80.25
481.624	84.25
481.843	95.25
482.061	79.25
482.28	85.25
482.498	89.25
482.717	71.25
482.935	83.25
483.153	76.25
483.372	89.25
483.59	93.25
483.808	57.25
484.027	69.25
484.245	81.25
484.463	82.25
484.681	83.25
484.9	78.25
485.118	67.25
485.336	87.25
485.554	88.25
485.772	93.25
485.99	86.25
486.209	89.25
486.427	79.25
486.645	85.25
486.863	80.25
487.081	70.25
487.299	76.25
487.517	86.25
487.735	68.25
487.953	76.25
488.171	90.25
488.389	78.25
488.607	86.25
488.825	78.25
489.043	78.25
489.261	84.25
489.479	80.25
489.696	88.25
489.914	68.25
490.132	63.25
490.35	81.25
490.568	87.25
490.786	96.25
491.003	74.25
491.221	79.25
491.439	70.25
491.657	82.25
491.874	90.25
492.092	78.25
492.31	75.25
492.527	84.25
492.745	84.25
492.963	85.25
493.18	84.25
493.398	82.25
493.615	88.25
493.833	73.25
494.05	77.25
494.268	88.25
494.485	82.25
494.703	92.25
494.92	87.25
495.138	84.25
495.355	81.25
495.573	78.25
495.79	87.25
496.008	80.25
496.225	74.25
496.442	91.25
496.66	85.25
496.877	88.25
497.094	94.25
497.312	87.25
497.529	86.25
497.746	90.25
497.963	86.25
498.181	80.25
498.398	92.25
498.615	83.25
498.832	68.25
499.049	94.25
499.267	89.25
499.484	83.25
499.701	71.25
499.918	93.25
500.135	85.25
500.352	82.25
500.569	78.25
500.786	81.25
501.003	82.25
501.22	94.25
501.437	85.25
501.654	83.25
501.871	81.25
502.088	82.25
502.305	88.25
502.522	84.25
502.739	78.25
502.956	88.25
503.172	81.25
503.389	89.25
503.606	92.25
503.823	80.25
504.04	86.25
504.256	80.25
504.473	79.25
504.69	82.25
504.907	68.25
505.123	87.25
505.34	77.25
505.557	77.25
505.773	89.25
505.99	90.25
506.207	77.25
506.423	77.25
506.64	79.25
506.856	94.25
507.073	82.25
507.289	90.25
507.506	91.25
507.722	76.25
507.939	76.25
508.155	78.25
508.372	78.25
508.588	80.25
508.805	71.25
509.021	75.25
509.238	73.25
509.454	78.25
509.67	86.25
509.887	98.25
510.103	85.25
510.319	82.25
510.536	90.25
510.752	66.25
510.968	80.25
511.184	91.25
511.401	82.25
511.617	82.25
511.833	72.25
512.049	82.25
512.265	96.25
512.481	87.25
512.698	85.25
512.914	86.25
513.13	81.25
513.346	91.25
513.562	75.25
513.778	75.25
513.994	83.25
514.21	71.25
514.426	67.25
514.642	89.25
514.858	78.25
515.074	90.25
515.29	76.25
515.506	85.25
515.721	85.25
515.937	84.25
516.153	84.25
516.369	75.25
516.585	80.25
516.801	79.25
517.016	78.25
517.232	84.25
517.448	90.25
517.664	89.25
517.879	94.25
518.095	85.25
518.311	82.25
518.527	88.25
518.742	70.25
518.958	68.25
519.173	89.25
519.389	91.25
519.605	79.25
519.82	82.25
