Data from Mixheat2_HRD10591_00007.txt Node
Date: Fri Dec 27 15:09:10 EST 2024
User: Yrep
Spectrometer: HR+D1059
Trigger mode: 1
Integration Time (sec): 1.000000E-1
Scans to average: 1
Electric dark correction enabled: true
Nonlinearity correction enabled: false
Boxcar width: 0
XAxis mode: Wavelengths
Number of Pixels in Spectrum: 2048
>>>>>Begin Spectral Data<<<<<
223.165	-7.44
223.4	-7.44
223.635	-7.44
223.869	-22.44
224.104	-19.44
224.338	-15.44
224.573	-3.44
224.808	-1.44
225.042	-10.44
225.277	-0.44
225.511	-11.44
225.746	5.56
225.98	3.56
226.215	14.56
226.449	9.56
226.683	9.56
226.918	22.56
227.152	26.56
227.387	33.56
227.621	52.56
227.856	47.56
228.09	54.56
228.324	57.56
228.559	61.56
228.793	27.56
229.027	70.56
229.262	70.56
229.496	56.56
229.73	74.56
229.964	67.56
230.199	69.56
230.433	77.56
230.667	83.56
230.901	70.56
231.136	75.56
231.37	91.56
231.604	74.56
231.838	84.56
232.072	84.56
232.306	73.56
232.541	83.56
232.775	87.56
233.009	83.56
233.243	76.56
233.477	73.56
233.711	78.56
233.945	72.56
234.179	84.56
234.413	73.56
234.647	77.56
234.881	69.56
235.115	73.56
235.349	80.56
235.583	73.56
235.817	84.56
236.051	83.56
236.285	86.56
236.519	66.56
236.753	76.56
236.987	75.56
237.221	77.56
237.455	75.56
237.689	60.56
237.922	81.56
238.156	71.56
238.39	67.56
238.624	66.56
238.858	80.56
239.091	60.56
239.325	79.56
239.559	70.56
239.793	73.56
240.027	69.56
240.26	65.56
240.494	80.56
240.728	62.56
240.961	81.56
241.195	68.56
241.429	69.56
241.662	66.56
241.896	76.56
242.13	66.56
242.363	76.56
242.597	79.56
242.83	77.56
243.064	72.56
243.298	77.56
243.531	76.56
243.765	73.56
243.998	91.56
244.232	74.56
244.465	86.56
244.699	76.56
244.932	79.56
245.166	67.56
245.399	76.56
245.633	72.56
245.866	65.56
246.099	77.56
246.333	78.56
246.566	74.56
246.8	75.56
247.033	79.56
247.266	73.56
247.5	79.56
247.733	94.56
247.966	71.56
248.2	69.56
248.433	83.56
248.666	68.56
248.899	77.56
249.133	77.56
249.366	82.56
249.599	68.56
249.832	80.56
250.066	84.56
250.299	74.56
250.532	88.56
250.765	89.56
250.998	77.56
251.231	78.56
251.465	83.56
251.698	77.56
251.931	81.56
252.164	77.56
252.397	58.56
252.63	91.56
252.863	78.56
253.096	84.56
253.329	85.56
253.562	81.56
253.795	87.56
254.028	91.56
254.261	82.56
254.494	80.56
254.727	78.56
254.96	72.56
255.193	75.56
255.426	66.56
255.659	86.56
255.892	81.56
256.124	54.56
256.357	70.56
256.59	84.56
256.823	67.56
257.056	84.56
257.289	81.56
257.521	77.56
257.754	69.56
257.987	88.56
258.22	80.56
258.452	89.56
258.685	71.56
258.918	70.56
259.151	83.56
259.383	81.56
259.616	86.56
259.849	84.56
260.081	75.56
260.314	75.56
260.547	86.56
260.779	81.56
261.012	85.56
261.244	80.56
261.477	89.56
261.71	81.56
261.942	81.56
262.175	76.56
262.407	77.56
262.64	74.56
262.872	74.56
263.105	78.56
263.337	87.56
263.57	80.56
263.802	92.56
264.035	69.56
264.267	74.56
264.499	75.56
264.732	86.56
264.964	82.56
265.197	81.56
265.429	89.56
265.661	80.56
265.894	83.56
266.126	88.56
266.358	78.56
266.591	75.56
266.823	81.56
267.055	81.56
267.287	76.56
267.52	76.56
267.752	83.56
267.984	81.56
268.216	84.56
268.448	71.56
268.681	79.56
268.913	79.56
269.145	83.56
269.377	81.56
269.609	88.56
269.841	81.56
270.073	75.56
270.306	86.56
270.538	89.56
270.77	82.56
271.002	62.56
271.234	78.56
271.466	81.56
271.698	90.56
271.93	80.56
272.162	80.56
272.394	81.56
272.626	78.56
272.858	100.56
273.09	91.56
273.322	70.56
273.553	93.56
273.785	84.56
274.017	91.56
274.249	74.56
274.481	88.56
274.713	83.56
274.945	73.56
275.176	68.56
275.408	73.56
275.64	90.56
275.872	74.56
276.104	88.56
276.335	84.56
276.567	73.56
276.799	69.56
277.031	76.56
277.262	85.56
277.494	90.56
277.726	91.56
277.957	89.56
278.189	70.56
278.421	80.56
278.652	77.56
278.884	85.56
279.115	81.56
279.347	82.56
279.579	81.56
279.81	76.56
280.042	75.56
280.273	75.56
280.505	80.56
280.736	79.56
280.968	91.56
281.199	76.56
281.431	81.56
281.662	73.56
281.894	70.56
282.125	74.56
282.356	79.56
282.588	82.56
282.819	72.56
283.051	96.56
283.282	78.56
283.513	90.56
283.745	84.56
283.976	79.56
284.207	85.56
284.439	77.56
284.67	93.56
284.901	85.56
285.132	90.56
285.364	72.56
285.595	87.56
285.826	76.56
286.057	89.56
286.288	97.56
286.52	87.56
286.751	76.56
286.982	78.56
287.213	83.56
287.444	75.56
287.675	80.56
287.906	76.56
288.138	65.56
288.369	80.56
288.6	86.56
288.831	92.56
289.062	90.56
289.293	87.56
289.524	82.56
289.755	88.56
289.986	78.56
290.217	75.56
290.448	73.56
290.679	76.56
290.91	82.56
291.141	84.56
291.371	76.56
291.602	89.56
291.833	84.56
292.064	86.56
292.295	73.56
292.526	72.56
292.757	83.56
292.987	70.56
293.218	91.56
293.449	82.56
293.68	84.56
293.91	88.56
294.141	91.56
294.372	87.56
294.603	75.56
294.833	76.56
295.064	90.56
295.295	86.56
295.525	78.56
295.756	89.56
295.987	77.56
296.217	68.56
296.448	75.56
296.679	78.56
296.909	99.56
297.14	96.56
297.37	80.56
297.601	92.56
297.831	83.56
298.062	92.56
298.292	83.56
298.523	77.56
298.753	73.56
298.984	82.56
299.214	84.56
299.445	75.56
299.675	79.56
299.905	88.56
300.136	85.56
300.366	79.56
300.597	94.56
300.827	85.56
301.057	81.56
301.288	72.56
301.518	74.56
301.748	86.56
301.979	104.56
302.209	80.56
302.439	89.56
302.669	101.56
302.9	83.56
303.13	70.56
303.36	86.56
303.59	81.56
303.82	74.56
304.051	83.56
304.281	85.56
304.511	87.56
304.741	87.56
304.971	85.56
305.201	90.56
305.431	72.56
305.661	82.56
305.891	88.56
306.121	81.56
306.352	80.56
306.582	81.56
306.812	86.56
307.042	80.56
307.272	74.56
307.502	86.56
307.731	88.56
307.961	82.56
308.191	97.56
308.421	83.56
308.651	98.56
308.881	96.56
309.111	87.56
309.341	98.56
309.571	90.56
309.8	89.56
310.03	86.56
310.26	80.56
310.49	88.56
310.72	74.56
310.949	76.56
311.179	80.56
311.409	95.56
311.639	74.56
311.868	89.56
312.098	82.56
312.328	81.56
312.557	77.56
312.787	81.56
313.017	67.56
313.246	78.56
313.476	70.56
313.706	88.56
313.935	88.56
314.165	80.56
314.394	77.56
314.624	88.56
314.853	77.56
315.083	89.56
315.312	62.56
315.542	74.56
315.771	80.56
316.001	80.56
316.23	69.56
316.46	79.56
316.689	76.56
316.919	93.56
317.148	65.56
317.377	100.56
317.607	88.56
317.836	85.56
318.065	72.56
318.295	79.56
318.524	75.56
318.753	87.56
318.983	85.56
319.212	84.56
319.441	93.56
319.67	88.56
319.9	98.56
320.129	89.56
320.358	87.56
320.587	88.56
320.816	88.56
321.046	74.56
321.275	93.56
321.504	97.56
321.733	76.56
321.962	89.56
322.191	88.56
322.42	72.56
322.649	91.56
322.878	93.56
323.108	89.56
323.337	96.56
323.566	88.56
323.795	94.56
324.024	79.56
324.253	84.56
324.482	74.56
324.71	93.56
324.939	85.56
325.168	72.56
325.397	81.56
325.626	84.56
325.855	84.56
326.084	80.56
326.313	80.56
326.542	81.56
326.77	82.56
326.999	66.56
327.228	98.56
327.457	76.56
327.686	78.56
327.914	76.56
328.143	76.56
328.372	96.56
328.6	98.56
328.829	88.56
329.058	77.56
329.287	73.56
329.515	86.56
329.744	94.56
329.972	86.56
330.201	77.56
330.43	81.56
330.658	76.56
330.887	70.56
331.115	77.56
331.344	90.56
331.572	82.56
331.801	74.56
332.03	84.56
332.258	86.56
332.486	81.56
332.715	79.56
332.943	84.56
333.172	78.56
333.4	76.56
333.629	89.56
333.857	84.56
334.085	87.56
334.314	84.56
334.542	70.56
334.771	92.56
334.999	89.56
335.227	76.56
335.455	80.56
335.684	77.56
335.912	87.56
336.14	88.56
336.369	75.56
336.597	80.56
336.825	80.56
337.053	85.56
337.281	72.56
337.51	84.56
337.738	87.56
337.966	93.56
338.194	86.56
338.422	80.56
338.65	74.56
338.878	94.56
339.106	72.56
339.334	86.56
339.562	75.56
339.79	88.56
340.018	82.56
340.246	88.56
340.474	92.56
340.702	88.56
340.93	81.56
341.158	86.56
341.386	92.56
341.614	83.56
341.842	90.56
342.07	85.56
342.298	76.56
342.526	71.56
342.754	81.56
342.981	92.56
343.209	80.56
343.437	94.56
343.665	79.56
343.893	89.56
344.12	84.56
344.348	77.56
344.576	86.56
344.804	90.56
345.031	67.56
345.259	94.56
345.487	86.56
345.714	87.56
345.942	74.56
346.17	76.56
346.397	96.56
346.625	80.56
346.853	81.56
347.08	90.56
347.308	95.56
347.535	78.56
347.763	89.56
347.99	86.56
348.218	83.56
348.445	100.56
348.673	74.56
348.9	84.56
349.128	81.56
349.355	96.56
349.583	93.56
349.81	80.56
350.037	80.56
350.265	79.56
350.492	97.56
350.72	83.56
350.947	76.56
351.174	92.56
351.402	90.56
351.629	74.56
351.856	76.56
352.083	70.56
352.311	82.56
352.538	84.56
352.765	102.56
352.992	96.56
353.22	101.56
353.447	70.56
353.674	75.56
353.901	93.56
354.128	72.56
354.355	80.56
354.583	93.56
354.81	89.56
355.037	78.56
355.264	65.56
355.491	82.56
355.718	88.56
355.945	83.56
356.172	74.56
356.399	68.56
356.626	72.56
356.853	70.56
357.08	83.56
357.307	68.56
357.534	75.56
357.761	77.56
357.988	76.56
358.215	77.56
358.441	77.56
358.668	84.56
358.895	104.56
359.122	98.56
359.349	79.56
359.576	76.56
359.802	88.56
360.029	90.56
360.256	80.56
360.483	78.56
360.709	79.56
360.936	87.56
361.163	86.56
361.39	63.56
361.616	85.56
361.843	97.56
362.07	91.56
362.296	90.56
362.523	72.56
362.749	80.56
362.976	90.56
363.203	77.56
363.429	80.56
363.656	83.56
363.882	75.56
364.109	95.56
364.335	79.56
364.562	90.56
364.788	78.56
365.015	87.56
365.241	85.56
365.468	86.56
365.694	91.56
365.92	86.56
366.147	54.56
366.373	69.56
366.599	78.56
366.826	84.56
367.052	82.56
367.278	98.56
367.505	76.56
367.731	76.56
367.957	90.56
368.184	87.56
368.41	81.56
368.636	90.56
368.862	80.56
369.089	80.56
369.315	94.56
369.541	79.56
369.767	84.56
369.993	97.56
370.219	80.56
370.445	80.56
370.672	87.56
370.898	82.56
371.124	71.56
371.35	80.56
371.576	72.56
371.802	78.56
372.028	70.56
372.254	77.56
372.48	78.56
372.706	84.56
372.932	78.56
373.158	81.56
373.384	103.56
373.61	72.56
373.835	90.56
374.061	82.56
374.287	72.56
374.513	82.56
374.739	78.56
374.965	90.56
375.191	92.56
375.416	86.56
375.642	71.56
375.868	81.56
376.094	83.56
376.319	77.56
376.545	66.56
376.771	74.56
376.997	86.56
377.222	85.56
377.448	89.56
377.674	80.56
377.899	80.56
378.125	78.56
378.35	85.56
378.576	91.56
378.802	77.56
379.027	84.56
379.253	82.56
379.478	81.56
379.704	93.56
379.929	73.56
380.155	84.56
380.38	82.56
380.606	92.56
380.831	83.56
381.057	90.56
381.282	82.56
381.507	81.56
381.733	77.56
381.958	85.56
382.184	67.56
382.409	79.56
382.634	85.56
382.86	83.56
383.085	85.56
383.31	79.56
383.535	94.56
383.761	90.56
383.986	71.56
384.211	74.56
384.436	83.56
384.662	91.56
384.887	69.56
385.112	72.56
385.337	83.56
385.562	94.56
385.787	85.56
386.013	80.56
386.238	77.56
386.463	85.56
386.688	88.56
386.913	68.56
387.138	84.56
387.363	96.56
387.588	94.56
387.813	78.56
388.038	75.56
388.263	77.56
388.488	79.56
388.713	81.56
388.938	89.56
389.163	74.56
389.387	73.56
389.612	82.56
389.837	74.56
390.062	82.56
390.287	80.56
390.512	66.56
390.736	85.56
390.961	77.56
391.186	85.56
391.411	75.56
391.636	71.56
391.86	87.56
392.085	76.56
392.31	78.56
392.534	84.56
392.759	81.56
392.984	84.56
393.208	112.56
393.433	112.56
393.658	101.56
393.882	67.56
394.107	72.56
394.331	83.56
394.556	100.56
394.78	73.56
395.005	78.56
395.229	82.56
395.454	84.56
395.678	90.56
395.903	90.56
396.127	82.56
396.352	91.56
396.576	82.56
396.801	97.56
397.025	102.56
397.249	93.56
397.474	86.56
397.698	90.56
397.922	72.56
398.147	89.56
398.371	74.56
398.595	88.56
398.82	88.56
399.044	79.56
399.268	85.56
399.492	102.56
399.717	77.56
399.941	79.56
400.165	73.56
400.389	82.56
400.613	85.56
400.837	85.56
401.062	71.56
401.286	72.56
401.51	97.56
401.734	88.56
401.958	81.56
402.182	86.56
402.406	84.56
402.63	65.56
402.854	73.56
403.078	82.56
403.302	82.56
403.526	82.56
403.75	91.56
403.974	86.56
404.198	97.56
404.422	118.56
404.645	116.56
404.869	118.56
405.093	85.56
405.317	95.56
405.541	81.56
405.765	90.56
405.988	78.56
406.212	72.56
406.436	83.56
406.66	97.56
406.883	71.56
407.107	73.56
407.331	82.56
407.555	83.56
407.778	78.56
408.002	68.56
408.226	77.56
408.449	71.56
408.673	76.56
408.896	91.56
409.12	82.56
409.344	68.56
409.567	84.56
409.791	84.56
410.014	76.56
410.238	81.56
410.461	78.56
410.685	87.56
410.908	101.56
411.132	84.56
411.355	86.56
411.578	62.56
411.802	74.56
412.025	77.56
412.249	75.56
412.472	84.56
412.695	90.56
412.919	80.56
413.142	81.56
413.365	81.56
413.589	69.56
413.812	81.56
414.035	80.56
414.258	76.56
414.482	75.56
414.705	79.56
414.928	76.56
415.151	91.56
415.374	69.56
415.597	88.56
415.821	87.56
416.044	64.56
416.267	77.56
416.49	79.56
416.713	81.56
416.936	78.56
417.159	73.56
417.382	82.56
417.605	80.56
417.828	74.56
418.051	77.56
418.274	73.56
418.497	84.56
418.72	82.56
418.943	92.56
419.166	79.56
419.389	72.56
419.611	81.56
419.834	69.56
420.057	90.56
420.28	61.56
420.503	84.56
420.726	90.56
420.948	80.56
421.171	87.56
421.394	97.56
421.617	76.56
421.839	92.56
422.062	93.56
422.285	100.56
422.507	124.56
422.73	138.56
422.953	147.56
423.175	96.56
423.398	75.56
423.621	92.56
423.843	78.56
424.066	94.56
424.288	82.56
424.511	89.56
424.733	86.56
424.956	80.56
425.178	74.56
425.401	81.56
425.623	74.56
425.846	73.56
426.068	94.56
426.291	81.56
426.513	68.56
426.735	81.56
426.958	76.56
427.18	76.56
427.402	87.56
427.625	78.56
427.847	86.56
428.069	70.56
428.292	86.56
428.514	93.56
428.736	78.56
428.958	84.56
429.181	90.56
429.403	89.56
429.625	96.56
429.847	87.56
430.069	96.56
430.292	102.56
430.514	104.56
430.736	75.56
430.958	87.56
431.18	81.56
431.402	82.56
431.624	79.56
431.846	85.56
432.068	105.56
432.29	78.56
432.512	86.56
432.734	82.56
432.956	85.56
433.178	85.56
433.4	69.56
433.622	71.56
433.844	82.56
434.066	77.56
434.287	62.56
434.509	77.56
434.731	81.56
434.953	78.56
435.175	83.56
435.397	91.56
435.618	89.56
435.84	82.56
436.062	80.56
436.284	84.56
436.505	72.56
436.727	88.56
436.949	83.56
437.17	66.56
437.392	84.56
437.614	78.56
437.835	77.56
438.057	79.56
438.278	76.56
438.5	77.56
438.721	90.56
438.943	84.56
439.165	78.56
439.386	83.56
439.608	84.56
439.829	70.56
440.05	74.56
440.272	89.56
440.493	88.56
440.715	80.56
440.936	87.56
441.158	76.56
441.379	82.56
441.6	83.56
441.822	84.56
442.043	83.56
442.264	85.56
442.486	93.56
442.707	100.56
442.928	76.56
443.149	77.56
443.371	98.56
443.592	109.56
443.813	103.56
444.034	73.56
444.255	84.56
444.476	85.56
444.698	88.56
444.919	84.56
445.14	149.56
445.361	131.56
445.582	124.56
445.803	104.56
446.024	78.56
446.245	73.56
446.466	81.56
446.687	90.56
446.908	90.56
447.129	89.56
447.35	93.56
447.571	76.56
447.792	80.56
448.013	68.56
448.234	81.56
448.455	72.56
448.675	85.56
448.896	98.56
449.117	77.56
449.338	82.56
449.559	84.56
449.779	83.56
450	80.56
450.221	78.56
450.442	85.56
450.662	75.56
450.883	81.56
451.104	75.56
451.324	73.56
451.545	69.56
451.766	75.56
451.986	71.56
452.207	83.56
452.428	77.56
452.648	78.56
452.869	79.56
453.089	88.56
453.31	82.56
453.53	78.56
453.751	77.56
453.971	82.56
454.192	82.56
454.412	76.56
454.633	74.56
454.853	86.56
455.073	89.56
455.294	82.56
455.514	89.56
455.734	82.56
455.955	85.56
456.175	84.56
456.395	78.56
456.616	97.56
456.836	90.56
457.056	82.56
457.276	78.56
457.497	76.56
457.717	76.56
457.937	77.56
458.157	86.56
458.377	89.56
458.598	73.56
458.818	72.56
459.038	85.56
459.258	83.56
459.478	85.56
459.698	78.56
459.918	78.56
460.138	78.56
460.358	82.56
460.578	84.56
460.798	97.56
461.018	92.56
461.238	84.56
461.458	89.56
461.678	83.56
461.898	98.56
462.118	98.56
462.338	71.56
462.558	75.56
462.777	89.56
462.997	78.56
463.217	77.56
463.437	89.56
463.657	72.56
463.876	78.56
464.096	91.56
464.316	90.56
464.536	73.56
464.755	84.56
464.975	95.56
465.195	93.56
465.414	92.56
465.634	86.56
465.854	84.56
466.073	82.56
466.293	70.56
466.512	67.56
466.732	84.56
466.951	85.56
467.171	76.56
467.391	76.56
467.61	78.56
467.829	97.56
468.049	93.56
468.268	74.56
468.488	68.56
468.707	87.56
468.927	74.56
469.146	79.56
469.365	81.56
469.585	76.56
469.804	91.56
470.023	79.56
470.243	84.56
470.462	94.56
470.681	83.56
470.901	92.56
471.12	88.56
471.339	71.56
471.558	75.56
471.777	91.56
471.997	99.56
472.216	83.56
472.435	88.56
472.654	61.56
472.873	74.56
473.092	68.56
473.311	74.56
473.53	72.56
473.749	70.56
473.968	89.56
474.187	69.56
474.406	85.56
474.625	79.56
474.844	80.56
475.063	85.56
475.282	75.56
475.501	76.56
475.72	84.56
475.939	84.56
476.158	76.56
476.377	81.56
476.596	68.56
476.814	80.56
477.033	76.56
477.252	84.56
477.471	90.56
477.69	94.56
477.908	74.56
478.127	95.56
478.346	78.56
478.564	76.56
478.783	104.56
479.002	78.56
479.22	76.56
479.439	86.56
479.658	75.56
479.876	75.56
480.095	81.56
480.313	79.56
480.532	92.56
480.751	82.56
480.969	72.56
481.188	76.56
481.406	78.56
481.624	70.56
481.843	80.56
482.061	66.56
482.28	77.56
482.498	72.56
482.717	82.56
482.935	81.56
483.153	87.56
483.372	81.56
483.59	85.56
483.808	85.56
484.027	86.56
484.245	76.56
484.463	86.56
484.681	98.56
484.9	89.56
485.118	89.56
485.336	89.56
485.554	83.56
485.772	83.56
485.99	86.56
486.209	78.56
486.427	81.56
486.645	77.56
486.863	73.56
487.081	87.56
487.299	82.56
487.517	88.56
487.735	82.56
487.953	90.56
488.171	106.56
488.389	92.56
488.607	80.56
488.825	75.56
489.043	83.56
489.261	85.56
489.479	90.56
489.696	82.56
489.914	78.56
490.132	79.56
490.35	83.56
490.568	89.56
490.786	74.56
491.003	88.56
491.221	74.56
491.439	72.56
491.657	65.56
491.874	77.56
492.092	81.56
492.31	88.56
492.527	78.56
492.745	74.56
492.963	91.56
493.18	88.56
493.398	70.56
493.615	81.56
493.833	90.56
494.05	94.56
494.268	80.56
494.485	75.56
494.703	96.56
494.92	89.56
495.138	82.56
495.355	73.56
495.573	78.56
495.79	82.56
496.008	98.56
496.225	85.56
496.442	89.56
496.66	88.56
496.877	99.56
497.094	108.56
497.312	90.56
497.529	84.56
497.746	80.56
497.963	77.56
498.181	76.56
498.398	94.56
498.615	85.56
498.832	84.56
499.049	77.56
499.267	79.56
499.484	88.56
499.701	82.56
499.918	76.56
500.135	76.56
500.352	89.56
500.569	86.56
500.786	72.56
501.003	80.56
501.22	92.56
501.437	90.56
501.654	93.56
501.871	84.56
502.088	79.56
502.305	80.56
502.522	91.56
502.739	87.56
502.956	84.56
503.172	84.56
503.389	81.56
503.606	83.56
503.823	77.56
504.04	81.56
504.256	98.56
504.473	85.56
504.69	70.56
504.907	79.56
505.123	83.56
505.34	80.56
505.557	79.56
505.773	67.56
505.99	83.56
506.207	100.56
506.423	84.56
506.64	98.56
506.856	80.56
507.073	88.56
507.289	92.56
507.506	80.56
507.722	94.56
507.939	69.56
508.155	70.56
508.372	90.56
508.588	81.56
508.805	82.56
509.021	84.56
509.238	78.56
509.454	74.56
509.67	71.56
509.887	84.56
510.103	86.56
510.319	76.56
510.536	77.56
510.752	80.56
510.968	72.56
511.184	81.56
511.401	91.56
511.617	97.56
511.833	86.56
512.049	80.56
512.265	88.56
512.481	83.56
512.698	92.56
512.914	104.56
513.13	76.56
513.346	90.56
513.562	102.56
513.778	78.56
513.994	93.56
514.21	87.56
514.426	98.56
514.642	83.56
514.858	75.56
515.074	84.56
515.29	91.56
515.506	81.56
515.721	76.56
515.937	83.56
516.153	85.56
516.369	80.56
516.585	79.56
516.801	75.56
517.016	81.56
517.232	55.56
517.448	85.56
517.664	78.56
517.879	88.56
518.095	81.56
518.311	75.56
518.527	76.56
518.742	84.56
518.958	83.56
519.173	92.56
519.389	97.56
519.605	90.56
519.82	100.56
