Data from Mixheat2_HRD10591_00003.txt Node
Date: Fri Dec 27 15:09:06 EST 2024
User: Yrep
Spectrometer: HR+D1059
Trigger mode: 1
Integration Time (sec): 1.000000E-1
Scans to average: 1
Electric dark correction enabled: true
Nonlinearity correction enabled: false
Boxcar width: 0
XAxis mode: Wavelengths
Number of Pixels in Spectrum: 2048
>>>>>Begin Spectral Data<<<<<
223.165	-16.56
223.4	-16.56
223.635	-16.56
223.869	-19.56
224.104	-23.56
224.338	-13.56
224.573	-12.56
224.808	-7.56
225.042	1.44
225.277	0.44
225.511	-3.56
225.746	6.44
225.98	-1.56
226.215	9.44
226.449	16.44
226.683	4.44
226.918	26.44
227.152	33.44
227.387	32.44
227.621	38.44
227.856	48.44
228.09	40.44
228.324	50.44
228.559	37.44
228.793	63.44
229.027	70.44
229.262	71.44
229.496	68.44
229.73	77.44
229.964	72.44
230.199	61.44
230.433	72.44
230.667	66.44
230.901	70.44
231.136	83.44
231.37	91.44
231.604	89.44
231.838	90.44
232.072	88.44
232.306	82.44
232.541	80.44
232.775	81.44
233.009	75.44
233.243	75.44
233.477	70.44
233.711	88.44
233.945	75.44
234.179	79.44
234.413	75.44
234.647	78.44
234.881	76.44
235.115	87.44
235.349	85.44
235.583	75.44
235.817	73.44
236.051	77.44
236.285	84.44
236.519	86.44
236.753	74.44
236.987	77.44
237.221	78.44
237.455	85.44
237.689	71.44
237.922	70.44
238.156	81.44
238.39	72.44
238.624	74.44
238.858	75.44
239.091	65.44
239.325	83.44
239.559	72.44
239.793	68.44
240.027	85.44
240.26	72.44
240.494	83.44
240.728	84.44
240.961	85.44
241.195	79.44
241.429	73.44
241.662	68.44
241.896	84.44
242.13	76.44
242.363	65.44
242.597	85.44
242.83	79.44
243.064	74.44
243.298	91.44
243.531	76.44
243.765	82.44
243.998	84.44
244.232	70.44
244.465	71.44
244.699	74.44
244.932	79.44
245.166	84.44
245.399	91.44
245.633	81.44
245.866	74.44
246.099	79.44
246.333	70.44
246.566	92.44
246.8	64.44
247.033	76.44
247.266	71.44
247.5	82.44
247.733	77.44
247.966	92.44
248.2	83.44
248.433	77.44
248.666	85.44
248.899	82.44
249.133	88.44
249.366	86.44
249.599	84.44
249.832	74.44
250.066	76.44
250.299	82.44
250.532	76.44
250.765	70.44
250.998	73.44
251.231	79.44
251.465	75.44
251.698	76.44
251.931	72.44
252.164	87.44
252.397	77.44
252.63	83.44
252.863	79.44
253.096	65.44
253.329	80.44
253.562	75.44
253.795	73.44
254.028	80.44
254.261	80.44
254.494	78.44
254.727	90.44
254.96	77.44
255.193	84.44
255.426	77.44
255.659	78.44
255.892	86.44
256.124	79.44
256.357	70.44
256.59	72.44
256.823	85.44
257.056	92.44
257.289	83.44
257.521	80.44
257.754	75.44
257.987	84.44
258.22	81.44
258.452	78.44
258.685	75.44
258.918	73.44
259.151	86.44
259.383	88.44
259.616	83.44
259.849	74.44
260.081	92.44
260.314	78.44
260.547	75.44
260.779	71.44
261.012	76.44
261.244	74.44
261.477	86.44
261.71	87.44
261.942	83.44
262.175	85.44
262.407	72.44
262.64	82.44
262.872	78.44
263.105	81.44
263.337	82.44
263.57	89.44
263.802	84.44
264.035	85.44
264.267	80.44
264.499	88.44
264.732	82.44
264.964	80.44
265.197	80.44
265.429	95.44
265.661	83.44
265.894	85.44
266.126	73.44
266.358	89.44
266.591	70.44
266.823	82.44
267.055	80.44
267.287	84.44
267.52	93.44
267.752	85.44
267.984	72.44
268.216	80.44
268.448	85.44
268.681	80.44
268.913	92.44
269.145	84.44
269.377	81.44
269.609	79.44
269.841	86.44
270.073	68.44
270.306	94.44
270.538	76.44
270.77	77.44
271.002	83.44
271.234	92.44
271.466	85.44
271.698	90.44
271.93	79.44
272.162	81.44
272.394	68.44
272.626	70.44
272.858	87.44
273.09	97.44
273.322	95.44
273.553	78.44
273.785	79.44
274.017	78.44
274.249	85.44
274.481	92.44
274.713	87.44
274.945	95.44
275.176	86.44
275.408	66.44
275.64	74.44
275.872	79.44
276.104	77.44
276.335	88.44
276.567	84.44
276.799	77.44
277.031	89.44
277.262	73.44
277.494	87.44
277.726	82.44
277.957	72.44
278.189	85.44
278.421	73.44
278.652	100.44
278.884	90.44
279.115	84.44
279.347	85.44
279.579	93.44
279.81	81.44
280.042	89.44
280.273	77.44
280.505	82.44
280.736	75.44
280.968	88.44
281.199	91.44
281.431	83.44
281.662	86.44
281.894	73.44
282.125	78.44
282.356	81.44
282.588	85.44
282.819	88.44
283.051	84.44
283.282	88.44
283.513	97.44
283.745	80.44
283.976	97.44
284.207	86.44
284.439	90.44
284.67	86.44
284.901	78.44
285.132	88.44
285.364	79.44
285.595	94.44
285.826	84.44
286.057	87.44
286.288	77.44
286.52	86.44
286.751	85.44
286.982	86.44
287.213	84.44
287.444	85.44
287.675	82.44
287.906	83.44
288.138	81.44
288.369	93.44
288.6	72.44
288.831	88.44
289.062	77.44
289.293	86.44
289.524	89.44
289.755	64.44
289.986	82.44
290.217	86.44
290.448	79.44
290.679	84.44
290.91	77.44
291.141	86.44
291.371	80.44
291.602	76.44
291.833	85.44
292.064	98.44
292.295	95.44
292.526	78.44
292.757	95.44
292.987	80.44
293.218	95.44
293.449	101.44
293.68	84.44
293.91	84.44
294.141	81.44
294.372	94.44
294.603	85.44
294.833	76.44
295.064	93.44
295.295	85.44
295.525	84.44
295.756	78.44
295.987	82.44
296.217	80.44
296.448	94.44
296.679	85.44
296.909	81.44
297.14	84.44
297.37	90.44
297.601	82.44
297.831	75.44
298.062	85.44
298.292	84.44
298.523	90.44
298.753	95.44
298.984	88.44
299.214	69.44
299.445	90.44
299.675	97.44
299.905	81.44
300.136	87.44
300.366	80.44
300.597	86.44
300.827	82.44
301.057	81.44
301.288	88.44
301.518	94.44
301.748	85.44
301.979	100.44
302.209	71.44
302.439	101.44
302.669	78.44
302.9	73.44
303.13	98.44
303.36	78.44
303.59	90.44
303.82	80.44
304.051	92.44
304.281	86.44
304.511	97.44
304.741	78.44
304.971	92.44
305.201	90.44
305.431	92.44
305.661	80.44
305.891	78.44
306.121	95.44
306.352	76.44
306.582	89.44
306.812	75.44
307.042	81.44
307.272	84.44
307.502	76.44
307.731	88.44
307.961	82.44
308.191	87.44
308.421	92.44
308.651	87.44
308.881	92.44
309.111	94.44
309.341	82.44
309.571	89.44
309.8	94.44
310.03	89.44
310.26	94.44
310.49	91.44
310.72	90.44
310.949	80.44
311.179	79.44
311.409	75.44
311.639	82.44
311.868	91.44
312.098	86.44
312.328	79.44
312.557	102.44
312.787	83.44
313.017	91.44
313.246	80.44
313.476	81.44
313.706	89.44
313.935	87.44
314.165	88.44
314.394	74.44
314.624	64.44
314.853	104.44
315.083	86.44
315.312	86.44
315.542	83.44
315.771	87.44
316.001	86.44
316.23	82.44
316.46	82.44
316.689	94.44
316.919	84.44
317.148	86.44
317.377	93.44
317.607	88.44
317.836	73.44
318.065	79.44
318.295	89.44
318.524	86.44
318.753	100.44
318.983	97.44
319.212	96.44
319.441	86.44
319.67	87.44
319.9	99.44
320.129	81.44
320.358	72.44
320.587	84.44
320.816	84.44
321.046	92.44
321.275	82.44
321.504	79.44
321.733	88.44
321.962	88.44
322.191	90.44
322.42	84.44
322.649	82.44
322.878	107.44
323.108	89.44
323.337	82.44
323.566	83.44
323.795	84.44
324.024	97.44
324.253	84.44
324.482	88.44
324.71	79.44
324.939	94.44
325.168	94.44
325.397	71.44
325.626	79.44
325.855	77.44
326.084	66.44
326.313	94.44
326.542	75.44
326.77	84.44
326.999	78.44
327.228	80.44
327.457	79.44
327.686	86.44
327.914	76.44
328.143	72.44
328.372	83.44
328.6	87.44
328.829	86.44
329.058	83.44
329.287	85.44
329.515	88.44
329.744	80.44
329.972	78.44
330.201	80.44
330.43	74.44
330.658	73.44
330.887	87.44
331.115	67.44
331.344	105.44
331.572	78.44
331.801	82.44
332.03	74.44
332.258	81.44
332.486	80.44
332.715	99.44
332.943	90.44
333.172	91.44
333.4	81.44
333.629	88.44
333.857	82.44
334.085	86.44
334.314	91.44
334.542	96.44
334.771	81.44
334.999	86.44
335.227	83.44
335.455	91.44
335.684	94.44
335.912	85.44
336.14	90.44
336.369	86.44
336.597	75.44
336.825	89.44
337.053	92.44
337.281	85.44
337.51	74.44
337.738	84.44
337.966	83.44
338.194	85.44
338.422	88.44
338.65	85.44
338.878	91.44
339.106	77.44
339.334	90.44
339.562	76.44
339.79	88.44
340.018	97.44
340.246	90.44
340.474	82.44
340.702	92.44
340.93	78.44
341.158	79.44
341.386	67.44
341.614	84.44
341.842	81.44
342.07	93.44
342.298	82.44
342.526	81.44
342.754	100.44
342.981	92.44
343.209	103.44
343.437	104.44
343.665	101.44
343.893	111.44
344.12	94.44
344.348	69.44
344.576	98.44
344.804	76.44
345.031	91.44
345.259	86.44
345.487	100.44
345.714	70.44
345.942	108.44
346.17	94.44
346.397	96.44
346.625	91.44
346.853	90.44
347.08	85.44
347.308	88.44
347.535	88.44
347.763	92.44
347.99	100.44
348.218	92.44
348.445	84.44
348.673	82.44
348.9	88.44
349.128	88.44
349.355	81.44
349.583	80.44
349.81	93.44
350.037	82.44
350.265	80.44
350.492	93.44
350.72	87.44
350.947	101.44
351.174	87.44
351.402	73.44
351.629	79.44
351.856	78.44
352.083	88.44
352.311	87.44
352.538	96.44
352.765	84.44
352.992	100.44
353.22	81.44
353.447	86.44
353.674	74.44
353.901	88.44
354.128	92.44
354.355	90.44
354.583	84.44
354.81	75.44
355.037	67.44
355.264	82.44
355.491	75.44
355.718	82.44
355.945	86.44
356.172	75.44
356.399	76.44
356.626	74.44
356.853	84.44
357.08	95.44
357.307	74.44
357.534	81.44
357.761	80.44
357.988	89.44
358.215	90.44
358.441	79.44
358.668	89.44
358.895	78.44
359.122	80.44
359.349	83.44
359.576	76.44
359.802	79.44
360.029	95.44
360.256	93.44
360.483	95.44
360.709	88.44
360.936	97.44
361.163	74.44
361.39	89.44
361.616	80.44
361.843	79.44
362.07	86.44
362.296	91.44
362.523	85.44
362.749	87.44
362.976	88.44
363.203	91.44
363.429	80.44
363.656	85.44
363.882	93.44
364.109	100.44
364.335	89.44
364.562	87.44
364.788	93.44
365.015	89.44
365.241	77.44
365.468	91.44
365.694	95.44
365.92	75.44
366.147	91.44
366.373	77.44
366.599	77.44
366.826	84.44
367.052	81.44
367.278	78.44
367.505	81.44
367.731	94.44
367.957	99.44
368.184	96.44
368.41	91.44
368.636	87.44
368.862	92.44
369.089	76.44
369.315	73.44
369.541	90.44
369.767	80.44
369.993	88.44
370.219	69.44
370.445	73.44
370.672	88.44
370.898	82.44
371.124	86.44
371.35	81.44
371.576	77.44
371.802	71.44
372.028	94.44
372.254	81.44
372.48	92.44
372.706	100.44
372.932	74.44
373.158	92.44
373.384	98.44
373.61	96.44
373.835	87.44
374.061	86.44
374.287	105.44
374.513	96.44
374.739	93.44
374.965	92.44
375.191	85.44
375.416	97.44
375.642	98.44
375.868	83.44
376.094	82.44
376.319	78.44
376.545	102.44
376.771	85.44
376.997	91.44
377.222	88.44
377.448	75.44
377.674	101.44
377.899	77.44
378.125	88.44
378.35	106.44
378.576	73.44
378.802	79.44
379.027	82.44
379.253	76.44
379.478	91.44
379.704	90.44
379.929	89.44
380.155	84.44
380.38	94.44
380.606	84.44
380.831	80.44
381.057	89.44
381.282	97.44
381.507	83.44
381.733	73.44
381.958	92.44
382.184	94.44
382.409	83.44
382.634	90.44
382.86	68.44
383.085	78.44
383.31	92.44
383.535	81.44
383.761	88.44
383.986	82.44
384.211	95.44
384.436	91.44
384.662	101.44
384.887	70.44
385.112	79.44
385.337	90.44
385.562	74.44
385.787	79.44
386.013	93.44
386.238	87.44
386.463	85.44
386.688	97.44
386.913	80.44
387.138	91.44
387.363	84.44
387.588	89.44
387.813	86.44
388.038	88.44
388.263	109.44
388.488	92.44
388.713	77.44
388.938	93.44
389.163	89.44
389.387	80.44
389.612	78.44
389.837	96.44
390.062	88.44
390.287	81.44
390.512	93.44
390.736	82.44
390.961	89.44
391.186	94.44
391.411	82.44
391.636	79.44
391.86	80.44
392.085	86.44
392.31	90.44
392.534	89.44
392.759	98.44
392.984	100.44
393.208	133.44
393.433	136.44
393.658	130.44
393.882	80.44
394.107	91.44
394.331	108.44
394.556	118.44
394.78	84.44
395.005	92.44
395.229	91.44
395.454	80.44
395.678	84.44
395.903	76.44
396.127	99.44
396.352	97.44
396.576	102.44
396.801	130.44
397.025	135.44
397.249	112.44
397.474	82.44
397.698	97.44
397.922	86.44
398.147	86.44
398.371	83.44
398.595	92.44
398.82	80.44
399.044	105.44
399.268	73.44
399.492	84.44
399.717	90.44
399.941	96.44
400.165	94.44
400.389	73.44
400.613	81.44
400.837	79.44
401.062	82.44
401.286	92.44
401.51	61.44
401.734	82.44
401.958	78.44
402.182	83.44
402.406	87.44
402.63	90.44
402.854	93.44
403.078	87.44
403.302	86.44
403.526	96.44
403.75	97.44
403.974	95.44
404.198	100.44
404.422	124.44
404.645	140.44
404.869	142.44
405.093	102.44
405.317	82.44
405.541	96.44
405.765	96.44
405.988	81.44
406.212	85.44
406.436	84.44
406.66	90.44
406.883	95.44
407.107	85.44
407.331	74.44
407.555	92.44
407.778	77.44
408.002	84.44
408.226	84.44
408.449	81.44
408.673	82.44
408.896	80.44
409.12	81.44
409.344	93.44
409.567	86.44
409.791	85.44
410.014	85.44
410.238	79.44
410.461	88.44
410.685	78.44
410.908	84.44
411.132	80.44
411.355	76.44
411.578	93.44
411.802	82.44
412.025	77.44
412.249	79.44
412.472	85.44
412.695	84.44
412.919	87.44
413.142	81.44
413.365	97.44
413.589	85.44
413.812	83.44
414.035	87.44
414.258	91.44
414.482	78.44
414.705	92.44
414.928	100.44
415.151	72.44
415.374	78.44
415.597	76.44
415.821	72.44
416.044	83.44
416.267	79.44
416.49	88.44
416.713	90.44
416.936	105.44
417.159	96.44
417.382	87.44
417.605	94.44
417.828	98.44
418.051	73.44
418.274	98.44
418.497	86.44
418.72	86.44
418.943	85.44
419.166	90.44
419.389	85.44
419.611	81.44
419.834	79.44
420.057	78.44
420.28	77.44
420.503	80.44
420.726	85.44
420.948	86.44
421.171	84.44
421.394	85.44
421.617	86.44
421.839	106.44
422.062	109.44
422.285	126.44
422.507	177.44
422.73	188.44
422.953	182.44
423.175	136.44
423.398	103.44
423.621	90.44
423.843	89.44
424.066	92.44
424.288	85.44
424.511	82.44
424.733	79.44
424.956	79.44
425.178	72.44
425.401	78.44
425.623	75.44
425.846	93.44
426.068	82.44
426.291	84.44
426.513	91.44
426.735	80.44
426.958	76.44
427.18	72.44
427.402	92.44
427.625	77.44
427.847	89.44
428.069	89.44
428.292	97.44
428.514	89.44
428.736	96.44
428.958	109.44
429.181	102.44
429.403	90.44
429.625	89.44
429.847	105.44
430.069	132.44
430.292	136.44
430.514	121.44
430.736	110.44
430.958	112.44
431.18	92.44
431.402	89.44
431.624	87.44
431.846	95.44
432.068	89.44
432.29	79.44
432.512	78.44
432.734	84.44
432.956	89.44
433.178	94.44
433.4	78.44
433.622	74.44
433.844	76.44
434.066	81.44
434.287	84.44
434.509	73.44
434.731	82.44
434.953	81.44
435.175	76.44
435.397	85.44
435.618	88.44
435.84	83.44
436.062	101.44
436.284	77.44
436.505	82.44
436.727	84.44
436.949	89.44
437.17	80.44
437.392	94.44
437.614	85.44
437.835	72.44
438.057	87.44
438.278	67.44
438.5	79.44
438.721	92.44
438.943	96.44
439.165	89.44
439.386	88.44
439.608	85.44
439.829	86.44
440.05	88.44
440.272	90.44
440.493	80.44
440.715	93.44
440.936	87.44
441.158	89.44
441.379	92.44
441.6	87.44
441.822	90.44
442.043	100.44
442.264	90.44
442.486	104.44
442.707	120.44
442.928	115.44
443.149	96.44
443.371	114.44
443.592	160.44
443.813	139.44
444.034	89.44
444.255	84.44
444.476	90.44
444.698	88.44
444.919	93.44
445.14	160.44
445.361	152.44
445.582	189.44
445.803	168.44
446.024	100.44
446.245	104.44
446.466	85.44
446.687	80.44
446.908	72.44
447.129	94.44
447.35	84.44
447.571	83.44
447.792	88.44
448.013	75.44
448.234	91.44
448.455	79.44
448.675	84.44
448.896	84.44
449.117	81.44
449.338	74.44
449.559	88.44
449.779	86.44
450	73.44
450.221	73.44
450.442	76.44
450.662	71.44
450.883	95.44
451.104	90.44
451.324	65.44
451.545	90.44
451.766	70.44
451.986	97.44
452.207	79.44
452.428	76.44
452.648	85.44
452.869	104.44
453.089	100.44
453.31	80.44
453.53	97.44
453.751	92.44
453.971	95.44
454.192	77.44
454.412	70.44
454.633	86.44
454.853	86.44
455.073	83.44
455.294	91.44
455.514	87.44
455.734	82.44
455.955	76.44
456.175	89.44
456.395	95.44
456.616	84.44
456.836	88.44
457.056	85.44
457.276	84.44
457.497	94.44
457.717	77.44
457.937	83.44
458.157	101.44
458.377	94.44
458.598	106.44
458.818	86.44
459.038	77.44
459.258	88.44
459.478	83.44
459.698	96.44
459.918	84.44
460.138	88.44
460.358	94.44
460.578	95.44
460.798	109.44
461.018	96.44
461.238	87.44
461.458	79.44
461.678	89.44
461.898	88.44
462.118	77.44
462.338	75.44
462.558	85.44
462.777	76.44
462.997	84.44
463.217	77.44
463.437	85.44
463.657	97.44
463.876	71.44
464.096	76.44
464.316	81.44
464.536	76.44
464.755	85.44
464.975	77.44
465.195	90.44
465.414	87.44
465.634	69.44
465.854	76.44
466.073	79.44
466.293	92.44
466.512	84.44
466.732	68.44
466.951	86.44
467.171	79.44
467.391	81.44
467.61	94.44
467.829	96.44
468.049	77.44
468.268	72.44
468.488	73.44
468.707	80.44
468.927	90.44
469.146	64.44
469.365	88.44
469.585	88.44
469.804	81.44
470.023	80.44
470.243	77.44
470.462	74.44
470.681	84.44
470.901	85.44
471.12	86.44
471.339	95.44
471.558	87.44
471.777	88.44
471.997	81.44
472.216	91.44
472.435	86.44
472.654	78.44
472.873	91.44
473.092	86.44
473.311	89.44
473.53	83.44
473.749	65.44
473.968	86.44
474.187	75.44
474.406	76.44
474.625	88.44
474.844	93.44
475.063	85.44
475.282	90.44
475.501	80.44
475.72	87.44
475.939	99.44
476.158	97.44
476.377	84.44
476.596	89.44
476.814	88.44
477.033	80.44
477.252	84.44
477.471	91.44
477.69	90.44
477.908	85.44
478.127	96.44
478.346	75.44
478.564	82.44
478.783	93.44
479.002	86.44
479.22	100.44
479.439	90.44
479.658	76.44
479.876	86.44
480.095	92.44
480.313	79.44
480.532	81.44
480.751	91.44
480.969	92.44
481.188	86.44
481.406	83.44
481.624	98.44
481.843	77.44
482.061	90.44
482.28	88.44
482.498	78.44
482.717	88.44
482.935	97.44
483.153	86.44
483.372	85.44
483.59	97.44
483.808	77.44
484.027	103.44
484.245	80.44
484.463	84.44
484.681	97.44
484.9	82.44
485.118	78.44
485.336	79.44
485.554	84.44
485.772	96.44
485.99	82.44
486.209	94.44
486.427	82.44
486.645	85.44
486.863	86.44
487.081	88.44
487.299	92.44
487.517	93.44
487.735	101.44
487.953	108.44
488.171	100.44
488.389	86.44
488.607	96.44
488.825	81.44
489.043	75.44
489.261	95.44
489.479	78.44
489.696	85.44
489.914	86.44
490.132	90.44
490.35	84.44
490.568	91.44
490.786	89.44
491.003	91.44
491.221	86.44
491.439	95.44
491.657	81.44
491.874	101.44
492.092	97.44
492.31	87.44
492.527	91.44
492.745	95.44
492.963	94.44
493.18	87.44
493.398	81.44
493.615	87.44
493.833	76.44
494.05	92.44
494.268	93.44
494.485	84.44
494.703	93.44
494.92	85.44
495.138	88.44
495.355	85.44
495.573	82.44
495.79	83.44
496.008	89.44
496.225	92.44
496.442	82.44
496.66	74.44
496.877	85.44
497.094	85.44
497.312	80.44
497.529	94.44
497.746	96.44
497.963	91.44
498.181	89.44
498.398	92.44
498.615	83.44
498.832	79.44
499.049	87.44
499.267	105.44
499.484	85.44
499.701	85.44
499.918	95.44
500.135	87.44
500.352	66.44
500.569	95.44
500.786	97.44
501.003	103.44
501.22	90.44
501.437	91.44
501.654	85.44
501.871	84.44
502.088	88.44
502.305	92.44
502.522	88.44
502.739	75.44
502.956	80.44
503.172	100.44
503.389	90.44
503.606	94.44
503.823	89.44
504.04	90.44
504.256	92.44
504.473	112.44
504.69	98.44
504.907	109.44
505.123	90.44
505.34	81.44
505.557	93.44
505.773	88.44
505.99	84.44
506.207	96.44
506.423	89.44
506.64	89.44
506.856	86.44
507.073	78.44
507.289	80.44
507.506	82.44
507.722	90.44
507.939	88.44
508.155	86.44
508.372	66.44
508.588	75.44
508.805	98.44
509.021	92.44
509.238	85.44
509.454	91.44
509.67	88.44
509.887	93.44
510.103	100.44
510.319	97.44
510.536	87.44
510.752	96.44
510.968	86.44
511.184	90.44
511.401	96.44
511.617	102.44
511.833	77.44
512.049	85.44
512.265	88.44
512.481	90.44
512.698	80.44
512.914	80.44
513.13	77.44
513.346	101.44
513.562	77.44
513.778	71.44
513.994	83.44
514.21	89.44
514.426	88.44
514.642	84.44
514.858	76.44
515.074	86.44
515.29	85.44
515.506	99.44
515.721	81.44
515.937	86.44
516.153	85.44
516.369	97.44
516.585	104.44
516.801	88.44
517.016	91.44
517.232	100.44
517.448	78.44
517.664	74.44
517.879	72.44
518.095	74.44
518.311	93.44
518.527	93.44
518.742	95.44
518.958	105.44
