Data from Mixheat2_HRD10591_00006.txt Node
Date: Fri Dec 27 15:09:09 EST 2024
User: Yrep
Spectrometer: HR+D1059
Trigger mode: 1
Integration Time (sec): 1.000000E-1
Scans to average: 1
Electric dark correction enabled: true
Nonlinearity correction enabled: false
Boxcar width: 0
XAxis mode: Wavelengths
Number of Pixels in Spectrum: 2048
>>>>>Begin Spectral Data<<<<<
223.165	-16.38
223.4	-16.38
223.635	-16.38
223.869	-16.38
224.104	-13.38
224.338	-16.38
224.573	0.62
224.808	-13.38
225.042	-19.38
225.277	-8.38
225.511	-9.38
225.746	-0.38
225.98	7.62
226.215	10.62
226.449	13.62
226.683	26.62
226.918	29.62
227.152	24.62
227.387	44.62
227.621	44.62
227.856	46.62
228.09	27.62
228.324	58.62
228.559	54.62
228.793	63.62
229.027	66.62
229.262	55.62
229.496	65.62
229.73	61.62
229.964	48.62
230.199	80.62
230.433	77.62
230.667	84.62
230.901	85.62
231.136	65.62
231.37	84.62
231.604	87.62
231.838	91.62
232.072	77.62
232.306	84.62
232.541	79.62
232.775	75.62
233.009	81.62
233.243	87.62
233.477	76.62
233.711	79.62
233.945	82.62
234.179	80.62
234.413	85.62
234.647	86.62
234.881	89.62
235.115	83.62
235.349	84.62
235.583	84.62
235.817	66.62
236.051	75.62
236.285	67.62
236.519	77.62
236.753	77.62
236.987	77.62
237.221	80.62
237.455	85.62
237.689	65.62
237.922	89.62
238.156	73.62
238.39	80.62
238.624	78.62
238.858	74.62
239.091	60.62
239.325	69.62
239.559	72.62
239.793	80.62
240.027	70.62
240.26	70.62
240.494	74.62
240.728	70.62
240.961	70.62
241.195	86.62
241.429	69.62
241.662	87.62
241.896	90.62
242.13	72.62
242.363	57.62
242.597	82.62
242.83	86.62
243.064	80.62
243.298	77.62
243.531	76.62
243.765	84.62
243.998	62.62
244.232	92.62
244.465	77.62
244.699	79.62
244.932	77.62
245.166	83.62
245.399	84.62
245.633	84.62
245.866	71.62
246.099	84.62
246.333	78.62
246.566	75.62
246.8	88.62
247.033	75.62
247.266	74.62
247.5	65.62
247.733	66.62
247.966	73.62
248.2	72.62
248.433	80.62
248.666	72.62
248.899	92.62
249.133	73.62
249.366	73.62
249.599	69.62
249.832	72.62
250.066	71.62
250.299	86.62
250.532	77.62
250.765	74.62
250.998	80.62
251.231	74.62
251.465	78.62
251.698	71.62
251.931	77.62
252.164	80.62
252.397	57.62
252.63	85.62
252.863	82.62
253.096	68.62
253.329	74.62
253.562	78.62
253.795	85.62
254.028	102.62
254.261	82.62
254.494	71.62
254.727	94.62
254.96	81.62
255.193	72.62
255.426	74.62
255.659	80.62
255.892	78.62
256.124	81.62
256.357	85.62
256.59	77.62
256.823	84.62
257.056	72.62
257.289	74.62
257.521	93.62
257.754	84.62
257.987	87.62
258.22	75.62
258.452	76.62
258.685	79.62
258.918	62.62
259.151	74.62
259.383	92.62
259.616	68.62
259.849	72.62
260.081	83.62
260.314	79.62
260.547	89.62
260.779	87.62
261.012	89.62
261.244	85.62
261.477	91.62
261.71	96.62
261.942	79.62
262.175	81.62
262.407	69.62
262.64	83.62
262.872	86.62
263.105	83.62
263.337	108.62
263.57	84.62
263.802	83.62
264.035	92.62
264.267	82.62
264.499	98.62
264.732	67.62
264.964	76.62
265.197	77.62
265.429	71.62
265.661	80.62
265.894	78.62
266.126	82.62
266.358	101.62
266.591	81.62
266.823	87.62
267.055	80.62
267.287	93.62
267.52	91.62
267.752	90.62
267.984	84.62
268.216	84.62
268.448	82.62
268.681	81.62
268.913	81.62
269.145	75.62
269.377	89.62
269.609	97.62
269.841	78.62
270.073	61.62
270.306	67.62
270.538	83.62
270.77	80.62
271.002	86.62
271.234	88.62
271.466	91.62
271.698	73.62
271.93	76.62
272.162	71.62
272.394	83.62
272.626	86.62
272.858	88.62
273.09	76.62
273.322	104.62
273.553	78.62
273.785	66.62
274.017	90.62
274.249	78.62
274.481	83.62
274.713	91.62
274.945	88.62
275.176	91.62
275.408	88.62
275.64	72.62
275.872	72.62
276.104	86.62
276.335	86.62
276.567	93.62
276.799	73.62
277.031	72.62
277.262	102.62
277.494	93.62
277.726	80.62
277.957	81.62
278.189	59.62
278.421	84.62
278.652	85.62
278.884	90.62
279.115	76.62
279.347	81.62
279.579	89.62
279.81	94.62
280.042	73.62
280.273	69.62
280.505	86.62
280.736	89.62
280.968	76.62
281.199	80.62
281.431	81.62
281.662	89.62
281.894	78.62
282.125	89.62
282.356	81.62
282.588	84.62
282.819	95.62
283.051	90.62
283.282	100.62
283.513	88.62
283.745	91.62
283.976	81.62
284.207	79.62
284.439	88.62
284.67	89.62
284.901	90.62
285.132	91.62
285.364	96.62
285.595	73.62
285.826	75.62
286.057	77.62
286.288	80.62
286.52	89.62
286.751	85.62
286.982	85.62
287.213	84.62
287.444	75.62
287.675	79.62
287.906	87.62
288.138	85.62
288.369	79.62
288.6	76.62
288.831	71.62
289.062	85.62
289.293	83.62
289.524	89.62
289.755	77.62
289.986	94.62
290.217	92.62
290.448	84.62
290.679	81.62
290.91	94.62
291.141	72.62
291.371	85.62
291.602	83.62
291.833	73.62
292.064	96.62
292.295	83.62
292.526	96.62
292.757	86.62
292.987	88.62
293.218	71.62
293.449	95.62
293.68	86.62
293.91	92.62
294.141	88.62
294.372	74.62
294.603	90.62
294.833	92.62
295.064	79.62
295.295	89.62
295.525	66.62
295.756	89.62
295.987	104.62
296.217	88.62
296.448	78.62
296.679	76.62
296.909	75.62
297.14	67.62
297.37	92.62
297.601	93.62
297.831	81.62
298.062	90.62
298.292	92.62
298.523	78.62
298.753	88.62
298.984	78.62
299.214	81.62
299.445	91.62
299.675	83.62
299.905	88.62
300.136	86.62
300.366	80.62
300.597	101.62
300.827	83.62
301.057	93.62
301.288	99.62
301.518	100.62
301.748	85.62
301.979	109.62
302.209	83.62
302.439	86.62
302.669	99.62
302.9	84.62
303.13	82.62
303.36	88.62
303.59	102.62
303.82	94.62
304.051	84.62
304.281	88.62
304.511	90.62
304.741	81.62
304.971	80.62
305.201	85.62
305.431	79.62
305.661	84.62
305.891	86.62
306.121	94.62
306.352	69.62
306.582	91.62
306.812	86.62
307.042	73.62
307.272	77.62
307.502	94.62
307.731	84.62
307.961	81.62
308.191	102.62
308.421	92.62
308.651	86.62
308.881	86.62
309.111	92.62
309.341	95.62
309.571	94.62
309.8	85.62
310.03	83.62
310.26	85.62
310.49	90.62
310.72	94.62
310.949	91.62
311.179	77.62
311.409	93.62
311.639	91.62
311.868	90.62
312.098	87.62
312.328	87.62
312.557	85.62
312.787	73.62
313.017	87.62
313.246	82.62
313.476	79.62
313.706	72.62
313.935	85.62
314.165	89.62
314.394	79.62
314.624	81.62
314.853	89.62
315.083	87.62
315.312	88.62
315.542	72.62
315.771	89.62
316.001	77.62
316.23	82.62
316.46	100.62
316.689	86.62
316.919	89.62
317.148	91.62
317.377	93.62
317.607	91.62
317.836	71.62
318.065	87.62
318.295	75.62
318.524	88.62
318.753	88.62
318.983	83.62
319.212	81.62
319.441	84.62
319.67	96.62
319.9	78.62
320.129	88.62
320.358	85.62
320.587	78.62
320.816	80.62
321.046	85.62
321.275	68.62
321.504	69.62
321.733	84.62
321.962	78.62
322.191	67.62
322.42	93.62
322.649	78.62
322.878	89.62
323.108	82.62
323.337	92.62
323.566	93.62
323.795	87.62
324.024	77.62
324.253	96.62
324.482	78.62
324.71	75.62
324.939	80.62
325.168	92.62
325.397	76.62
325.626	93.62
325.855	85.62
326.084	92.62
326.313	86.62
326.542	84.62
326.77	80.62
326.999	88.62
327.228	80.62
327.457	87.62
327.686	70.62
327.914	75.62
328.143	99.62
328.372	82.62
328.6	82.62
328.829	100.62
329.058	81.62
329.287	78.62
329.515	84.62
329.744	76.62
329.972	85.62
330.201	75.62
330.43	93.62
330.658	78.62
330.887	64.62
331.115	83.62
331.344	83.62
331.572	86.62
331.801	91.62
332.03	86.62
332.258	77.62
332.486	72.62
332.715	74.62
332.943	73.62
333.172	91.62
333.4	89.62
333.629	86.62
333.857	84.62
334.085	79.62
334.314	97.62
334.542	93.62
334.771	81.62
334.999	75.62
335.227	88.62
335.455	92.62
335.684	79.62
335.912	86.62
336.14	97.62
336.369	83.62
336.597	89.62
336.825	78.62
337.053	88.62
337.281	92.62
337.51	98.62
337.738	89.62
337.966	81.62
338.194	72.62
338.422	82.62
338.65	89.62
338.878	83.62
339.106	86.62
339.334	88.62
339.562	80.62
339.79	85.62
340.018	98.62
340.246	89.62
340.474	85.62
340.702	95.62
340.93	81.62
341.158	96.62
341.386	78.62
341.614	89.62
341.842	85.62
342.07	74.62
342.298	92.62
342.526	80.62
342.754	82.62
342.981	94.62
343.209	95.62
343.437	116.62
343.665	95.62
343.893	91.62
344.12	103.62
344.348	85.62
344.576	96.62
344.804	78.62
345.031	74.62
345.259	89.62
345.487	96.62
345.714	84.62
345.942	72.62
346.17	91.62
346.397	87.62
346.625	81.62
346.853	82.62
347.08	69.62
347.308	77.62
347.535	96.62
347.763	76.62
347.99	103.62
348.218	83.62
348.445	92.62
348.673	89.62
348.9	91.62
349.128	86.62
349.355	77.62
349.583	88.62
349.81	85.62
350.037	86.62
350.265	90.62
350.492	79.62
350.72	98.62
350.947	90.62
351.174	88.62
351.402	83.62
351.629	76.62
351.856	86.62
352.083	86.62
352.311	79.62
352.538	87.62
352.765	73.62
352.992	106.62
353.22	93.62
353.447	87.62
353.674	79.62
353.901	84.62
354.128	89.62
354.355	90.62
354.583	89.62
354.81	92.62
355.037	81.62
355.264	88.62
355.491	77.62
355.718	86.62
355.945	102.62
356.172	84.62
356.399	76.62
356.626	83.62
356.853	83.62
357.08	101.62
357.307	99.62
357.534	94.62
357.761	79.62
357.988	77.62
358.215	88.62
358.441	86.62
358.668	77.62
358.895	81.62
359.122	75.62
359.349	90.62
359.576	85.62
359.802	96.62
360.029	78.62
360.256	80.62
360.483	72.62
360.709	89.62
360.936	84.62
361.163	81.62
361.39	78.62
361.616	94.62
361.843	85.62
362.07	83.62
362.296	89.62
362.523	93.62
362.749	83.62
362.976	79.62
363.203	90.62
363.429	92.62
363.656	88.62
363.882	91.62
364.109	100.62
364.335	101.62
364.562	88.62
364.788	82.62
365.015	94.62
365.241	89.62
365.468	76.62
365.694	76.62
365.92	83.62
366.147	86.62
366.373	76.62
366.599	87.62
366.826	96.62
367.052	87.62
367.278	89.62
367.505	95.62
367.731	80.62
367.957	81.62
368.184	97.62
368.41	83.62
368.636	76.62
368.862	94.62
369.089	86.62
369.315	93.62
369.541	87.62
369.767	75.62
369.993	67.62
370.219	90.62
370.445	78.62
370.672	87.62
370.898	76.62
371.124	85.62
371.35	90.62
371.576	80.62
371.802	85.62
372.028	90.62
372.254	85.62
372.48	67.62
372.706	75.62
372.932	80.62
373.158	85.62
373.384	79.62
373.61	71.62
373.835	77.62
374.061	77.62
374.287	86.62
374.513	81.62
374.739	93.62
374.965	80.62
375.191	91.62
375.416	95.62
375.642	98.62
375.868	89.62
376.094	81.62
376.319	71.62
376.545	90.62
376.771	90.62
376.997	73.62
377.222	88.62
377.448	88.62
377.674	80.62
377.899	81.62
378.125	85.62
378.35	85.62
378.576	80.62
378.802	83.62
379.027	70.62
379.253	87.62
379.478	77.62
379.704	88.62
379.929	96.62
380.155	83.62
380.38	85.62
380.606	90.62
380.831	77.62
381.057	96.62
381.282	92.62
381.507	82.62
381.733	81.62
381.958	89.62
382.184	86.62
382.409	77.62
382.634	86.62
382.86	91.62
383.085	89.62
383.31	89.62
383.535	100.62
383.761	78.62
383.986	92.62
384.211	88.62
384.436	76.62
384.662	75.62
384.887	88.62
385.112	88.62
385.337	61.62
385.562	86.62
385.787	98.62
386.013	85.62
386.238	83.62
386.463	77.62
386.688	88.62
386.913	80.62
387.138	84.62
387.363	77.62
387.588	84.62
387.813	85.62
388.038	81.62
388.263	74.62
388.488	84.62
388.713	91.62
388.938	84.62
389.163	82.62
389.387	97.62
389.612	103.62
389.837	76.62
390.062	79.62
390.287	88.62
390.512	79.62
390.736	78.62
390.961	88.62
391.186	80.62
391.411	94.62
391.636	86.62
391.86	85.62
392.085	79.62
392.31	86.62
392.534	77.62
392.759	93.62
392.984	96.62
393.208	117.62
393.433	132.62
393.658	106.62
393.882	95.62
394.107	91.62
394.331	97.62
394.556	104.62
394.78	85.62
395.005	89.62
395.229	93.62
395.454	90.62
395.678	80.62
395.903	101.62
396.127	109.62
396.352	102.62
396.576	95.62
396.801	122.62
397.025	116.62
397.249	92.62
397.474	95.62
397.698	102.62
397.922	86.62
398.147	84.62
398.371	81.62
398.595	70.62
398.82	75.62
399.044	74.62
399.268	92.62
399.492	75.62
399.717	82.62
399.941	83.62
400.165	99.62
400.389	100.62
400.613	89.62
400.837	88.62
401.062	94.62
401.286	66.62
401.51	71.62
401.734	79.62
401.958	87.62
402.182	94.62
402.406	96.62
402.63	99.62
402.854	64.62
403.078	78.62
403.302	86.62
403.526	88.62
403.75	87.62
403.974	86.62
404.198	108.62
404.422	124.62
404.645	138.62
404.869	120.62
405.093	106.62
405.317	93.62
405.541	69.62
405.765	89.62
405.988	89.62
406.212	86.62
406.436	89.62
406.66	93.62
406.883	72.62
407.107	76.62
407.331	72.62
407.555	87.62
407.778	84.62
408.002	90.62
408.226	73.62
408.449	89.62
408.673	76.62
408.896	81.62
409.12	74.62
409.344	78.62
409.567	86.62
409.791	98.62
410.014	102.62
410.238	86.62
410.461	79.62
410.685	86.62
410.908	76.62
411.132	100.62
411.355	78.62
411.578	95.62
411.802	63.62
412.025	78.62
412.249	73.62
412.472	77.62
412.695	91.62
412.919	72.62
413.142	93.62
413.365	93.62
413.589	80.62
413.812	83.62
414.035	81.62
414.258	94.62
414.482	80.62
414.705	74.62
414.928	82.62
415.151	79.62
415.374	75.62
415.597	65.62
415.821	80.62
416.044	86.62
416.267	85.62
416.49	88.62
416.713	92.62
416.936	70.62
417.159	85.62
417.382	87.62
417.605	91.62
417.828	95.62
418.051	80.62
418.274	74.62
418.497	81.62
418.72	81.62
418.943	93.62
419.166	82.62
419.389	76.62
419.611	80.62
419.834	89.62
420.057	83.62
420.28	86.62
420.503	76.62
420.726	82.62
420.948	83.62
421.171	84.62
421.394	75.62
421.617	93.62
421.839	90.62
422.062	96.62
422.285	107.62
422.507	139.62
422.73	171.62
422.953	159.62
423.175	110.62
423.398	87.62
423.621	76.62
423.843	82.62
424.066	79.62
424.288	85.62
424.511	80.62
424.733	88.62
424.956	91.62
425.178	84.62
425.401	75.62
425.623	94.62
425.846	77.62
426.068	79.62
426.291	78.62
426.513	78.62
426.735	80.62
426.958	79.62
427.18	84.62
427.402	82.62
427.625	86.62
427.847	85.62
428.069	105.62
428.292	119.62
428.514	87.62
428.736	106.62
428.958	105.62
429.181	103.62
429.403	93.62
429.625	93.62
429.847	97.62
430.069	121.62
430.292	125.62
430.514	102.62
430.736	105.62
430.958	103.62
431.18	84.62
431.402	88.62
431.624	105.62
431.846	104.62
432.068	104.62
432.29	85.62
432.512	74.62
432.734	74.62
432.956	88.62
433.178	84.62
433.4	80.62
433.622	88.62
433.844	81.62
434.066	79.62
434.287	80.62
434.509	86.62
434.731	94.62
434.953	62.62
435.175	76.62
435.397	87.62
435.618	88.62
435.84	84.62
436.062	92.62
436.284	87.62
436.505	77.62
436.727	74.62
436.949	81.62
437.17	89.62
437.392	86.62
437.614	86.62
437.835	78.62
438.057	87.62
438.278	76.62
438.5	76.62
438.721	85.62
438.943	84.62
439.165	95.62
439.386	76.62
439.608	88.62
439.829	94.62
440.05	74.62
440.272	79.62
440.493	74.62
440.715	88.62
440.936	81.62
441.158	85.62
441.379	62.62
441.6	84.62
441.822	84.62
442.043	79.62
442.264	96.62
442.486	101.62
442.707	105.62
442.928	96.62
443.149	100.62
443.371	112.62
443.592	143.62
443.813	125.62
444.034	87.62
444.255	84.62
444.476	67.62
444.698	98.62
444.919	84.62
445.14	170.62
445.361	150.62
445.582	153.62
445.803	128.62
446.024	76.62
446.245	87.62
446.466	89.62
446.687	81.62
446.908	86.62
447.129	83.62
447.35	86.62
447.571	88.62
447.792	71.62
448.013	77.62
448.234	93.62
448.455	95.62
448.675	88.62
448.896	74.62
449.117	86.62
449.338	80.62
449.559	92.62
449.779	69.62
450	92.62
450.221	73.62
450.442	83.62
450.662	88.62
450.883	81.62
451.104	89.62
451.324	78.62
451.545	80.62
451.766	102.62
451.986	82.62
452.207	76.62
452.428	80.62
452.648	84.62
452.869	67.62
453.089	83.62
453.31	80.62
453.53	93.62
453.751	96.62
453.971	89.62
454.192	76.62
454.412	88.62
454.633	70.62
454.853	79.62
455.073	90.62
455.294	75.62
455.514	85.62
455.734	91.62
455.955	79.62
456.175	77.62
456.395	82.62
456.616	101.62
456.836	88.62
457.056	86.62
457.276	76.62
457.497	79.62
457.717	82.62
457.937	90.62
458.157	83.62
458.377	97.62
458.598	96.62
458.818	85.62
459.038	84.62
459.258	80.62
459.478	90.62
459.698	78.62
459.918	83.62
460.138	87.62
460.358	83.62
460.578	85.62
460.798	100.62
461.018	91.62
461.238	101.62
461.458	94.62
461.678	92.62
461.898	96.62
462.118	82.62
462.338	81.62
462.558	75.62
462.777	78.62
462.997	69.62
463.217	80.62
463.437	69.62
463.657	77.62
463.876	79.62
464.096	90.62
464.316	76.62
464.536	78.62
464.755	88.62
464.975	78.62
465.195	84.62
465.414	81.62
465.634	83.62
465.854	82.62
466.073	93.62
466.293	90.62
466.512	79.62
466.732	84.62
466.951	81.62
467.171	80.62
467.391	89.62
467.61	88.62
467.829	85.62
468.049	86.62
468.268	75.62
468.488	85.62
468.707	77.62
468.927	73.62
469.146	88.62
469.365	103.62
469.585	77.62
469.804	73.62
470.023	78.62
470.243	89.62
470.462	86.62
470.681	82.62
470.901	77.62
471.12	89.62
471.339	86.62
471.558	85.62
471.777	92.62
471.997	86.62
472.216	82.62
472.435	79.62
472.654	92.62
472.873	82.62
473.092	78.62
473.311	85.62
473.53	75.62
473.749	90.62
473.968	85.62
474.187	85.62
474.406	86.62
474.625	84.62
474.844	71.62
475.063	91.62
475.282	77.62
475.501	83.62
475.72	105.62
475.939	82.62
476.158	84.62
476.377	94.62
476.596	84.62
476.814	72.62
477.033	84.62
477.252	83.62
477.471	73.62
477.69	78.62
477.908	86.62
478.127	98.62
478.346	76.62
478.564	79.62
478.783	106.62
479.002	87.62
479.22	73.62
479.439	80.62
479.658	79.62
479.876	73.62
480.095	75.62
480.313	94.62
480.532	86.62
480.751	96.62
480.969	85.62
481.188	79.62
481.406	88.62
481.624	88.62
481.843	86.62
482.061	77.62
482.28	88.62
482.498	83.62
482.717	94.62
482.935	81.62
483.153	83.62
483.372	93.62
483.59	73.62
483.808	80.62
484.027	94.62
484.245	85.62
484.463	84.62
484.681	98.62
484.9	86.62
485.118	98.62
485.336	77.62
485.554	86.62
485.772	86.62
485.99	94.62
486.209	80.62
486.427	86.62
486.645	87.62
486.863	81.62
487.081	108.62
487.299	101.62
487.517	85.62
487.735	73.62
487.953	105.62
488.171	94.62
488.389	92.62
488.607	100.62
488.825	78.62
489.043	89.62
489.261	96.62
489.479	79.62
489.696	84.62
489.914	100.62
490.132	69.62
490.35	92.62
490.568	86.62
490.786	91.62
491.003	81.62
491.221	76.62
491.439	80.62
491.657	79.62
491.874	87.62
492.092	88.62
492.31	84.62
492.527	83.62
492.745	81.62
492.963	85.62
493.18	88.62
493.398	93.62
493.615	79.62
493.833	86.62
494.05	80.62
494.268	86.62
494.485	87.62
494.703	78.62
494.92	85.62
495.138	93.62
495.355	96.62
495.573	93.62
495.79	93.62
496.008	94.62
496.225	88.62
496.442	77.62
496.66	93.62
496.877	98.62
497.094	113.62
497.312	90.62
497.529	87.62
497.746	85.62
497.963	91.62
498.181	91.62
498.398	83.62
498.615	92.62
498.832	100.62
499.049	79.62
499.267	95.62
499.484	75.62
499.701	77.62
499.918	78.62
500.135	89.62
500.352	80.62
500.569	67.62
500.786	88.62
501.003	80.62
501.22	93.62
501.437	71.62
501.654	85.62
501.871	84.62
502.088	96.62
502.305	82.62
502.522	91.62
502.739	100.62
502.956	104.62
503.172	79.62
503.389	93.62
503.606	85.62
503.823	82.62
504.04	90.62
504.256	105.62
504.473	88.62
504.69	89.62
504.907	104.62
505.123	94.62
505.34	88.62
505.557	88.62
505.773	88.62
505.99	78.62
506.207	81.62
506.423	91.62
506.64	77.62
506.856	85.62
507.073	85.62
507.289	95.62
507.506	96.62
507.722	86.62
507.939	81.62
508.155	78.62
508.372	84.62
508.588	83.62
508.805	80.62
509.021	79.62
509.238	81.62
509.454	91.62
509.67	84.62
509.887	85.62
510.103	89.62
510.319	83.62
510.536	88.62
510.752	89.62
510.968	76.62
511.184	71.62
511.401	81.62
511.617	88.62
511.833	82.62
512.049	85.62
512.265	82.62
512.481	86.62
512.698	96.62
512.914	90.62
513.13	88.62
513.346	88.62
513.562	95.62
513.778	86.62
513.994	74.62
514.21	83.62
514.426	96.62
514.642	74.62
514.858	89.62
515.074	95.62
515.29	92.62
515.506	74.62
515.721	80.62
515.937	80.62
516.153	83.62
516.369	78.62
516.585	74.62
516.801	72.62
517.016	78.62
517.232	87.62
517.448	86.62
517.664	94.62
517.879	92.62
518.095	89.62
518.311	97.62
518.527	81.62
518.742	81.62
518.958	91.62
