Data from Mixheat2_HRD10591_00001.txt Node
Date: Fri Dec 27 15:09:04 EST 2024
User: Yrep
Spectrometer: HR+D1059
Trigger mode: 1
Integration Time (sec): 1.000000E-1
Scans to average: 1
Electric dark correction enabled: true
Nonlinearity correction enabled: false
Boxcar width: 0
XAxis mode: Wavelengths
Number of Pixels in Spectrum: 2048
>>>>>Begin Spectral Data<<<<<
223.165	-25.38
223.4	-25.38
223.635	-25.38
223.869	-14.38
224.104	-29.38
224.338	-16.38
224.573	-22.38
224.808	-17.38
225.042	-0.38
225.277	-1.38
225.511	2.62
225.746	-8.38
225.98	11.62
226.215	14.62
226.449	19.62
226.683	17.62
226.918	43.62
227.152	25.62
227.387	32.62
227.621	47.62
227.856	59.62
228.09	41.62
228.324	45.62
228.559	69.62
228.793	50.62
229.027	80.62
229.262	63.62
229.496	73.62
229.73	59.62
229.964	67.62
230.199	73.62
230.433	70.62
230.667	79.62
230.901	73.62
231.136	85.62
231.37	89.62
231.604	88.62
231.838	84.62
232.072	87.62
232.306	91.62
232.541	73.62
232.775	77.62
233.009	71.62
233.243	81.62
233.477	85.62
233.711	82.62
233.945	91.62
234.179	62.62
234.413	89.62
234.647	71.62
234.881	82.62
235.115	98.62
235.349	82.62
235.583	92.62
235.817	84.62
236.051	76.62
236.285	75.62
236.519	84.62
236.753	75.62
236.987	70.62
237.221	79.62
237.455	82.62
237.689	93.62
237.922	76.62
238.156	80.62
238.39	86.62
238.624	91.62
238.858	80.62
239.091	86.62
239.325	89.62
239.559	77.62
239.793	82.62
240.027	71.62
240.26	83.62
240.494	84.62
240.728	81.62
240.961	84.62
241.195	80.62
241.429	73.62
241.662	80.62
241.896	74.62
242.13	82.62
242.363	71.62
242.597	72.62
242.83	86.62
243.064	84.62
243.298	82.62
243.531	97.62
243.765	81.62
243.998	85.62
244.232	83.62
244.465	88.62
244.699	89.62
244.932	81.62
245.166	82.62
245.399	85.62
245.633	77.62
245.866	88.62
246.099	81.62
246.333	81.62
246.566	91.62
246.8	79.62
247.033	92.62
247.266	90.62
247.5	85.62
247.733	80.62
247.966	91.62
248.2	80.62
248.433	78.62
248.666	77.62
248.899	81.62
249.133	74.62
249.366	88.62
249.599	88.62
249.832	79.62
250.066	82.62
250.299	72.62
250.532	83.62
250.765	86.62
250.998	95.62
251.231	68.62
251.465	96.62
251.698	83.62
251.931	69.62
252.164	81.62
252.397	79.62
252.63	80.62
252.863	74.62
253.096	66.62
253.329	88.62
253.562	82.62
253.795	78.62
254.028	79.62
254.261	76.62
254.494	83.62
254.727	89.62
254.96	84.62
255.193	81.62
255.426	71.62
255.659	89.62
255.892	76.62
256.124	86.62
256.357	89.62
256.59	91.62
256.823	88.62
257.056	80.62
257.289	69.62
257.521	86.62
257.754	81.62
257.987	98.62
258.22	98.62
258.452	82.62
258.685	89.62
258.918	80.62
259.151	83.62
259.383	80.62
259.616	81.62
259.849	90.62
260.081	100.62
260.314	107.62
260.547	83.62
260.779	74.62
261.012	90.62
261.244	79.62
261.477	75.62
261.71	86.62
261.942	100.62
262.175	84.62
262.407	83.62
262.64	88.62
262.872	91.62
263.105	92.62
263.337	95.62
263.57	82.62
263.802	76.62
264.035	86.62
264.267	87.62
264.499	86.62
264.732	90.62
264.964	91.62
265.197	75.62
265.429	82.62
265.661	97.62
265.894	78.62
266.126	92.62
266.358	84.62
266.591	80.62
266.823	85.62
267.055	83.62
267.287	82.62
267.52	70.62
267.752	89.62
267.984	74.62
268.216	79.62
268.448	96.62
268.681	86.62
268.913	102.62
269.145	91.62
269.377	105.62
269.609	88.62
269.841	80.62
270.073	80.62
270.306	86.62
270.538	92.62
270.77	79.62
271.002	83.62
271.234	77.62
271.466	78.62
271.698	82.62
271.93	85.62
272.162	98.62
272.394	98.62
272.626	88.62
272.858	98.62
273.09	83.62
273.322	84.62
273.553	83.62
273.785	97.62
274.017	93.62
274.249	93.62
274.481	86.62
274.713	84.62
274.945	81.62
275.176	102.62
275.408	88.62
275.64	97.62
275.872	89.62
276.104	84.62
276.335	91.62
276.567	85.62
276.799	94.62
277.031	89.62
277.262	85.62
277.494	95.62
277.726	95.62
277.957	92.62
278.189	84.62
278.421	89.62
278.652	87.62
278.884	81.62
279.115	96.62
279.347	73.62
279.579	76.62
279.81	83.62
280.042	98.62
280.273	90.62
280.505	91.62
280.736	93.62
280.968	98.62
281.199	89.62
281.431	72.62
281.662	90.62
281.894	93.62
282.125	100.62
282.356	85.62
282.588	85.62
282.819	91.62
283.051	79.62
283.282	88.62
283.513	82.62
283.745	80.62
283.976	90.62
284.207	96.62
284.439	93.62
284.67	93.62
284.901	94.62
285.132	92.62
285.364	98.62
285.595	85.62
285.826	83.62
286.057	93.62
286.288	107.62
286.52	97.62
286.751	81.62
286.982	82.62
287.213	101.62
287.444	90.62
287.675	90.62
287.906	96.62
288.138	89.62
288.369	91.62
288.6	92.62
288.831	108.62
289.062	78.62
289.293	101.62
289.524	86.62
289.755	81.62
289.986	69.62
290.217	89.62
290.448	88.62
290.679	92.62
290.91	92.62
291.141	91.62
291.371	92.62
291.602	83.62
291.833	64.62
292.064	74.62
292.295	80.62
292.526	85.62
292.757	73.62
292.987	90.62
293.218	83.62
293.449	91.62
293.68	87.62
293.91	82.62
294.141	89.62
294.372	97.62
294.603	91.62
294.833	83.62
295.064	88.62
295.295	95.62
295.525	88.62
295.756	91.62
295.987	94.62
296.217	88.62
296.448	89.62
296.679	86.62
296.909	101.62
297.14	101.62
297.37	97.62
297.601	90.62
297.831	75.62
298.062	94.62
298.292	69.62
298.523	89.62
298.753	77.62
298.984	73.62
299.214	97.62
299.445	82.62
299.675	81.62
299.905	87.62
300.136	83.62
300.366	88.62
300.597	89.62
300.827	82.62
301.057	93.62
301.288	87.62
301.518	97.62
301.748	89.62
301.979	109.62
302.209	90.62
302.439	96.62
302.669	79.62
302.9	90.62
303.13	90.62
303.36	84.62
303.59	95.62
303.82	95.62
304.051	87.62
304.281	92.62
304.511	83.62
304.741	76.62
304.971	88.62
305.201	93.62
305.431	73.62
305.661	67.62
305.891	87.62
306.121	83.62
306.352	88.62
306.582	97.62
306.812	86.62
307.042	87.62
307.272	77.62
307.502	94.62
307.731	84.62
307.961	95.62
308.191	91.62
308.421	85.62
308.651	98.62
308.881	98.62
309.111	94.62
309.341	98.62
309.571	97.62
309.8	94.62
310.03	75.62
310.26	90.62
310.49	86.62
310.72	100.62
310.949	85.62
311.179	94.62
311.409	88.62
311.639	88.62
311.868	107.62
312.098	94.62
312.328	80.62
312.557	86.62
312.787	94.62
313.017	89.62
313.246	94.62
313.476	88.62
313.706	83.62
313.935	80.62
314.165	88.62
314.394	86.62
314.624	86.62
314.853	93.62
315.083	100.62
315.312	97.62
315.542	80.62
315.771	92.62
316.001	86.62
316.23	99.62
316.46	81.62
316.689	89.62
316.919	91.62
317.148	88.62
317.377	90.62
317.607	86.62
317.836	97.62
318.065	81.62
318.295	84.62
318.524	92.62
318.753	94.62
318.983	85.62
319.212	104.62
319.441	78.62
319.67	86.62
319.9	90.62
320.129	94.62
320.358	90.62
320.587	93.62
320.816	91.62
321.046	91.62
321.275	84.62
321.504	86.62
321.733	97.62
321.962	89.62
322.191	89.62
322.42	89.62
322.649	75.62
322.878	83.62
323.108	77.62
323.337	100.62
323.566	85.62
323.795	76.62
324.024	92.62
324.253	94.62
324.482	94.62
324.71	95.62
324.939	86.62
325.168	92.62
325.397	92.62
325.626	82.62
325.855	89.62
326.084	92.62
326.313	76.62
326.542	83.62
326.77	99.62
326.999	73.62
327.228	96.62
327.457	88.62
327.686	90.62
327.914	99.62
328.143	85.62
328.372	73.62
328.6	74.62
328.829	92.62
329.058	86.62
329.287	98.62
329.515	90.62
329.744	102.62
329.972	86.62
330.201	83.62
330.43	88.62
330.658	89.62
330.887	103.62
331.115	87.62
331.344	77.62
331.572	92.62
331.801	87.62
332.03	82.62
332.258	86.62
332.486	95.62
332.715	87.62
332.943	90.62
333.172	95.62
333.4	90.62
333.629	96.62
333.857	85.62
334.085	94.62
334.314	93.62
334.542	70.62
334.771	83.62
334.999	90.62
335.227	97.62
335.455	95.62
335.684	87.62
335.912	89.62
336.14	90.62
336.369	95.62
336.597	86.62
336.825	87.62
337.053	82.62
337.281	92.62
337.51	97.62
337.738	97.62
337.966	99.62
338.194	90.62
338.422	97.62
338.65	88.62
338.878	88.62
339.106	82.62
339.334	94.62
339.562	101.62
339.79	105.62
340.018	88.62
340.246	87.62
340.474	85.62
340.702	86.62
340.93	88.62
341.158	90.62
341.386	100.62
341.614	84.62
341.842	83.62
342.07	88.62
342.298	95.62
342.526	82.62
342.754	85.62
342.981	97.62
343.209	89.62
343.437	95.62
343.665	91.62
343.893	82.62
344.12	99.62
344.348	92.62
344.576	97.62
344.804	94.62
345.031	84.62
345.259	81.62
345.487	89.62
345.714	84.62
345.942	94.62
346.17	85.62
346.397	96.62
346.625	89.62
346.853	92.62
347.08	76.62
347.308	90.62
347.535	84.62
347.763	85.62
347.99	81.62
348.218	81.62
348.445	104.62
348.673	90.62
348.9	84.62
349.128	93.62
349.355	86.62
349.583	94.62
349.81	91.62
350.037	83.62
350.265	95.62
350.492	93.62
350.72	90.62
350.947	96.62
351.174	75.62
351.402	85.62
351.629	87.62
351.856	93.62
352.083	98.62
352.311	91.62
352.538	79.62
352.765	85.62
352.992	87.62
353.22	94.62
353.447	101.62
353.674	73.62
353.901	84.62
354.128	72.62
354.355	84.62
354.583	88.62
354.81	92.62
355.037	93.62
355.264	97.62
355.491	78.62
355.718	75.62
355.945	82.62
356.172	93.62
356.399	85.62
356.626	98.62
356.853	85.62
357.08	89.62
357.307	82.62
357.534	85.62
357.761	96.62
357.988	84.62
358.215	88.62
358.441	81.62
358.668	93.62
358.895	92.62
359.122	81.62
359.349	96.62
359.576	89.62
359.802	93.62
360.029	99.62
360.256	74.62
360.483	91.62
360.709	93.62
360.936	99.62
361.163	100.62
361.39	84.62
361.616	86.62
361.843	80.62
362.07	92.62
362.296	89.62
362.523	90.62
362.749	105.62
362.976	114.62
363.203	113.62
363.429	95.62
363.656	82.62
363.882	85.62
364.109	85.62
364.335	101.62
364.562	97.62
364.788	79.62
365.015	99.62
365.241	100.62
365.468	113.62
365.694	92.62
365.92	90.62
366.147	86.62
366.373	94.62
366.599	90.62
366.826	91.62
367.052	96.62
367.278	91.62
367.505	83.62
367.731	84.62
367.957	90.62
368.184	85.62
368.41	82.62
368.636	88.62
368.862	81.62
369.089	101.62
369.315	92.62
369.541	95.62
369.767	93.62
369.993	98.62
370.219	87.62
370.445	71.62
370.672	90.62
370.898	67.62
371.124	81.62
371.35	80.62
371.576	87.62
371.802	106.62
372.028	101.62
372.254	86.62
372.48	86.62
372.706	97.62
372.932	96.62
373.158	92.62
373.384	93.62
373.61	102.62
373.835	94.62
374.061	85.62
374.287	84.62
374.513	95.62
374.739	80.62
374.965	82.62
375.191	77.62
375.416	78.62
375.642	93.62
375.868	101.62
376.094	78.62
376.319	89.62
376.545	99.62
376.771	86.62
376.997	83.62
377.222	85.62
377.448	66.62
377.674	92.62
377.899	90.62
378.125	80.62
378.35	78.62
378.576	88.62
378.802	87.62
379.027	94.62
379.253	82.62
379.478	89.62
379.704	89.62
379.929	94.62
380.155	95.62
380.38	96.62
380.606	97.62
380.831	90.62
381.057	94.62
381.282	71.62
381.507	87.62
381.733	77.62
381.958	91.62
382.184	91.62
382.409	77.62
382.634	94.62
382.86	83.62
383.085	81.62
383.31	86.62
383.535	90.62
383.761	69.62
383.986	98.62
384.211	89.62
384.436	87.62
384.662	88.62
384.887	107.62
385.112	87.62
385.337	93.62
385.562	97.62
385.787	85.62
386.013	105.62
386.238	93.62
386.463	104.62
386.688	95.62
386.913	104.62
387.138	97.62
387.363	92.62
387.588	106.62
387.813	94.62
388.038	86.62
388.263	88.62
388.488	98.62
388.713	91.62
388.938	72.62
389.163	96.62
389.387	89.62
389.612	85.62
389.837	93.62
390.062	91.62
390.287	107.62
390.512	94.62
390.736	89.62
390.961	84.62
391.186	97.62
391.411	86.62
391.636	79.62
391.86	87.62
392.085	89.62
392.31	93.62
392.534	113.62
392.759	88.62
392.984	118.62
393.208	116.62
393.433	120.62
393.658	120.62
393.882	84.62
394.107	102.62
394.331	103.62
394.556	80.62
394.78	76.62
395.005	93.62
395.229	101.62
395.454	93.62
395.678	89.62
395.903	90.62
396.127	110.62
396.352	104.62
396.576	79.62
396.801	111.62
397.025	117.62
397.249	109.62
397.474	91.62
397.698	106.62
397.922	88.62
398.147	78.62
398.371	93.62
398.595	92.62
398.82	92.62
399.044	73.62
399.268	90.62
399.492	92.62
399.717	91.62
399.941	91.62
400.165	104.62
400.389	84.62
400.613	84.62
400.837	85.62
401.062	86.62
401.286	83.62
401.51	75.62
401.734	89.62
401.958	78.62
402.182	83.62
402.406	95.62
402.63	83.62
402.854	82.62
403.078	77.62
403.302	85.62
403.526	95.62
403.75	91.62
403.974	91.62
404.198	106.62
404.422	115.62
404.645	116.62
404.869	115.62
405.093	85.62
405.317	75.62
405.541	88.62
405.765	91.62
405.988	95.62
406.212	85.62
406.436	91.62
406.66	88.62
406.883	90.62
407.107	85.62
407.331	94.62
407.555	86.62
407.778	96.62
408.002	96.62
408.226	91.62
408.449	74.62
408.673	82.62
408.896	89.62
409.12	80.62
409.344	96.62
409.567	86.62
409.791	100.62
410.014	90.62
410.238	98.62
410.461	76.62
410.685	100.62
410.908	93.62
411.132	91.62
411.355	88.62
411.578	83.62
411.802	85.62
412.025	81.62
412.249	86.62
412.472	84.62
412.695	89.62
412.919	79.62
413.142	82.62
413.365	80.62
413.589	94.62
413.812	86.62
414.035	91.62
414.258	82.62
414.482	90.62
414.705	74.62
414.928	106.62
415.151	92.62
415.374	94.62
415.597	77.62
415.821	89.62
416.044	96.62
416.267	79.62
416.49	83.62
416.713	92.62
416.936	92.62
417.159	84.62
417.382	93.62
417.605	89.62
417.828	78.62
418.051	88.62
418.274	89.62
418.497	90.62
418.72	99.62
418.943	91.62
419.166	86.62
419.389	93.62
419.611	91.62
419.834	84.62
420.057	91.62
420.28	67.62
420.503	104.62
420.726	91.62
420.948	98.62
421.171	86.62
421.394	95.62
421.617	92.62
421.839	98.62
422.062	90.62
422.285	124.62
422.507	126.62
422.73	170.62
422.953	157.62
423.175	114.62
423.398	100.62
423.621	98.62
423.843	98.62
424.066	82.62
424.288	95.62
424.511	78.62
424.733	101.62
424.956	87.62
425.178	81.62
425.401	97.62
425.623	75.62
425.846	88.62
426.068	89.62
426.291	85.62
426.513	77.62
426.735	82.62
426.958	71.62
427.18	86.62
427.402	84.62
427.625	85.62
427.847	85.62
428.069	90.62
428.292	90.62
428.514	101.62
428.736	85.62
428.958	100.62
429.181	102.62
429.403	84.62
429.625	96.62
429.847	112.62
430.069	114.62
430.292	136.62
430.514	102.62
430.736	89.62
430.958	108.62
431.18	92.62
431.402	99.62
431.624	88.62
431.846	93.62
432.068	105.62
432.29	98.62
432.512	91.62
432.734	100.62
432.956	72.62
433.178	93.62
433.4	95.62
433.622	95.62
433.844	89.62
434.066	85.62
434.287	83.62
434.509	95.62
434.731	104.62
434.953	83.62
435.175	101.62
435.397	88.62
435.618	85.62
435.84	82.62
436.062	91.62
436.284	78.62
436.505	87.62
436.727	85.62
436.949	87.62
437.17	86.62
437.392	94.62
437.614	89.62
437.835	96.62
438.057	86.62
438.278	73.62
438.5	91.62
438.721	77.62
438.943	70.62
439.165	86.62
439.386	92.62
439.608	84.62
439.829	87.62
440.05	99.62
440.272	93.62
440.493	98.62
440.715	95.62
440.936	101.62
441.158	88.62
441.379	81.62
441.6	89.62
441.822	93.62
442.043	79.62
442.264	83.62
442.486	113.62
442.707	100.62
442.928	112.62
443.149	114.62
443.371	114.62
443.592	140.62
443.813	113.62
444.034	90.62
444.255	90.62
444.476	83.62
444.698	77.62
444.919	104.62
445.14	162.62
445.361	146.62
445.582	154.62
445.803	132.62
446.024	96.62
446.245	90.62
446.466	86.62
446.687	80.62
446.908	95.62
447.129	88.62
447.35	86.62
447.571	85.62
447.792	85.62
448.013	86.62
448.234	83.62
448.455	98.62
448.675	83.62
448.896	93.62
449.117	89.62
449.338	93.62
449.559	97.62
449.779	91.62
450	96.62
450.221	89.62
450.442	85.62
450.662	81.62
450.883	87.62
451.104	91.62
451.324	94.62
451.545	84.62
451.766	85.62
451.986	90.62
452.207	86.62
452.428	97.62
452.648	88.62
452.869	95.62
453.089	85.62
453.31	99.62
453.53	91.62
453.751	94.62
453.971	87.62
454.192	79.62
454.412	98.62
454.633	90.62
454.853	104.62
455.073	88.62
455.294	91.62
455.514	94.62
455.734	84.62
455.955	97.62
456.175	98.62
456.395	73.62
456.616	85.62
456.836	90.62
457.056	90.62
457.276	83.62
457.497	84.62
457.717	100.62
457.937	95.62
458.157	86.62
458.377	106.62
458.598	108.62
458.818	93.62
459.038	83.62
459.258	88.62
459.478	94.62
459.698	95.62
459.918	80.62
460.138	111.62
460.358	86.62
460.578	89.62
460.798	103.62
461.018	96.62
461.238	85.62
461.458	89.62
461.678	88.62
461.898	76.62
462.118	90.62
462.338	84.62
462.558	90.62
462.777	88.62
462.997	90.62
463.217	85.62
463.437	97.62
463.657	92.62
463.876	106.62
464.096	91.62
464.316	92.62
464.536	78.62
464.755	83.62
464.975	77.62
465.195	81.62
465.414	84.62
465.634	94.62
465.854	97.62
466.073	97.62
466.293	86.62
466.512	92.62
466.732	81.62
466.951	94.62
467.171	85.62
467.391	79.62
467.61	84.62
467.829	73.62
468.049	92.62
468.268	87.62
468.488	82.62
468.707	89.62
468.927	98.62
469.146	86.62
469.365	94.62
469.585	89.62
469.804	99.62
470.023	83.62
470.243	98.62
470.462	93.62
470.681	105.62
470.901	69.62
471.12	96.62
471.339	106.62
471.558	74.62
471.777	104.62
471.997	92.62
472.216	86.62
472.435	87.62
472.654	96.62
472.873	94.62
473.092	83.62
473.311	96.62
473.53	91.62
473.749	95.62
473.968	92.62
474.187	102.62
474.406	89.62
474.625	92.62
474.844	95.62
475.063	86.62
475.282	93.62
475.501	77.62
475.72	107.62
475.939	94.62
476.158	74.62
476.377	76.62
476.596	92.62
476.814	93.62
477.033	97.62
477.252	89.62
477.471	76.62
477.69	88.62
477.908	85.62
478.127	84.62
478.346	88.62
478.564	96.62
478.783	102.62
479.002	91.62
479.22	85.62
479.439	97.62
479.658	97.62
479.876	77.62
480.095	91.62
480.313	86.62
480.532	92.62
480.751	99.62
480.969	81.62
481.188	88.62
481.406	92.62
481.624	89.62
481.843	92.62
482.061	89.62
482.28	100.62
482.498	94.62
482.717	100.62
482.935	95.62
483.153	93.62
483.372	91.62
483.59	100.62
483.808	90.62
484.027	101.62
484.245	99.62
484.463	83.62
484.681	100.62
484.9	77.62
485.118	97.62
485.336	91.62
485.554	77.62
485.772	82.62
485.99	96.62
486.209	91.62
486.427	88.62
486.645	85.62
486.863	90.62
487.081	82.62
487.299	82.62
487.517	100.62
487.735	88.62
487.953	110.62
488.171	115.62
488.389	99.62
488.607	87.62
488.825	87.62
489.043	94.62
489.261	85.62
489.479	110.62
489.696	89.62
489.914	76.62
490.132	97.62
490.35	94.62
490.568	98.62
490.786	90.62
491.003	94.62
491.221	108.62
491.439	93.62
491.657	104.62
491.874	116.62
492.092	90.62
492.31	96.62
492.527	92.62
492.745	96.62
492.963	77.62
493.18	101.62
493.398	99.62
493.615	82.62
493.833	77.62
494.05	94.62
494.268	86.62
494.485	89.62
494.703	89.62
494.92	84.62
495.138	74.62
495.355	93.62
495.573	92.62
495.79	82.62
496.008	95.62
496.225	94.62
496.442	74.62
496.66	111.62
496.877	98.62
497.094	94.62
497.312	90.62
497.529	77.62
497.746	91.62
497.963	78.62
498.181	97.62
498.398	93.62
498.615	92.62
498.832	104.62
499.049	88.62
499.267	114.62
499.484	87.62
499.701	104.62
499.918	94.62
500.135	96.62
500.352	104.62
500.569	91.62
500.786	83.62
501.003	82.62
501.22	90.62
501.437	93.62
501.654	90.62
501.871	83.62
502.088	93.62
502.305	89.62
502.522	95.62
502.739	73.62
502.956	98.62
503.172	81.62
503.389	111.62
503.606	90.62
503.823	95.62
504.04	93.62
504.256	107.62
504.473	93.62
504.69	104.62
504.907	87.62
505.123	91.62
505.34	91.62
505.557	96.62
505.773	97.62
505.99	103.62
506.207	96.62
506.423	88.62
506.64	90.62
506.856	83.62
507.073	86.62
507.289	94.62
507.506	98.62
507.722	89.62
507.939	89.62
508.155	87.62
508.372	84.62
508.588	99.62
508.805	107.62
509.021	87.62
509.238	104.62
509.454	101.62
509.67	93.62
509.887	91.62
510.103	86.62
510.319	82.62
510.536	92.62
510.752	84.62
510.968	78.62
511.184	85.62
511.401	99.62
511.617	87.62
511.833	93.62
512.049	95.62
512.265	78.62
512.481	100.62
512.698	87.62
512.914	83.62
513.13	81.62
513.346	75.62
513.562	89.62
513.778	92.62
513.994	88.62
514.21	106.62
514.426	101.62
514.642	86.62
514.858	93.62
515.074	100.62
515.29	81.62
515.506	73.62
515.721	91.62
515.937	93.62
516.153	84.62
516.369	106.62
516.585	69.62
516.801	105.62
517.016	92.62
517.232	98.62
517.448	85.62
517.664	81.62
517.879	94.62
518.095	106.62
