Data from Mixheat2_HRD10591_00010.txt Node
Date: Fri Dec 27 15:09:13 EST 2024
User: Yrep
Spectrometer: HR+D1059
Trigger mode: 1
Integration Time (sec): 1.000000E-1
Scans to average: 1
Electric dark correction enabled: true
Nonlinearity correction enabled: false
Boxcar width: 0
XAxis mode: Wavelengths
Number of Pixels in Spectrum: 2048
>>>>>Begin Spectral Data<<<<<
223.165	-38
223.4	-38
223.635	-38
223.869	-12
224.104	-30
224.338	-17
224.573	-10
224.808	-5
225.042	2
225.277	-12
225.511	-7
225.746	7
225.98	14
226.215	13
226.449	23
226.683	14
226.918	21
227.152	37
227.387	37
227.621	49
227.856	34
228.09	43
228.324	60
228.559	53
228.793	59
229.027	66
229.262	62
229.496	58
229.73	74
229.964	75
230.199	82
230.433	76
230.667	87
230.901	82
231.136	75
231.37	74
231.604	60
231.838	79
232.072	68
232.306	86
232.541	84
232.775	77
233.009	93
233.243	100
233.477	95
233.711	92
233.945	83
234.179	74
234.413	90
234.647	72
234.881	68
235.115	83
235.349	64
235.583	83
235.817	77
236.051	86
236.285	74
236.519	80
236.753	86
236.987	65
237.221	72
237.455	87
237.689	78
237.922	72
238.156	68
238.39	67
238.624	82
238.858	80
239.091	75
239.325	74
239.559	67
239.793	79
240.027	83
240.26	75
240.494	85
240.728	70
240.961	67
241.195	71
241.429	62
241.662	79
241.896	91
242.13	72
242.363	76
242.597	67
242.83	70
243.064	71
243.298	78
243.531	76
243.765	80
243.998	76
244.232	76
244.465	71
244.699	81
244.932	75
245.166	84
245.399	79
245.633	68
245.866	89
246.099	79
246.333	73
246.566	82
246.8	80
247.033	77
247.266	79
247.5	77
247.733	86
247.966	68
248.2	80
248.433	56
248.666	77
248.899	71
249.133	66
249.366	76
249.599	67
249.832	69
250.066	87
250.299	84
250.532	78
250.765	86
250.998	83
251.231	61
251.465	85
251.698	65
251.931	72
252.164	74
252.397	74
252.63	77
252.863	75
253.096	90
253.329	79
253.562	77
253.795	85
254.028	72
254.261	86
254.494	77
254.727	80
254.96	73
255.193	77
255.426	74
255.659	72
255.892	84
256.124	85
256.357	75
256.59	78
256.823	84
257.056	78
257.289	74
257.521	74
257.754	92
257.987	84
258.22	77
258.452	73
258.685	78
258.918	83
259.151	75
259.383	83
259.616	71
259.849	65
260.081	83
260.314	75
260.547	70
260.779	94
261.012	74
261.244	80
261.477	90
261.71	71
261.942	91
262.175	80
262.407	85
262.64	78
262.872	83
263.105	80
263.337	78
263.57	76
263.802	81
264.035	85
264.267	89
264.499	65
264.732	77
264.964	93
265.197	79
265.429	85
265.661	87
265.894	77
266.126	85
266.358	78
266.591	88
266.823	79
267.055	86
267.287	84
267.52	79
267.752	99
267.984	93
268.216	83
268.448	97
268.681	79
268.913	88
269.145	82
269.377	90
269.609	77
269.841	73
270.073	86
270.306	80
270.538	68
270.77	69
271.002	82
271.234	72
271.466	92
271.698	78
271.93	92
272.162	68
272.394	88
272.626	85
272.858	63
273.09	72
273.322	85
273.553	76
273.785	74
274.017	76
274.249	82
274.481	73
274.713	85
274.945	78
275.176	85
275.408	87
275.64	80
275.872	81
276.104	79
276.335	86
276.567	74
276.799	77
277.031	68
277.262	78
277.494	87
277.726	74
277.957	78
278.189	88
278.421	80
278.652	82
278.884	86
279.115	89
279.347	76
279.579	78
279.81	83
280.042	87
280.273	75
280.505	71
280.736	88
280.968	84
281.199	91
281.431	88
281.662	92
281.894	99
282.125	86
282.356	95
282.588	75
282.819	76
283.051	71
283.282	85
283.513	87
283.745	80
283.976	91
284.207	74
284.439	79
284.67	96
284.901	84
285.132	77
285.364	86
285.595	88
285.826	83
286.057	88
286.288	95
286.52	85
286.751	91
286.982	80
287.213	72
287.444	102
287.675	91
287.906	74
288.138	84
288.369	82
288.6	92
288.831	83
289.062	101
289.293	71
289.524	66
289.755	76
289.986	75
290.217	83
290.448	78
290.679	79
290.91	87
291.141	85
291.371	98
291.602	88
291.833	86
292.064	92
292.295	89
292.526	82
292.757	89
292.987	90
293.218	83
293.449	81
293.68	86
293.91	96
294.141	80
294.372	77
294.603	82
294.833	87
295.064	76
295.295	89
295.525	86
295.756	86
295.987	94
296.217	90
296.448	89
296.679	84
296.909	87
297.14	95
297.37	83
297.601	74
297.831	88
298.062	101
298.292	82
298.523	87
298.753	72
298.984	99
299.214	88
299.445	91
299.675	87
299.905	100
300.136	82
300.366	83
300.597	87
300.827	101
301.057	82
301.288	85
301.518	83
301.748	87
301.979	110
302.209	103
302.439	89
302.669	86
302.9	80
303.13	88
303.36	83
303.59	86
303.82	87
304.051	89
304.281	71
304.511	77
304.741	80
304.971	85
305.201	87
305.431	71
305.661	84
305.891	69
306.121	80
306.352	81
306.582	91
306.812	87
307.042	76
307.272	94
307.502	80
307.731	89
307.961	91
308.191	73
308.421	91
308.651	87
308.881	85
309.111	91
309.341	80
309.571	74
309.8	87
310.03	90
310.26	87
310.49	81
310.72	98
310.949	90
311.179	84
311.409	84
311.639	83
311.868	88
312.098	81
312.328	89
312.557	100
312.787	72
313.017	77
313.246	85
313.476	87
313.706	84
313.935	81
314.165	77
314.394	83
314.624	95
314.853	77
315.083	80
315.312	87
315.542	77
315.771	81
316.001	83
316.23	87
316.46	81
316.689	80
316.919	81
317.148	83
317.377	86
317.607	78
317.836	78
318.065	84
318.295	81
318.524	84
318.753	69
318.983	88
319.212	85
319.441	88
319.67	76
319.9	93
320.129	84
320.358	88
320.587	92
320.816	80
321.046	74
321.275	99
321.504	85
321.733	80
321.962	88
322.191	80
322.42	99
322.649	85
322.878	94
323.108	100
323.337	84
323.566	89
323.795	88
324.024	90
324.253	70
324.482	86
324.71	98
324.939	95
325.168	89
325.397	82
325.626	90
325.855	92
326.084	87
326.313	87
326.542	73
326.77	78
326.999	93
327.228	91
327.457	91
327.686	89
327.914	94
328.143	70
328.372	108
328.6	85
328.829	81
329.058	92
329.287	87
329.515	77
329.744	65
329.972	100
330.201	89
330.43	83
330.658	76
330.887	87
331.115	77
331.344	67
331.572	86
331.801	74
332.03	87
332.258	92
332.486	83
332.715	85
332.943	78
333.172	82
333.4	77
333.629	92
333.857	93
334.085	94
334.314	95
334.542	87
334.771	81
334.999	76
335.227	89
335.455	95
335.684	82
335.912	82
336.14	79
336.369	92
336.597	98
336.825	82
337.053	86
337.281	82
337.51	82
337.738	77
337.966	74
338.194	74
338.422	81
338.65	70
338.878	78
339.106	87
339.334	86
339.562	91
339.79	76
340.018	85
340.246	79
340.474	79
340.702	91
340.93	95
341.158	98
341.386	78
341.614	78
341.842	79
342.07	87
342.298	78
342.526	71
342.754	74
342.981	74
343.209	78
343.437	113
343.665	78
343.893	92
344.12	95
344.348	94
344.576	84
344.804	95
345.031	79
345.259	82
345.487	72
345.714	80
345.942	79
346.17	84
346.397	84
346.625	78
346.853	82
347.08	85
347.308	67
347.535	79
347.763	86
347.99	83
348.218	89
348.445	78
348.673	82
348.9	71
349.128	81
349.355	97
349.583	87
349.81	85
350.037	77
350.265	90
350.492	106
350.72	83
350.947	75
351.174	85
351.402	80
351.629	75
351.856	87
352.083	89
352.311	106
352.538	80
352.765	98
352.992	89
353.22	91
353.447	76
353.674	88
353.901	77
354.128	78
354.355	83
354.583	97
354.81	94
355.037	85
355.264	77
355.491	85
355.718	90
355.945	74
356.172	98
356.399	95
356.626	87
356.853	88
357.08	103
357.307	85
357.534	81
357.761	81
357.988	80
358.215	87
358.441	86
358.668	73
358.895	86
359.122	96
359.349	71
359.576	86
359.802	88
360.029	78
360.256	88
360.483	94
360.709	93
360.936	90
361.163	82
361.39	87
361.616	74
361.843	73
362.07	90
362.296	80
362.523	79
362.749	79
362.976	106
363.203	87
363.429	80
363.656	82
363.882	82
364.109	77
364.335	87
364.562	93
364.788	91
365.015	88
365.241	92
365.468	91
365.694	83
365.92	65
366.147	68
366.373	86
366.599	73
366.826	92
367.052	90
367.278	94
367.505	106
367.731	94
367.957	85
368.184	72
368.41	73
368.636	74
368.862	90
369.089	90
369.315	76
369.541	92
369.767	77
369.993	87
370.219	82
370.445	72
370.672	86
370.898	68
371.124	80
371.35	89
371.576	78
371.802	82
372.028	91
372.254	88
372.48	75
372.706	81
372.932	74
373.158	91
373.384	79
373.61	72
373.835	78
374.061	87
374.287	76
374.513	82
374.739	91
374.965	79
375.191	79
375.416	74
375.642	86
375.868	92
376.094	73
376.319	81
376.545	81
376.771	88
376.997	82
377.222	103
377.448	85
377.674	79
377.899	77
378.125	75
378.35	99
378.576	89
378.802	79
379.027	84
379.253	77
379.478	75
379.704	72
379.929	88
380.155	74
380.38	80
380.606	86
380.831	88
381.057	84
381.282	100
381.507	92
381.733	80
381.958	75
382.184	78
382.409	81
382.634	100
382.86	85
383.085	73
383.31	92
383.535	74
383.761	82
383.986	71
384.211	80
384.436	93
384.662	94
384.887	91
385.112	82
385.337	84
385.562	69
385.787	90
386.013	89
386.238	79
386.463	85
386.688	100
386.913	100
387.138	78
387.363	85
387.588	94
387.813	98
388.038	91
388.263	66
388.488	87
388.713	81
388.938	80
389.163	94
389.387	76
389.612	70
389.837	79
390.062	72
390.287	88
390.512	87
390.736	72
390.961	85
391.186	76
391.411	91
391.636	91
391.86	88
392.085	81
392.31	86
392.534	90
392.759	100
392.984	92
393.208	102
393.433	116
393.658	110
393.882	90
394.107	86
394.331	83
394.556	77
394.78	87
395.005	76
395.229	80
395.454	91
395.678	118
395.903	80
396.127	80
396.352	95
396.576	87
396.801	108
397.025	94
397.249	100
397.474	90
397.698	82
397.922	83
398.147	81
398.371	91
398.595	82
398.82	91
399.044	88
399.268	74
399.492	74
399.717	96
399.941	85
400.165	81
400.389	78
400.613	79
400.837	94
401.062	84
401.286	86
401.51	92
401.734	85
401.958	93
402.182	80
402.406	72
402.63	80
402.854	76
403.078	87
403.302	75
403.526	77
403.75	70
403.974	93
404.198	104
404.422	100
404.645	107
404.869	99
405.093	91
405.317	74
405.541	95
405.765	90
405.988	73
406.212	90
406.436	80
406.66	75
406.883	86
407.107	75
407.331	76
407.555	74
407.778	91
408.002	90
408.226	75
408.449	90
408.673	84
408.896	97
409.12	70
409.344	85
409.567	86
409.791	73
410.014	79
410.238	102
410.461	97
410.685	87
410.908	89
411.132	84
411.355	67
411.578	83
411.802	83
412.025	101
412.249	86
412.472	96
412.695	80
412.919	85
413.142	82
413.365	75
413.589	84
413.812	92
414.035	74
414.258	86
414.482	83
414.705	80
414.928	84
415.151	75
415.374	91
415.597	79
415.821	93
416.044	66
416.267	88
416.49	92
416.713	88
416.936	91
417.159	78
417.382	78
417.605	82
417.828	84
418.051	73
418.274	71
418.497	84
418.72	69
418.943	93
419.166	78
419.389	88
419.611	86
419.834	76
420.057	80
420.28	80
420.503	86
420.726	79
420.948	82
421.171	77
421.394	83
421.617	90
421.839	81
422.062	94
422.285	100
422.507	128
422.73	161
422.953	121
423.175	99
423.398	94
423.621	83
423.843	76
424.066	91
424.288	90
424.511	84
424.733	98
424.956	84
425.178	74
425.401	86
425.623	75
425.846	72
426.068	80
426.291	72
426.513	75
426.735	80
426.958	66
427.18	87
427.402	88
427.625	78
427.847	61
428.069	81
428.292	83
428.514	93
428.736	81
428.958	88
429.181	99
429.403	88
429.625	89
429.847	76
430.069	98
430.292	109
430.514	95
430.736	85
430.958	99
431.18	90
431.402	66
431.624	61
431.846	84
432.068	88
432.29	89
432.512	86
432.734	76
432.956	82
433.178	88
433.4	79
433.622	88
433.844	90
434.066	92
434.287	86
434.509	92
434.731	77
434.953	91
435.175	89
435.397	82
435.618	82
435.84	75
436.062	88
436.284	79
436.505	72
436.727	89
436.949	95
437.17	76
437.392	72
437.614	81
437.835	78
438.057	89
438.278	93
438.5	82
438.721	81
438.943	77
439.165	85
439.386	82
439.608	88
439.829	75
440.05	84
440.272	64
440.493	76
440.715	72
440.936	83
441.158	89
441.379	80
441.6	89
441.822	99
442.043	88
442.264	94
442.486	102
442.707	86
442.928	83
443.149	86
443.371	106
443.592	102
443.813	107
444.034	87
444.255	99
444.476	88
444.698	90
444.919	84
445.14	165
445.361	118
445.582	105
445.803	93
446.024	86
446.245	84
446.466	79
446.687	70
446.908	84
447.129	79
447.35	81
447.571	84
447.792	79
448.013	84
448.234	86
448.455	87
448.675	71
448.896	82
449.117	85
449.338	80
449.559	89
449.779	77
450	82
450.221	78
450.442	80
450.662	83
450.883	83
451.104	88
451.324	89
451.545	85
451.766	83
451.986	73
452.207	83
452.428	86
452.648	88
452.869	70
453.089	70
453.31	80
453.53	74
453.751	84
453.971	76
454.192	85
454.412	79
454.633	102
454.853	82
455.073	84
455.294	77
455.514	85
455.734	81
455.955	81
456.175	75
456.395	84
456.616	78
456.836	66
457.056	87
457.276	82
457.497	79
457.717	76
457.937	87
458.157	82
458.377	87
458.598	84
458.818	100
459.038	98
459.258	91
459.478	90
459.698	66
459.918	84
460.138	91
460.358	82
460.578	92
460.798	96
461.018	90
461.238	84
461.458	79
461.678	70
461.898	98
462.118	74
462.338	86
462.558	74
462.777	92
462.997	72
463.217	79
463.437	76
463.657	64
463.876	90
464.096	76
464.316	87
464.536	80
464.755	88
464.975	87
465.195	97
465.414	95
465.634	89
465.854	87
466.073	83
466.293	90
466.512	72
466.732	78
466.951	91
467.171	83
467.391	78
467.61	69
467.829	79
468.049	90
468.268	84
468.488	84
468.707	77
468.927	81
469.146	80
469.365	87
469.585	88
469.804	83
470.023	90
470.243	84
470.462	94
470.681	75
470.901	78
471.12	80
471.339	96
471.558	89
471.777	81
471.997	95
472.216	87
472.435	59
472.654	70
472.873	106
473.092	86
473.311	76
473.53	85
473.749	82
473.968	85
474.187	80
474.406	78
474.625	76
474.844	89
475.063	76
475.282	98
475.501	93
475.72	80
475.939	91
476.158	73
476.377	77
476.596	89
476.814	67
477.033	88
477.252	94
477.471	92
477.69	83
477.908	97
478.127	76
478.346	79
478.564	90
478.783	63
479.002	83
479.22	82
479.439	82
479.658	91
479.876	68
480.095	87
480.313	98
480.532	92
480.751	82
480.969	79
481.188	83
481.406	86
481.624	76
481.843	95
482.061	71
482.28	80
482.498	78
482.717	74
482.935	75
483.153	85
483.372	104
483.59	69
483.808	65
484.027	83
484.245	85
484.463	78
484.681	89
484.9	93
485.118	71
485.336	89
485.554	90
485.772	100
485.99	87
486.209	91
486.427	91
486.645	79
486.863	81
487.081	86
487.299	83
487.517	75
487.735	99
487.953	97
488.171	100
488.389	87
488.607	82
488.825	86
489.043	104
489.261	101
489.479	73
489.696	95
489.914	82
490.132	80
490.35	86
490.568	70
490.786	90
491.003	92
491.221	90
491.439	86
491.657	79
491.874	79
492.092	83
492.31	86
492.527	89
492.745	92
492.963	82
493.18	91
493.398	91
493.615	91
493.833	79
494.05	76
494.268	89
494.485	86
494.703	84
494.92	85
495.138	79
495.355	83
495.573	86
495.79	87
496.008	90
496.225	104
496.442	94
496.66	92
496.877	73
497.094	93
497.312	69
497.529	88
497.746	79
497.963	77
498.181	84
498.398	90
498.615	76
498.832	77
499.049	89
499.267	81
499.484	77
499.701	80
499.918	88
500.135	88
500.352	89
500.569	73
500.786	75
501.003	86
501.22	106
501.437	76
501.654	95
501.871	79
502.088	81
502.305	96
502.522	87
502.739	71
502.956	90
503.172	88
503.389	87
503.606	87
503.823	82
504.04	82
504.256	76
504.473	84
504.69	90
504.907	89
505.123	80
505.34	91
505.557	78
505.773	79
505.99	90
506.207	95
506.423	85
506.64	86
506.856	87
507.073	95
507.289	99
507.506	92
507.722	89
507.939	84
508.155	75
508.372	78
508.588	95
508.805	89
509.021	97
509.238	90
509.454	86
509.67	83
509.887	91
510.103	91
510.319	75
510.536	88
510.752	98
510.968	65
511.184	101
511.401	86
511.617	79
511.833	89
512.049	96
512.265	79
512.481	79
512.698	82
512.914	75
513.13	79
513.346	92
513.562	92
513.778	95
513.994	75
514.21	87
514.426	100
514.642	82
514.858	73
515.074	81
515.29	90
515.506	85
515.721	85
515.937	85
516.153	86
516.369	89
516.585	85
516.801	92
517.016	84
517.232	89
517.448	85
517.664	105
517.879	88
518.095	78
518.311	79
518.527	80
518.742	84
518.958	85
519.173	95
519.389	99
519.605	90
519.82	91
520.036	80
520.251	84
520.467	79
520.682	92
520.898	71
521.113	74
521.329	83
521.544	70
521.76	93
521.975	73
522.19	89
522.406	94
522.621	85
522.836	93
523.052	68
523.267	71
523.482	88
523.698	77
523.913	91
524.128	87
524.343	81
524.559	91
524.774	95
524.989	83
525.204	82
525.419	86
525.634	76
525.849	91
526.064	95
526.28	107
526.495	109
526.71	116
526.925	98
527.14	111
527.355	118
527.57	84
527.785	92
527.999	84
528.214	89
528.429	88
528.644	82
528.859	85
529.074	78
529.289	76
529.503	62
529.718	98
529.933	89
530.148	82
530.363	80
530.577	72
530.792	79
531.007	91
531.221	75
531.436	86
531.651	97
531.865	79
532.08	95
532.295	83
532.509	85
532.724	82
532.938	88
533.153	81
533.367	81
533.582	77
533.796	78
534.011	92
534.225	85
534.44	89
534.654	81
534.868	98
535.083	98
535.297	98
535.511	94
535.726	101
535.94	102
536.154	104
536.369	83
536.583	85
536.797	88
537.011	83
537.225	88
537.44	92
537.654	83
537.868	69
538.082	90
538.296	80
538.51	85
538.724	92
538.938	88
539.153	90
539.367	85
539.581	92
539.795	86
540.009	85
540.222	84
540.436	75
540.65	78
540.864	78
541.078	87
541.292	95
541.506	96
541.72	89
541.934	86
542.147	82
542.361	77
542.575	94
542.789	75
543.002	81
543.216	91
543.43	90
543.644	80
543.857	72
544.071	77
544.285	91
544.498	94
544.712	92
544.925	91
545.139	84
545.352	84
545.566	92
545.779	85
545.993	88
546.206	83
546.42	93
546.633	89
546.847	84
547.06	95
547.274	92
547.487	87
547.7	105
547.914	95
548.127	92
548.34	90
548.554	81
548.767	90
548.98	65
549.193	87
549.407	82
549.62	100
549.833	98
550.046	94
550.259	108
550.473	87
550.686	98
550.899	100
551.112	106
551.325	93
551.538	103
551.751	106
551.964	99
552.177	108
552.39	98
552.603	106
552.816	105
553.029	94
553.242	98
553.455	104
553.667	98
553.88	88
554.093	113
554.306	100
554.519	111
554.732	109
554.944	95
555.157	98
555.37	95
555.583	102
555.795	98
556.008	95
556.221	84
556.433	107
556.646	93
556.859	84
557.071	96
557.284	98
557.496	96
557.709	94
557.921	91
558.134	87
558.346	104
558.559	92
558.771	90
558.984	145
559.196	132
559.409	110
559.621	108
559.833	111
560.046	101
560.258	108
560.47	106
560.683	95
560.895	78
561.107	88
561.32	84
561.532	85
561.744	80
561.956	82
562.168	89
562.381	83
562.593	99
562.805	93
563.017	72
563.229	94
563.441	85
563.653	94
563.865	64
564.077	88
564.289	84
564.501	78
564.713	86
564.925	78
565.137	93
565.349	81
565.561	98
565.773	91
565.985	87
566.197	88
566.408	75
566.62	82
566.832	92
567.044	82
567.255	85
567.467	68
567.679	75
567.891	90
568.102	84
568.314	93
568.526	91
568.737	72
568.949	86
569.161	82
569.372	90
569.584	75
569.795	91
570.007	88
570.218	86
570.43	69
570.641	89
570.853	82
571.064	88
571.276	91
571.487	91
571.698	78
571.91	95
572.121	88
572.333	93
572.544	89
572.755	76
572.966	83
573.178	83
573.389	89
573.6	92
573.811	91
574.023	75
574.234	73
574.445	84
574.656	88
574.867	86
575.078	92
575.289	72
575.501	83
575.712	99
575.923	100
576.134	90
576.345	78
576.556	98
576.767	91
576.978	80
577.188	78
577.399	85
577.61	85
577.821	93
578.032	88
578.243	93
578.454	101
578.665	99
578.875	102
579.086	89
579.297	95
579.508	85
579.718	89
579.929	91
580.14	101
580.35	112
580.561	109
580.772	89
580.982	87
581.193	93
581.403	83
581.614	94
581.825	91
582.035	81
582.246	88
582.456	92
582.667	76
582.877	79
583.087	82
583.298	80
583.508	90
583.719	86
583.929	74
584.139	92
584.35	83
584.56	86
584.77	86
584.981	84
585.191	101
585.401	101
585.611	86
585.821	95
586.032	110
586.242	83
586.452	84
586.662	96
586.872	98
587.082	92
587.292	86
587.502	87
587.713	94
587.923	78
588.133	84
588.343	74
588.553	99
588.762	105
588.972	108
589.182	149
