Data from Mixheat2_HRD10591_00017.txt Node
Date: Fri Dec 27 15:09:20 EST 2024
User: Yrep
Spectrometer: HR+D1059
Trigger mode: 1
Integration Time (sec): 1.000000E-1
Scans to average: 1
Electric dark correction enabled: true
Nonlinearity correction enabled: false
Boxcar width: 0
XAxis mode: Wavelengths
Number of Pixels in Spectrum: 2048
>>>>>Begin Spectral Data<<<<<
223.165	-16.5
223.4	-16.5
223.635	-16.5
223.869	-21.5
224.104	-17.5
224.338	-23.5
224.573	-20.5
224.808	-9.5
225.042	-11.5
225.277	5.5
225.511	12.5
225.746	-0.5
225.98	7.5
226.215	14.5
226.449	2.5
226.683	21.5
226.918	28.5
227.152	28.5
227.387	28.5
227.621	32.5
227.856	53.5
228.09	48.5
228.324	43.5
228.559	29.5
228.793	59.5
229.027	56.5
229.262	80.5
229.496	54.5
229.73	74.5
229.964	66.5
230.199	63.5
230.433	61.5
230.667	89.5
230.901	81.5
231.136	76.5
231.37	76.5
231.604	84.5
231.838	88.5
232.072	76.5
232.306	82.5
232.541	87.5
232.775	74.5
233.009	79.5
233.243	88.5
233.477	88.5
233.711	84.5
233.945	74.5
234.179	72.5
234.413	88.5
234.647	71.5
234.881	71.5
235.115	77.5
235.349	70.5
235.583	86.5
235.817	83.5
236.051	86.5
236.285	69.5
236.519	75.5
236.753	75.5
236.987	73.5
237.221	69.5
237.455	72.5
237.689	82.5
237.922	67.5
238.156	79.5
238.39	73.5
238.624	77.5
238.858	71.5
239.091	76.5
239.325	60.5
239.559	67.5
239.793	71.5
240.027	92.5
240.26	86.5
240.494	80.5
240.728	81.5
240.961	67.5
241.195	82.5
241.429	70.5
241.662	78.5
241.896	73.5
242.13	72.5
242.363	80.5
242.597	76.5
242.83	72.5
243.064	85.5
243.298	87.5
243.531	77.5
243.765	85.5
243.998	80.5
244.232	80.5
244.465	76.5
244.699	71.5
244.932	80.5
245.166	86.5
245.399	78.5
245.633	93.5
245.866	75.5
246.099	67.5
246.333	79.5
246.566	82.5
246.8	80.5
247.033	77.5
247.266	82.5
247.5	77.5
247.733	78.5
247.966	91.5
248.2	73.5
248.433	76.5
248.666	78.5
248.899	83.5
249.133	78.5
249.366	76.5
249.599	73.5
249.832	79.5
250.066	92.5
250.299	67.5
250.532	78.5
250.765	79.5
250.998	85.5
251.231	63.5
251.465	75.5
251.698	73.5
251.931	83.5
252.164	85.5
252.397	79.5
252.63	81.5
252.863	93.5
253.096	74.5
253.329	88.5
253.562	89.5
253.795	86.5
254.028	90.5
254.261	64.5
254.494	81.5
254.727	79.5
254.96	90.5
255.193	70.5
255.426	71.5
255.659	75.5
255.892	70.5
256.124	70.5
256.357	77.5
256.59	79.5
256.823	83.5
257.056	78.5
257.289	85.5
257.521	84.5
257.754	81.5
257.987	89.5
258.22	85.5
258.452	73.5
258.685	65.5
258.918	73.5
259.151	86.5
259.383	81.5
259.616	74.5
259.849	59.5
260.081	88.5
260.314	83.5
260.547	88.5
260.779	71.5
261.012	86.5
261.244	100.5
261.477	96.5
261.71	78.5
261.942	85.5
262.175	74.5
262.407	88.5
262.64	77.5
262.872	70.5
263.105	109.5
263.337	94.5
263.57	84.5
263.802	84.5
264.035	86.5
264.267	92.5
264.499	89.5
264.732	86.5
264.964	78.5
265.197	86.5
265.429	91.5
265.661	76.5
265.894	70.5
266.126	90.5
266.358	84.5
266.591	77.5
266.823	88.5
267.055	77.5
267.287	72.5
267.52	82.5
267.752	90.5
267.984	79.5
268.216	77.5
268.448	98.5
268.681	81.5
268.913	89.5
269.145	89.5
269.377	84.5
269.609	93.5
269.841	73.5
270.073	82.5
270.306	79.5
270.538	77.5
270.77	87.5
271.002	77.5
271.234	85.5
271.466	79.5
271.698	76.5
271.93	74.5
272.162	69.5
272.394	79.5
272.626	83.5
272.858	76.5
273.09	70.5
273.322	80.5
273.553	74.5
273.785	89.5
274.017	75.5
274.249	78.5
274.481	88.5
274.713	87.5
274.945	102.5
275.176	78.5
275.408	85.5
275.64	83.5
275.872	93.5
276.104	85.5
276.335	93.5
276.567	75.5
276.799	79.5
277.031	87.5
277.262	90.5
277.494	86.5
277.726	78.5
277.957	87.5
278.189	77.5
278.421	104.5
278.652	79.5
278.884	71.5
279.115	78.5
279.347	78.5
279.579	90.5
279.81	96.5
280.042	88.5
280.273	80.5
280.505	80.5
280.736	82.5
280.968	84.5
281.199	82.5
281.431	77.5
281.662	81.5
281.894	85.5
282.125	86.5
282.356	81.5
282.588	78.5
282.819	93.5
283.051	85.5
283.282	86.5
283.513	84.5
283.745	78.5
283.976	90.5
284.207	84.5
284.439	76.5
284.67	85.5
284.901	92.5
285.132	80.5
285.364	100.5
285.595	88.5
285.826	85.5
286.057	87.5
286.288	90.5
286.52	88.5
286.751	87.5
286.982	87.5
287.213	100.5
287.444	93.5
287.675	84.5
287.906	74.5
288.138	82.5
288.369	84.5
288.6	72.5
288.831	82.5
289.062	93.5
289.293	74.5
289.524	92.5
289.755	74.5
289.986	83.5
290.217	86.5
290.448	89.5
290.679	77.5
290.91	84.5
291.141	91.5
291.371	105.5
291.602	88.5
291.833	84.5
292.064	84.5
292.295	78.5
292.526	106.5
292.757	76.5
292.987	86.5
293.218	90.5
293.449	100.5
293.68	83.5
293.91	97.5
294.141	93.5
294.372	82.5
294.603	88.5
294.833	87.5
295.064	84.5
295.295	79.5
295.525	88.5
295.756	80.5
295.987	85.5
296.217	81.5
296.448	89.5
296.679	88.5
296.909	85.5
297.14	85.5
297.37	102.5
297.601	85.5
297.831	89.5
298.062	84.5
298.292	90.5
298.523	90.5
298.753	75.5
298.984	80.5
299.214	84.5
299.445	94.5
299.675	93.5
299.905	92.5
300.136	78.5
300.366	77.5
300.597	84.5
300.827	85.5
301.057	94.5
301.288	82.5
301.518	78.5
301.748	70.5
301.979	100.5
302.209	86.5
302.439	85.5
302.669	85.5
302.9	85.5
303.13	85.5
303.36	104.5
303.59	93.5
303.82	87.5
304.051	76.5
304.281	92.5
304.511	94.5
304.741	87.5
304.971	73.5
305.201	81.5
305.431	96.5
305.661	78.5
305.891	77.5
306.121	87.5
306.352	82.5
306.582	87.5
306.812	78.5
307.042	76.5
307.272	82.5
307.502	93.5
307.731	79.5
307.961	89.5
308.191	84.5
308.421	67.5
308.651	76.5
308.881	75.5
309.111	82.5
309.341	86.5
309.571	98.5
309.8	91.5
310.03	97.5
310.26	95.5
310.49	82.5
310.72	105.5
310.949	69.5
311.179	82.5
311.409	87.5
311.639	74.5
311.868	106.5
312.098	93.5
312.328	72.5
312.557	87.5
312.787	91.5
313.017	89.5
313.246	88.5
313.476	92.5
313.706	81.5
313.935	77.5
314.165	85.5
314.394	83.5
314.624	82.5
314.853	85.5
315.083	79.5
315.312	83.5
315.542	75.5
315.771	80.5
316.001	94.5
316.23	93.5
316.46	76.5
316.689	83.5
316.919	94.5
317.148	91.5
317.377	84.5
317.607	80.5
317.836	91.5
318.065	92.5
318.295	85.5
318.524	86.5
318.753	79.5
318.983	95.5
319.212	73.5
319.441	81.5
319.67	75.5
319.9	86.5
320.129	88.5
320.358	85.5
320.587	92.5
320.816	73.5
321.046	85.5
321.275	94.5
321.504	84.5
321.733	71.5
321.962	78.5
322.191	72.5
322.42	80.5
322.649	80.5
322.878	95.5
323.108	92.5
323.337	81.5
323.566	84.5
323.795	80.5
324.024	87.5
324.253	90.5
324.482	93.5
324.71	89.5
324.939	80.5
325.168	86.5
325.397	102.5
325.626	89.5
325.855	84.5
326.084	72.5
326.313	85.5
326.542	81.5
326.77	80.5
326.999	93.5
327.228	83.5
327.457	98.5
327.686	76.5
327.914	90.5
328.143	86.5
328.372	68.5
328.6	84.5
328.829	93.5
329.058	84.5
329.287	81.5
329.515	75.5
329.744	94.5
329.972	81.5
330.201	86.5
330.43	87.5
330.658	77.5
330.887	93.5
331.115	77.5
331.344	85.5
331.572	94.5
331.801	93.5
332.03	82.5
332.258	95.5
332.486	80.5
332.715	81.5
332.943	85.5
333.172	81.5
333.4	93.5
333.629	78.5
333.857	89.5
334.085	77.5
334.314	71.5
334.542	80.5
334.771	96.5
334.999	83.5
335.227	81.5
335.455	101.5
335.684	94.5
335.912	90.5
336.14	93.5
336.369	85.5
336.597	82.5
336.825	82.5
337.053	74.5
337.281	82.5
337.51	79.5
337.738	96.5
337.966	79.5
338.194	87.5
338.422	88.5
338.65	86.5
338.878	84.5
339.106	78.5
339.334	84.5
339.562	96.5
339.79	94.5
340.018	85.5
340.246	81.5
340.474	77.5
340.702	90.5
340.93	88.5
341.158	76.5
341.386	89.5
341.614	92.5
341.842	89.5
342.07	84.5
342.298	89.5
342.526	89.5
342.754	76.5
342.981	90.5
343.209	95.5
343.437	98.5
343.665	88.5
343.893	71.5
344.12	105.5
344.348	90.5
344.576	91.5
344.804	86.5
345.031	93.5
345.259	91.5
345.487	95.5
345.714	81.5
345.942	103.5
346.17	85.5
346.397	84.5
346.625	91.5
346.853	82.5
347.08	79.5
347.308	78.5
347.535	84.5
347.763	93.5
347.99	88.5
348.218	94.5
348.445	85.5
348.673	88.5
348.9	96.5
349.128	91.5
349.355	70.5
349.583	92.5
349.81	80.5
350.037	81.5
350.265	74.5
350.492	92.5
350.72	77.5
350.947	80.5
351.174	85.5
351.402	106.5
351.629	94.5
351.856	87.5
352.083	72.5
352.311	92.5
352.538	65.5
352.765	87.5
352.992	90.5
353.22	95.5
353.447	91.5
353.674	79.5
353.901	95.5
354.128	81.5
354.355	78.5
354.583	85.5
354.81	85.5
355.037	96.5
355.264	85.5
355.491	88.5
355.718	85.5
355.945	94.5
356.172	74.5
356.399	88.5
356.626	79.5
356.853	94.5
357.08	86.5
357.307	84.5
357.534	88.5
357.761	70.5
357.988	69.5
358.215	86.5
358.441	86.5
358.668	79.5
358.895	86.5
359.122	83.5
359.349	94.5
359.576	78.5
359.802	93.5
360.029	82.5
360.256	96.5
360.483	75.5
360.709	88.5
360.936	91.5
361.163	77.5
361.39	66.5
361.616	77.5
361.843	89.5
362.07	86.5
362.296	77.5
362.523	93.5
362.749	92.5
362.976	84.5
363.203	82.5
363.429	104.5
363.656	75.5
363.882	88.5
364.109	80.5
364.335	94.5
364.562	95.5
364.788	82.5
365.015	90.5
365.241	81.5
365.468	96.5
365.694	75.5
365.92	74.5
366.147	85.5
366.373	86.5
366.599	91.5
366.826	86.5
367.052	73.5
367.278	80.5
367.505	79.5
367.731	94.5
367.957	80.5
368.184	75.5
368.41	85.5
368.636	77.5
368.862	88.5
369.089	88.5
369.315	96.5
369.541	84.5
369.767	86.5
369.993	88.5
370.219	88.5
370.445	100.5
370.672	93.5
370.898	84.5
371.124	78.5
371.35	73.5
371.576	86.5
371.802	92.5
372.028	87.5
372.254	76.5
372.48	80.5
372.706	86.5
372.932	80.5
373.158	88.5
373.384	97.5
373.61	82.5
373.835	83.5
374.061	71.5
374.287	80.5
374.513	97.5
374.739	91.5
374.965	73.5
375.191	79.5
375.416	93.5
375.642	86.5
375.868	88.5
376.094	93.5
376.319	80.5
376.545	77.5
376.771	82.5
376.997	73.5
377.222	88.5
377.448	74.5
377.674	75.5
377.899	83.5
378.125	80.5
378.35	86.5
378.576	85.5
378.802	86.5
379.027	85.5
379.253	97.5
379.478	93.5
379.704	82.5
379.929	81.5
380.155	71.5
380.38	91.5
380.606	83.5
380.831	83.5
381.057	95.5
381.282	81.5
381.507	87.5
381.733	101.5
381.958	80.5
382.184	90.5
382.409	82.5
382.634	86.5
382.86	88.5
383.085	87.5
383.31	74.5
383.535	83.5
383.761	85.5
383.986	78.5
384.211	84.5
384.436	74.5
384.662	84.5
384.887	89.5
385.112	78.5
385.337	88.5
385.562	78.5
385.787	89.5
386.013	93.5
386.238	91.5
386.463	75.5
386.688	101.5
386.913	91.5
387.138	85.5
387.363	82.5
387.588	95.5
387.813	100.5
388.038	72.5
388.263	85.5
388.488	94.5
388.713	80.5
388.938	86.5
389.163	85.5
389.387	81.5
389.612	85.5
389.837	79.5
390.062	92.5
390.287	91.5
390.512	83.5
390.736	84.5
390.961	77.5
391.186	85.5
391.411	73.5
391.636	80.5
391.86	78.5
392.085	83.5
392.31	84.5
392.534	67.5
392.759	82.5
392.984	86.5
393.208	108.5
393.433	120.5
393.658	102.5
393.882	97.5
394.107	93.5
394.331	79.5
394.556	86.5
394.78	89.5
395.005	89.5
395.229	75.5
395.454	90.5
395.678	82.5
395.903	100.5
396.127	91.5
396.352	95.5
396.576	97.5
396.801	101.5
397.025	118.5
397.249	78.5
397.474	97.5
397.698	93.5
397.922	93.5
398.147	92.5
398.371	87.5
398.595	73.5
398.82	75.5
399.044	75.5
399.268	81.5
399.492	84.5
399.717	81.5
399.941	82.5
400.165	80.5
400.389	89.5
400.613	81.5
400.837	97.5
401.062	78.5
401.286	89.5
401.51	84.5
401.734	83.5
401.958	79.5
402.182	90.5
402.406	81.5
402.63	86.5
402.854	74.5
403.078	84.5
403.302	75.5
403.526	90.5
403.75	74.5
403.974	86.5
404.198	94.5
404.422	118.5
404.645	112.5
404.869	116.5
405.093	97.5
405.317	107.5
405.541	90.5
405.765	75.5
405.988	84.5
406.212	89.5
406.436	76.5
406.66	86.5
406.883	85.5
407.107	80.5
407.331	85.5
407.555	79.5
407.778	76.5
408.002	87.5
408.226	80.5
408.449	76.5
408.673	85.5
408.896	92.5
409.12	88.5
409.344	81.5
409.567	89.5
409.791	74.5
410.014	84.5
410.238	85.5
410.461	78.5
410.685	72.5
410.908	81.5
411.132	91.5
411.355	91.5
411.578	84.5
411.802	88.5
412.025	88.5
412.249	84.5
412.472	66.5
412.695	90.5
412.919	79.5
413.142	82.5
413.365	69.5
413.589	70.5
413.812	82.5
414.035	95.5
414.258	73.5
414.482	80.5
414.705	89.5
414.928	78.5
415.151	90.5
415.374	76.5
415.597	78.5
415.821	98.5
416.044	92.5
416.267	86.5
416.49	71.5
416.713	72.5
416.936	82.5
417.159	70.5
417.382	88.5
417.605	87.5
417.828	90.5
418.051	75.5
418.274	95.5
418.497	69.5
418.72	81.5
418.943	85.5
419.166	89.5
419.389	62.5
419.611	76.5
419.834	74.5
420.057	89.5
420.28	80.5
420.503	91.5
420.726	76.5
420.948	74.5
421.171	77.5
421.394	90.5
421.617	73.5
421.839	92.5
422.062	100.5
422.285	110.5
422.507	138.5
422.73	158.5
422.953	154.5
423.175	129.5
423.398	86.5
423.621	100.5
423.843	96.5
424.066	90.5
424.288	90.5
424.511	77.5
424.733	93.5
424.956	68.5
425.178	86.5
425.401	89.5
425.623	88.5
425.846	86.5
426.068	87.5
426.291	72.5
426.513	79.5
426.735	85.5
426.958	77.5
427.18	77.5
427.402	94.5
427.625	92.5
427.847	86.5
428.069	87.5
428.292	103.5
428.514	106.5
428.736	88.5
428.958	89.5
429.181	87.5
429.403	92.5
429.625	81.5
429.847	78.5
430.069	100.5
430.292	104.5
430.514	106.5
430.736	104.5
430.958	93.5
431.18	83.5
431.402	74.5
431.624	73.5
431.846	94.5
432.068	89.5
432.29	89.5
432.512	101.5
432.734	70.5
432.956	87.5
433.178	85.5
433.4	77.5
433.622	75.5
433.844	83.5
434.066	81.5
434.287	90.5
434.509	95.5
434.731	79.5
434.953	79.5
435.175	87.5
435.397	90.5
435.618	78.5
435.84	79.5
436.062	80.5
436.284	69.5
436.505	81.5
436.727	87.5
436.949	92.5
437.17	85.5
437.392	80.5
437.614	93.5
437.835	76.5
438.057	76.5
438.278	84.5
438.5	75.5
438.721	91.5
438.943	85.5
439.165	89.5
439.386	75.5
439.608	86.5
439.829	79.5
440.05	87.5
440.272	78.5
440.493	97.5
440.715	84.5
440.936	84.5
441.158	86.5
441.379	69.5
441.6	79.5
441.822	77.5
442.043	85.5
442.264	88.5
442.486	89.5
442.707	97.5
442.928	88.5
443.149	90.5
443.371	106.5
443.592	130.5
443.813	112.5
444.034	87.5
444.255	87.5
444.476	72.5
444.698	88.5
444.919	78.5
445.14	140.5
445.361	136.5
445.582	155.5
445.803	108.5
446.024	87.5
446.245	97.5
446.466	93.5
446.687	76.5
446.908	86.5
447.129	86.5
447.35	78.5
447.571	86.5
447.792	76.5
448.013	79.5
448.234	86.5
448.455	94.5
448.675	75.5
448.896	91.5
449.117	88.5
449.338	63.5
449.559	73.5
449.779	83.5
450	83.5
450.221	84.5
450.442	72.5
450.662	82.5
450.883	90.5
451.104	94.5
451.324	74.5
451.545	84.5
451.766	97.5
451.986	76.5
452.207	90.5
452.428	66.5
452.648	74.5
452.869	90.5
453.089	78.5
453.31	81.5
453.53	97.5
453.751	76.5
453.971	93.5
454.192	82.5
454.412	72.5
454.633	82.5
454.853	74.5
455.073	59.5
455.294	80.5
455.514	90.5
455.734	84.5
455.955	75.5
456.175	78.5
456.395	72.5
456.616	71.5
456.836	61.5
457.056	78.5
457.276	78.5
457.497	85.5
457.717	85.5
457.937	81.5
458.157	100.5
458.377	93.5
458.598	87.5
458.818	72.5
459.038	92.5
459.258	83.5
459.478	73.5
459.698	81.5
459.918	84.5
460.138	87.5
460.358	87.5
460.578	81.5
460.798	91.5
461.018	81.5
461.238	77.5
461.458	80.5
461.678	92.5
461.898	80.5
462.118	82.5
462.338	94.5
462.558	89.5
462.777	78.5
462.997	84.5
463.217	79.5
463.437	89.5
463.657	66.5
463.876	84.5
464.096	83.5
464.316	85.5
464.536	80.5
464.755	82.5
464.975	91.5
465.195	81.5
465.414	83.5
465.634	91.5
465.854	82.5
466.073	91.5
466.293	100.5
466.512	80.5
466.732	59.5
466.951	87.5
467.171	76.5
467.391	97.5
467.61	83.5
467.829	79.5
468.049	104.5
468.268	72.5
468.488	77.5
468.707	83.5
468.927	91.5
469.146	78.5
469.365	82.5
469.585	59.5
469.804	92.5
470.023	84.5
470.243	95.5
470.462	85.5
470.681	94.5
470.901	81.5
471.12	77.5
471.339	94.5
471.558	75.5
471.777	87.5
471.997	86.5
472.216	77.5
472.435	83.5
472.654	88.5
472.873	71.5
473.092	78.5
473.311	79.5
473.53	81.5
473.749	87.5
473.968	85.5
474.187	93.5
474.406	78.5
474.625	79.5
474.844	87.5
475.063	80.5
475.282	85.5
475.501	62.5
475.72	93.5
475.939	82.5
476.158	80.5
476.377	88.5
476.596	97.5
476.814	81.5
477.033	85.5
477.252	84.5
477.471	83.5
477.69	85.5
477.908	85.5
478.127	74.5
478.346	86.5
478.564	91.5
478.783	99.5
479.002	79.5
479.22	90.5
479.439	95.5
479.658	85.5
479.876	70.5
480.095	81.5
480.313	81.5
480.532	76.5
480.751	89.5
480.969	84.5
481.188	81.5
481.406	83.5
481.624	95.5
481.843	91.5
482.061	81.5
482.28	98.5
482.498	95.5
482.717	77.5
482.935	85.5
483.153	82.5
483.372	85.5
483.59	102.5
483.808	83.5
484.027	83.5
484.245	92.5
484.463	79.5
484.681	76.5
484.9	79.5
485.118	86.5
485.336	96.5
485.554	83.5
485.772	87.5
485.99	84.5
486.209	73.5
486.427	88.5
486.645	86.5
486.863	89.5
487.081	95.5
487.299	77.5
487.517	83.5
487.735	85.5
487.953	104.5
488.171	77.5
488.389	74.5
488.607	60.5
488.825	66.5
489.043	77.5
489.261	100.5
489.479	91.5
489.696	90.5
489.914	92.5
490.132	85.5
490.35	90.5
490.568	81.5
490.786	88.5
491.003	92.5
491.221	88.5
491.439	94.5
491.657	95.5
491.874	88.5
492.092	71.5
492.31	99.5
492.527	76.5
492.745	76.5
492.963	87.5
493.18	82.5
493.398	91.5
493.615	80.5
493.833	83.5
494.05	88.5
494.268	86.5
494.485	75.5
494.703	94.5
494.92	90.5
495.138	84.5
495.355	95.5
495.573	88.5
495.79	86.5
496.008	90.5
496.225	86.5
496.442	65.5
496.66	82.5
496.877	85.5
497.094	88.5
497.312	86.5
497.529	80.5
497.746	79.5
497.963	81.5
498.181	90.5
498.398	96.5
498.615	90.5
498.832	81.5
499.049	80.5
499.267	81.5
499.484	93.5
499.701	80.5
499.918	85.5
500.135	80.5
500.352	75.5
500.569	73.5
500.786	81.5
501.003	80.5
501.22	73.5
501.437	76.5
501.654	91.5
501.871	101.5
502.088	83.5
502.305	68.5
502.522	84.5
502.739	67.5
502.956	85.5
503.172	77.5
503.389	85.5
503.606	77.5
503.823	84.5
504.04	83.5
504.256	88.5
504.473	97.5
504.69	104.5
504.907	74.5
505.123	89.5
505.34	95.5
505.557	93.5
505.773	75.5
505.99	86.5
506.207	86.5
506.423	85.5
506.64	89.5
506.856	80.5
507.073	80.5
507.289	92.5
507.506	93.5
507.722	78.5
507.939	81.5
508.155	73.5
508.372	89.5
508.588	80.5
508.805	90.5
509.021	92.5
509.238	68.5
509.454	94.5
509.67	85.5
509.887	75.5
510.103	89.5
510.319	90.5
510.536	84.5
510.752	82.5
510.968	85.5
511.184	94.5
511.401	88.5
511.617	86.5
511.833	103.5
512.049	93.5
512.265	99.5
512.481	88.5
512.698	81.5
512.914	88.5
513.13	87.5
513.346	94.5
513.562	88.5
513.778	90.5
513.994	78.5
514.21	80.5
514.426	81.5
514.642	81.5
514.858	82.5
515.074	74.5
515.29	104.5
515.506	90.5
515.721	85.5
515.937	75.5
516.153	87.5
516.369	85.5
516.585	67.5
516.801	91.5
517.016	83.5
517.232	75.5
517.448	87.5
517.664	91.5
517.879	95.5
518.095	71.5
518.311	86.5
518.527	86.5
518.742	88.5
518.958	100.5
519.173	95.5
519.389	82.5
519.605	80.5
519.82	93.5
520.036	90.5
520.251	88.5
520.467	78.5
520.682	85.5
520.898	79.5
521.113	82.5
521.329	87.5
521.544	81.5
521.76	79.5
521.975	70.5
522.19	82.5
522.406	86.5
522.621	75.5
522.836	82.5
523.052	80.5
523.267	90.5
523.482	77.5
523.698	78.5
523.913	95.5
524.128	73.5
524.343	76.5
524.559	104.5
524.774	88.5
524.989	90.5
525.204	89.5
525.419	73.5
525.634	92.5
525.849	92.5
526.064	88.5
526.28	119.5
526.495	128.5
526.71	135.5
526.925	113.5
527.14	131.5
527.355	96.5
527.57	95.5
527.785	88.5
527.999	82.5
528.214	84.5
528.429	87.5
528.644	73.5
528.859	83.5
529.074	74.5
529.289	94.5
529.503	84.5
529.718	87.5
529.933	86.5
530.148	79.5
530.363	86.5
530.577	89.5
530.792	88.5
531.007	96.5
531.221	95.5
531.436	85.5
531.651	90.5
531.865	85.5
532.08	90.5
532.295	92.5
532.509	87.5
532.724	90.5
532.938	86.5
533.153	87.5
533.367	73.5
533.582	82.5
533.796	81.5
534.011	80.5
534.225	90.5
534.44	88.5
534.654	108.5
534.868	91.5
535.083	116.5
535.297	92.5
535.511	96.5
535.726	90.5
535.94	89.5
536.154	89.5
536.369	103.5
536.583	84.5
536.797	95.5
537.011	103.5
537.225	76.5
537.44	79.5
537.654	95.5
537.868	89.5
538.082	84.5
538.296	79.5
538.51	82.5
538.724	85.5
538.938	100.5
539.153	83.5
539.367	88.5
539.581	85.5
