Data from Mixheat2_HRD10591_00014.txt Node
Date: Fri Dec 27 15:09:17 EST 2024
User: Yrep
Spectrometer: HR+D1059
Trigger mode: 1
Integration Time (sec): 1.000000E-1
Scans to average: 1
Electric dark correction enabled: true
Nonlinearity correction enabled: false
Boxcar width: 0
XAxis mode: Wavelengths
Number of Pixels in Spectrum: 2048
>>>>>Begin Spectral Data<<<<<
223.165	4.62
223.4	4.62
223.635	4.62
223.869	-26.38
224.104	-11.38
224.338	-14.38
224.573	-17.38
224.808	-27.38
225.042	6.62
225.277	-22.38
225.511	-21.38
225.746	4.62
225.98	3.62
226.215	-2.38
226.449	25.62
226.683	25.62
226.918	30.62
227.152	41.62
227.387	45.62
227.621	42.62
227.856	44.62
228.09	39.62
228.324	49.62
228.559	55.62
228.793	59.62
229.027	60.62
229.262	56.62
229.496	72.62
229.73	74.62
229.964	65.62
230.199	67.62
230.433	72.62
230.667	75.62
230.901	74.62
231.136	75.62
231.37	79.62
231.604	80.62
231.838	78.62
232.072	70.62
232.306	73.62
232.541	91.62
232.775	93.62
233.009	83.62
233.243	92.62
233.477	80.62
233.711	75.62
233.945	75.62
234.179	80.62
234.413	75.62
234.647	80.62
234.881	88.62
235.115	81.62
235.349	75.62
235.583	70.62
235.817	82.62
236.051	74.62
236.285	72.62
236.519	68.62
236.753	78.62
236.987	77.62
237.221	62.62
237.455	81.62
237.689	74.62
237.922	51.62
238.156	62.62
238.39	74.62
238.624	78.62
238.858	79.62
239.091	66.62
239.325	74.62
239.559	74.62
239.793	64.62
240.027	86.62
240.26	71.62
240.494	66.62
240.728	72.62
240.961	70.62
241.195	74.62
241.429	80.62
241.662	76.62
241.896	76.62
242.13	72.62
242.363	66.62
242.597	90.62
242.83	75.62
243.064	72.62
243.298	82.62
243.531	72.62
243.765	88.62
243.998	73.62
244.232	81.62
244.465	80.62
244.699	80.62
244.932	78.62
245.166	91.62
245.399	73.62
245.633	74.62
245.866	79.62
246.099	69.62
246.333	59.62
246.566	79.62
246.8	74.62
247.033	72.62
247.266	83.62
247.5	93.62
247.733	80.62
247.966	62.62
248.2	85.62
248.433	75.62
248.666	73.62
248.899	83.62
249.133	64.62
249.366	77.62
249.599	77.62
249.832	86.62
250.066	77.62
250.299	71.62
250.532	76.62
250.765	75.62
250.998	75.62
251.231	76.62
251.465	79.62
251.698	79.62
251.931	72.62
252.164	67.62
252.397	84.62
252.63	94.62
252.863	79.62
253.096	91.62
253.329	83.62
253.562	87.62
253.795	74.62
254.028	83.62
254.261	82.62
254.494	79.62
254.727	68.62
254.96	68.62
255.193	70.62
255.426	69.62
255.659	89.62
255.892	86.62
256.124	74.62
256.357	82.62
256.59	80.62
256.823	70.62
257.056	75.62
257.289	74.62
257.521	76.62
257.754	85.62
257.987	82.62
258.22	80.62
258.452	79.62
258.685	83.62
258.918	81.62
259.151	90.62
259.383	79.62
259.616	67.62
259.849	82.62
260.081	87.62
260.314	95.62
260.547	77.62
260.779	92.62
261.012	74.62
261.244	68.62
261.477	84.62
261.71	69.62
261.942	90.62
262.175	82.62
262.407	84.62
262.64	94.62
262.872	84.62
263.105	83.62
263.337	79.62
263.57	79.62
263.802	76.62
264.035	70.62
264.267	84.62
264.499	102.62
264.732	80.62
264.964	68.62
265.197	85.62
265.429	78.62
265.661	74.62
265.894	93.62
266.126	96.62
266.358	79.62
266.591	84.62
266.823	70.62
267.055	79.62
267.287	82.62
267.52	75.62
267.752	73.62
267.984	77.62
268.216	83.62
268.448	79.62
268.681	82.62
268.913	98.62
269.145	78.62
269.377	91.62
269.609	77.62
269.841	86.62
270.073	86.62
270.306	77.62
270.538	95.62
270.77	69.62
271.002	77.62
271.234	75.62
271.466	77.62
271.698	84.62
271.93	80.62
272.162	80.62
272.394	71.62
272.626	61.62
272.858	74.62
273.09	83.62
273.322	78.62
273.553	68.62
273.785	75.62
274.017	79.62
274.249	86.62
274.481	79.62
274.713	91.62
274.945	89.62
275.176	73.62
275.408	82.62
275.64	76.62
275.872	83.62
276.104	91.62
276.335	74.62
276.567	89.62
276.799	72.62
277.031	80.62
277.262	91.62
277.494	85.62
277.726	91.62
277.957	80.62
278.189	83.62
278.421	73.62
278.652	86.62
278.884	79.62
279.115	91.62
279.347	80.62
279.579	88.62
279.81	91.62
280.042	88.62
280.273	84.62
280.505	87.62
280.736	71.62
280.968	80.62
281.199	79.62
281.431	80.62
281.662	87.62
281.894	84.62
282.125	90.62
282.356	89.62
282.588	80.62
282.819	84.62
283.051	83.62
283.282	85.62
283.513	86.62
283.745	92.62
283.976	83.62
284.207	76.62
284.439	80.62
284.67	77.62
284.901	74.62
285.132	88.62
285.364	90.62
285.595	76.62
285.826	75.62
286.057	96.62
286.288	78.62
286.52	88.62
286.751	72.62
286.982	80.62
287.213	87.62
287.444	83.62
287.675	91.62
287.906	89.62
288.138	85.62
288.369	85.62
288.6	87.62
288.831	83.62
289.062	92.62
289.293	99.62
289.524	78.62
289.755	85.62
289.986	78.62
290.217	77.62
290.448	82.62
290.679	73.62
290.91	79.62
291.141	75.62
291.371	86.62
291.602	92.62
291.833	75.62
292.064	71.62
292.295	82.62
292.526	72.62
292.757	89.62
292.987	80.62
293.218	73.62
293.449	81.62
293.68	72.62
293.91	78.62
294.141	94.62
294.372	84.62
294.603	76.62
294.833	89.62
295.064	78.62
295.295	85.62
295.525	79.62
295.756	80.62
295.987	94.62
296.217	85.62
296.448	80.62
296.679	86.62
296.909	81.62
297.14	90.62
297.37	80.62
297.601	85.62
297.831	86.62
298.062	77.62
298.292	89.62
298.523	83.62
298.753	80.62
298.984	94.62
299.214	97.62
299.445	89.62
299.675	76.62
299.905	87.62
300.136	78.62
300.366	84.62
300.597	68.62
300.827	88.62
301.057	78.62
301.288	92.62
301.518	87.62
301.748	91.62
301.979	95.62
302.209	79.62
302.439	94.62
302.669	80.62
302.9	72.62
303.13	92.62
303.36	92.62
303.59	88.62
303.82	88.62
304.051	80.62
304.281	82.62
304.511	87.62
304.741	79.62
304.971	87.62
305.201	92.62
305.431	87.62
305.661	83.62
305.891	83.62
306.121	85.62
306.352	89.62
306.582	89.62
306.812	72.62
307.042	99.62
307.272	98.62
307.502	95.62
307.731	84.62
307.961	71.62
308.191	98.62
308.421	90.62
308.651	83.62
308.881	94.62
309.111	83.62
309.341	90.62
309.571	95.62
309.8	89.62
310.03	91.62
310.26	85.62
310.49	78.62
310.72	83.62
310.949	83.62
311.179	83.62
311.409	72.62
311.639	78.62
311.868	79.62
312.098	72.62
312.328	100.62
312.557	87.62
312.787	78.62
313.017	74.62
313.246	79.62
313.476	84.62
313.706	94.62
313.935	66.62
314.165	88.62
314.394	81.62
314.624	86.62
314.853	78.62
315.083	89.62
315.312	78.62
315.542	98.62
315.771	82.62
316.001	74.62
316.23	69.62
316.46	93.62
316.689	80.62
316.919	79.62
317.148	86.62
317.377	93.62
317.607	80.62
317.836	75.62
318.065	82.62
318.295	95.62
318.524	79.62
318.753	95.62
318.983	80.62
319.212	85.62
319.441	79.62
319.67	97.62
319.9	83.62
320.129	86.62
320.358	76.62
320.587	88.62
320.816	71.62
321.046	85.62
321.275	95.62
321.504	81.62
321.733	92.62
321.962	70.62
322.191	68.62
322.42	82.62
322.649	100.62
322.878	82.62
323.108	79.62
323.337	89.62
323.566	77.62
323.795	83.62
324.024	81.62
324.253	70.62
324.482	93.62
324.71	84.62
324.939	94.62
325.168	83.62
325.397	93.62
325.626	93.62
325.855	89.62
326.084	83.62
326.313	85.62
326.542	95.62
326.77	87.62
326.999	86.62
327.228	100.62
327.457	65.62
327.686	79.62
327.914	90.62
328.143	77.62
328.372	87.62
328.6	81.62
328.829	84.62
329.058	107.62
329.287	103.62
329.515	91.62
329.744	89.62
329.972	70.62
330.201	91.62
330.43	77.62
330.658	77.62
330.887	83.62
331.115	78.62
331.344	72.62
331.572	99.62
331.801	76.62
332.03	89.62
332.258	94.62
332.486	85.62
332.715	79.62
332.943	93.62
333.172	92.62
333.4	82.62
333.629	76.62
333.857	75.62
334.085	73.62
334.314	85.62
334.542	78.62
334.771	87.62
334.999	104.62
335.227	90.62
335.455	84.62
335.684	90.62
335.912	85.62
336.14	83.62
336.369	88.62
336.597	76.62
336.825	88.62
337.053	82.62
337.281	76.62
337.51	74.62
337.738	93.62
337.966	83.62
338.194	83.62
338.422	69.62
338.65	85.62
338.878	82.62
339.106	80.62
339.334	85.62
339.562	86.62
339.79	84.62
340.018	86.62
340.246	79.62
340.474	85.62
340.702	84.62
340.93	83.62
341.158	79.62
341.386	78.62
341.614	96.62
341.842	84.62
342.07	84.62
342.298	72.62
342.526	96.62
342.754	77.62
342.981	92.62
343.209	88.62
343.437	103.62
343.665	86.62
343.893	86.62
344.12	88.62
344.348	83.62
344.576	83.62
344.804	108.62
345.031	96.62
345.259	91.62
345.487	70.62
345.714	75.62
345.942	84.62
346.17	88.62
346.397	79.62
346.625	93.62
346.853	83.62
347.08	83.62
347.308	82.62
347.535	64.62
347.763	86.62
347.99	81.62
348.218	75.62
348.445	92.62
348.673	79.62
348.9	76.62
349.128	87.62
349.355	80.62
349.583	78.62
349.81	87.62
350.037	76.62
350.265	79.62
350.492	78.62
350.72	84.62
350.947	88.62
351.174	99.62
351.402	90.62
351.629	92.62
351.856	78.62
352.083	74.62
352.311	84.62
352.538	75.62
352.765	89.62
352.992	95.62
353.22	90.62
353.447	81.62
353.674	69.62
353.901	90.62
354.128	64.62
354.355	84.62
354.583	82.62
354.81	94.62
355.037	64.62
355.264	90.62
355.491	90.62
355.718	92.62
355.945	77.62
356.172	78.62
356.399	71.62
356.626	56.62
356.853	80.62
357.08	95.62
357.307	82.62
357.534	79.62
357.761	96.62
357.988	80.62
358.215	86.62
358.441	68.62
358.668	74.62
358.895	85.62
359.122	91.62
359.349	96.62
359.576	95.62
359.802	73.62
360.029	93.62
360.256	84.62
360.483	84.62
360.709	74.62
360.936	82.62
361.163	80.62
361.39	64.62
361.616	82.62
361.843	89.62
362.07	91.62
362.296	83.62
362.523	89.62
362.749	80.62
362.976	77.62
363.203	84.62
363.429	85.62
363.656	90.62
363.882	98.62
364.109	78.62
364.335	94.62
364.562	91.62
364.788	82.62
365.015	95.62
365.241	72.62
365.468	70.62
365.694	84.62
365.92	77.62
366.147	80.62
366.373	89.62
366.599	87.62
366.826	76.62
367.052	88.62
367.278	84.62
367.505	96.62
367.731	83.62
367.957	83.62
368.184	80.62
368.41	82.62
368.636	96.62
368.862	86.62
369.089	78.62
369.315	73.62
369.541	86.62
369.767	81.62
369.993	76.62
370.219	72.62
370.445	98.62
370.672	90.62
370.898	68.62
371.124	84.62
371.35	77.62
371.576	82.62
371.802	78.62
372.028	93.62
372.254	79.62
372.48	88.62
372.706	73.62
372.932	80.62
373.158	73.62
373.384	101.62
373.61	85.62
373.835	85.62
374.061	82.62
374.287	74.62
374.513	79.62
374.739	91.62
374.965	93.62
375.191	92.62
375.416	78.62
375.642	77.62
375.868	84.62
376.094	74.62
376.319	73.62
376.545	77.62
376.771	77.62
376.997	90.62
377.222	78.62
377.448	94.62
377.674	85.62
377.899	70.62
378.125	79.62
378.35	91.62
378.576	84.62
378.802	75.62
379.027	84.62
379.253	92.62
379.478	86.62
379.704	77.62
379.929	74.62
380.155	84.62
380.38	70.62
380.606	85.62
380.831	82.62
381.057	93.62
381.282	69.62
381.507	86.62
381.733	86.62
381.958	84.62
382.184	88.62
382.409	83.62
382.634	90.62
382.86	91.62
383.085	83.62
383.31	79.62
383.535	89.62
383.761	82.62
383.986	97.62
384.211	84.62
384.436	93.62
384.662	79.62
384.887	76.62
385.112	87.62
385.337	76.62
385.562	78.62
385.787	95.62
386.013	69.62
386.238	80.62
386.463	76.62
386.688	91.62
386.913	88.62
387.138	87.62
387.363	69.62
387.588	90.62
387.813	82.62
388.038	93.62
388.263	84.62
388.488	87.62
388.713	93.62
388.938	89.62
389.163	91.62
389.387	92.62
389.612	94.62
389.837	98.62
390.062	80.62
390.287	81.62
390.512	58.62
390.736	85.62
390.961	69.62
391.186	93.62
391.411	78.62
391.636	80.62
391.86	89.62
392.085	78.62
392.31	78.62
392.534	85.62
392.759	85.62
392.984	79.62
393.208	100.62
393.433	94.62
393.658	96.62
393.882	83.62
394.107	101.62
394.331	92.62
394.556	93.62
394.78	87.62
395.005	75.62
395.229	80.62
395.454	78.62
395.678	83.62
395.903	94.62
396.127	83.62
396.352	98.62
396.576	98.62
396.801	99.62
397.025	98.62
397.249	88.62
397.474	92.62
397.698	82.62
397.922	85.62
398.147	77.62
398.371	70.62
398.595	74.62
398.82	87.62
399.044	81.62
399.268	74.62
399.492	73.62
399.717	72.62
399.941	82.62
400.165	94.62
400.389	70.62
400.613	93.62
400.837	87.62
401.062	80.62
401.286	70.62
401.51	80.62
401.734	74.62
401.958	86.62
402.182	84.62
402.406	88.62
402.63	91.62
402.854	88.62
403.078	82.62
403.302	76.62
403.526	73.62
403.75	93.62
403.974	86.62
404.198	95.62
404.422	99.62
404.645	107.62
404.869	103.62
405.093	105.62
405.317	87.62
405.541	79.62
405.765	69.62
405.988	92.62
406.212	93.62
406.436	79.62
406.66	81.62
406.883	75.62
407.107	90.62
407.331	83.62
407.555	76.62
407.778	80.62
408.002	102.62
408.226	82.62
408.449	75.62
408.673	80.62
408.896	63.62
409.12	74.62
409.344	70.62
409.567	75.62
409.791	80.62
410.014	87.62
410.238	87.62
410.461	80.62
410.685	82.62
410.908	82.62
411.132	74.62
411.355	85.62
411.578	82.62
411.802	79.62
412.025	81.62
412.249	86.62
412.472	72.62
412.695	92.62
412.919	79.62
413.142	85.62
413.365	81.62
413.589	95.62
413.812	57.62
414.035	80.62
414.258	86.62
414.482	72.62
414.705	77.62
414.928	83.62
415.151	83.62
415.374	88.62
415.597	79.62
415.821	92.62
416.044	89.62
416.267	79.62
416.49	78.62
416.713	92.62
416.936	84.62
417.159	93.62
417.382	79.62
417.605	80.62
417.828	91.62
418.051	79.62
418.274	73.62
418.497	79.62
418.72	71.62
418.943	95.62
419.166	87.62
419.389	85.62
419.611	86.62
419.834	86.62
420.057	92.62
420.28	74.62
420.503	83.62
420.726	85.62
420.948	80.62
421.171	75.62
421.394	79.62
421.617	76.62
421.839	90.62
422.062	93.62
422.285	95.62
422.507	118.62
422.73	137.62
422.953	119.62
423.175	98.62
423.398	90.62
423.621	79.62
423.843	99.62
424.066	95.62
424.288	81.62
424.511	87.62
424.733	81.62
424.956	85.62
425.178	91.62
425.401	75.62
425.623	73.62
425.846	81.62
426.068	85.62
426.291	82.62
426.513	98.62
426.735	95.62
426.958	97.62
427.18	83.62
427.402	86.62
427.625	87.62
427.847	67.62
428.069	70.62
428.292	90.62
428.514	88.62
428.736	82.62
428.958	88.62
429.181	92.62
429.403	88.62
429.625	98.62
429.847	98.62
430.069	109.62
430.292	99.62
430.514	86.62
430.736	92.62
430.958	94.62
431.18	93.62
431.402	77.62
431.624	104.62
431.846	98.62
432.068	79.62
432.29	77.62
432.512	79.62
432.734	81.62
432.956	84.62
433.178	101.62
433.4	79.62
433.622	72.62
433.844	81.62
434.066	83.62
434.287	69.62
434.509	79.62
434.731	75.62
434.953	70.62
435.175	89.62
435.397	80.62
435.618	86.62
435.84	80.62
436.062	82.62
436.284	77.62
436.505	92.62
436.727	85.62
436.949	94.62
437.17	79.62
437.392	77.62
437.614	77.62
437.835	73.62
438.057	87.62
438.278	80.62
438.5	84.62
438.721	85.62
438.943	94.62
439.165	82.62
439.386	79.62
439.608	87.62
439.829	61.62
440.05	78.62
440.272	90.62
440.493	88.62
440.715	98.62
440.936	85.62
441.158	98.62
441.379	83.62
441.6	91.62
441.822	81.62
442.043	82.62
442.264	85.62
442.486	82.62
442.707	88.62
442.928	81.62
443.149	85.62
443.371	109.62
443.592	110.62
443.813	98.62
444.034	102.62
444.255	76.62
444.476	78.62
444.698	87.62
444.919	95.62
445.14	156.62
445.361	120.62
445.582	116.62
445.803	102.62
446.024	92.62
446.245	84.62
446.466	84.62
446.687	91.62
446.908	72.62
447.129	76.62
447.35	86.62
447.571	92.62
447.792	79.62
448.013	80.62
448.234	75.62
448.455	85.62
448.675	82.62
448.896	71.62
449.117	85.62
449.338	79.62
449.559	70.62
449.779	87.62
450	80.62
450.221	73.62
450.442	70.62
450.662	82.62
450.883	78.62
451.104	87.62
451.324	79.62
451.545	71.62
451.766	76.62
451.986	84.62
452.207	71.62
452.428	78.62
452.648	83.62
452.869	85.62
453.089	83.62
453.31	84.62
453.53	76.62
453.751	82.62
453.971	77.62
454.192	83.62
454.412	91.62
454.633	83.62
454.853	82.62
455.073	79.62
455.294	91.62
455.514	77.62
455.734	93.62
455.955	78.62
456.175	70.62
456.395	98.62
456.616	67.62
456.836	76.62
457.056	80.62
457.276	81.62
457.497	84.62
457.717	86.62
457.937	76.62
458.157	83.62
458.377	91.62
458.598	88.62
458.818	88.62
459.038	86.62
459.258	80.62
459.478	77.62
459.698	75.62
459.918	97.62
460.138	83.62
460.358	85.62
460.578	96.62
460.798	82.62
461.018	94.62
461.238	81.62
461.458	90.62
461.678	89.62
461.898	82.62
462.118	81.62
462.338	80.62
462.558	89.62
462.777	86.62
462.997	91.62
463.217	78.62
463.437	76.62
463.657	91.62
463.876	98.62
464.096	88.62
464.316	94.62
464.536	93.62
464.755	84.62
464.975	77.62
465.195	85.62
465.414	78.62
465.634	74.62
465.854	83.62
466.073	88.62
466.293	80.62
466.512	81.62
466.732	86.62
466.951	84.62
467.171	87.62
467.391	87.62
467.61	88.62
467.829	90.62
468.049	81.62
468.268	81.62
468.488	84.62
468.707	89.62
468.927	80.62
469.146	86.62
469.365	98.62
469.585	91.62
469.804	81.62
470.023	82.62
470.243	84.62
470.462	86.62
470.681	95.62
470.901	79.62
471.12	84.62
471.339	83.62
471.558	78.62
471.777	92.62
471.997	75.62
472.216	79.62
472.435	84.62
472.654	82.62
472.873	92.62
473.092	86.62
473.311	80.62
473.53	91.62
473.749	87.62
473.968	82.62
474.187	85.62
474.406	91.62
474.625	86.62
474.844	92.62
475.063	87.62
475.282	90.62
475.501	84.62
475.72	90.62
475.939	82.62
476.158	82.62
476.377	83.62
476.596	86.62
476.814	80.62
477.033	86.62
477.252	91.62
477.471	92.62
477.69	99.62
477.908	84.62
478.127	83.62
478.346	77.62
478.564	62.62
478.783	87.62
479.002	93.62
479.22	93.62
479.439	87.62
479.658	70.62
479.876	95.62
480.095	78.62
480.313	95.62
480.532	80.62
480.751	86.62
480.969	77.62
481.188	80.62
481.406	91.62
481.624	89.62
481.843	75.62
482.061	74.62
482.28	81.62
482.498	78.62
482.717	88.62
482.935	89.62
483.153	89.62
483.372	88.62
483.59	83.62
483.808	84.62
484.027	78.62
484.245	95.62
484.463	98.62
484.681	102.62
484.9	85.62
485.118	98.62
485.336	74.62
485.554	91.62
485.772	90.62
485.99	84.62
486.209	86.62
486.427	88.62
486.645	80.62
486.863	77.62
487.081	75.62
487.299	63.62
487.517	92.62
487.735	85.62
487.953	80.62
488.171	106.62
488.389	86.62
488.607	83.62
488.825	77.62
489.043	80.62
489.261	81.62
489.479	86.62
489.696	73.62
489.914	83.62
490.132	92.62
490.35	71.62
490.568	83.62
490.786	99.62
491.003	82.62
491.221	74.62
491.439	72.62
491.657	74.62
491.874	94.62
492.092	88.62
492.31	82.62
492.527	72.62
492.745	78.62
492.963	82.62
493.18	95.62
493.398	74.62
493.615	92.62
493.833	90.62
494.05	82.62
494.268	89.62
494.485	88.62
494.703	77.62
494.92	85.62
495.138	72.62
495.355	70.62
495.573	87.62
495.79	86.62
496.008	87.62
496.225	76.62
496.442	85.62
496.66	75.62
496.877	101.62
497.094	93.62
497.312	85.62
497.529	82.62
497.746	72.62
497.963	75.62
498.181	80.62
498.398	70.62
498.615	75.62
498.832	83.62
499.049	100.62
499.267	93.62
499.484	79.62
499.701	90.62
499.918	92.62
500.135	87.62
500.352	88.62
500.569	88.62
500.786	88.62
501.003	80.62
501.22	85.62
501.437	93.62
501.654	80.62
501.871	77.62
502.088	96.62
502.305	84.62
502.522	71.62
502.739	79.62
502.956	92.62
503.172	86.62
503.389	83.62
503.606	89.62
503.823	87.62
504.04	109.62
504.256	81.62
504.473	102.62
504.69	89.62
504.907	90.62
505.123	87.62
505.34	86.62
505.557	74.62
505.773	78.62
505.99	91.62
506.207	87.62
506.423	93.62
506.64	80.62
506.856	94.62
507.073	83.62
507.289	90.62
507.506	86.62
507.722	76.62
507.939	97.62
508.155	90.62
508.372	75.62
508.588	88.62
508.805	79.62
509.021	101.62
509.238	86.62
509.454	82.62
509.67	77.62
509.887	92.62
510.103	90.62
510.319	82.62
510.536	94.62
510.752	94.62
510.968	76.62
511.184	91.62
511.401	77.62
511.617	102.62
511.833	89.62
512.049	87.62
512.265	90.62
512.481	88.62
512.698	81.62
512.914	75.62
513.13	76.62
513.346	78.62
513.562	84.62
513.778	90.62
513.994	87.62
514.21	72.62
514.426	72.62
514.642	101.62
514.858	84.62
515.074	81.62
515.29	92.62
515.506	87.62
515.721	87.62
515.937	90.62
516.153	85.62
516.369	78.62
516.585	77.62
516.801	79.62
517.016	78.62
517.232	89.62
517.448	84.62
517.664	82.62
517.879	94.62
518.095	88.62
518.311	92.62
518.527	85.62
518.742	90.62
518.958	81.62
519.173	90.62
519.389	102.62
519.605	93.62
519.82	79.62
