Data from Mixheat2_HRD10591_00020.txt Node
Date: Fri Dec 27 15:09:23 EST 2024
User: Yrep
Spectrometer: HR+D1059
Trigger mode: 1
Integration Time (sec): 1.000000E-1
Scans to average: 1
Electric dark correction enabled: true
Nonlinearity correction enabled: false
Boxcar width: 0
XAxis mode: Wavelengths
Number of Pixels in Spectrum: 2048
>>>>>Begin Spectral Data<<<<<
223.165	-12.25
223.4	-12.25
223.635	-12.25
223.869	-25.25
224.104	-9.25
224.338	-24.25
224.573	-8.25
224.808	-14.25
225.042	2.75
225.277	-3.25
225.511	-3.25
225.746	8.75
225.98	7.75
226.215	8.75
226.449	5.75
226.683	7.75
226.918	20.75
227.152	37.75
227.387	34.75
227.621	42.75
227.856	49.75
228.09	55.75
228.324	42.75
228.559	69.75
228.793	62.75
229.027	51.75
229.262	55.75
229.496	54.75
229.73	71.75
229.964	72.75
230.199	68.75
230.433	71.75
230.667	70.75
230.901	88.75
231.136	84.75
231.37	71.75
231.604	85.75
231.838	86.75
232.072	76.75
232.306	75.75
232.541	59.75
232.775	84.75
233.009	90.75
233.243	79.75
233.477	78.75
233.711	86.75
233.945	86.75
234.179	76.75
234.413	73.75
234.647	77.75
234.881	72.75
235.115	81.75
235.349	70.75
235.583	79.75
235.817	71.75
236.051	76.75
236.285	86.75
236.519	89.75
236.753	66.75
236.987	85.75
237.221	77.75
237.455	74.75
237.689	74.75
237.922	74.75
238.156	81.75
238.39	63.75
238.624	69.75
238.858	78.75
239.091	85.75
239.325	71.75
239.559	81.75
239.793	66.75
240.027	83.75
240.26	73.75
240.494	81.75
240.728	63.75
240.961	70.75
241.195	81.75
241.429	72.75
241.662	88.75
241.896	74.75
242.13	63.75
242.363	65.75
242.597	69.75
242.83	73.75
243.064	67.75
243.298	74.75
243.531	67.75
243.765	79.75
243.998	80.75
244.232	67.75
244.465	66.75
244.699	80.75
244.932	75.75
245.166	73.75
245.399	82.75
245.633	73.75
245.866	76.75
246.099	69.75
246.333	62.75
246.566	73.75
246.8	71.75
247.033	71.75
247.266	79.75
247.5	80.75
247.733	85.75
247.966	81.75
248.2	83.75
248.433	66.75
248.666	82.75
248.899	66.75
249.133	66.75
249.366	86.75
249.599	84.75
249.832	73.75
250.066	77.75
250.299	80.75
250.532	82.75
250.765	82.75
250.998	79.75
251.231	66.75
251.465	87.75
251.698	66.75
251.931	75.75
252.164	71.75
252.397	69.75
252.63	69.75
252.863	90.75
253.096	82.75
253.329	86.75
253.562	75.75
253.795	78.75
254.028	76.75
254.261	70.75
254.494	85.75
254.727	75.75
254.96	81.75
255.193	77.75
255.426	73.75
255.659	87.75
255.892	81.75
256.124	84.75
256.357	73.75
256.59	88.75
256.823	72.75
257.056	83.75
257.289	84.75
257.521	84.75
257.754	68.75
257.987	69.75
258.22	84.75
258.452	98.75
258.685	84.75
258.918	83.75
259.151	78.75
259.383	81.75
259.616	75.75
259.849	78.75
260.081	91.75
260.314	80.75
260.547	78.75
260.779	69.75
261.012	64.75
261.244	68.75
261.477	89.75
261.71	78.75
261.942	77.75
262.175	81.75
262.407	70.75
262.64	84.75
262.872	89.75
263.105	83.75
263.337	86.75
263.57	99.75
263.802	81.75
264.035	88.75
264.267	77.75
264.499	72.75
264.732	63.75
264.964	84.75
265.197	82.75
265.429	76.75
265.661	94.75
265.894	71.75
266.126	79.75
266.358	87.75
266.591	81.75
266.823	89.75
267.055	87.75
267.287	63.75
267.52	89.75
267.752	79.75
267.984	90.75
268.216	86.75
268.448	80.75
268.681	74.75
268.913	71.75
269.145	77.75
269.377	70.75
269.609	74.75
269.841	90.75
270.073	85.75
270.306	97.75
270.538	86.75
270.77	89.75
271.002	87.75
271.234	76.75
271.466	64.75
271.698	71.75
271.93	83.75
272.162	81.75
272.394	85.75
272.626	63.75
272.858	78.75
273.09	77.75
273.322	84.75
273.553	85.75
273.785	85.75
274.017	78.75
274.249	82.75
274.481	68.75
274.713	67.75
274.945	66.75
275.176	78.75
275.408	92.75
275.64	79.75
275.872	74.75
276.104	72.75
276.335	78.75
276.567	79.75
276.799	94.75
277.031	75.75
277.262	83.75
277.494	94.75
277.726	75.75
277.957	64.75
278.189	89.75
278.421	88.75
278.652	87.75
278.884	76.75
279.115	82.75
279.347	84.75
279.579	88.75
279.81	85.75
280.042	93.75
280.273	70.75
280.505	84.75
280.736	99.75
280.968	96.75
281.199	74.75
281.431	75.75
281.662	90.75
281.894	79.75
282.125	88.75
282.356	84.75
282.588	83.75
282.819	81.75
283.051	89.75
283.282	85.75
283.513	74.75
283.745	75.75
283.976	90.75
284.207	75.75
284.439	74.75
284.67	79.75
284.901	73.75
285.132	75.75
285.364	91.75
285.595	87.75
285.826	81.75
286.057	84.75
286.288	87.75
286.52	88.75
286.751	82.75
286.982	78.75
287.213	91.75
287.444	80.75
287.675	81.75
287.906	89.75
288.138	83.75
288.369	80.75
288.6	88.75
288.831	74.75
289.062	91.75
289.293	82.75
289.524	74.75
289.755	93.75
289.986	74.75
290.217	82.75
290.448	83.75
290.679	87.75
290.91	90.75
291.141	78.75
291.371	81.75
291.602	86.75
291.833	81.75
292.064	86.75
292.295	86.75
292.526	77.75
292.757	78.75
292.987	97.75
293.218	89.75
293.449	74.75
293.68	81.75
293.91	81.75
294.141	76.75
294.372	87.75
294.603	76.75
294.833	85.75
295.064	88.75
295.295	79.75
295.525	93.75
295.756	69.75
295.987	79.75
296.217	73.75
296.448	90.75
296.679	87.75
296.909	84.75
297.14	81.75
297.37	85.75
297.601	89.75
297.831	75.75
298.062	77.75
298.292	75.75
298.523	89.75
298.753	67.75
298.984	75.75
299.214	80.75
299.445	89.75
299.675	85.75
299.905	101.75
300.136	84.75
300.366	85.75
300.597	86.75
300.827	79.75
301.057	90.75
301.288	77.75
301.518	79.75
301.748	84.75
301.979	93.75
302.209	76.75
302.439	74.75
302.669	95.75
302.9	70.75
303.13	81.75
303.36	70.75
303.59	73.75
303.82	75.75
304.051	81.75
304.281	75.75
304.511	100.75
304.741	87.75
304.971	62.75
305.201	87.75
305.431	95.75
305.661	99.75
305.891	76.75
306.121	97.75
306.352	83.75
306.582	79.75
306.812	76.75
307.042	78.75
307.272	82.75
307.502	87.75
307.731	84.75
307.961	88.75
308.191	75.75
308.421	95.75
308.651	67.75
308.881	97.75
309.111	74.75
309.341	84.75
309.571	73.75
309.8	82.75
310.03	73.75
310.26	75.75
310.49	91.75
310.72	71.75
310.949	81.75
311.179	71.75
311.409	80.75
311.639	90.75
311.868	76.75
312.098	79.75
312.328	96.75
312.557	93.75
312.787	77.75
313.017	83.75
313.246	77.75
313.476	77.75
313.706	78.75
313.935	90.75
314.165	78.75
314.394	86.75
314.624	84.75
314.853	74.75
315.083	77.75
315.312	78.75
315.542	79.75
315.771	80.75
316.001	72.75
316.23	85.75
316.46	72.75
316.689	83.75
316.919	94.75
317.148	84.75
317.377	75.75
317.607	76.75
317.836	90.75
318.065	85.75
318.295	82.75
318.524	77.75
318.753	89.75
318.983	85.75
319.212	79.75
319.441	80.75
319.67	78.75
319.9	73.75
320.129	77.75
320.358	89.75
320.587	83.75
320.816	82.75
321.046	84.75
321.275	87.75
321.504	94.75
321.733	88.75
321.962	86.75
322.191	91.75
322.42	82.75
322.649	82.75
322.878	87.75
323.108	100.75
323.337	83.75
323.566	75.75
323.795	85.75
324.024	72.75
324.253	86.75
324.482	87.75
324.71	97.75
324.939	79.75
325.168	92.75
325.397	89.75
325.626	88.75
325.855	81.75
326.084	81.75
326.313	69.75
326.542	68.75
326.77	82.75
326.999	88.75
327.228	87.75
327.457	78.75
327.686	86.75
327.914	87.75
328.143	84.75
328.372	74.75
328.6	86.75
328.829	84.75
329.058	89.75
329.287	75.75
329.515	80.75
329.744	96.75
329.972	81.75
330.201	88.75
330.43	80.75
330.658	87.75
330.887	83.75
331.115	77.75
331.344	73.75
331.572	81.75
331.801	75.75
332.03	70.75
332.258	101.75
332.486	97.75
332.715	85.75
332.943	70.75
333.172	64.75
333.4	81.75
333.629	87.75
333.857	78.75
334.085	97.75
334.314	87.75
334.542	87.75
334.771	81.75
334.999	77.75
335.227	84.75
335.455	75.75
335.684	86.75
335.912	77.75
336.14	83.75
336.369	71.75
336.597	82.75
336.825	86.75
337.053	77.75
337.281	79.75
337.51	79.75
337.738	82.75
337.966	79.75
338.194	84.75
338.422	84.75
338.65	85.75
338.878	90.75
339.106	85.75
339.334	87.75
339.562	78.75
339.79	91.75
340.018	63.75
340.246	88.75
340.474	100.75
340.702	91.75
340.93	82.75
341.158	81.75
341.386	84.75
341.614	86.75
341.842	63.75
342.07	67.75
342.298	81.75
342.526	89.75
342.754	84.75
342.981	90.75
343.209	87.75
343.437	91.75
343.665	85.75
343.893	86.75
344.12	91.75
344.348	87.75
344.576	74.75
344.804	91.75
345.031	78.75
345.259	82.75
345.487	88.75
345.714	74.75
345.942	85.75
346.17	78.75
346.397	68.75
346.625	76.75
346.853	85.75
347.08	79.75
347.308	84.75
347.535	91.75
347.763	77.75
347.99	95.75
348.218	99.75
348.445	84.75
348.673	78.75
348.9	80.75
349.128	78.75
349.355	84.75
349.583	87.75
349.81	89.75
350.037	77.75
350.265	84.75
350.492	76.75
350.72	87.75
350.947	88.75
351.174	91.75
351.402	74.75
351.629	81.75
351.856	73.75
352.083	78.75
352.311	75.75
352.538	79.75
352.765	72.75
352.992	108.75
353.22	97.75
353.447	67.75
353.674	86.75
353.901	70.75
354.128	81.75
354.355	92.75
354.583	85.75
354.81	85.75
355.037	83.75
355.264	87.75
355.491	80.75
355.718	82.75
355.945	86.75
356.172	82.75
356.399	102.75
356.626	81.75
356.853	83.75
357.08	79.75
357.307	75.75
357.534	94.75
357.761	95.75
357.988	84.75
358.215	86.75
358.441	74.75
358.668	87.75
358.895	75.75
359.122	76.75
359.349	88.75
359.576	86.75
359.802	78.75
360.029	91.75
360.256	71.75
360.483	82.75
360.709	94.75
360.936	90.75
361.163	79.75
361.39	83.75
361.616	71.75
361.843	81.75
362.07	76.75
362.296	75.75
362.523	69.75
362.749	79.75
362.976	69.75
363.203	86.75
363.429	73.75
363.656	74.75
363.882	70.75
364.109	93.75
364.335	93.75
364.562	76.75
364.788	90.75
365.015	88.75
365.241	88.75
365.468	93.75
365.694	67.75
365.92	87.75
366.147	79.75
366.373	88.75
366.599	82.75
366.826	93.75
367.052	72.75
367.278	85.75
367.505	75.75
367.731	87.75
367.957	91.75
368.184	89.75
368.41	79.75
368.636	76.75
368.862	84.75
369.089	74.75
369.315	83.75
369.541	74.75
369.767	74.75
369.993	87.75
370.219	86.75
370.445	76.75
370.672	83.75
370.898	90.75
371.124	76.75
371.35	91.75
371.576	79.75
371.802	76.75
372.028	81.75
372.254	83.75
372.48	82.75
372.706	73.75
372.932	74.75
373.158	82.75
373.384	91.75
373.61	87.75
373.835	77.75
374.061	82.75
374.287	83.75
374.513	81.75
374.739	76.75
374.965	71.75
375.191	88.75
375.416	88.75
375.642	68.75
375.868	78.75
376.094	86.75
376.319	63.75
376.545	71.75
376.771	88.75
376.997	90.75
377.222	78.75
377.448	91.75
377.674	75.75
377.899	82.75
378.125	65.75
378.35	71.75
378.576	82.75
378.802	85.75
379.027	93.75
379.253	94.75
379.478	85.75
379.704	98.75
379.929	82.75
380.155	73.75
380.38	85.75
380.606	81.75
380.831	59.75
381.057	74.75
381.282	86.75
381.507	99.75
381.733	70.75
381.958	77.75
382.184	73.75
382.409	79.75
382.634	86.75
382.86	77.75
383.085	79.75
383.31	83.75
383.535	85.75
383.761	74.75
383.986	64.75
384.211	78.75
384.436	72.75
384.662	76.75
384.887	72.75
385.112	82.75
385.337	97.75
385.562	59.75
385.787	81.75
386.013	81.75
386.238	78.75
386.463	83.75
386.688	89.75
386.913	79.75
387.138	79.75
387.363	78.75
387.588	72.75
387.813	85.75
388.038	90.75
388.263	89.75
388.488	82.75
388.713	90.75
388.938	76.75
389.163	78.75
389.387	73.75
389.612	76.75
389.837	74.75
390.062	79.75
390.287	76.75
390.512	89.75
390.736	94.75
390.961	88.75
391.186	78.75
391.411	78.75
391.636	56.75
391.86	77.75
392.085	97.75
392.31	73.75
392.534	83.75
392.759	81.75
392.984	99.75
393.208	101.75
393.433	105.75
393.658	90.75
393.882	76.75
394.107	81.75
394.331	83.75
394.556	89.75
394.78	86.75
395.005	83.75
395.229	78.75
395.454	75.75
395.678	89.75
395.903	101.75
396.127	93.75
396.352	100.75
396.576	79.75
396.801	98.75
397.025	104.75
397.249	81.75
397.474	86.75
397.698	78.75
397.922	78.75
398.147	81.75
398.371	74.75
398.595	80.75
398.82	85.75
399.044	75.75
399.268	85.75
399.492	89.75
399.717	76.75
399.941	61.75
400.165	82.75
400.389	78.75
400.613	92.75
400.837	88.75
401.062	83.75
401.286	76.75
401.51	88.75
401.734	83.75
401.958	75.75
402.182	78.75
402.406	73.75
402.63	82.75
402.854	83.75
403.078	69.75
403.302	73.75
403.526	85.75
403.75	75.75
403.974	69.75
404.198	85.75
404.422	111.75
404.645	111.75
404.869	91.75
405.093	86.75
405.317	88.75
405.541	90.75
405.765	69.75
405.988	85.75
406.212	75.75
406.436	80.75
406.66	89.75
406.883	85.75
407.107	85.75
407.331	81.75
407.555	85.75
407.778	76.75
408.002	80.75
408.226	83.75
408.449	80.75
408.673	73.75
408.896	72.75
409.12	66.75
409.344	74.75
409.567	79.75
409.791	61.75
410.014	81.75
410.238	91.75
410.461	85.75
410.685	73.75
410.908	74.75
411.132	86.75
411.355	86.75
411.578	81.75
411.802	75.75
412.025	83.75
412.249	76.75
412.472	67.75
412.695	82.75
412.919	78.75
413.142	71.75
413.365	68.75
413.589	73.75
413.812	79.75
414.035	64.75
414.258	84.75
414.482	90.75
414.705	80.75
414.928	87.75
415.151	77.75
415.374	69.75
415.597	81.75
415.821	76.75
416.044	75.75
416.267	76.75
416.49	92.75
416.713	82.75
416.936	69.75
417.159	92.75
417.382	85.75
417.605	60.75
417.828	79.75
418.051	82.75
418.274	71.75
418.497	84.75
418.72	78.75
418.943	89.75
419.166	83.75
419.389	70.75
419.611	79.75
419.834	94.75
420.057	76.75
420.28	84.75
420.503	87.75
420.726	89.75
420.948	83.75
421.171	77.75
421.394	86.75
421.617	77.75
421.839	88.75
422.062	78.75
422.285	102.75
422.507	115.75
422.73	136.75
422.953	131.75
423.175	105.75
423.398	93.75
423.621	78.75
423.843	92.75
424.066	83.75
424.288	77.75
424.511	74.75
424.733	87.75
424.956	93.75
425.178	61.75
425.401	69.75
425.623	71.75
425.846	88.75
426.068	89.75
426.291	70.75
426.513	87.75
426.735	78.75
426.958	93.75
427.18	83.75
427.402	70.75
427.625	74.75
427.847	73.75
428.069	85.75
428.292	89.75
428.514	97.75
428.736	83.75
428.958	80.75
429.181	100.75
429.403	87.75
429.625	90.75
429.847	74.75
430.069	85.75
430.292	98.75
430.514	91.75
430.736	103.75
430.958	101.75
431.18	86.75
431.402	84.75
431.624	81.75
431.846	72.75
432.068	93.75
432.29	75.75
432.512	88.75
432.734	78.75
432.956	70.75
433.178	89.75
433.4	81.75
433.622	73.75
433.844	81.75
434.066	72.75
434.287	85.75
434.509	62.75
434.731	64.75
434.953	68.75
435.175	72.75
435.397	82.75
435.618	87.75
435.84	71.75
436.062	81.75
436.284	79.75
436.505	77.75
436.727	70.75
436.949	79.75
437.17	87.75
437.392	68.75
437.614	90.75
437.835	82.75
438.057	83.75
438.278	81.75
438.5	77.75
438.721	74.75
438.943	88.75
439.165	74.75
439.386	71.75
439.608	75.75
439.829	71.75
440.05	83.75
440.272	79.75
440.493	78.75
440.715	66.75
440.936	81.75
441.158	78.75
441.379	75.75
441.6	85.75
441.822	80.75
442.043	78.75
442.264	82.75
442.486	94.75
442.707	96.75
442.928	91.75
443.149	86.75
443.371	94.75
443.592	104.75
443.813	101.75
444.034	83.75
444.255	85.75
444.476	69.75
444.698	71.75
444.919	87.75
445.14	141.75
445.361	117.75
445.582	125.75
445.803	106.75
446.024	91.75
446.245	99.75
446.466	79.75
446.687	86.75
446.908	89.75
447.129	79.75
447.35	69.75
447.571	76.75
447.792	75.75
448.013	80.75
448.234	75.75
448.455	68.75
448.675	83.75
448.896	72.75
449.117	70.75
449.338	76.75
449.559	84.75
449.779	73.75
450	67.75
450.221	93.75
450.442	69.75
450.662	66.75
450.883	82.75
451.104	63.75
451.324	74.75
451.545	79.75
451.766	73.75
451.986	88.75
452.207	85.75
452.428	83.75
452.648	76.75
452.869	60.75
453.089	87.75
453.31	78.75
453.53	80.75
453.751	84.75
453.971	84.75
454.192	83.75
454.412	83.75
454.633	75.75
454.853	76.75
455.073	69.75
455.294	85.75
455.514	84.75
455.734	66.75
455.955	76.75
456.175	70.75
456.395	82.75
456.616	92.75
456.836	77.75
457.056	81.75
457.276	80.75
457.497	68.75
457.717	65.75
457.937	83.75
458.157	86.75
458.377	77.75
458.598	86.75
458.818	77.75
459.038	80.75
459.258	87.75
459.478	97.75
459.698	82.75
459.918	89.75
460.138	75.75
460.358	91.75
460.578	74.75
460.798	79.75
461.018	91.75
461.238	79.75
461.458	75.75
461.678	86.75
461.898	71.75
462.118	76.75
462.338	86.75
462.558	70.75
462.777	80.75
462.997	92.75
463.217	77.75
463.437	76.75
463.657	94.75
463.876	69.75
464.096	88.75
464.316	71.75
464.536	72.75
464.755	90.75
464.975	83.75
465.195	78.75
465.414	70.75
465.634	90.75
465.854	76.75
466.073	84.75
466.293	85.75
466.512	70.75
466.732	75.75
466.951	86.75
467.171	97.75
467.391	84.75
467.61	71.75
467.829	81.75
468.049	70.75
468.268	78.75
468.488	81.75
468.707	93.75
468.927	69.75
469.146	74.75
469.365	79.75
469.585	80.75
469.804	77.75
470.023	78.75
470.243	67.75
470.462	90.75
470.681	64.75
470.901	72.75
471.12	91.75
471.339	82.75
471.558	83.75
471.777	93.75
471.997	78.75
472.216	84.75
472.435	67.75
472.654	87.75
472.873	82.75
473.092	78.75
473.311	96.75
473.53	68.75
473.749	84.75
473.968	83.75
474.187	70.75
474.406	88.75
474.625	78.75
474.844	77.75
475.063	90.75
475.282	90.75
475.501	71.75
475.72	90.75
475.939	94.75
476.158	91.75
476.377	82.75
476.596	74.75
476.814	83.75
477.033	71.75
477.252	76.75
477.471	79.75
477.69	78.75
477.908	79.75
478.127	65.75
478.346	86.75
478.564	73.75
478.783	81.75
479.002	94.75
479.22	65.75
479.439	82.75
479.658	80.75
479.876	88.75
480.095	70.75
480.313	86.75
480.532	85.75
480.751	85.75
480.969	79.75
481.188	75.75
481.406	90.75
481.624	89.75
481.843	92.75
482.061	78.75
482.28	72.75
482.498	86.75
482.717	75.75
482.935	90.75
483.153	77.75
483.372	83.75
483.59	82.75
483.808	73.75
484.027	88.75
484.245	85.75
484.463	75.75
484.681	77.75
484.9	77.75
485.118	94.75
485.336	82.75
485.554	82.75
485.772	77.75
485.99	89.75
486.209	69.75
486.427	62.75
486.645	78.75
486.863	78.75
487.081	73.75
487.299	97.75
487.517	97.75
487.735	84.75
487.953	89.75
488.171	85.75
488.389	94.75
488.607	74.75
488.825	62.75
489.043	79.75
489.261	80.75
489.479	84.75
489.696	77.75
489.914	90.75
490.132	79.75
490.35	85.75
490.568	67.75
490.786	86.75
491.003	87.75
491.221	71.75
491.439	87.75
491.657	84.75
491.874	79.75
492.092	85.75
492.31	91.75
492.527	83.75
492.745	75.75
492.963	78.75
493.18	84.75
493.398	65.75
493.615	87.75
493.833	74.75
494.05	83.75
494.268	81.75
494.485	87.75
494.703	84.75
494.92	90.75
495.138	90.75
495.355	85.75
495.573	90.75
495.79	90.75
496.008	76.75
496.225	83.75
496.442	101.75
496.66	79.75
496.877	76.75
497.094	73.75
497.312	87.75
497.529	86.75
497.746	87.75
497.963	98.75
498.181	90.75
498.398	76.75
498.615	71.75
498.832	89.75
499.049	91.75
499.267	73.75
499.484	76.75
499.701	78.75
499.918	96.75
500.135	85.75
500.352	84.75
500.569	80.75
500.786	84.75
501.003	85.75
501.22	85.75
501.437	77.75
501.654	68.75
501.871	77.75
502.088	74.75
502.305	84.75
502.522	82.75
502.739	71.75
502.956	89.75
503.172	77.75
503.389	72.75
503.606	82.75
503.823	81.75
504.04	81.75
504.256	78.75
504.473	101.75
504.69	72.75
504.907	84.75
505.123	89.75
505.34	75.75
505.557	86.75
505.773	87.75
505.99	80.75
506.207	72.75
506.423	79.75
506.64	97.75
506.856	88.75
507.073	78.75
507.289	77.75
507.506	90.75
507.722	88.75
507.939	90.75
508.155	82.75
508.372	82.75
508.588	82.75
508.805	86.75
509.021	83.75
509.238	89.75
509.454	82.75
509.67	85.75
509.887	76.75
510.103	63.75
510.319	83.75
510.536	93.75
510.752	90.75
510.968	97.75
511.184	75.75
511.401	77.75
511.617	85.75
511.833	65.75
512.049	78.75
512.265	90.75
512.481	77.75
512.698	74.75
512.914	70.75
513.13	81.75
513.346	79.75
513.562	89.75
513.778	76.75
513.994	75.75
514.21	83.75
514.426	82.75
514.642	89.75
514.858	97.75
515.074	84.75
515.29	86.75
515.506	79.75
515.721	72.75
515.937	89.75
516.153	83.75
516.369	101.75
516.585	82.75
516.801	84.75
517.016	80.75
517.232	90.75
517.448	75.75
517.664	73.75
517.879	84.75
518.095	82.75
518.311	86.75
518.527	94.75
518.742	75.75
518.958	100.75
519.173	81.75
519.389	83.75
519.605	66.75
519.82	70.75
