Data from Mixheat2_HRD10591_00019.txt Node
Date: Fri Dec 27 15:09:22 EST 2024
User: Yrep
Spectrometer: HR+D1059
Trigger mode: 1
Integration Time (sec): 1.000000E-1
Scans to average: 1
Electric dark correction enabled: true
Nonlinearity correction enabled: false
Boxcar width: 0
XAxis mode: Wavelengths
Number of Pixels in Spectrum: 2048
>>>>>Begin Spectral Data<<<<<
223.165	-3.88
223.4	-3.88
223.635	-3.88
223.869	-20.88
224.104	-10.88
224.338	-19.88
224.573	-23.88
224.808	-2.88
225.042	0.12
225.277	-10.88
225.511	5.12
225.746	-5.88
225.98	9.12
226.215	11.12
226.449	6.12
226.683	26.12
226.918	22.12
227.152	19.12
227.387	30.12
227.621	39.12
227.856	50.12
228.09	45.12
228.324	55.12
228.559	47.12
228.793	61.12
229.027	55.12
229.262	69.12
229.496	72.12
229.73	61.12
229.964	71.12
230.199	66.12
230.433	74.12
230.667	78.12
230.901	77.12
231.136	76.12
231.37	78.12
231.604	84.12
231.838	87.12
232.072	81.12
232.306	83.12
232.541	69.12
232.775	65.12
233.009	80.12
233.243	63.12
233.477	73.12
233.711	81.12
233.945	81.12
234.179	88.12
234.413	89.12
234.647	95.12
234.881	80.12
235.115	82.12
235.349	70.12
235.583	78.12
235.817	74.12
236.051	69.12
236.285	72.12
236.519	62.12
236.753	78.12
236.987	64.12
237.221	60.12
237.455	85.12
237.689	83.12
237.922	73.12
238.156	77.12
238.39	88.12
238.624	62.12
238.858	62.12
239.091	70.12
239.325	73.12
239.559	79.12
239.793	73.12
240.027	75.12
240.26	68.12
240.494	86.12
240.728	66.12
240.961	81.12
241.195	66.12
241.429	74.12
241.662	80.12
241.896	69.12
242.13	61.12
242.363	72.12
242.597	81.12
242.83	79.12
243.064	77.12
243.298	73.12
243.531	74.12
243.765	76.12
243.998	72.12
244.232	87.12
244.465	75.12
244.699	72.12
244.932	72.12
245.166	76.12
245.399	79.12
245.633	73.12
245.866	76.12
246.099	67.12
246.333	71.12
246.566	70.12
246.8	73.12
247.033	60.12
247.266	68.12
247.5	68.12
247.733	74.12
247.966	76.12
248.2	62.12
248.433	71.12
248.666	73.12
248.899	87.12
249.133	80.12
249.366	73.12
249.599	79.12
249.832	77.12
250.066	92.12
250.299	81.12
250.532	90.12
250.765	70.12
250.998	73.12
251.231	86.12
251.465	75.12
251.698	77.12
251.931	74.12
252.164	89.12
252.397	85.12
252.63	75.12
252.863	72.12
253.096	71.12
253.329	69.12
253.562	87.12
253.795	86.12
254.028	90.12
254.261	84.12
254.494	78.12
254.727	66.12
254.96	77.12
255.193	73.12
255.426	87.12
255.659	82.12
255.892	69.12
256.124	82.12
256.357	79.12
256.59	84.12
256.823	88.12
257.056	73.12
257.289	87.12
257.521	81.12
257.754	90.12
257.987	89.12
258.22	82.12
258.452	69.12
258.685	74.12
258.918	87.12
259.151	71.12
259.383	78.12
259.616	79.12
259.849	82.12
260.081	69.12
260.314	90.12
260.547	81.12
260.779	90.12
261.012	64.12
261.244	85.12
261.477	83.12
261.71	74.12
261.942	75.12
262.175	76.12
262.407	83.12
262.64	71.12
262.872	89.12
263.105	77.12
263.337	70.12
263.57	89.12
263.802	75.12
264.035	78.12
264.267	75.12
264.499	87.12
264.732	84.12
264.964	71.12
265.197	77.12
265.429	77.12
265.661	74.12
265.894	85.12
266.126	82.12
266.358	79.12
266.591	67.12
266.823	85.12
267.055	86.12
267.287	87.12
267.52	91.12
267.752	90.12
267.984	81.12
268.216	76.12
268.448	83.12
268.681	84.12
268.913	80.12
269.145	89.12
269.377	87.12
269.609	89.12
269.841	88.12
270.073	66.12
270.306	83.12
270.538	82.12
270.77	88.12
271.002	75.12
271.234	72.12
271.466	93.12
271.698	92.12
271.93	62.12
272.162	88.12
272.394	90.12
272.626	86.12
272.858	74.12
273.09	91.12
273.322	81.12
273.553	71.12
273.785	77.12
274.017	74.12
274.249	76.12
274.481	76.12
274.713	71.12
274.945	79.12
275.176	90.12
275.408	69.12
275.64	73.12
275.872	86.12
276.104	80.12
276.335	83.12
276.567	80.12
276.799	91.12
277.031	89.12
277.262	87.12
277.494	88.12
277.726	84.12
277.957	80.12
278.189	75.12
278.421	76.12
278.652	66.12
278.884	69.12
279.115	74.12
279.347	73.12
279.579	83.12
279.81	82.12
280.042	90.12
280.273	69.12
280.505	89.12
280.736	84.12
280.968	67.12
281.199	69.12
281.431	62.12
281.662	74.12
281.894	80.12
282.125	84.12
282.356	80.12
282.588	70.12
282.819	83.12
283.051	79.12
283.282	79.12
283.513	78.12
283.745	100.12
283.976	89.12
284.207	88.12
284.439	70.12
284.67	72.12
284.901	79.12
285.132	90.12
285.364	83.12
285.595	86.12
285.826	86.12
286.057	84.12
286.288	84.12
286.52	75.12
286.751	82.12
286.982	82.12
287.213	92.12
287.444	97.12
287.675	73.12
287.906	85.12
288.138	89.12
288.369	90.12
288.6	84.12
288.831	84.12
289.062	97.12
289.293	87.12
289.524	90.12
289.755	81.12
289.986	75.12
290.217	93.12
290.448	71.12
290.679	87.12
290.91	88.12
291.141	84.12
291.371	84.12
291.602	69.12
291.833	81.12
292.064	79.12
292.295	73.12
292.526	82.12
292.757	82.12
292.987	83.12
293.218	94.12
293.449	79.12
293.68	86.12
293.91	82.12
294.141	88.12
294.372	93.12
294.603	78.12
294.833	74.12
295.064	79.12
295.295	85.12
295.525	97.12
295.756	79.12
295.987	86.12
296.217	75.12
296.448	97.12
296.679	79.12
296.909	89.12
297.14	73.12
297.37	93.12
297.601	79.12
297.831	77.12
298.062	84.12
298.292	94.12
298.523	91.12
298.753	97.12
298.984	76.12
299.214	78.12
299.445	82.12
299.675	94.12
299.905	81.12
300.136	83.12
300.366	87.12
300.597	75.12
300.827	90.12
301.057	81.12
301.288	83.12
301.518	78.12
301.748	77.12
301.979	102.12
302.209	87.12
302.439	81.12
302.669	78.12
302.9	89.12
303.13	92.12
303.36	63.12
303.59	91.12
303.82	72.12
304.051	78.12
304.281	90.12
304.511	70.12
304.741	73.12
304.971	82.12
305.201	90.12
305.431	78.12
305.661	63.12
305.891	71.12
306.121	95.12
306.352	75.12
306.582	75.12
306.812	89.12
307.042	82.12
307.272	89.12
307.502	85.12
307.731	89.12
307.961	86.12
308.191	80.12
308.421	75.12
308.651	97.12
308.881	81.12
309.111	80.12
309.341	84.12
309.571	95.12
309.8	77.12
310.03	82.12
310.26	87.12
310.49	78.12
310.72	89.12
310.949	85.12
311.179	82.12
311.409	84.12
311.639	84.12
311.868	71.12
312.098	85.12
312.328	80.12
312.557	72.12
312.787	81.12
313.017	89.12
313.246	86.12
313.476	83.12
313.706	100.12
313.935	83.12
314.165	91.12
314.394	79.12
314.624	78.12
314.853	91.12
315.083	87.12
315.312	94.12
315.542	81.12
315.771	82.12
316.001	83.12
316.23	80.12
316.46	88.12
316.689	85.12
316.919	83.12
317.148	80.12
317.377	91.12
317.607	95.12
317.836	77.12
318.065	79.12
318.295	76.12
318.524	92.12
318.753	84.12
318.983	64.12
319.212	92.12
319.441	76.12
319.67	97.12
319.9	95.12
320.129	87.12
320.358	95.12
320.587	87.12
320.816	97.12
321.046	79.12
321.275	91.12
321.504	85.12
321.733	94.12
321.962	74.12
322.191	90.12
322.42	71.12
322.649	101.12
322.878	93.12
323.108	70.12
323.337	100.12
323.566	78.12
323.795	88.12
324.024	90.12
324.253	99.12
324.482	87.12
324.71	83.12
324.939	82.12
325.168	83.12
325.397	87.12
325.626	82.12
325.855	75.12
326.084	88.12
326.313	80.12
326.542	88.12
326.77	80.12
326.999	78.12
327.228	82.12
327.457	87.12
327.686	80.12
327.914	84.12
328.143	91.12
328.372	83.12
328.6	87.12
328.829	85.12
329.058	90.12
329.287	79.12
329.515	82.12
329.744	73.12
329.972	91.12
330.201	89.12
330.43	83.12
330.658	73.12
330.887	79.12
331.115	74.12
331.344	76.12
331.572	62.12
331.801	82.12
332.03	86.12
332.258	90.12
332.486	77.12
332.715	87.12
332.943	86.12
333.172	82.12
333.4	77.12
333.629	101.12
333.857	85.12
334.085	98.12
334.314	81.12
334.542	85.12
334.771	76.12
334.999	82.12
335.227	87.12
335.455	78.12
335.684	82.12
335.912	79.12
336.14	90.12
336.369	87.12
336.597	87.12
336.825	85.12
337.053	78.12
337.281	89.12
337.51	85.12
337.738	77.12
337.966	73.12
338.194	78.12
338.422	70.12
338.65	81.12
338.878	80.12
339.106	82.12
339.334	101.12
339.562	85.12
339.79	76.12
340.018	88.12
340.246	81.12
340.474	84.12
340.702	85.12
340.93	76.12
341.158	77.12
341.386	85.12
341.614	86.12
341.842	86.12
342.07	93.12
342.298	78.12
342.526	69.12
342.754	81.12
342.981	77.12
343.209	110.12
343.437	118.12
343.665	76.12
343.893	81.12
344.12	101.12
344.348	81.12
344.576	81.12
344.804	75.12
345.031	87.12
345.259	84.12
345.487	84.12
345.714	67.12
345.942	83.12
346.17	75.12
346.397	85.12
346.625	94.12
346.853	100.12
347.08	84.12
347.308	86.12
347.535	91.12
347.763	84.12
347.99	97.12
348.218	89.12
348.445	85.12
348.673	78.12
348.9	77.12
349.128	87.12
349.355	83.12
349.583	86.12
349.81	77.12
350.037	90.12
350.265	77.12
350.492	71.12
350.72	82.12
350.947	89.12
351.174	78.12
351.402	75.12
351.629	84.12
351.856	92.12
352.083	83.12
352.311	92.12
352.538	83.12
352.765	83.12
352.992	87.12
353.22	84.12
353.447	87.12
353.674	77.12
353.901	74.12
354.128	68.12
354.355	92.12
354.583	86.12
354.81	85.12
355.037	83.12
355.264	90.12
355.491	78.12
355.718	108.12
355.945	75.12
356.172	77.12
356.399	86.12
356.626	83.12
356.853	86.12
357.08	94.12
357.307	89.12
357.534	85.12
357.761	75.12
357.988	84.12
358.215	78.12
358.441	77.12
358.668	82.12
358.895	85.12
359.122	83.12
359.349	81.12
359.576	84.12
359.802	89.12
360.029	76.12
360.256	97.12
360.483	89.12
360.709	84.12
360.936	77.12
361.163	89.12
361.39	94.12
361.616	79.12
361.843	74.12
362.07	92.12
362.296	91.12
362.523	100.12
362.749	97.12
362.976	86.12
363.203	99.12
363.429	91.12
363.656	88.12
363.882	84.12
364.109	85.12
364.335	94.12
364.562	92.12
364.788	78.12
365.015	70.12
365.241	71.12
365.468	72.12
365.694	81.12
365.92	92.12
366.147	84.12
366.373	90.12
366.599	79.12
366.826	94.12
367.052	69.12
367.278	85.12
367.505	78.12
367.731	81.12
367.957	89.12
368.184	84.12
368.41	97.12
368.636	74.12
368.862	79.12
369.089	90.12
369.315	78.12
369.541	82.12
369.767	94.12
369.993	73.12
370.219	73.12
370.445	83.12
370.672	77.12
370.898	87.12
371.124	87.12
371.35	91.12
371.576	85.12
371.802	74.12
372.028	82.12
372.254	82.12
372.48	78.12
372.706	90.12
372.932	85.12
373.158	78.12
373.384	88.12
373.61	94.12
373.835	90.12
374.061	72.12
374.287	73.12
374.513	93.12
374.739	70.12
374.965	86.12
375.191	79.12
375.416	87.12
375.642	78.12
375.868	92.12
376.094	75.12
376.319	85.12
376.545	101.12
376.771	84.12
376.997	76.12
377.222	80.12
377.448	72.12
377.674	62.12
377.899	80.12
378.125	78.12
378.35	77.12
378.576	83.12
378.802	81.12
379.027	72.12
379.253	82.12
379.478	79.12
379.704	81.12
379.929	90.12
380.155	70.12
380.38	99.12
380.606	90.12
380.831	86.12
381.057	89.12
381.282	90.12
381.507	75.12
381.733	81.12
381.958	66.12
382.184	86.12
382.409	87.12
382.634	77.12
382.86	86.12
383.085	91.12
383.31	87.12
383.535	91.12
383.761	82.12
383.986	81.12
384.211	82.12
384.436	75.12
384.662	74.12
384.887	77.12
385.112	79.12
385.337	90.12
385.562	101.12
385.787	98.12
386.013	83.12
386.238	83.12
386.463	88.12
386.688	91.12
386.913	90.12
387.138	86.12
387.363	86.12
387.588	98.12
387.813	87.12
388.038	65.12
388.263	85.12
388.488	80.12
388.713	76.12
388.938	84.12
389.163	81.12
389.387	70.12
389.612	82.12
389.837	80.12
390.062	87.12
390.287	74.12
390.512	83.12
390.736	83.12
390.961	59.12
391.186	91.12
391.411	98.12
391.636	93.12
391.86	83.12
392.085	88.12
392.31	89.12
392.534	83.12
392.759	75.12
392.984	88.12
393.208	91.12
393.433	110.12
393.658	96.12
393.882	95.12
394.107	92.12
394.331	78.12
394.556	90.12
394.78	87.12
395.005	84.12
395.229	77.12
395.454	87.12
395.678	85.12
395.903	84.12
396.127	93.12
396.352	95.12
396.576	99.12
396.801	103.12
397.025	104.12
397.249	92.12
397.474	92.12
397.698	90.12
397.922	88.12
398.147	88.12
398.371	89.12
398.595	73.12
398.82	83.12
399.044	87.12
399.268	92.12
399.492	91.12
399.717	83.12
399.941	86.12
400.165	90.12
400.389	89.12
400.613	86.12
400.837	83.12
401.062	72.12
401.286	81.12
401.51	89.12
401.734	77.12
401.958	76.12
402.182	83.12
402.406	86.12
402.63	92.12
402.854	85.12
403.078	71.12
403.302	74.12
403.526	100.12
403.75	81.12
403.974	93.12
404.198	98.12
404.422	122.12
404.645	124.12
404.869	117.12
405.093	83.12
405.317	90.12
405.541	89.12
405.765	78.12
405.988	87.12
406.212	76.12
406.436	82.12
406.66	88.12
406.883	86.12
407.107	92.12
407.331	94.12
407.555	83.12
407.778	84.12
408.002	82.12
408.226	87.12
408.449	71.12
408.673	71.12
408.896	86.12
409.12	76.12
409.344	93.12
409.567	85.12
409.791	77.12
410.014	84.12
410.238	87.12
410.461	81.12
410.685	83.12
410.908	78.12
411.132	89.12
411.355	76.12
411.578	87.12
411.802	94.12
412.025	75.12
412.249	79.12
412.472	81.12
412.695	73.12
412.919	72.12
413.142	79.12
413.365	82.12
413.589	93.12
413.812	81.12
414.035	97.12
414.258	87.12
414.482	81.12
414.705	93.12
414.928	88.12
415.151	87.12
415.374	84.12
415.597	75.12
415.821	85.12
416.044	89.12
416.267	79.12
416.49	74.12
416.713	78.12
416.936	88.12
417.159	85.12
417.382	81.12
417.605	83.12
417.828	86.12
418.051	75.12
418.274	82.12
418.497	85.12
418.72	81.12
418.943	80.12
419.166	76.12
419.389	77.12
419.611	82.12
419.834	77.12
420.057	72.12
420.28	81.12
420.503	78.12
420.726	84.12
420.948	95.12
421.171	67.12
421.394	74.12
421.617	88.12
421.839	83.12
422.062	90.12
422.285	99.12
422.507	135.12
422.73	159.12
422.953	140.12
423.175	92.12
423.398	79.12
423.621	94.12
423.843	90.12
424.066	91.12
424.288	76.12
424.511	70.12
424.733	78.12
424.956	83.12
425.178	82.12
425.401	73.12
425.623	76.12
425.846	64.12
426.068	88.12
426.291	84.12
426.513	84.12
426.735	82.12
426.958	77.12
427.18	89.12
427.402	87.12
427.625	79.12
427.847	82.12
428.069	85.12
428.292	89.12
428.514	86.12
428.736	87.12
428.958	82.12
429.181	83.12
429.403	69.12
429.625	72.12
429.847	91.12
430.069	99.12
430.292	108.12
430.514	97.12
430.736	103.12
430.958	81.12
431.18	77.12
431.402	74.12
431.624	94.12
431.846	85.12
432.068	88.12
432.29	85.12
432.512	85.12
432.734	76.12
432.956	64.12
433.178	81.12
433.4	91.12
433.622	87.12
433.844	86.12
434.066	79.12
434.287	82.12
434.509	93.12
434.731	69.12
434.953	78.12
435.175	89.12
435.397	70.12
435.618	86.12
435.84	92.12
436.062	72.12
436.284	64.12
436.505	84.12
436.727	86.12
436.949	87.12
437.17	82.12
437.392	81.12
437.614	91.12
437.835	88.12
438.057	76.12
438.278	91.12
438.5	80.12
438.721	85.12
438.943	89.12
439.165	74.12
439.386	80.12
439.608	84.12
439.829	79.12
440.05	95.12
440.272	80.12
440.493	78.12
440.715	77.12
440.936	76.12
441.158	78.12
441.379	81.12
441.6	78.12
441.822	81.12
442.043	88.12
442.264	84.12
442.486	85.12
442.707	101.12
442.928	86.12
443.149	74.12
443.371	113.12
443.592	108.12
443.813	98.12
444.034	75.12
444.255	74.12
444.476	96.12
444.698	85.12
444.919	72.12
445.14	158.12
445.361	105.12
445.582	113.12
445.803	119.12
446.024	92.12
446.245	83.12
446.466	89.12
446.687	89.12
446.908	94.12
447.129	84.12
447.35	84.12
447.571	70.12
447.792	72.12
448.013	85.12
448.234	78.12
448.455	80.12
448.675	89.12
448.896	85.12
449.117	75.12
449.338	79.12
449.559	88.12
449.779	76.12
450	76.12
450.221	75.12
450.442	81.12
450.662	82.12
450.883	79.12
451.104	93.12
451.324	89.12
451.545	84.12
451.766	75.12
451.986	82.12
452.207	74.12
452.428	78.12
452.648	89.12
452.869	79.12
453.089	85.12
453.31	96.12
453.53	78.12
453.751	83.12
453.971	81.12
454.192	82.12
454.412	89.12
454.633	88.12
454.853	91.12
455.073	92.12
455.294	69.12
455.514	91.12
455.734	83.12
455.955	85.12
456.175	88.12
456.395	82.12
456.616	81.12
456.836	85.12
457.056	79.12
457.276	95.12
457.497	94.12
457.717	92.12
457.937	81.12
458.157	71.12
458.377	79.12
458.598	84.12
458.818	92.12
459.038	85.12
459.258	87.12
459.478	68.12
459.698	81.12
459.918	66.12
460.138	82.12
460.358	81.12
460.578	92.12
460.798	76.12
461.018	90.12
461.238	87.12
461.458	87.12
461.678	87.12
461.898	73.12
462.118	82.12
462.338	83.12
462.558	92.12
462.777	79.12
462.997	83.12
463.217	80.12
463.437	79.12
463.657	85.12
463.876	82.12
464.096	70.12
464.316	69.12
464.536	76.12
464.755	84.12
464.975	80.12
465.195	85.12
465.414	98.12
465.634	72.12
465.854	83.12
466.073	81.12
466.293	69.12
466.512	85.12
466.732	73.12
466.951	67.12
467.171	90.12
467.391	93.12
467.61	87.12
467.829	81.12
468.049	90.12
468.268	83.12
468.488	83.12
468.707	71.12
468.927	74.12
469.146	79.12
469.365	84.12
469.585	81.12
469.804	76.12
470.023	81.12
470.243	79.12
470.462	97.12
470.681	72.12
470.901	71.12
471.12	73.12
471.339	85.12
471.558	81.12
471.777	88.12
471.997	78.12
472.216	79.12
472.435	86.12
472.654	92.12
472.873	89.12
473.092	78.12
473.311	84.12
473.53	73.12
473.749	90.12
473.968	96.12
474.187	79.12
474.406	84.12
474.625	95.12
474.844	85.12
475.063	86.12
475.282	85.12
475.501	79.12
475.72	102.12
475.939	93.12
476.158	84.12
476.377	91.12
476.596	88.12
476.814	76.12
477.033	76.12
477.252	78.12
477.471	71.12
477.69	85.12
477.908	69.12
478.127	88.12
478.346	71.12
478.564	77.12
478.783	81.12
479.002	94.12
479.22	82.12
479.439	86.12
479.658	85.12
479.876	82.12
480.095	81.12
480.313	76.12
480.532	80.12
480.751	87.12
480.969	81.12
481.188	83.12
481.406	102.12
481.624	71.12
481.843	91.12
482.061	88.12
482.28	68.12
482.498	89.12
482.717	83.12
482.935	75.12
483.153	84.12
483.372	83.12
483.59	89.12
483.808	82.12
484.027	81.12
484.245	75.12
484.463	86.12
484.681	86.12
484.9	89.12
485.118	92.12
485.336	84.12
485.554	89.12
485.772	99.12
485.99	95.12
486.209	90.12
486.427	89.12
486.645	83.12
486.863	71.12
487.081	92.12
487.299	101.12
487.517	84.12
487.735	85.12
487.953	80.12
488.171	93.12
488.389	95.12
488.607	72.12
488.825	98.12
489.043	89.12
489.261	81.12
489.479	73.12
489.696	85.12
489.914	70.12
490.132	103.12
490.35	73.12
490.568	89.12
490.786	81.12
491.003	85.12
491.221	85.12
491.439	83.12
491.657	81.12
491.874	83.12
492.092	101.12
492.31	69.12
492.527	77.12
492.745	84.12
492.963	95.12
493.18	85.12
493.398	70.12
493.615	86.12
493.833	68.12
494.05	77.12
494.268	63.12
494.485	75.12
494.703	89.12
494.92	89.12
495.138	78.12
495.355	77.12
495.573	82.12
495.79	91.12
496.008	90.12
496.225	87.12
496.442	84.12
496.66	97.12
496.877	91.12
497.094	87.12
497.312	97.12
497.529	88.12
497.746	89.12
497.963	77.12
498.181	83.12
498.398	73.12
498.615	92.12
498.832	83.12
499.049	83.12
499.267	94.12
499.484	80.12
499.701	82.12
499.918	83.12
500.135	89.12
500.352	79.12
500.569	94.12
500.786	89.12
501.003	82.12
501.22	95.12
501.437	89.12
501.654	90.12
501.871	87.12
502.088	87.12
502.305	95.12
502.522	82.12
502.739	92.12
502.956	86.12
503.172	89.12
503.389	94.12
503.606	68.12
503.823	71.12
504.04	79.12
504.256	90.12
504.473	87.12
504.69	89.12
504.907	91.12
505.123	76.12
505.34	75.12
505.557	84.12
505.773	78.12
505.99	85.12
506.207	90.12
506.423	86.12
506.64	80.12
506.856	88.12
507.073	84.12
507.289	87.12
507.506	86.12
507.722	78.12
507.939	79.12
508.155	90.12
508.372	83.12
508.588	93.12
508.805	71.12
509.021	95.12
509.238	93.12
509.454	78.12
509.67	75.12
509.887	90.12
510.103	72.12
510.319	86.12
510.536	72.12
510.752	85.12
510.968	84.12
511.184	88.12
511.401	77.12
511.617	91.12
511.833	97.12
512.049	88.12
512.265	72.12
512.481	85.12
512.698	89.12
512.914	86.12
513.13	80.12
513.346	81.12
513.562	89.12
513.778	85.12
513.994	72.12
514.21	85.12
514.426	93.12
514.642	74.12
514.858	89.12
515.074	89.12
515.29	80.12
515.506	86.12
515.721	74.12
515.937	97.12
516.153	87.12
516.369	92.12
516.585	68.12
516.801	78.12
517.016	83.12
517.232	84.12
517.448	67.12
517.664	85.12
517.879	83.12
518.095	88.12
518.311	94.12
518.527	90.12
518.742	108.12
518.958	93.12
519.173	69.12
519.389	80.12
519.605	86.12
519.82	82.12
