Data from KBr_1_HRD10591_00049.txt Node
Date: Mon Jan 19 13:11:21 EST 2026
User: Yrep
Spectrometer: HR+D1059
Trigger mode: 0
Integration Time (sec): 1.000000E-1
Scans to average: 1
Electric dark correction enabled: true
Nonlinearity correction enabled: false
Boxcar width: 0
XAxis mode: Wavelengths
Number of Pixels in Spectrum: 2048
>>>>>Begin Spectral Data<<<<<
223.165	-5.25
223.4	-5.25
223.635	-5.25
223.869	-19.25
224.104	-15.25
224.338	-14.25
224.573	-26.25
224.808	-12.25
225.042	-10.25
225.277	10.75
225.511	7.75
225.746	0.75
225.98	-5.25
226.215	9.75
226.449	17.75
226.683	14.75
226.918	15.75
227.152	30.75
227.387	31.75
227.621	44.75
227.856	53.75
228.09	52.75
228.324	34.75
228.559	64.75
228.793	65.75
229.027	58.75
229.262	55.75
229.496	64.75
229.73	72.75
229.964	74.75
230.199	71.75
230.433	64.75
230.667	82.75
230.901	67.75
231.136	78.75
231.37	70.75
231.604	94.75
231.838	88.75
232.072	77.75
232.306	80.75
232.541	77.75
232.775	91.75
233.009	82.75
233.243	93.75
233.477	77.75
233.711	78.75
233.945	84.75
234.179	65.75
234.413	94.75
234.647	86.75
234.881	89.75
235.115	74.75
235.349	81.75
235.583	86.75
235.817	81.75
236.051	69.75
236.285	82.75
236.519	81.75
236.753	79.75
236.987	87.75
237.221	63.75
237.455	78.75
237.689	81.75
237.922	72.75
238.156	55.75
238.39	74.75
238.624	70.75
238.858	71.75
239.091	54.75
239.325	75.75
239.559	65.75
239.793	75.75
240.027	76.75
240.26	63.75
240.494	80.75
240.728	71.75
240.961	84.75
241.195	73.75
241.429	63.75
241.662	71.75
241.896	80.75
242.13	74.75
242.363	82.75
242.597	94.75
242.83	68.75
243.064	74.75
243.298	81.75
243.531	65.75
243.765	48.75
243.998	73.75
244.232	71.75
244.465	94.75
244.699	86.75
244.932	68.75
245.166	59.75
245.399	87.75
245.633	96.75
245.866	67.75
246.099	80.75
246.333	74.75
246.566	83.75
246.8	76.75
247.033	70.75
247.266	80.75
247.5	81.75
247.733	73.75
247.966	66.75
248.2	70.75
248.433	69.75
248.666	77.75
248.899	81.75
249.133	74.75
249.366	76.75
249.599	83.75
249.832	79.75
250.066	93.75
250.299	88.75
250.532	73.75
250.765	74.75
250.998	75.75
251.231	80.75
251.465	92.75
251.698	82.75
251.931	74.75
252.164	72.75
252.397	69.75
252.63	76.75
252.863	73.75
253.096	74.75
253.329	69.75
253.562	76.75
253.795	78.75
254.028	79.75
254.261	89.75
254.494	83.75
254.727	81.75
254.96	87.75
255.193	86.75
255.426	92.75
255.659	77.75
255.892	88.75
256.124	81.75
256.357	64.75
256.59	75.75
256.823	78.75
257.056	80.75
257.289	92.75
257.521	90.75
257.754	75.75
257.987	81.75
258.22	84.75
258.452	67.75
258.685	78.75
258.918	77.75
259.151	66.75
259.383	92.75
259.616	91.75
259.849	84.75
260.081	84.75
260.314	88.75
260.547	52.75
260.779	73.75
261.012	68.75
261.244	81.75
261.477	88.75
261.71	72.75
261.942	80.75
262.175	72.75
262.407	91.75
262.64	81.75
262.872	73.75
263.105	93.75
263.337	78.75
263.57	84.75
263.802	89.75
264.035	83.75
264.267	84.75
264.499	84.75
264.732	71.75
264.964	60.75
265.197	81.75
265.429	89.75
265.661	90.75
265.894	82.75
266.126	96.75
266.358	74.75
266.591	72.75
266.823	89.75
267.055	88.75
267.287	87.75
267.52	69.75
267.752	96.75
267.984	72.75
268.216	72.75
268.448	89.75
268.681	85.75
268.913	85.75
269.145	67.75
269.377	81.75
269.609	90.75
269.841	82.75
270.073	86.75
270.306	66.75
270.538	88.75
270.77	79.75
271.002	76.75
271.234	93.75
271.466	77.75
271.698	82.75
271.93	86.75
272.162	81.75
272.394	78.75
272.626	84.75
272.858	85.75
273.09	93.75
273.322	78.75
273.553	72.75
273.785	89.75
274.017	78.75
274.249	82.75
274.481	81.75
274.713	77.75
274.945	69.75
275.176	78.75
275.408	100.75
275.64	70.75
275.872	72.75
276.104	79.75
276.335	76.75
276.567	78.75
276.799	89.75
277.031	86.75
277.262	76.75
277.494	83.75
277.726	86.75
277.957	91.75
278.189	83.75
278.421	103.75
278.652	78.75
278.884	81.75
279.115	81.75
279.347	84.75
279.579	81.75
279.81	74.75
280.042	79.75
280.273	84.75
280.505	93.75
280.736	87.75
280.968	76.75
281.199	80.75
281.431	66.75
281.662	81.75
281.894	83.75
282.125	78.75
282.356	81.75
282.588	80.75
282.819	93.75
283.051	108.75
283.282	77.75
283.513	81.75
283.745	100.75
283.976	88.75
284.207	75.75
284.439	82.75
284.67	79.75
284.901	84.75
285.132	74.75
285.364	80.75
285.595	85.75
285.826	86.75
286.057	76.75
286.288	84.75
286.52	94.75
286.751	85.75
286.982	83.75
287.213	85.75
287.444	81.75
287.675	86.75
287.906	90.75
288.138	80.75
288.369	81.75
288.6	91.75
288.831	78.75
289.062	79.75
289.293	75.75
289.524	87.75
289.755	76.75
289.986	70.75
290.217	84.75
290.448	96.75
290.679	79.75
290.91	73.75
291.141	81.75
291.371	85.75
291.602	96.75
291.833	90.75
292.064	76.75
292.295	72.75
292.526	97.75
292.757	76.75
292.987	66.75
293.218	88.75
293.449	89.75
293.68	89.75
293.91	85.75
294.141	82.75
294.372	66.75
294.603	84.75
294.833	79.75
295.064	84.75
295.295	76.75
295.525	85.75
295.756	78.75
295.987	77.75
296.217	81.75
296.448	89.75
296.679	75.75
296.909	86.75
297.14	76.75
297.37	81.75
297.601	80.75
297.831	76.75
298.062	96.75
298.292	80.75
298.523	84.75
298.753	90.75
298.984	82.75
299.214	90.75
299.445	83.75
299.675	87.75
299.905	91.75
300.136	71.75
300.366	80.75
300.597	74.75
300.827	79.75
301.057	82.75
301.288	84.75
301.518	73.75
301.748	74.75
301.979	91.75
302.209	76.75
302.439	87.75
302.669	61.75
302.9	80.75
303.13	92.75
303.36	98.75
303.59	88.75
303.82	82.75
304.051	84.75
304.281	93.75
304.511	81.75
304.741	76.75
304.971	77.75
305.201	67.75
305.431	79.75
305.661	87.75
305.891	78.75
306.121	74.75
306.352	84.75
306.582	76.75
306.812	86.75
307.042	63.75
307.272	78.75
307.502	93.75
307.731	87.75
307.961	82.75
308.191	81.75
308.421	86.75
308.651	91.75
308.881	88.75
309.111	84.75
309.341	92.75
309.571	82.75
309.8	94.75
310.03	82.75
310.26	57.75
310.49	74.75
310.72	92.75
310.949	93.75
311.179	89.75
311.409	71.75
311.639	76.75
311.868	79.75
312.098	90.75
312.328	104.75
312.557	90.75
312.787	98.75
313.017	72.75
313.246	80.75
313.476	93.75
313.706	105.75
313.935	81.75
314.165	88.75
314.394	97.75
314.624	71.75
314.853	82.75
315.083	107.75
315.312	87.75
315.542	82.75
315.771	82.75
316.001	82.75
316.23	92.75
316.46	79.75
316.689	86.75
316.919	88.75
317.148	84.75
317.377	84.75
317.607	79.75
317.836	95.75
318.065	93.75
318.295	96.75
318.524	93.75
318.753	85.75
318.983	85.75
319.212	90.75
319.441	77.75
319.67	96.75
319.9	80.75
320.129	84.75
320.358	85.75
320.587	86.75
320.816	72.75
321.046	85.75
321.275	87.75
321.504	82.75
321.733	84.75
321.962	69.75
322.191	87.75
322.42	88.75
322.649	90.75
322.878	89.75
323.108	90.75
323.337	80.75
323.566	81.75
323.795	83.75
324.024	97.75
324.253	85.75
324.482	82.75
324.71	79.75
324.939	87.75
325.168	93.75
325.397	70.75
325.626	94.75
325.855	86.75
326.084	93.75
326.313	71.75
326.542	84.75
326.77	84.75
326.999	86.75
327.228	80.75
327.457	76.75
327.686	72.75
327.914	87.75
328.143	74.75
328.372	85.75
328.6	78.75
328.829	77.75
329.058	78.75
329.287	88.75
329.515	97.75
329.744	87.75
329.972	85.75
330.201	81.75
330.43	85.75
330.658	80.75
330.887	65.75
331.115	85.75
331.344	82.75
331.572	92.75
331.801	81.75
332.03	81.75
332.258	92.75
332.486	95.75
332.715	94.75
332.943	77.75
333.172	86.75
333.4	89.75
333.629	91.75
333.857	89.75
334.085	91.75
334.314	73.75
334.542	60.75
334.771	86.75
334.999	81.75
335.227	66.75
335.455	71.75
335.684	87.75
335.912	103.75
336.14	93.75
336.369	72.75
336.597	72.75
336.825	87.75
337.053	84.75
337.281	87.75
337.51	87.75
337.738	69.75
337.966	74.75
338.194	91.75
338.422	90.75
338.65	81.75
338.878	86.75
339.106	77.75
339.334	96.75
339.562	81.75
339.79	95.75
340.018	82.75
340.246	77.75
340.474	82.75
340.702	79.75
340.93	75.75
341.158	74.75
341.386	84.75
341.614	89.75
341.842	72.75
342.07	70.75
342.298	82.75
342.526	90.75
342.754	81.75
342.981	84.75
343.209	96.75
343.437	89.75
343.665	92.75
343.893	90.75
344.12	84.75
344.348	84.75
344.576	88.75
344.804	85.75
345.031	102.75
345.259	93.75
345.487	84.75
345.714	95.75
345.942	93.75
346.17	80.75
346.397	91.75
346.625	84.75
346.853	90.75
347.08	85.75
347.308	91.75
347.535	70.75
347.763	83.75
347.99	76.75
348.218	82.75
348.445	75.75
348.673	72.75
348.9	86.75
349.128	77.75
349.355	84.75
349.583	83.75
349.81	103.75
350.037	81.75
350.265	94.75
350.492	93.75
350.72	93.75
350.947	94.75
351.174	86.75
351.402	70.75
351.629	89.75
351.856	79.75
352.083	91.75
352.311	89.75
352.538	86.75
352.765	89.75
352.992	90.75
353.22	87.75
353.447	86.75
353.674	79.75
353.901	82.75
354.128	77.75
354.355	85.75
354.583	72.75
354.81	91.75
355.037	86.75
355.264	84.75
355.491	87.75
355.718	63.75
355.945	93.75
356.172	83.75
356.399	81.75
356.626	88.75
356.853	83.75
357.08	78.75
357.307	73.75
357.534	76.75
357.761	95.75
357.988	79.75
358.215	93.75
358.441	82.75
358.668	80.75
358.895	81.75
359.122	72.75
359.349	83.75
359.576	74.75
359.802	82.75
360.029	83.75
360.256	81.75
360.483	69.75
360.709	79.75
360.936	85.75
361.163	94.75
361.39	81.75
361.616	84.75
361.843	95.75
362.07	87.75
362.296	89.75
362.523	84.75
362.749	76.75
362.976	81.75
363.203	97.75
363.429	79.75
363.656	87.75
363.882	73.75
364.109	89.75
364.335	88.75
364.562	80.75
364.788	82.75
365.015	82.75
365.241	73.75
365.468	79.75
365.694	81.75
365.92	76.75
366.147	82.75
366.373	67.75
366.599	93.75
366.826	86.75
367.052	78.75
367.278	88.75
367.505	73.75
367.731	91.75
367.957	81.75
368.184	83.75
368.41	73.75
368.636	73.75
368.862	94.75
369.089	92.75
369.315	78.75
369.541	98.75
369.767	78.75
369.993	80.75
370.219	93.75
370.445	86.75
370.672	81.75
370.898	82.75
371.124	88.75
371.35	97.75
371.576	90.75
371.802	78.75
372.028	74.75
372.254	65.75
372.48	77.75
372.706	75.75
372.932	78.75
373.158	85.75
373.384	85.75
373.61	95.75
373.835	74.75
374.061	84.75
374.287	78.75
374.513	75.75
374.739	79.75
374.965	75.75
375.191	83.75
375.416	77.75
375.642	88.75
375.868	74.75
376.094	82.75
376.319	71.75
376.545	86.75
376.771	86.75
376.997	87.75
377.222	79.75
377.448	87.75
377.674	95.75
377.899	90.75
378.125	75.75
378.35	78.75
378.576	82.75
378.802	84.75
379.027	88.75
379.253	81.75
379.478	88.75
379.704	86.75
379.929	86.75
380.155	84.75
380.38	69.75
380.606	76.75
380.831	81.75
381.057	102.75
381.282	77.75
381.507	87.75
381.733	88.75
381.958	83.75
382.184	76.75
382.409	80.75
382.634	84.75
382.86	78.75
383.085	88.75
383.31	78.75
383.535	74.75
383.761	87.75
383.986	86.75
384.211	66.75
384.436	89.75
384.662	80.75
384.887	91.75
385.112	77.75
385.337	69.75
385.562	84.75
385.787	86.75
386.013	90.75
386.238	79.75
386.463	89.75
386.688	104.75
386.913	87.75
387.138	79.75
387.363	81.75
387.588	90.75
387.813	84.75
388.038	65.75
388.263	85.75
388.488	94.75
388.713	76.75
388.938	88.75
389.163	86.75
389.387	81.75
389.612	79.75
389.837	80.75
390.062	73.75
390.287	84.75
390.512	80.75
390.736	76.75
390.961	80.75
391.186	74.75
391.411	76.75
391.636	71.75
391.86	82.75
392.085	80.75
392.31	70.75
392.534	73.75
392.759	77.75
392.984	72.75
393.208	80.75
393.433	74.75
393.658	72.75
393.882	83.75
394.107	77.75
394.331	86.75
394.556	82.75
394.78	76.75
395.005	95.75
395.229	84.75
395.454	64.75
395.678	70.75
395.903	74.75
396.127	82.75
396.352	85.75
396.576	76.75
396.801	72.75
397.025	87.75
397.249	90.75
397.474	80.75
397.698	84.75
397.922	76.75
398.147	85.75
398.371	85.75
398.595	85.75
398.82	81.75
399.044	86.75
399.268	88.75
399.492	70.75
399.717	70.75
399.941	77.75
400.165	80.75
400.389	76.75
400.613	78.75
400.837	88.75
401.062	94.75
401.286	73.75
401.51	86.75
401.734	83.75
401.958	78.75
402.182	78.75
402.406	79.75
402.63	73.75
402.854	72.75
403.078	91.75
403.302	80.75
403.526	77.75
403.75	87.75
403.974	91.75
404.198	86.75
404.422	81.75
404.645	88.75
404.869	91.75
405.093	88.75
405.317	70.75
405.541	89.75
405.765	83.75
405.988	88.75
406.212	94.75
406.436	75.75
406.66	81.75
406.883	76.75
407.107	68.75
407.331	90.75
407.555	90.75
407.778	84.75
408.002	80.75
408.226	78.75
408.449	79.75
408.673	81.75
408.896	70.75
409.12	86.75
409.344	80.75
409.567	81.75
409.791	72.75
410.014	89.75
410.238	86.75
410.461	92.75
410.685	85.75
410.908	80.75
411.132	83.75
411.355	72.75
411.578	90.75
411.802	87.75
412.025	64.75
412.249	69.75
412.472	90.75
412.695	76.75
412.919	85.75
413.142	78.75
413.365	76.75
413.589	89.75
413.812	79.75
414.035	84.75
414.258	74.75
414.482	78.75
414.705	74.75
414.928	82.75
415.151	84.75
415.374	80.75
415.597	86.75
415.821	85.75
416.044	90.75
416.267	81.75
416.49	72.75
416.713	85.75
416.936	83.75
417.159	84.75
417.382	67.75
417.605	69.75
417.828	87.75
418.051	85.75
418.274	83.75
418.497	86.75
418.72	82.75
418.943	60.75
419.166	94.75
419.389	80.75
419.611	74.75
419.834	92.75
420.057	86.75
420.28	89.75
420.503	74.75
420.726	77.75
420.948	76.75
421.171	84.75
421.394	77.75
421.617	74.75
421.839	70.75
422.062	76.75
422.285	77.75
422.507	80.75
422.73	72.75
422.953	60.75
423.175	68.75
423.398	79.75
423.621	77.75
423.843	78.75
424.066	103.75
424.288	93.75
424.511	89.75
424.733	86.75
424.956	78.75
425.178	66.75
425.401	89.75
425.623	82.75
425.846	86.75
426.068	90.75
426.291	80.75
426.513	82.75
426.735	99.75
426.958	85.75
427.18	83.75
427.402	75.75
427.625	99.75
427.847	83.75
428.069	102.75
428.292	77.75
428.514	80.75
428.736	91.75
428.958	86.75
429.181	90.75
429.403	76.75
429.625	90.75
429.847	82.75
430.069	100.75
430.292	84.75
430.514	73.75
430.736	85.75
430.958	69.75
431.18	72.75
431.402	84.75
431.624	71.75
431.846	75.75
432.068	73.75
432.29	97.75
432.512	85.75
432.734	84.75
432.956	76.75
433.178	81.75
433.4	76.75
433.622	82.75
433.844	61.75
434.066	87.75
434.287	83.75
434.509	85.75
434.731	79.75
434.953	76.75
435.175	81.75
435.397	80.75
435.618	84.75
435.84	75.75
436.062	72.75
436.284	74.75
436.505	97.75
436.727	88.75
436.949	75.75
437.17	76.75
437.392	74.75
437.614	68.75
437.835	79.75
438.057	90.75
438.278	84.75
438.5	78.75
438.721	81.75
438.943	75.75
439.165	86.75
439.386	81.75
439.608	72.75
439.829	92.75
440.05	93.75
440.272	74.75
440.493	72.75
440.715	86.75
440.936	86.75
441.158	86.75
441.379	94.75
441.6	77.75
441.822	92.75
442.043	84.75
442.264	81.75
442.486	74.75
442.707	78.75
442.928	85.75
443.149	70.75
443.371	78.75
443.592	84.75
443.813	67.75
444.034	82.75
444.255	78.75
444.476	79.75
444.698	80.75
444.919	94.75
445.14	167.75
445.361	124.75
445.582	90.75
445.803	88.75
446.024	83.75
446.245	81.75
446.466	87.75
446.687	73.75
446.908	62.75
447.129	75.75
447.35	80.75
447.571	78.75
447.792	67.75
448.013	80.75
448.234	65.75
448.455	73.75
448.675	71.75
448.896	88.75
449.117	90.75
449.338	77.75
449.559	86.75
449.779	88.75
450	81.75
450.221	95.75
450.442	82.75
450.662	88.75
450.883	59.75
451.104	97.75
451.324	86.75
451.545	75.75
451.766	80.75
451.986	88.75
452.207	66.75
452.428	75.75
452.648	88.75
452.869	92.75
453.089	102.75
453.31	78.75
453.53	77.75
453.751	82.75
453.971	80.75
454.192	78.75
454.412	72.75
454.633	79.75
454.853	69.75
455.073	81.75
455.294	88.75
455.514	88.75
455.734	79.75
455.955	78.75
456.175	76.75
456.395	77.75
456.616	81.75
456.836	84.75
457.056	91.75
457.276	78.75
457.497	79.75
457.717	77.75
457.937	88.75
458.157	87.75
458.377	81.75
458.598	88.75
458.818	78.75
459.038	64.75
459.258	86.75
459.478	84.75
459.698	69.75
459.918	76.75
460.138	76.75
460.358	87.75
460.578	92.75
460.798	88.75
461.018	84.75
461.238	71.75
461.458	82.75
461.678	89.75
461.898	106.75
462.118	87.75
462.338	90.75
462.558	78.75
462.777	74.75
462.997	74.75
463.217	76.75
463.437	87.75
463.657	86.75
463.876	89.75
464.096	80.75
464.316	77.75
464.536	69.75
464.755	94.75
464.975	75.75
465.195	82.75
465.414	87.75
465.634	99.75
465.854	76.75
466.073	87.75
466.293	82.75
466.512	80.75
466.732	77.75
466.951	89.75
467.171	80.75
467.391	69.75
467.61	77.75
467.829	64.75
468.049	75.75
468.268	82.75
468.488	83.75
468.707	78.75
468.927	92.75
469.146	93.75
469.365	90.75
469.585	86.75
469.804	83.75
470.023	78.75
470.243	80.75
470.462	81.75
470.681	85.75
470.901	85.75
471.12	74.75
471.339	81.75
471.558	78.75
471.777	72.75
471.997	54.75
472.216	88.75
472.435	80.75
472.654	84.75
472.873	87.75
473.092	85.75
473.311	77.75
473.53	86.75
473.749	86.75
473.968	85.75
474.187	70.75
474.406	80.75
474.625	95.75
474.844	84.75
475.063	88.75
475.282	98.75
475.501	78.75
475.72	72.75
475.939	71.75
476.158	82.75
476.377	86.75
476.596	80.75
476.814	85.75
477.033	84.75
477.252	86.75
477.471	96.75
477.69	89.75
477.908	80.75
478.127	83.75
478.346	73.75
478.564	88.75
478.783	74.75
479.002	86.75
479.22	84.75
479.439	86.75
479.658	82.75
479.876	75.75
480.095	80.75
480.313	79.75
480.532	84.75
480.751	87.75
480.969	95.75
481.188	85.75
481.406	96.75
481.624	81.75
481.843	83.75
482.061	80.75
482.28	96.75
482.498	76.75
482.717	71.75
482.935	76.75
483.153	85.75
483.372	93.75
483.59	78.75
483.808	80.75
484.027	88.75
484.245	87.75
484.463	68.75
484.681	88.75
484.9	85.75
485.118	72.75
485.336	76.75
485.554	84.75
485.772	88.75
485.99	91.75
486.209	86.75
486.427	71.75
486.645	78.75
486.863	85.75
487.081	91.75
487.299	82.75
487.517	100.75
487.735	78.75
487.953	97.75
488.171	79.75
488.389	83.75
488.607	82.75
488.825	99.75
489.043	78.75
489.261	87.75
489.479	86.75
489.696	85.75
489.914	87.75
490.132	77.75
490.35	83.75
490.568	77.75
490.786	73.75
491.003	90.75
491.221	81.75
491.439	80.75
491.657	81.75
491.874	85.75
492.092	87.75
492.31	91.75
492.527	92.75
492.745	89.75
492.963	86.75
493.18	81.75
493.398	86.75
493.615	68.75
493.833	74.75
494.05	85.75
494.268	77.75
494.485	80.75
494.703	83.75
494.92	96.75
495.138	72.75
495.355	95.75
495.573	80.75
495.79	82.75
496.008	85.75
496.225	72.75
496.442	80.75
496.66	93.75
496.877	76.75
497.094	96.75
497.312	89.75
497.529	86.75
497.746	76.75
497.963	80.75
498.181	94.75
498.398	80.75
498.615	82.75
498.832	65.75
499.049	83.75
499.267	84.75
499.484	85.75
499.701	93.75
499.918	98.75
500.135	83.75
500.352	86.75
500.569	82.75
500.786	88.75
501.003	105.75
501.22	96.75
501.437	84.75
501.654	89.75
501.871	68.75
502.088	91.75
502.305	83.75
502.522	90.75
502.739	90.75
502.956	80.75
503.172	89.75
503.389	82.75
503.606	88.75
503.823	85.75
504.04	73.75
504.256	84.75
504.473	83.75
504.69	80.75
504.907	83.75
505.123	88.75
505.34	85.75
505.557	81.75
505.773	71.75
505.99	77.75
506.207	71.75
506.423	83.75
506.64	73.75
506.856	75.75
507.073	90.75
507.289	88.75
507.506	93.75
507.722	88.75
507.939	80.75
508.155	77.75
508.372	90.75
508.588	81.75
508.805	69.75
509.021	100.75
509.238	82.75
509.454	78.75
509.67	80.75
509.887	83.75
510.103	84.75
510.319	87.75
510.536	78.75
510.752	85.75
510.968	85.75
511.184	101.75
511.401	73.75
511.617	91.75
511.833	80.75
512.049	87.75
512.265	89.75
512.481	91.75
512.698	92.75
512.914	89.75
513.13	79.75
513.346	92.75
513.562	88.75
513.778	74.75
513.994	83.75
514.21	68.75
514.426	73.75
514.642	85.75
514.858	77.75
515.074	88.75
515.29	94.75
515.506	87.75
515.721	84.75
515.937	85.75
516.153	78.75
516.369	90.75
516.585	103.75
516.801	97.75
517.016	74.75
517.232	84.75
517.448	97.75
517.664	87.75
517.879	79.75
518.095	69.75
518.311	100.75
518.527	92.75
518.742	81.75
518.958	73.75
519.173	90.75
519.389	97.75
519.605	86.75
519.82	81.75
520.036	86.75
