Data from KBr_1_HRD10591_00032.txt Node
Date: Mon Jan 19 13:11:19 EST 2026
User: Yrep
Spectrometer: HR+D1059
Trigger mode: 0
Integration Time (sec): 1.000000E-1
Scans to average: 1
Electric dark correction enabled: true
Nonlinearity correction enabled: false
Boxcar width: 0
XAxis mode: Wavelengths
Number of Pixels in Spectrum: 2048
>>>>>Begin Spectral Data<<<<<
223.165	-29.75
223.4	-29.75
223.635	-29.75
223.869	-18.75
224.104	-17.75
224.338	-18.75
224.573	-8.75
224.808	-16.75
225.042	-1.75
225.277	-5.75
225.511	-14.75
225.746	5.25
225.98	11.25
226.215	14.25
226.449	10.25
226.683	33.25
226.918	25.25
227.152	33.25
227.387	31.25
227.621	27.25
227.856	42.25
228.09	29.25
228.324	47.25
228.559	55.25
228.793	65.25
229.027	75.25
229.262	69.25
229.496	77.25
229.73	82.25
229.964	77.25
230.199	64.25
230.433	66.25
230.667	67.25
230.901	92.25
231.136	85.25
231.37	79.25
231.604	85.25
231.838	80.25
232.072	84.25
232.306	66.25
232.541	81.25
232.775	61.25
233.009	75.25
233.243	80.25
233.477	89.25
233.711	79.25
233.945	75.25
234.179	73.25
234.413	73.25
234.647	86.25
234.881	78.25
235.115	73.25
235.349	71.25
235.583	89.25
235.817	79.25
236.051	79.25
236.285	76.25
236.519	64.25
236.753	71.25
236.987	91.25
237.221	78.25
237.455	83.25
237.689	73.25
237.922	77.25
238.156	80.25
238.39	83.25
238.624	79.25
238.858	82.25
239.091	92.25
239.325	79.25
239.559	71.25
239.793	64.25
240.027	75.25
240.26	81.25
240.494	89.25
240.728	73.25
240.961	64.25
241.195	69.25
241.429	81.25
241.662	85.25
241.896	75.25
242.13	85.25
242.363	68.25
242.597	79.25
242.83	86.25
243.064	78.25
243.298	88.25
243.531	73.25
243.765	58.25
243.998	85.25
244.232	83.25
244.465	77.25
244.699	75.25
244.932	68.25
245.166	77.25
245.399	64.25
245.633	84.25
245.866	88.25
246.099	83.25
246.333	86.25
246.566	76.25
246.8	69.25
247.033	71.25
247.266	62.25
247.5	79.25
247.733	82.25
247.966	92.25
248.2	74.25
248.433	87.25
248.666	84.25
248.899	76.25
249.133	83.25
249.366	80.25
249.599	74.25
249.832	68.25
250.066	80.25
250.299	80.25
250.532	81.25
250.765	83.25
250.998	94.25
251.231	85.25
251.465	83.25
251.698	85.25
251.931	72.25
252.164	85.25
252.397	73.25
252.63	86.25
252.863	73.25
253.096	74.25
253.329	79.25
253.562	75.25
253.795	94.25
254.028	81.25
254.261	73.25
254.494	71.25
254.727	71.25
254.96	81.25
255.193	74.25
255.426	80.25
255.659	101.25
255.892	89.25
256.124	76.25
256.357	82.25
256.59	82.25
256.823	76.25
257.056	81.25
257.289	84.25
257.521	88.25
257.754	89.25
257.987	79.25
258.22	85.25
258.452	82.25
258.685	76.25
258.918	90.25
259.151	83.25
259.383	85.25
259.616	82.25
259.849	93.25
260.081	79.25
260.314	85.25
260.547	86.25
260.779	86.25
261.012	76.25
261.244	79.25
261.477	78.25
261.71	81.25
261.942	91.25
262.175	74.25
262.407	81.25
262.64	73.25
262.872	82.25
263.105	81.25
263.337	77.25
263.57	87.25
263.802	79.25
264.035	73.25
264.267	81.25
264.499	91.25
264.732	93.25
264.964	70.25
265.197	81.25
265.429	92.25
265.661	90.25
265.894	78.25
266.126	96.25
266.358	99.25
266.591	82.25
266.823	84.25
267.055	93.25
267.287	89.25
267.52	84.25
267.752	87.25
267.984	79.25
268.216	77.25
268.448	88.25
268.681	84.25
268.913	89.25
269.145	89.25
269.377	83.25
269.609	75.25
269.841	95.25
270.073	85.25
270.306	79.25
270.538	79.25
270.77	83.25
271.002	78.25
271.234	91.25
271.466	94.25
271.698	87.25
271.93	70.25
272.162	88.25
272.394	91.25
272.626	80.25
272.858	68.25
273.09	99.25
273.322	87.25
273.553	88.25
273.785	83.25
274.017	77.25
274.249	89.25
274.481	79.25
274.713	75.25
274.945	77.25
275.176	84.25
275.408	88.25
275.64	73.25
275.872	80.25
276.104	91.25
276.335	82.25
276.567	83.25
276.799	87.25
277.031	91.25
277.262	82.25
277.494	80.25
277.726	79.25
277.957	86.25
278.189	85.25
278.421	96.25
278.652	73.25
278.884	85.25
279.115	76.25
279.347	82.25
279.579	97.25
279.81	100.25
280.042	89.25
280.273	71.25
280.505	77.25
280.736	82.25
280.968	102.25
281.199	96.25
281.431	99.25
281.662	78.25
281.894	82.25
282.125	91.25
282.356	95.25
282.588	79.25
282.819	87.25
283.051	96.25
283.282	67.25
283.513	81.25
283.745	83.25
283.976	96.25
284.207	71.25
284.439	77.25
284.67	82.25
284.901	94.25
285.132	85.25
285.364	87.25
285.595	94.25
285.826	93.25
286.057	83.25
286.288	86.25
286.52	85.25
286.751	94.25
286.982	77.25
287.213	92.25
287.444	89.25
287.675	73.25
287.906	95.25
288.138	75.25
288.369	92.25
288.6	93.25
288.831	78.25
289.062	76.25
289.293	80.25
289.524	88.25
289.755	90.25
289.986	94.25
290.217	81.25
290.448	74.25
290.679	85.25
290.91	95.25
291.141	77.25
291.371	99.25
291.602	91.25
291.833	75.25
292.064	85.25
292.295	89.25
292.526	88.25
292.757	98.25
292.987	82.25
293.218	86.25
293.449	82.25
293.68	74.25
293.91	97.25
294.141	90.25
294.372	82.25
294.603	78.25
294.833	76.25
295.064	64.25
295.295	88.25
295.525	95.25
295.756	83.25
295.987	91.25
296.217	73.25
296.448	89.25
296.679	93.25
296.909	77.25
297.14	77.25
297.37	72.25
297.601	82.25
297.831	90.25
298.062	83.25
298.292	81.25
298.523	89.25
298.753	85.25
298.984	93.25
299.214	97.25
299.445	87.25
299.675	95.25
299.905	103.25
300.136	85.25
300.366	87.25
300.597	89.25
300.827	89.25
301.057	94.25
301.288	75.25
301.518	82.25
301.748	83.25
301.979	90.25
302.209	94.25
302.439	87.25
302.669	91.25
302.9	106.25
303.13	95.25
303.36	94.25
303.59	94.25
303.82	92.25
304.051	85.25
304.281	89.25
304.511	96.25
304.741	86.25
304.971	73.25
305.201	96.25
305.431	85.25
305.661	90.25
305.891	104.25
306.121	80.25
306.352	84.25
306.582	83.25
306.812	81.25
307.042	91.25
307.272	95.25
307.502	88.25
307.731	92.25
307.961	84.25
308.191	88.25
308.421	76.25
308.651	73.25
308.881	96.25
309.111	93.25
309.341	89.25
309.571	84.25
309.8	93.25
310.03	90.25
310.26	102.25
310.49	89.25
310.72	92.25
310.949	102.25
311.179	79.25
311.409	95.25
311.639	85.25
311.868	94.25
312.098	92.25
312.328	102.25
312.557	94.25
312.787	93.25
313.017	99.25
313.246	87.25
313.476	83.25
313.706	84.25
313.935	81.25
314.165	87.25
314.394	82.25
314.624	76.25
314.853	79.25
315.083	101.25
315.312	83.25
315.542	88.25
315.771	89.25
316.001	89.25
316.23	102.25
316.46	85.25
316.689	81.25
316.919	93.25
317.148	94.25
317.377	84.25
317.607	96.25
317.836	89.25
318.065	83.25
318.295	78.25
318.524	84.25
318.753	99.25
318.983	94.25
319.212	97.25
319.441	74.25
319.67	96.25
319.9	80.25
320.129	94.25
320.358	97.25
320.587	93.25
320.816	75.25
321.046	86.25
321.275	94.25
321.504	80.25
321.733	75.25
321.962	85.25
322.191	93.25
322.42	92.25
322.649	78.25
322.878	93.25
323.108	96.25
323.337	87.25
323.566	89.25
323.795	87.25
324.024	68.25
324.253	79.25
324.482	71.25
324.71	77.25
324.939	86.25
325.168	81.25
325.397	80.25
325.626	81.25
325.855	83.25
326.084	84.25
326.313	89.25
326.542	75.25
326.77	85.25
326.999	73.25
327.228	95.25
327.457	84.25
327.686	81.25
327.914	82.25
328.143	93.25
328.372	87.25
328.6	93.25
328.829	95.25
329.058	91.25
329.287	84.25
329.515	95.25
329.744	92.25
329.972	98.25
330.201	77.25
330.43	88.25
330.658	92.25
330.887	71.25
331.115	82.25
331.344	93.25
331.572	79.25
331.801	70.25
332.03	87.25
332.258	86.25
332.486	83.25
332.715	89.25
332.943	85.25
333.172	85.25
333.4	88.25
333.629	82.25
333.857	79.25
334.085	96.25
334.314	64.25
334.542	87.25
334.771	88.25
334.999	89.25
335.227	107.25
335.455	84.25
335.684	90.25
335.912	84.25
336.14	89.25
336.369	94.25
336.597	87.25
336.825	99.25
337.053	75.25
337.281	74.25
337.51	88.25
337.738	89.25
337.966	80.25
338.194	89.25
338.422	85.25
338.65	88.25
338.878	88.25
339.106	77.25
339.334	93.25
339.562	85.25
339.79	83.25
340.018	87.25
340.246	93.25
340.474	87.25
340.702	85.25
340.93	84.25
341.158	93.25
341.386	86.25
341.614	97.25
341.842	81.25
342.07	70.25
342.298	86.25
342.526	87.25
342.754	104.25
342.981	82.25
343.209	93.25
343.437	101.25
343.665	90.25
343.893	90.25
344.12	89.25
344.348	89.25
344.576	85.25
344.804	89.25
345.031	85.25
345.259	81.25
345.487	98.25
345.714	85.25
345.942	83.25
346.17	101.25
346.397	80.25
346.625	73.25
346.853	79.25
347.08	76.25
347.308	77.25
347.535	97.25
347.763	93.25
347.99	79.25
348.218	75.25
348.445	97.25
348.673	74.25
348.9	89.25
349.128	87.25
349.355	80.25
349.583	83.25
349.81	97.25
350.037	85.25
350.265	90.25
350.492	85.25
350.72	71.25
350.947	91.25
351.174	85.25
351.402	82.25
351.629	77.25
351.856	99.25
352.083	100.25
352.311	102.25
352.538	78.25
352.765	87.25
352.992	81.25
353.22	74.25
353.447	76.25
353.674	74.25
353.901	84.25
354.128	80.25
354.355	82.25
354.583	89.25
354.81	79.25
355.037	83.25
355.264	81.25
355.491	90.25
355.718	77.25
355.945	93.25
356.172	94.25
356.399	92.25
356.626	107.25
356.853	80.25
357.08	85.25
357.307	83.25
357.534	77.25
357.761	90.25
357.988	104.25
358.215	103.25
358.441	85.25
358.668	73.25
358.895	79.25
359.122	76.25
359.349	87.25
359.576	87.25
359.802	70.25
360.029	87.25
360.256	89.25
360.483	82.25
360.709	89.25
360.936	85.25
361.163	63.25
361.39	73.25
361.616	83.25
361.843	99.25
362.07	82.25
362.296	101.25
362.523	75.25
362.749	91.25
362.976	83.25
363.203	89.25
363.429	90.25
363.656	82.25
363.882	84.25
364.109	90.25
364.335	89.25
364.562	87.25
364.788	92.25
365.015	82.25
365.241	103.25
365.468	91.25
365.694	79.25
365.92	81.25
366.147	87.25
366.373	82.25
366.599	80.25
366.826	80.25
367.052	78.25
367.278	86.25
367.505	86.25
367.731	87.25
367.957	66.25
368.184	88.25
368.41	99.25
368.636	80.25
368.862	93.25
369.089	81.25
369.315	93.25
369.541	86.25
369.767	76.25
369.993	83.25
370.219	93.25
370.445	83.25
370.672	69.25
370.898	86.25
371.124	75.25
371.35	79.25
371.576	93.25
371.802	83.25
372.028	98.25
372.254	83.25
372.48	79.25
372.706	78.25
372.932	74.25
373.158	102.25
373.384	93.25
373.61	86.25
373.835	90.25
374.061	74.25
374.287	85.25
374.513	79.25
374.739	81.25
374.965	93.25
375.191	76.25
375.416	89.25
375.642	81.25
375.868	90.25
376.094	87.25
376.319	92.25
376.545	84.25
376.771	84.25
376.997	80.25
377.222	74.25
377.448	84.25
377.674	80.25
377.899	87.25
378.125	89.25
378.35	96.25
378.576	80.25
378.802	73.25
379.027	88.25
379.253	68.25
379.478	85.25
379.704	69.25
379.929	77.25
380.155	88.25
380.38	88.25
380.606	91.25
380.831	93.25
381.057	86.25
381.282	85.25
381.507	89.25
381.733	102.25
381.958	101.25
382.184	85.25
382.409	77.25
382.634	95.25
382.86	75.25
383.085	87.25
383.31	77.25
383.535	87.25
383.761	84.25
383.986	83.25
384.211	85.25
384.436	79.25
384.662	91.25
384.887	88.25
385.112	89.25
385.337	85.25
385.562	88.25
385.787	95.25
386.013	94.25
386.238	70.25
386.463	72.25
386.688	99.25
386.913	75.25
387.138	70.25
387.363	77.25
387.588	83.25
387.813	72.25
388.038	91.25
388.263	78.25
388.488	105.25
388.713	85.25
388.938	88.25
389.163	86.25
389.387	91.25
389.612	80.25
389.837	83.25
390.062	77.25
390.287	89.25
390.512	87.25
390.736	102.25
390.961	93.25
391.186	80.25
391.411	92.25
391.636	93.25
391.86	90.25
392.085	96.25
392.31	83.25
392.534	91.25
392.759	87.25
392.984	82.25
393.208	76.25
393.433	67.25
393.658	85.25
393.882	93.25
394.107	79.25
394.331	83.25
394.556	90.25
394.78	76.25
395.005	74.25
395.229	84.25
395.454	81.25
395.678	85.25
395.903	87.25
396.127	68.25
396.352	96.25
396.576	91.25
396.801	86.25
397.025	83.25
397.249	85.25
397.474	79.25
397.698	82.25
397.922	87.25
398.147	103.25
398.371	83.25
398.595	78.25
398.82	67.25
399.044	76.25
399.268	82.25
399.492	82.25
399.717	81.25
399.941	74.25
400.165	73.25
400.389	88.25
400.613	73.25
400.837	60.25
401.062	83.25
401.286	73.25
401.51	89.25
401.734	89.25
401.958	80.25
402.182	75.25
402.406	78.25
402.63	79.25
402.854	69.25
403.078	82.25
403.302	66.25
403.526	70.25
403.75	73.25
403.974	85.25
404.198	68.25
404.422	87.25
404.645	83.25
404.869	96.25
405.093	87.25
405.317	80.25
405.541	85.25
405.765	102.25
405.988	76.25
406.212	87.25
406.436	62.25
406.66	79.25
406.883	89.25
407.107	79.25
407.331	91.25
407.555	71.25
407.778	82.25
408.002	76.25
408.226	77.25
408.449	90.25
408.673	98.25
408.896	86.25
409.12	67.25
409.344	81.25
409.567	73.25
409.791	81.25
410.014	95.25
410.238	81.25
410.461	81.25
410.685	77.25
410.908	81.25
411.132	74.25
411.355	79.25
411.578	73.25
411.802	80.25
412.025	77.25
412.249	108.25
412.472	94.25
412.695	75.25
412.919	73.25
413.142	65.25
413.365	73.25
413.589	86.25
413.812	66.25
414.035	72.25
414.258	80.25
414.482	81.25
414.705	83.25
414.928	78.25
415.151	81.25
415.374	87.25
415.597	67.25
415.821	88.25
416.044	65.25
416.267	77.25
416.49	90.25
416.713	80.25
416.936	90.25
417.159	97.25
417.382	84.25
417.605	77.25
417.828	83.25
418.051	92.25
418.274	83.25
418.497	91.25
418.72	83.25
418.943	86.25
419.166	86.25
419.389	83.25
419.611	84.25
419.834	79.25
420.057	91.25
420.28	73.25
420.503	95.25
420.726	88.25
420.948	80.25
421.171	88.25
421.394	73.25
421.617	85.25
421.839	91.25
422.062	97.25
422.285	87.25
422.507	80.25
422.73	79.25
422.953	76.25
423.175	82.25
423.398	72.25
423.621	80.25
423.843	86.25
424.066	67.25
424.288	75.25
424.511	80.25
424.733	86.25
424.956	73.25
425.178	91.25
425.401	98.25
425.623	97.25
425.846	70.25
426.068	86.25
426.291	84.25
426.513	76.25
426.735	88.25
426.958	88.25
427.18	68.25
427.402	72.25
427.625	70.25
427.847	77.25
428.069	91.25
428.292	86.25
428.514	85.25
428.736	89.25
428.958	71.25
429.181	58.25
429.403	85.25
429.625	81.25
429.847	76.25
430.069	73.25
430.292	86.25
430.514	88.25
430.736	82.25
430.958	81.25
431.18	81.25
431.402	84.25
431.624	81.25
431.846	83.25
432.068	73.25
432.29	86.25
432.512	78.25
432.734	74.25
432.956	78.25
433.178	70.25
433.4	87.25
433.622	62.25
433.844	76.25
434.066	78.25
434.287	88.25
434.509	78.25
434.731	85.25
434.953	85.25
435.175	77.25
435.397	80.25
435.618	80.25
435.84	66.25
436.062	91.25
436.284	94.25
436.505	86.25
436.727	74.25
436.949	82.25
437.17	84.25
437.392	80.25
437.614	75.25
437.835	82.25
438.057	93.25
438.278	75.25
438.5	69.25
438.721	83.25
438.943	86.25
439.165	87.25
439.386	84.25
439.608	79.25
439.829	90.25
440.05	87.25
440.272	79.25
440.493	87.25
440.715	83.25
440.936	70.25
441.158	77.25
441.379	67.25
441.6	72.25
441.822	81.25
442.043	80.25
442.264	90.25
442.486	99.25
442.707	85.25
442.928	87.25
443.149	87.25
443.371	88.25
443.592	82.25
443.813	81.25
444.034	84.25
444.255	92.25
444.476	83.25
444.698	86.25
444.919	83.25
445.14	149.25
445.361	117.25
445.582	66.25
445.803	81.25
446.024	72.25
446.245	87.25
446.466	80.25
446.687	85.25
446.908	76.25
447.129	85.25
447.35	78.25
447.571	87.25
447.792	77.25
448.013	79.25
448.234	97.25
448.455	76.25
448.675	74.25
448.896	81.25
449.117	91.25
449.338	90.25
449.559	77.25
449.779	69.25
450	74.25
450.221	81.25
450.442	73.25
450.662	79.25
450.883	97.25
451.104	85.25
451.324	87.25
451.545	99.25
451.766	85.25
451.986	85.25
452.207	75.25
452.428	83.25
452.648	78.25
452.869	78.25
453.089	85.25
453.31	61.25
453.53	80.25
453.751	88.25
453.971	94.25
454.192	76.25
454.412	97.25
454.633	79.25
454.853	84.25
455.073	89.25
455.294	78.25
455.514	79.25
455.734	80.25
455.955	81.25
456.175	79.25
456.395	89.25
456.616	91.25
456.836	69.25
457.056	79.25
457.276	77.25
457.497	71.25
457.717	94.25
457.937	88.25
458.157	85.25
458.377	83.25
458.598	72.25
458.818	81.25
459.038	78.25
459.258	96.25
459.478	72.25
459.698	69.25
459.918	78.25
460.138	85.25
460.358	79.25
460.578	88.25
460.798	73.25
461.018	93.25
461.238	86.25
461.458	74.25
461.678	81.25
461.898	94.25
462.118	77.25
462.338	82.25
462.558	86.25
462.777	73.25
462.997	75.25
463.217	83.25
463.437	76.25
463.657	80.25
463.876	84.25
464.096	92.25
464.316	81.25
464.536	75.25
464.755	76.25
464.975	84.25
465.195	85.25
465.414	86.25
465.634	77.25
465.854	62.25
466.073	93.25
466.293	78.25
466.512	82.25
466.732	89.25
466.951	79.25
467.171	81.25
467.391	87.25
467.61	87.25
467.829	81.25
468.049	73.25
468.268	77.25
468.488	88.25
468.707	82.25
468.927	75.25
469.146	98.25
469.365	88.25
469.585	92.25
469.804	75.25
470.023	81.25
470.243	96.25
470.462	86.25
470.681	78.25
470.901	83.25
471.12	83.25
471.339	72.25
471.558	83.25
471.777	73.25
471.997	81.25
472.216	86.25
472.435	78.25
472.654	95.25
472.873	89.25
473.092	94.25
473.311	89.25
473.53	73.25
473.749	80.25
473.968	86.25
474.187	80.25
474.406	83.25
474.625	75.25
474.844	86.25
475.063	74.25
475.282	91.25
475.501	76.25
475.72	81.25
475.939	71.25
476.158	91.25
476.377	85.25
476.596	78.25
476.814	85.25
477.033	95.25
477.252	82.25
477.471	95.25
477.69	89.25
477.908	82.25
478.127	102.25
478.346	90.25
478.564	77.25
478.783	89.25
479.002	81.25
479.22	79.25
479.439	78.25
479.658	91.25
479.876	85.25
480.095	88.25
480.313	86.25
480.532	60.25
480.751	98.25
480.969	84.25
481.188	80.25
481.406	85.25
481.624	77.25
481.843	85.25
482.061	113.25
482.28	87.25
482.498	108.25
482.717	88.25
482.935	88.25
483.153	71.25
483.372	85.25
483.59	82.25
483.808	75.25
484.027	72.25
484.245	86.25
484.463	85.25
484.681	79.25
484.9	87.25
485.118	65.25
485.336	77.25
485.554	79.25
485.772	81.25
485.99	86.25
486.209	76.25
486.427	73.25
486.645	66.25
486.863	85.25
487.081	83.25
487.299	94.25
487.517	85.25
487.735	87.25
487.953	83.25
488.171	97.25
488.389	90.25
488.607	73.25
488.825	73.25
489.043	94.25
489.261	83.25
489.479	79.25
489.696	110.25
489.914	93.25
490.132	71.25
490.35	92.25
490.568	79.25
490.786	91.25
491.003	79.25
491.221	86.25
491.439	85.25
491.657	74.25
491.874	76.25
492.092	77.25
492.31	68.25
492.527	84.25
492.745	80.25
492.963	70.25
493.18	82.25
493.398	67.25
493.615	80.25
493.833	75.25
494.05	82.25
494.268	103.25
494.485	78.25
494.703	80.25
494.92	87.25
495.138	90.25
495.355	68.25
495.573	94.25
495.79	92.25
496.008	89.25
496.225	78.25
496.442	81.25
496.66	87.25
496.877	87.25
497.094	81.25
497.312	79.25
497.529	98.25
497.746	104.25
497.963	97.25
498.181	78.25
498.398	76.25
498.615	81.25
498.832	77.25
499.049	96.25
499.267	93.25
499.484	95.25
499.701	87.25
499.918	89.25
500.135	86.25
500.352	73.25
500.569	71.25
500.786	81.25
501.003	76.25
501.22	88.25
501.437	92.25
501.654	89.25
501.871	87.25
502.088	83.25
502.305	86.25
502.522	86.25
502.739	88.25
502.956	85.25
503.172	77.25
503.389	73.25
503.606	67.25
503.823	74.25
504.04	77.25
504.256	79.25
504.473	82.25
504.69	83.25
504.907	97.25
505.123	96.25
505.34	77.25
505.557	94.25
505.773	85.25
505.99	91.25
506.207	85.25
506.423	86.25
506.64	85.25
506.856	92.25
507.073	82.25
507.289	88.25
507.506	95.25
507.722	73.25
507.939	79.25
508.155	90.25
508.372	103.25
508.588	86.25
508.805	87.25
509.021	84.25
509.238	87.25
509.454	79.25
509.67	87.25
509.887	71.25
510.103	77.25
510.319	87.25
510.536	82.25
510.752	87.25
510.968	78.25
511.184	80.25
511.401	79.25
511.617	81.25
511.833	89.25
512.049	80.25
512.265	90.25
512.481	80.25
512.698	77.25
512.914	98.25
513.13	84.25
513.346	86.25
513.562	74.25
513.778	90.25
513.994	76.25
514.21	91.25
514.426	78.25
514.642	91.25
514.858	77.25
515.074	92.25
515.29	89.25
515.506	87.25
515.721	92.25
515.937	90.25
516.153	84.25
516.369	85.25
516.585	71.25
516.801	90.25
517.016	79.25
517.232	88.25
517.448	87.25
517.664	87.25
517.879	92.25
518.095	62.25
518.311	76.25
518.527	94.25
518.742	75.25
518.958	87.25
519.173	84.25
519.389	91.25
519.605	77.25
519.82	96.25
