Data from KBr_1_HRD10591_00029.txt Node
Date: Mon Jan 19 13:11:19 EST 2026
User: Yrep
Spectrometer: HR+D1059
Trigger mode: 0
Integration Time (sec): 1.000000E-1
Scans to average: 1
Electric dark correction enabled: true
Nonlinearity correction enabled: false
Boxcar width: 0
XAxis mode: Wavelengths
Number of Pixels in Spectrum: 2048
>>>>>Begin Spectral Data<<<<<
223.165	-33.69
223.4	-33.69
223.635	-33.69
223.869	-26.69
224.104	-16.69
224.338	0.31
224.573	-13.69
224.808	-19.69
225.042	1.31
225.277	-12.69
225.511	-19.69
225.746	5.31
225.98	13.31
226.215	6.31
226.449	24.31
226.683	32.31
226.918	25.31
227.152	34.31
227.387	46.31
227.621	46.31
227.856	56.31
228.09	56.31
228.324	59.31
228.559	56.31
228.793	69.31
229.027	48.31
229.262	77.31
229.496	70.31
229.73	74.31
229.964	68.31
230.199	67.31
230.433	60.31
230.667	78.31
230.901	61.31
231.136	72.31
231.37	80.31
231.604	73.31
231.838	71.31
232.072	76.31
232.306	78.31
232.541	85.31
232.775	78.31
233.009	72.31
233.243	85.31
233.477	87.31
233.711	72.31
233.945	91.31
234.179	70.31
234.413	68.31
234.647	64.31
234.881	94.31
235.115	65.31
235.349	81.31
235.583	81.31
235.817	80.31
236.051	75.31
236.285	77.31
236.519	82.31
236.753	77.31
236.987	78.31
237.221	86.31
237.455	82.31
237.689	82.31
237.922	73.31
238.156	64.31
238.39	77.31
238.624	78.31
238.858	85.31
239.091	73.31
239.325	77.31
239.559	73.31
239.793	68.31
240.027	76.31
240.26	67.31
240.494	76.31
240.728	77.31
240.961	86.31
241.195	82.31
241.429	73.31
241.662	63.31
241.896	82.31
242.13	61.31
242.363	81.31
242.597	77.31
242.83	82.31
243.064	70.31
243.298	76.31
243.531	67.31
243.765	64.31
243.998	82.31
244.232	76.31
244.465	79.31
244.699	72.31
244.932	83.31
245.166	79.31
245.399	70.31
245.633	80.31
245.866	70.31
246.099	76.31
246.333	79.31
246.566	88.31
246.8	78.31
247.033	78.31
247.266	76.31
247.5	73.31
247.733	84.31
247.966	72.31
248.2	69.31
248.433	80.31
248.666	78.31
248.899	80.31
249.133	79.31
249.366	85.31
249.599	78.31
249.832	72.31
250.066	65.31
250.299	87.31
250.532	80.31
250.765	69.31
250.998	71.31
251.231	67.31
251.465	75.31
251.698	83.31
251.931	79.31
252.164	92.31
252.397	76.31
252.63	88.31
252.863	85.31
253.096	73.31
253.329	78.31
253.562	89.31
253.795	79.31
254.028	88.31
254.261	69.31
254.494	74.31
254.727	69.31
254.96	79.31
255.193	82.31
255.426	77.31
255.659	70.31
255.892	83.31
256.124	63.31
256.357	82.31
256.59	68.31
256.823	78.31
257.056	86.31
257.289	86.31
257.521	74.31
257.754	86.31
257.987	62.31
258.22	79.31
258.452	69.31
258.685	82.31
258.918	89.31
259.151	88.31
259.383	78.31
259.616	79.31
259.849	69.31
260.081	87.31
260.314	82.31
260.547	78.31
260.779	85.31
261.012	75.31
261.244	78.31
261.477	87.31
261.71	83.31
261.942	86.31
262.175	83.31
262.407	74.31
262.64	80.31
262.872	74.31
263.105	68.31
263.337	85.31
263.57	79.31
263.802	67.31
264.035	77.31
264.267	79.31
264.499	78.31
264.732	74.31
264.964	84.31
265.197	76.31
265.429	73.31
265.661	70.31
265.894	90.31
266.126	87.31
266.358	72.31
266.591	74.31
266.823	75.31
267.055	74.31
267.287	85.31
267.52	86.31
267.752	90.31
267.984	98.31
268.216	70.31
268.448	87.31
268.681	81.31
268.913	86.31
269.145	79.31
269.377	82.31
269.609	74.31
269.841	82.31
270.073	84.31
270.306	85.31
270.538	84.31
270.77	70.31
271.002	86.31
271.234	69.31
271.466	80.31
271.698	74.31
271.93	75.31
272.162	80.31
272.394	83.31
272.626	75.31
272.858	84.31
273.09	86.31
273.322	100.31
273.553	88.31
273.785	70.31
274.017	82.31
274.249	80.31
274.481	82.31
274.713	90.31
274.945	87.31
275.176	80.31
275.408	78.31
275.64	96.31
275.872	82.31
276.104	72.31
276.335	82.31
276.567	79.31
276.799	75.31
277.031	84.31
277.262	82.31
277.494	82.31
277.726	85.31
277.957	81.31
278.189	99.31
278.421	78.31
278.652	71.31
278.884	68.31
279.115	79.31
279.347	90.31
279.579	75.31
279.81	88.31
280.042	70.31
280.273	84.31
280.505	71.31
280.736	75.31
280.968	92.31
281.199	82.31
281.431	86.31
281.662	91.31
281.894	86.31
282.125	85.31
282.356	93.31
282.588	92.31
282.819	84.31
283.051	80.31
283.282	78.31
283.513	101.31
283.745	88.31
283.976	80.31
284.207	76.31
284.439	86.31
284.67	82.31
284.901	80.31
285.132	78.31
285.364	94.31
285.595	77.31
285.826	70.31
286.057	80.31
286.288	88.31
286.52	86.31
286.751	74.31
286.982	84.31
287.213	76.31
287.444	67.31
287.675	84.31
287.906	89.31
288.138	88.31
288.369	83.31
288.6	78.31
288.831	78.31
289.062	88.31
289.293	72.31
289.524	87.31
289.755	85.31
289.986	77.31
290.217	85.31
290.448	84.31
290.679	84.31
290.91	83.31
291.141	76.31
291.371	101.31
291.602	79.31
291.833	78.31
292.064	79.31
292.295	80.31
292.526	79.31
292.757	91.31
292.987	79.31
293.218	82.31
293.449	81.31
293.68	82.31
293.91	72.31
294.141	75.31
294.372	85.31
294.603	85.31
294.833	87.31
295.064	80.31
295.295	82.31
295.525	84.31
295.756	81.31
295.987	82.31
296.217	83.31
296.448	82.31
296.679	92.31
296.909	92.31
297.14	85.31
297.37	91.31
297.601	86.31
297.831	71.31
298.062	73.31
298.292	86.31
298.523	72.31
298.753	77.31
298.984	79.31
299.214	111.31
299.445	88.31
299.675	86.31
299.905	79.31
300.136	91.31
300.366	78.31
300.597	80.31
300.827	71.31
301.057	83.31
301.288	73.31
301.518	79.31
301.748	87.31
301.979	90.31
302.209	84.31
302.439	79.31
302.669	84.31
302.9	83.31
303.13	84.31
303.36	72.31
303.59	87.31
303.82	80.31
304.051	75.31
304.281	84.31
304.511	96.31
304.741	79.31
304.971	82.31
305.201	86.31
305.431	77.31
305.661	92.31
305.891	91.31
306.121	82.31
306.352	85.31
306.582	86.31
306.812	86.31
307.042	88.31
307.272	63.31
307.502	82.31
307.731	93.31
307.961	84.31
308.191	85.31
308.421	82.31
308.651	68.31
308.881	93.31
309.111	74.31
309.341	88.31
309.571	83.31
309.8	82.31
310.03	89.31
310.26	81.31
310.49	86.31
310.72	93.31
310.949	91.31
311.179	74.31
311.409	77.31
311.639	79.31
311.868	80.31
312.098	91.31
312.328	88.31
312.557	90.31
312.787	85.31
313.017	86.31
313.246	95.31
313.476	92.31
313.706	83.31
313.935	74.31
314.165	81.31
314.394	86.31
314.624	86.31
314.853	86.31
315.083	79.31
315.312	72.31
315.542	78.31
315.771	86.31
316.001	82.31
316.23	83.31
316.46	82.31
316.689	75.31
316.919	77.31
317.148	83.31
317.377	80.31
317.607	79.31
317.836	85.31
318.065	90.31
318.295	86.31
318.524	85.31
318.753	84.31
318.983	72.31
319.212	88.31
319.441	77.31
319.67	85.31
319.9	82.31
320.129	69.31
320.358	84.31
320.587	80.31
320.816	92.31
321.046	84.31
321.275	86.31
321.504	80.31
321.733	90.31
321.962	77.31
322.191	83.31
322.42	82.31
322.649	79.31
322.878	82.31
323.108	100.31
323.337	84.31
323.566	79.31
323.795	72.31
324.024	82.31
324.253	78.31
324.482	62.31
324.71	71.31
324.939	74.31
325.168	91.31
325.397	72.31
325.626	86.31
325.855	89.31
326.084	73.31
326.313	86.31
326.542	92.31
326.77	85.31
326.999	86.31
327.228	74.31
327.457	74.31
327.686	70.31
327.914	88.31
328.143	78.31
328.372	76.31
328.6	80.31
328.829	76.31
329.058	90.31
329.287	84.31
329.515	79.31
329.744	87.31
329.972	98.31
330.201	81.31
330.43	88.31
330.658	82.31
330.887	74.31
331.115	82.31
331.344	81.31
331.572	101.31
331.801	78.31
332.03	86.31
332.258	69.31
332.486	89.31
332.715	81.31
332.943	87.31
333.172	82.31
333.4	90.31
333.629	88.31
333.857	84.31
334.085	87.31
334.314	73.31
334.542	76.31
334.771	75.31
334.999	98.31
335.227	74.31
335.455	70.31
335.684	82.31
335.912	88.31
336.14	82.31
336.369	59.31
336.597	83.31
336.825	92.31
337.053	94.31
337.281	85.31
337.51	81.31
337.738	74.31
337.966	80.31
338.194	82.31
338.422	93.31
338.65	101.31
338.878	89.31
339.106	72.31
339.334	78.31
339.562	77.31
339.79	76.31
340.018	74.31
340.246	85.31
340.474	76.31
340.702	79.31
340.93	82.31
341.158	74.31
341.386	74.31
341.614	84.31
341.842	100.31
342.07	65.31
342.298	90.31
342.526	79.31
342.754	75.31
342.981	92.31
343.209	93.31
343.437	86.31
343.665	80.31
343.893	80.31
344.12	85.31
344.348	90.31
344.576	86.31
344.804	78.31
345.031	86.31
345.259	77.31
345.487	87.31
345.714	85.31
345.942	83.31
346.17	83.31
346.397	75.31
346.625	78.31
346.853	84.31
347.08	71.31
347.308	84.31
347.535	74.31
347.763	75.31
347.99	99.31
348.218	87.31
348.445	82.31
348.673	90.31
348.9	88.31
349.128	94.31
349.355	70.31
349.583	88.31
349.81	84.31
350.037	85.31
350.265	85.31
350.492	73.31
350.72	83.31
350.947	87.31
351.174	67.31
351.402	75.31
351.629	80.31
351.856	88.31
352.083	87.31
352.311	79.31
352.538	93.31
352.765	86.31
352.992	75.31
353.22	83.31
353.447	69.31
353.674	72.31
353.901	87.31
354.128	106.31
354.355	74.31
354.583	79.31
354.81	76.31
355.037	78.31
355.264	79.31
355.491	91.31
355.718	83.31
355.945	79.31
356.172	89.31
356.399	65.31
356.626	86.31
356.853	77.31
357.08	74.31
357.307	87.31
357.534	77.31
357.761	80.31
357.988	77.31
358.215	85.31
358.441	82.31
358.668	83.31
358.895	75.31
359.122	90.31
359.349	75.31
359.576	78.31
359.802	79.31
360.029	91.31
360.256	82.31
360.483	77.31
360.709	65.31
360.936	79.31
361.163	87.31
361.39	64.31
361.616	86.31
361.843	84.31
362.07	74.31
362.296	87.31
362.523	78.31
362.749	77.31
362.976	74.31
363.203	92.31
363.429	70.31
363.656	69.31
363.882	85.31
364.109	68.31
364.335	86.31
364.562	79.31
364.788	94.31
365.015	98.31
365.241	78.31
365.468	88.31
365.694	76.31
365.92	79.31
366.147	72.31
366.373	73.31
366.599	83.31
366.826	84.31
367.052	67.31
367.278	93.31
367.505	78.31
367.731	98.31
367.957	82.31
368.184	83.31
368.41	76.31
368.636	72.31
368.862	85.31
369.089	83.31
369.315	92.31
369.541	89.31
369.767	69.31
369.993	69.31
370.219	78.31
370.445	90.31
370.672	86.31
370.898	79.31
371.124	83.31
371.35	77.31
371.576	77.31
371.802	74.31
372.028	86.31
372.254	67.31
372.48	74.31
372.706	74.31
372.932	82.31
373.158	88.31
373.384	95.31
373.61	88.31
373.835	76.31
374.061	78.31
374.287	80.31
374.513	82.31
374.739	87.31
374.965	84.31
375.191	78.31
375.416	79.31
375.642	77.31
375.868	88.31
376.094	80.31
376.319	85.31
376.545	83.31
376.771	77.31
376.997	87.31
377.222	72.31
377.448	79.31
377.674	87.31
377.899	75.31
378.125	74.31
378.35	82.31
378.576	82.31
378.802	87.31
379.027	89.31
379.253	74.31
379.478	81.31
379.704	76.31
379.929	87.31
380.155	75.31
380.38	91.31
380.606	75.31
380.831	76.31
381.057	96.31
381.282	69.31
381.507	80.31
381.733	74.31
381.958	80.31
382.184	78.31
382.409	83.31
382.634	74.31
382.86	83.31
383.085	73.31
383.31	86.31
383.535	94.31
383.761	84.31
383.986	74.31
384.211	88.31
384.436	89.31
384.662	83.31
384.887	81.31
385.112	85.31
385.337	84.31
385.562	81.31
385.787	86.31
386.013	71.31
386.238	84.31
386.463	78.31
386.688	102.31
386.913	75.31
387.138	87.31
387.363	67.31
387.588	72.31
387.813	83.31
388.038	67.31
388.263	65.31
388.488	76.31
388.713	84.31
388.938	85.31
389.163	69.31
389.387	80.31
389.612	75.31
389.837	82.31
390.062	67.31
390.287	85.31
390.512	76.31
390.736	82.31
390.961	86.31
391.186	72.31
391.411	74.31
391.636	91.31
391.86	102.31
392.085	78.31
392.31	76.31
392.534	84.31
392.759	81.31
392.984	67.31
393.208	86.31
393.433	71.31
393.658	93.31
393.882	70.31
394.107	78.31
394.331	72.31
394.556	65.31
394.78	94.31
395.005	90.31
395.229	86.31
395.454	74.31
395.678	87.31
395.903	92.31
396.127	84.31
396.352	75.31
396.576	78.31
396.801	82.31
397.025	74.31
397.249	82.31
397.474	82.31
397.698	74.31
397.922	84.31
398.147	94.31
398.371	83.31
398.595	84.31
398.82	93.31
399.044	91.31
399.268	89.31
399.492	85.31
399.717	93.31
399.941	87.31
400.165	75.31
400.389	76.31
400.613	86.31
400.837	83.31
401.062	72.31
401.286	87.31
401.51	98.31
401.734	71.31
401.958	70.31
402.182	78.31
402.406	67.31
402.63	78.31
402.854	91.31
403.078	96.31
403.302	90.31
403.526	89.31
403.75	77.31
403.974	86.31
404.198	86.31
404.422	72.31
404.645	78.31
404.869	75.31
405.093	63.31
405.317	95.31
405.541	94.31
405.765	79.31
405.988	84.31
406.212	74.31
406.436	61.31
406.66	87.31
406.883	90.31
407.107	80.31
407.331	78.31
407.555	81.31
407.778	84.31
408.002	82.31
408.226	79.31
408.449	80.31
408.673	91.31
408.896	66.31
409.12	66.31
409.344	85.31
409.567	73.31
409.791	74.31
410.014	98.31
410.238	86.31
410.461	85.31
410.685	80.31
410.908	91.31
411.132	78.31
411.355	87.31
411.578	76.31
411.802	76.31
412.025	72.31
412.249	86.31
412.472	88.31
412.695	90.31
412.919	76.31
413.142	76.31
413.365	90.31
413.589	85.31
413.812	82.31
414.035	69.31
414.258	73.31
414.482	73.31
414.705	78.31
414.928	82.31
415.151	92.31
415.374	86.31
415.597	74.31
415.821	75.31
416.044	74.31
416.267	80.31
416.49	85.31
416.713	84.31
416.936	88.31
417.159	69.31
417.382	78.31
417.605	71.31
417.828	77.31
418.051	82.31
418.274	68.31
418.497	79.31
418.72	95.31
418.943	90.31
419.166	80.31
419.389	90.31
419.611	79.31
419.834	93.31
420.057	88.31
420.28	78.31
420.503	64.31
420.726	75.31
420.948	75.31
421.171	74.31
421.394	69.31
421.617	76.31
421.839	85.31
422.062	78.31
422.285	83.31
422.507	74.31
422.73	81.31
422.953	85.31
423.175	74.31
423.398	85.31
423.621	89.31
423.843	85.31
424.066	78.31
424.288	70.31
424.511	81.31
424.733	90.31
424.956	80.31
425.178	80.31
425.401	83.31
425.623	81.31
425.846	84.31
426.068	81.31
426.291	68.31
426.513	79.31
426.735	78.31
426.958	82.31
427.18	92.31
427.402	79.31
427.625	78.31
427.847	90.31
428.069	69.31
428.292	79.31
428.514	73.31
428.736	76.31
428.958	72.31
429.181	82.31
429.403	82.31
429.625	68.31
429.847	89.31
430.069	82.31
430.292	83.31
430.514	80.31
430.736	86.31
430.958	77.31
431.18	85.31
431.402	83.31
431.624	82.31
431.846	74.31
432.068	67.31
432.29	92.31
432.512	82.31
432.734	78.31
432.956	82.31
433.178	80.31
433.4	93.31
433.622	82.31
433.844	74.31
434.066	89.31
434.287	77.31
434.509	75.31
434.731	79.31
434.953	84.31
435.175	81.31
435.397	90.31
435.618	74.31
435.84	75.31
436.062	83.31
436.284	77.31
436.505	83.31
436.727	79.31
436.949	88.31
437.17	64.31
437.392	96.31
437.614	88.31
437.835	72.31
438.057	86.31
438.278	64.31
438.5	89.31
438.721	69.31
438.943	87.31
439.165	63.31
439.386	78.31
439.608	74.31
439.829	77.31
440.05	77.31
440.272	77.31
440.493	78.31
440.715	91.31
440.936	58.31
441.158	75.31
441.379	75.31
441.6	79.31
441.822	81.31
442.043	62.31
442.264	69.31
442.486	87.31
442.707	84.31
442.928	86.31
443.149	78.31
443.371	83.31
443.592	78.31
443.813	77.31
444.034	77.31
444.255	65.31
444.476	85.31
444.698	88.31
444.919	70.31
445.14	166.31
445.361	124.31
445.582	98.31
445.803	63.31
446.024	90.31
446.245	75.31
446.466	81.31
446.687	78.31
446.908	74.31
447.129	75.31
447.35	79.31
447.571	77.31
447.792	78.31
448.013	77.31
448.234	93.31
448.455	73.31
448.675	71.31
448.896	87.31
449.117	80.31
449.338	71.31
449.559	81.31
449.779	89.31
450	86.31
450.221	76.31
450.442	75.31
450.662	76.31
450.883	88.31
451.104	73.31
451.324	84.31
451.545	83.31
451.766	71.31
451.986	92.31
452.207	82.31
452.428	74.31
452.648	80.31
452.869	74.31
453.089	100.31
453.31	82.31
453.53	88.31
453.751	77.31
453.971	85.31
454.192	79.31
454.412	77.31
454.633	89.31
454.853	80.31
455.073	79.31
455.294	83.31
455.514	68.31
455.734	75.31
455.955	83.31
456.175	83.31
456.395	83.31
456.616	75.31
456.836	79.31
457.056	82.31
457.276	76.31
457.497	87.31
457.717	76.31
457.937	86.31
458.157	69.31
458.377	85.31
458.598	75.31
458.818	82.31
459.038	78.31
459.258	85.31
459.478	80.31
459.698	77.31
459.918	72.31
460.138	78.31
460.358	82.31
460.578	71.31
460.798	80.31
461.018	93.31
461.238	87.31
461.458	83.31
461.678	92.31
461.898	87.31
462.118	78.31
462.338	74.31
462.558	85.31
462.777	83.31
462.997	98.31
463.217	81.31
463.437	81.31
463.657	77.31
463.876	94.31
464.096	92.31
464.316	66.31
464.536	78.31
464.755	103.31
464.975	103.31
465.195	73.31
465.414	86.31
465.634	80.31
465.854	68.31
466.073	64.31
466.293	84.31
466.512	79.31
466.732	88.31
466.951	83.31
467.171	91.31
467.391	76.31
467.61	78.31
467.829	69.31
468.049	75.31
468.268	78.31
468.488	85.31
468.707	79.31
468.927	77.31
469.146	84.31
469.365	84.31
469.585	74.31
469.804	81.31
470.023	59.31
470.243	86.31
470.462	83.31
470.681	81.31
470.901	75.31
471.12	80.31
471.339	88.31
471.558	79.31
471.777	71.31
471.997	83.31
472.216	82.31
472.435	69.31
472.654	79.31
472.873	93.31
473.092	86.31
473.311	85.31
473.53	88.31
473.749	74.31
473.968	76.31
474.187	79.31
474.406	87.31
474.625	70.31
474.844	72.31
475.063	80.31
475.282	104.31
475.501	94.31
475.72	87.31
475.939	63.31
476.158	55.31
476.377	75.31
476.596	84.31
476.814	90.31
477.033	90.31
477.252	92.31
477.471	78.31
477.69	75.31
477.908	74.31
478.127	78.31
478.346	87.31
478.564	92.31
478.783	82.31
479.002	85.31
479.22	79.31
479.439	83.31
479.658	87.31
479.876	71.31
480.095	83.31
480.313	78.31
480.532	84.31
480.751	96.31
480.969	79.31
481.188	98.31
481.406	89.31
481.624	100.31
481.843	59.31
482.061	81.31
482.28	78.31
482.498	69.31
482.717	71.31
482.935	82.31
483.153	86.31
483.372	81.31
483.59	80.31
483.808	86.31
484.027	86.31
484.245	89.31
484.463	84.31
484.681	74.31
484.9	81.31
485.118	82.31
485.336	94.31
485.554	78.31
485.772	87.31
485.99	87.31
486.209	87.31
486.427	85.31
486.645	78.31
486.863	75.31
487.081	77.31
487.299	79.31
487.517	82.31
487.735	77.31
487.953	82.31
488.171	94.31
488.389	84.31
488.607	91.31
488.825	82.31
489.043	78.31
489.261	60.31
489.479	70.31
489.696	73.31
489.914	81.31
490.132	77.31
490.35	74.31
490.568	74.31
490.786	76.31
491.003	68.31
491.221	84.31
491.439	75.31
491.657	84.31
491.874	70.31
492.092	78.31
492.31	69.31
492.527	102.31
492.745	78.31
492.963	76.31
493.18	65.31
493.398	68.31
493.615	79.31
493.833	79.31
494.05	74.31
494.268	90.31
494.485	85.31
494.703	74.31
494.92	74.31
495.138	99.31
495.355	77.31
495.573	84.31
495.79	89.31
496.008	88.31
496.225	84.31
496.442	87.31
496.66	88.31
496.877	77.31
497.094	83.31
497.312	81.31
497.529	86.31
497.746	90.31
497.963	76.31
498.181	79.31
498.398	74.31
498.615	75.31
498.832	83.31
499.049	90.31
499.267	82.31
499.484	86.31
499.701	97.31
499.918	98.31
500.135	85.31
500.352	75.31
500.569	78.31
500.786	89.31
501.003	75.31
501.22	73.31
501.437	74.31
501.654	78.31
501.871	74.31
502.088	89.31
502.305	86.31
502.522	95.31
502.739	79.31
502.956	79.31
503.172	90.31
503.389	86.31
503.606	77.31
503.823	88.31
504.04	87.31
504.256	82.31
504.473	69.31
504.69	78.31
504.907	73.31
505.123	82.31
505.34	76.31
505.557	70.31
505.773	59.31
505.99	71.31
506.207	84.31
506.423	92.31
506.64	88.31
506.856	78.31
507.073	84.31
507.289	80.31
507.506	78.31
507.722	88.31
507.939	78.31
508.155	95.31
508.372	91.31
508.588	74.31
508.805	92.31
509.021	94.31
509.238	91.31
509.454	89.31
509.67	71.31
509.887	98.31
510.103	76.31
510.319	91.31
510.536	75.31
510.752	84.31
510.968	76.31
511.184	83.31
511.401	90.31
511.617	78.31
511.833	78.31
512.049	90.31
512.265	74.31
512.481	92.31
512.698	76.31
512.914	63.31
513.13	76.31
513.346	74.31
513.562	86.31
513.778	82.31
513.994	72.31
514.21	85.31
514.426	64.31
514.642	77.31
514.858	78.31
515.074	90.31
515.29	80.31
515.506	82.31
515.721	64.31
515.937	89.31
516.153	83.31
516.369	86.31
516.585	75.31
516.801	69.31
517.016	82.31
517.232	93.31
517.448	81.31
517.664	92.31
517.879	86.31
518.095	74.31
518.311	68.31
518.527	79.31
518.742	81.31
518.958	72.31
519.173	88.31
519.389	92.31
519.605	72.31
519.82	80.31
520.036	71.31
