Data from KBr_1_HRD10591_00047.txt Node
Date: Mon Jan 19 13:11:21 EST 2026
User: Yrep
Spectrometer: HR+D1059
Trigger mode: 0
Integration Time (sec): 1.000000E-1
Scans to average: 1
Electric dark correction enabled: true
Nonlinearity correction enabled: false
Boxcar width: 0
XAxis mode: Wavelengths
Number of Pixels in Spectrum: 2048
>>>>>Begin Spectral Data<<<<<
223.165	2.5
223.4	2.5
223.635	2.5
223.869	-12.5
224.104	-27.5
224.338	-12.5
224.573	-15.5
224.808	-27.5
225.042	-3.5
225.277	-5.5
225.511	-0.5
225.746	7.5
225.98	1.5
226.215	10.5
226.449	12.5
226.683	11.5
226.918	23.5
227.152	35.5
227.387	35.5
227.621	36.5
227.856	46.5
228.09	45.5
228.324	62.5
228.559	61.5
228.793	55.5
229.027	69.5
229.262	76.5
229.496	67.5
229.73	50.5
229.964	74.5
230.199	77.5
230.433	80.5
230.667	69.5
230.901	77.5
231.136	76.5
231.37	88.5
231.604	69.5
231.838	83.5
232.072	54.5
232.306	82.5
232.541	88.5
232.775	74.5
233.009	74.5
233.243	69.5
233.477	70.5
233.711	79.5
233.945	80.5
234.179	76.5
234.413	78.5
234.647	62.5
234.881	82.5
235.115	91.5
235.349	76.5
235.583	83.5
235.817	64.5
236.051	63.5
236.285	80.5
236.519	75.5
236.753	66.5
236.987	79.5
237.221	65.5
237.455	83.5
237.689	52.5
237.922	60.5
238.156	74.5
238.39	72.5
238.624	74.5
238.858	72.5
239.091	54.5
239.325	78.5
239.559	74.5
239.793	88.5
240.027	73.5
240.26	70.5
240.494	83.5
240.728	76.5
240.961	67.5
241.195	90.5
241.429	78.5
241.662	94.5
241.896	79.5
242.13	90.5
242.363	67.5
242.597	70.5
242.83	73.5
243.064	68.5
243.298	84.5
243.531	78.5
243.765	76.5
243.998	73.5
244.232	71.5
244.465	80.5
244.699	79.5
244.932	70.5
245.166	67.5
245.399	81.5
245.633	76.5
245.866	68.5
246.099	70.5
246.333	83.5
246.566	70.5
246.8	77.5
247.033	79.5
247.266	73.5
247.5	70.5
247.733	70.5
247.966	94.5
248.2	80.5
248.433	84.5
248.666	71.5
248.899	72.5
249.133	82.5
249.366	79.5
249.599	74.5
249.832	83.5
250.066	78.5
250.299	72.5
250.532	66.5
250.765	79.5
250.998	73.5
251.231	64.5
251.465	67.5
251.698	66.5
251.931	78.5
252.164	82.5
252.397	73.5
252.63	68.5
252.863	70.5
253.096	83.5
253.329	74.5
253.562	74.5
253.795	85.5
254.028	69.5
254.261	75.5
254.494	96.5
254.727	84.5
254.96	77.5
255.193	82.5
255.426	80.5
255.659	71.5
255.892	92.5
256.124	80.5
256.357	80.5
256.59	70.5
256.823	75.5
257.056	79.5
257.289	66.5
257.521	81.5
257.754	64.5
257.987	75.5
258.22	89.5
258.452	95.5
258.685	84.5
258.918	82.5
259.151	77.5
259.383	84.5
259.616	82.5
259.849	82.5
260.081	73.5
260.314	70.5
260.547	78.5
260.779	76.5
261.012	74.5
261.244	82.5
261.477	76.5
261.71	65.5
261.942	75.5
262.175	68.5
262.407	78.5
262.64	85.5
262.872	68.5
263.105	93.5
263.337	78.5
263.57	70.5
263.802	84.5
264.035	77.5
264.267	77.5
264.499	80.5
264.732	71.5
264.964	85.5
265.197	73.5
265.429	65.5
265.661	85.5
265.894	64.5
266.126	91.5
266.358	78.5
266.591	80.5
266.823	69.5
267.055	93.5
267.287	77.5
267.52	82.5
267.752	84.5
267.984	86.5
268.216	69.5
268.448	66.5
268.681	63.5
268.913	94.5
269.145	78.5
269.377	69.5
269.609	79.5
269.841	76.5
270.073	86.5
270.306	87.5
270.538	83.5
270.77	68.5
271.002	78.5
271.234	83.5
271.466	87.5
271.698	88.5
271.93	82.5
272.162	67.5
272.394	71.5
272.626	73.5
272.858	85.5
273.09	74.5
273.322	75.5
273.553	85.5
273.785	77.5
274.017	75.5
274.249	88.5
274.481	74.5
274.713	76.5
274.945	82.5
275.176	71.5
275.408	76.5
275.64	83.5
275.872	91.5
276.104	91.5
276.335	75.5
276.567	68.5
276.799	76.5
277.031	67.5
277.262	75.5
277.494	76.5
277.726	79.5
277.957	79.5
278.189	75.5
278.421	82.5
278.652	67.5
278.884	76.5
279.115	80.5
279.347	67.5
279.579	68.5
279.81	91.5
280.042	72.5
280.273	74.5
280.505	68.5
280.736	70.5
280.968	82.5
281.199	84.5
281.431	84.5
281.662	85.5
281.894	64.5
282.125	72.5
282.356	64.5
282.588	87.5
282.819	94.5
283.051	86.5
283.282	79.5
283.513	68.5
283.745	66.5
283.976	87.5
284.207	86.5
284.439	85.5
284.67	78.5
284.901	95.5
285.132	82.5
285.364	78.5
285.595	83.5
285.826	77.5
286.057	77.5
286.288	87.5
286.52	83.5
286.751	83.5
286.982	75.5
287.213	82.5
287.444	79.5
287.675	79.5
287.906	85.5
288.138	86.5
288.369	78.5
288.6	81.5
288.831	76.5
289.062	83.5
289.293	78.5
289.524	76.5
289.755	85.5
289.986	78.5
290.217	77.5
290.448	75.5
290.679	86.5
290.91	87.5
291.141	84.5
291.371	78.5
291.602	95.5
291.833	79.5
292.064	102.5
292.295	88.5
292.526	89.5
292.757	87.5
292.987	92.5
293.218	87.5
293.449	83.5
293.68	77.5
293.91	76.5
294.141	90.5
294.372	76.5
294.603	79.5
294.833	80.5
295.064	86.5
295.295	88.5
295.525	91.5
295.756	76.5
295.987	88.5
296.217	80.5
296.448	92.5
296.679	75.5
296.909	91.5
297.14	78.5
297.37	82.5
297.601	89.5
297.831	93.5
298.062	78.5
298.292	78.5
298.523	78.5
298.753	92.5
298.984	78.5
299.214	71.5
299.445	82.5
299.675	75.5
299.905	77.5
300.136	94.5
300.366	83.5
300.597	70.5
300.827	91.5
301.057	89.5
301.288	73.5
301.518	83.5
301.748	85.5
301.979	89.5
302.209	79.5
302.439	82.5
302.669	95.5
302.9	76.5
303.13	88.5
303.36	74.5
303.59	90.5
303.82	87.5
304.051	76.5
304.281	78.5
304.511	83.5
304.741	82.5
304.971	75.5
305.201	78.5
305.431	94.5
305.661	84.5
305.891	77.5
306.121	76.5
306.352	87.5
306.582	78.5
306.812	76.5
307.042	93.5
307.272	85.5
307.502	77.5
307.731	94.5
307.961	77.5
308.191	99.5
308.421	82.5
308.651	75.5
308.881	78.5
309.111	73.5
309.341	82.5
309.571	91.5
309.8	82.5
310.03	74.5
310.26	80.5
310.49	85.5
310.72	76.5
310.949	82.5
311.179	76.5
311.409	83.5
311.639	88.5
311.868	87.5
312.098	93.5
312.328	82.5
312.557	91.5
312.787	81.5
313.017	83.5
313.246	84.5
313.476	88.5
313.706	77.5
313.935	80.5
314.165	69.5
314.394	70.5
314.624	74.5
314.853	75.5
315.083	86.5
315.312	84.5
315.542	83.5
315.771	84.5
316.001	85.5
316.23	84.5
316.46	70.5
316.689	70.5
316.919	75.5
317.148	76.5
317.377	83.5
317.607	76.5
317.836	83.5
318.065	74.5
318.295	80.5
318.524	80.5
318.753	69.5
318.983	80.5
319.212	84.5
319.441	91.5
319.67	90.5
319.9	68.5
320.129	76.5
320.358	72.5
320.587	97.5
320.816	70.5
321.046	77.5
321.275	80.5
321.504	62.5
321.733	77.5
321.962	80.5
322.191	88.5
322.42	86.5
322.649	70.5
322.878	89.5
323.108	80.5
323.337	75.5
323.566	74.5
323.795	77.5
324.024	78.5
324.253	88.5
324.482	85.5
324.71	72.5
324.939	86.5
325.168	72.5
325.397	76.5
325.626	81.5
325.855	83.5
326.084	82.5
326.313	71.5
326.542	62.5
326.77	75.5
326.999	75.5
327.228	70.5
327.457	104.5
327.686	89.5
327.914	85.5
328.143	91.5
328.372	88.5
328.6	85.5
328.829	70.5
329.058	84.5
329.287	88.5
329.515	91.5
329.744	85.5
329.972	70.5
330.201	80.5
330.43	79.5
330.658	68.5
330.887	67.5
331.115	86.5
331.344	99.5
331.572	91.5
331.801	79.5
332.03	72.5
332.258	74.5
332.486	74.5
332.715	83.5
332.943	82.5
333.172	73.5
333.4	80.5
333.629	92.5
333.857	92.5
334.085	87.5
334.314	80.5
334.542	85.5
334.771	82.5
334.999	82.5
335.227	83.5
335.455	77.5
335.684	79.5
335.912	86.5
336.14	71.5
336.369	76.5
336.597	75.5
336.825	79.5
337.053	84.5
337.281	96.5
337.51	83.5
337.738	78.5
337.966	89.5
338.194	87.5
338.422	73.5
338.65	88.5
338.878	75.5
339.106	81.5
339.334	80.5
339.562	81.5
339.79	86.5
340.018	88.5
340.246	82.5
340.474	67.5
340.702	65.5
340.93	73.5
341.158	83.5
341.386	62.5
341.614	88.5
341.842	79.5
342.07	62.5
342.298	74.5
342.526	82.5
342.754	87.5
342.981	77.5
343.209	79.5
343.437	89.5
343.665	81.5
343.893	73.5
344.12	88.5
344.348	91.5
344.576	79.5
344.804	66.5
345.031	90.5
345.259	74.5
345.487	84.5
345.714	73.5
345.942	79.5
346.17	82.5
346.397	78.5
346.625	79.5
346.853	91.5
347.08	98.5
347.308	75.5
347.535	72.5
347.763	90.5
347.99	89.5
348.218	99.5
348.445	87.5
348.673	86.5
348.9	78.5
349.128	78.5
349.355	87.5
349.583	75.5
349.81	93.5
350.037	98.5
350.265	91.5
350.492	74.5
350.72	77.5
350.947	89.5
351.174	89.5
351.402	83.5
351.629	87.5
351.856	81.5
352.083	89.5
352.311	82.5
352.538	89.5
352.765	75.5
352.992	77.5
353.22	86.5
353.447	73.5
353.674	73.5
353.901	81.5
354.128	73.5
354.355	87.5
354.583	78.5
354.81	86.5
355.037	82.5
355.264	78.5
355.491	71.5
355.718	89.5
355.945	87.5
356.172	89.5
356.399	77.5
356.626	82.5
356.853	82.5
357.08	79.5
357.307	90.5
357.534	79.5
357.761	85.5
357.988	83.5
358.215	84.5
358.441	84.5
358.668	90.5
358.895	90.5
359.122	71.5
359.349	71.5
359.576	72.5
359.802	75.5
360.029	78.5
360.256	82.5
360.483	74.5
360.709	90.5
360.936	78.5
361.163	80.5
361.39	74.5
361.616	78.5
361.843	75.5
362.07	85.5
362.296	69.5
362.523	75.5
362.749	71.5
362.976	75.5
363.203	83.5
363.429	63.5
363.656	71.5
363.882	80.5
364.109	81.5
364.335	89.5
364.562	71.5
364.788	80.5
365.015	71.5
365.241	84.5
365.468	86.5
365.694	90.5
365.92	79.5
366.147	96.5
366.373	86.5
366.599	90.5
366.826	87.5
367.052	85.5
367.278	90.5
367.505	70.5
367.731	86.5
367.957	100.5
368.184	87.5
368.41	71.5
368.636	80.5
368.862	79.5
369.089	84.5
369.315	74.5
369.541	79.5
369.767	77.5
369.993	82.5
370.219	84.5
370.445	79.5
370.672	88.5
370.898	92.5
371.124	91.5
371.35	82.5
371.576	84.5
371.802	75.5
372.028	90.5
372.254	72.5
372.48	90.5
372.706	82.5
372.932	88.5
373.158	77.5
373.384	81.5
373.61	80.5
373.835	75.5
374.061	85.5
374.287	99.5
374.513	90.5
374.739	95.5
374.965	74.5
375.191	82.5
375.416	85.5
375.642	73.5
375.868	79.5
376.094	94.5
376.319	75.5
376.545	86.5
376.771	78.5
376.997	85.5
377.222	82.5
377.448	82.5
377.674	99.5
377.899	69.5
378.125	78.5
378.35	86.5
378.576	75.5
378.802	78.5
379.027	84.5
379.253	88.5
379.478	79.5
379.704	86.5
379.929	83.5
380.155	78.5
380.38	77.5
380.606	77.5
380.831	93.5
381.057	88.5
381.282	78.5
381.507	82.5
381.733	88.5
381.958	89.5
382.184	76.5
382.409	82.5
382.634	75.5
382.86	82.5
383.085	85.5
383.31	86.5
383.535	62.5
383.761	77.5
383.986	88.5
384.211	77.5
384.436	72.5
384.662	72.5
384.887	75.5
385.112	77.5
385.337	86.5
385.562	94.5
385.787	82.5
386.013	86.5
386.238	87.5
386.463	86.5
386.688	107.5
386.913	82.5
387.138	84.5
387.363	77.5
387.588	89.5
387.813	77.5
388.038	75.5
388.263	79.5
388.488	65.5
388.713	69.5
388.938	81.5
389.163	83.5
389.387	78.5
389.612	83.5
389.837	79.5
390.062	90.5
390.287	70.5
390.512	79.5
390.736	84.5
390.961	81.5
391.186	89.5
391.411	87.5
391.636	81.5
391.86	77.5
392.085	72.5
392.31	77.5
392.534	78.5
392.759	88.5
392.984	80.5
393.208	87.5
393.433	80.5
393.658	91.5
393.882	75.5
394.107	86.5
394.331	68.5
394.556	64.5
394.78	82.5
395.005	86.5
395.229	92.5
395.454	79.5
395.678	87.5
395.903	88.5
396.127	71.5
396.352	74.5
396.576	74.5
396.801	80.5
397.025	87.5
397.249	98.5
397.474	85.5
397.698	80.5
397.922	85.5
398.147	80.5
398.371	68.5
398.595	87.5
398.82	86.5
399.044	72.5
399.268	98.5
399.492	77.5
399.717	76.5
399.941	91.5
400.165	68.5
400.389	87.5
400.613	73.5
400.837	80.5
401.062	70.5
401.286	79.5
401.51	83.5
401.734	83.5
401.958	77.5
402.182	82.5
402.406	72.5
402.63	79.5
402.854	80.5
403.078	75.5
403.302	80.5
403.526	70.5
403.75	86.5
403.974	74.5
404.198	75.5
404.422	75.5
404.645	75.5
404.869	80.5
405.093	85.5
405.317	80.5
405.541	80.5
405.765	88.5
405.988	62.5
406.212	81.5
406.436	78.5
406.66	70.5
406.883	80.5
407.107	68.5
407.331	76.5
407.555	79.5
407.778	83.5
408.002	85.5
408.226	73.5
408.449	72.5
408.673	79.5
408.896	82.5
409.12	86.5
409.344	87.5
409.567	72.5
409.791	84.5
410.014	87.5
410.238	83.5
410.461	86.5
410.685	95.5
410.908	70.5
411.132	87.5
411.355	95.5
411.578	87.5
411.802	73.5
412.025	82.5
412.249	75.5
412.472	81.5
412.695	76.5
412.919	77.5
413.142	78.5
413.365	73.5
413.589	72.5
413.812	72.5
414.035	76.5
414.258	82.5
414.482	84.5
414.705	80.5
414.928	86.5
415.151	87.5
415.374	82.5
415.597	83.5
415.821	83.5
416.044	85.5
416.267	79.5
416.49	94.5
416.713	71.5
416.936	74.5
417.159	75.5
417.382	76.5
417.605	79.5
417.828	85.5
418.051	72.5
418.274	66.5
418.497	80.5
418.72	69.5
418.943	95.5
419.166	70.5
419.389	76.5
419.611	70.5
419.834	81.5
420.057	83.5
420.28	87.5
420.503	82.5
420.726	72.5
420.948	83.5
421.171	93.5
421.394	74.5
421.617	91.5
421.839	81.5
422.062	83.5
422.285	94.5
422.507	89.5
422.73	72.5
422.953	79.5
423.175	87.5
423.398	81.5
423.621	85.5
423.843	68.5
424.066	72.5
424.288	85.5
424.511	94.5
424.733	87.5
424.956	79.5
425.178	83.5
425.401	75.5
425.623	78.5
425.846	66.5
426.068	76.5
426.291	88.5
426.513	75.5
426.735	79.5
426.958	73.5
427.18	83.5
427.402	87.5
427.625	76.5
427.847	79.5
428.069	73.5
428.292	75.5
428.514	86.5
428.736	66.5
428.958	67.5
429.181	90.5
429.403	83.5
429.625	88.5
429.847	79.5
430.069	78.5
430.292	82.5
430.514	67.5
430.736	74.5
430.958	79.5
431.18	96.5
431.402	72.5
431.624	87.5
431.846	83.5
432.068	69.5
432.29	77.5
432.512	99.5
432.734	79.5
432.956	85.5
433.178	86.5
433.4	66.5
433.622	72.5
433.844	82.5
434.066	84.5
434.287	73.5
434.509	82.5
434.731	86.5
434.953	77.5
435.175	86.5
435.397	88.5
435.618	88.5
435.84	89.5
436.062	82.5
436.284	72.5
436.505	77.5
436.727	86.5
436.949	76.5
437.17	98.5
437.392	78.5
437.614	76.5
437.835	71.5
438.057	72.5
438.278	78.5
438.5	85.5
438.721	78.5
438.943	88.5
439.165	80.5
439.386	84.5
439.608	61.5
439.829	76.5
440.05	86.5
440.272	76.5
440.493	84.5
440.715	70.5
440.936	59.5
441.158	93.5
441.379	80.5
441.6	77.5
441.822	78.5
442.043	93.5
442.264	85.5
442.486	84.5
442.707	81.5
442.928	69.5
443.149	77.5
443.371	80.5
443.592	81.5
443.813	84.5
444.034	77.5
444.255	64.5
444.476	75.5
444.698	71.5
444.919	79.5
445.14	164.5
445.361	99.5
445.582	78.5
445.803	79.5
446.024	75.5
446.245	92.5
446.466	83.5
446.687	84.5
446.908	85.5
447.129	98.5
447.35	87.5
447.571	79.5
447.792	90.5
448.013	78.5
448.234	67.5
448.455	66.5
448.675	69.5
448.896	67.5
449.117	77.5
449.338	78.5
449.559	83.5
449.779	78.5
450	84.5
450.221	79.5
450.442	90.5
450.662	94.5
450.883	79.5
451.104	85.5
451.324	69.5
451.545	86.5
451.766	90.5
451.986	76.5
452.207	87.5
452.428	79.5
452.648	80.5
452.869	78.5
453.089	98.5
453.31	72.5
453.53	87.5
453.751	77.5
453.971	71.5
454.192	90.5
454.412	78.5
454.633	63.5
454.853	82.5
455.073	84.5
455.294	81.5
455.514	99.5
455.734	75.5
455.955	88.5
456.175	80.5
456.395	70.5
456.616	61.5
456.836	65.5
457.056	75.5
457.276	73.5
457.497	73.5
457.717	79.5
457.937	82.5
458.157	71.5
458.377	89.5
458.598	77.5
458.818	71.5
459.038	98.5
459.258	78.5
459.478	86.5
459.698	77.5
459.918	84.5
460.138	82.5
460.358	71.5
460.578	82.5
460.798	83.5
461.018	82.5
461.238	86.5
461.458	90.5
461.678	79.5
461.898	78.5
462.118	74.5
462.338	89.5
462.558	86.5
462.777	80.5
462.997	89.5
463.217	86.5
463.437	72.5
463.657	81.5
463.876	74.5
464.096	66.5
464.316	72.5
464.536	74.5
464.755	79.5
464.975	79.5
465.195	80.5
465.414	87.5
465.634	82.5
465.854	71.5
466.073	78.5
466.293	82.5
466.512	99.5
466.732	80.5
466.951	96.5
467.171	75.5
467.391	84.5
467.61	72.5
467.829	69.5
468.049	79.5
468.268	73.5
468.488	64.5
468.707	80.5
468.927	76.5
469.146	77.5
469.365	74.5
469.585	76.5
469.804	76.5
470.023	82.5
470.243	86.5
470.462	93.5
470.681	71.5
470.901	74.5
471.12	88.5
471.339	74.5
471.558	87.5
471.777	75.5
471.997	64.5
472.216	84.5
472.435	102.5
472.654	72.5
472.873	78.5
473.092	88.5
473.311	86.5
473.53	80.5
473.749	78.5
473.968	100.5
474.187	76.5
474.406	82.5
474.625	82.5
474.844	91.5
475.063	82.5
475.282	87.5
475.501	81.5
475.72	80.5
475.939	77.5
476.158	99.5
476.377	87.5
476.596	80.5
476.814	82.5
477.033	94.5
477.252	89.5
477.471	79.5
477.69	74.5
477.908	68.5
478.127	94.5
478.346	92.5
478.564	62.5
478.783	92.5
479.002	71.5
479.22	85.5
479.439	87.5
479.658	98.5
479.876	79.5
480.095	90.5
480.313	85.5
480.532	83.5
480.751	77.5
480.969	68.5
481.188	70.5
481.406	103.5
481.624	77.5
481.843	76.5
482.061	87.5
482.28	68.5
482.498	92.5
482.717	70.5
482.935	77.5
483.153	82.5
483.372	93.5
483.59	89.5
483.808	94.5
484.027	90.5
484.245	79.5
484.463	82.5
484.681	82.5
484.9	87.5
485.118	76.5
485.336	82.5
485.554	77.5
485.772	71.5
485.99	79.5
486.209	70.5
486.427	80.5
486.645	94.5
486.863	92.5
487.081	76.5
487.299	66.5
487.517	80.5
487.735	94.5
487.953	106.5
488.171	83.5
488.389	86.5
488.607	76.5
488.825	77.5
489.043	80.5
489.261	70.5
489.479	83.5
489.696	87.5
489.914	91.5
490.132	85.5
490.35	84.5
490.568	98.5
490.786	92.5
491.003	87.5
491.221	91.5
491.439	87.5
491.657	65.5
491.874	75.5
492.092	76.5
492.31	67.5
492.527	88.5
492.745	75.5
492.963	88.5
493.18	82.5
493.398	76.5
493.615	88.5
493.833	78.5
494.05	94.5
494.268	77.5
494.485	88.5
494.703	66.5
494.92	72.5
495.138	80.5
495.355	77.5
495.573	87.5
495.79	85.5
496.008	74.5
496.225	90.5
496.442	80.5
496.66	84.5
496.877	95.5
497.094	103.5
497.312	84.5
497.529	72.5
497.746	83.5
497.963	67.5
498.181	66.5
498.398	87.5
498.615	86.5
498.832	85.5
499.049	60.5
499.267	73.5
499.484	88.5
499.701	74.5
499.918	74.5
500.135	72.5
500.352	78.5
500.569	76.5
500.786	89.5
501.003	71.5
501.22	94.5
501.437	82.5
501.654	76.5
501.871	75.5
502.088	90.5
502.305	79.5
502.522	81.5
502.739	65.5
502.956	87.5
503.172	86.5
503.389	78.5
503.606	73.5
503.823	73.5
504.04	93.5
504.256	89.5
504.473	78.5
504.69	91.5
504.907	83.5
505.123	80.5
505.34	90.5
505.557	72.5
505.773	75.5
505.99	71.5
506.207	85.5
506.423	76.5
506.64	86.5
506.856	86.5
507.073	75.5
507.289	90.5
507.506	87.5
507.722	62.5
507.939	76.5
508.155	83.5
508.372	75.5
508.588	77.5
508.805	90.5
509.021	99.5
509.238	86.5
509.454	74.5
509.67	83.5
509.887	74.5
510.103	92.5
510.319	82.5
510.536	81.5
510.752	79.5
510.968	73.5
511.184	75.5
511.401	77.5
511.617	84.5
511.833	81.5
512.049	62.5
512.265	68.5
512.481	95.5
512.698	89.5
512.914	83.5
513.13	83.5
513.346	81.5
513.562	86.5
513.778	88.5
513.994	91.5
514.21	77.5
514.426	85.5
514.642	92.5
514.858	88.5
515.074	98.5
515.29	86.5
515.506	80.5
515.721	81.5
515.937	91.5
516.153	82.5
516.369	79.5
516.585	87.5
516.801	75.5
517.016	77.5
517.232	86.5
517.448	72.5
517.664	75.5
517.879	74.5
518.095	72.5
518.311	83.5
518.527	92.5
518.742	87.5
518.958	82.5
519.173	85.5
519.389	75.5
519.605	83.5
519.82	69.5
520.036	72.5
520.251	91.5
520.467	74.5
520.682	82.5
520.898	76.5
521.113	90.5
521.329	71.5
521.544	79.5
521.76	86.5
521.975	79.5
522.19	69.5
522.406	87.5
522.621	87.5
522.836	88.5
523.052	79.5
523.267	75.5
523.482	89.5
523.698	92.5
523.913	76.5
524.128	83.5
524.343	76.5
524.559	94.5
524.774	83.5
524.989	94.5
525.204	75.5
525.419	86.5
525.634	76.5
525.849	76.5
526.064	74.5
526.28	85.5
526.495	75.5
526.71	80.5
526.925	83.5
527.14	77.5
527.355	76.5
527.57	87.5
527.785	75.5
527.999	74.5
528.214	85.5
528.429	83.5
528.644	86.5
528.859	87.5
529.074	78.5
529.289	82.5
529.503	75.5
529.718	86.5
529.933	87.5
530.148	83.5
530.363	86.5
530.577	84.5
530.792	83.5
531.007	82.5
531.221	79.5
531.436	85.5
531.651	85.5
531.865	78.5
532.08	79.5
532.295	87.5
532.509	82.5
532.724	88.5
532.938	76.5
533.153	84.5
533.367	82.5
533.582	95.5
533.796	78.5
534.011	79.5
534.225	88.5
534.44	86.5
534.654	74.5
534.868	84.5
535.083	81.5
535.297	81.5
535.511	89.5
535.726	78.5
535.94	89.5
536.154	79.5
536.369	89.5
536.583	76.5
536.797	72.5
537.011	76.5
537.225	85.5
537.44	77.5
537.654	90.5
537.868	85.5
538.082	74.5
538.296	67.5
538.51	74.5
538.724	83.5
538.938	81.5
539.153	90.5
539.367	91.5
539.581	87.5
539.795	88.5
540.009	91.5
540.222	91.5
540.436	80.5
540.65	62.5
