Data from KBr_1_HRD10591_00027.txt Node
Date: Mon Jan 19 13:11:19 EST 2026
User: Yrep
Spectrometer: HR+D1059
Trigger mode: 0
Integration Time (sec): 1.000000E-1
Scans to average: 1
Electric dark correction enabled: true
Nonlinearity correction enabled: false
Boxcar width: 0
XAxis mode: Wavelengths
Number of Pixels in Spectrum: 2048
>>>>>Begin Spectral Data<<<<<
223.165	-14.56
223.4	-14.56
223.635	-14.56
223.869	-24.56
224.104	-21.56
224.338	-22.56
224.573	-21.56
224.808	-15.56
225.042	-3.56
225.277	2.44
225.511	-1.56
225.746	0.44
225.98	3.44
226.215	7.44
226.449	25.44
226.683	15.44
226.918	36.44
227.152	34.44
227.387	49.44
227.621	38.44
227.856	50.44
228.09	57.44
228.324	52.44
228.559	67.44
228.793	48.44
229.027	68.44
229.262	65.44
229.496	60.44
229.73	59.44
229.964	75.44
230.199	77.44
230.433	71.44
230.667	85.44
230.901	86.44
231.136	83.44
231.37	82.44
231.604	83.44
231.838	76.44
232.072	76.44
232.306	93.44
232.541	82.44
232.775	80.44
233.009	86.44
233.243	81.44
233.477	74.44
233.711	83.44
233.945	77.44
234.179	73.44
234.413	69.44
234.647	77.44
234.881	85.44
235.115	105.44
235.349	77.44
235.583	94.44
235.817	75.44
236.051	76.44
236.285	81.44
236.519	72.44
236.753	70.44
236.987	74.44
237.221	79.44
237.455	67.44
237.689	71.44
237.922	77.44
238.156	84.44
238.39	68.44
238.624	71.44
238.858	67.44
239.091	72.44
239.325	76.44
239.559	56.44
239.793	77.44
240.027	74.44
240.26	78.44
240.494	62.44
240.728	66.44
240.961	75.44
241.195	87.44
241.429	70.44
241.662	74.44
241.896	75.44
242.13	89.44
242.363	70.44
242.597	75.44
242.83	86.44
243.064	78.44
243.298	75.44
243.531	78.44
243.765	76.44
243.998	80.44
244.232	75.44
244.465	78.44
244.699	68.44
244.932	72.44
245.166	71.44
245.399	77.44
245.633	75.44
245.866	81.44
246.099	77.44
246.333	67.44
246.566	72.44
246.8	78.44
247.033	73.44
247.266	65.44
247.5	64.44
247.733	69.44
247.966	88.44
248.2	67.44
248.433	76.44
248.666	74.44
248.899	86.44
249.133	73.44
249.366	87.44
249.599	89.44
249.832	76.44
250.066	76.44
250.299	70.44
250.532	86.44
250.765	91.44
250.998	72.44
251.231	89.44
251.465	78.44
251.698	79.44
251.931	82.44
252.164	70.44
252.397	81.44
252.63	84.44
252.863	82.44
253.096	65.44
253.329	78.44
253.562	76.44
253.795	93.44
254.028	77.44
254.261	92.44
254.494	73.44
254.727	87.44
254.96	81.44
255.193	85.44
255.426	74.44
255.659	83.44
255.892	88.44
256.124	93.44
256.357	76.44
256.59	88.44
256.823	85.44
257.056	76.44
257.289	73.44
257.521	80.44
257.754	69.44
257.987	81.44
258.22	87.44
258.452	70.44
258.685	97.44
258.918	74.44
259.151	85.44
259.383	93.44
259.616	84.44
259.849	74.44
260.081	81.44
260.314	95.44
260.547	93.44
260.779	77.44
261.012	86.44
261.244	84.44
261.477	86.44
261.71	82.44
261.942	77.44
262.175	78.44
262.407	86.44
262.64	82.44
262.872	84.44
263.105	72.44
263.337	83.44
263.57	80.44
263.802	89.44
264.035	88.44
264.267	81.44
264.499	77.44
264.732	92.44
264.964	79.44
265.197	87.44
265.429	107.44
265.661	78.44
265.894	72.44
266.126	76.44
266.358	75.44
266.591	85.44
266.823	82.44
267.055	86.44
267.287	87.44
267.52	81.44
267.752	86.44
267.984	78.44
268.216	85.44
268.448	96.44
268.681	86.44
268.913	91.44
269.145	79.44
269.377	76.44
269.609	86.44
269.841	76.44
270.073	87.44
270.306	87.44
270.538	86.44
270.77	91.44
271.002	86.44
271.234	78.44
271.466	70.44
271.698	81.44
271.93	62.44
272.162	79.44
272.394	66.44
272.626	89.44
272.858	77.44
273.09	76.44
273.322	73.44
273.553	88.44
273.785	91.44
274.017	72.44
274.249	90.44
274.481	74.44
274.713	64.44
274.945	87.44
275.176	79.44
275.408	86.44
275.64	92.44
275.872	86.44
276.104	83.44
276.335	79.44
276.567	86.44
276.799	72.44
277.031	86.44
277.262	78.44
277.494	85.44
277.726	90.44
277.957	79.44
278.189	73.44
278.421	88.44
278.652	72.44
278.884	87.44
279.115	89.44
279.347	84.44
279.579	85.44
279.81	73.44
280.042	70.44
280.273	80.44
280.505	81.44
280.736	92.44
280.968	83.44
281.199	84.44
281.431	78.44
281.662	70.44
281.894	91.44
282.125	93.44
282.356	96.44
282.588	85.44
282.819	81.44
283.051	80.44
283.282	81.44
283.513	89.44
283.745	90.44
283.976	88.44
284.207	77.44
284.439	89.44
284.67	74.44
284.901	77.44
285.132	88.44
285.364	85.44
285.595	86.44
285.826	78.44
286.057	67.44
286.288	83.44
286.52	73.44
286.751	80.44
286.982	73.44
287.213	77.44
287.444	88.44
287.675	91.44
287.906	106.44
288.138	82.44
288.369	93.44
288.6	74.44
288.831	92.44
289.062	85.44
289.293	76.44
289.524	71.44
289.755	84.44
289.986	76.44
290.217	92.44
290.448	79.44
290.679	83.44
290.91	95.44
291.141	70.44
291.371	97.44
291.602	89.44
291.833	86.44
292.064	92.44
292.295	96.44
292.526	92.44
292.757	84.44
292.987	71.44
293.218	86.44
293.449	90.44
293.68	80.44
293.91	96.44
294.141	73.44
294.372	85.44
294.603	84.44
294.833	85.44
295.064	91.44
295.295	72.44
295.525	79.44
295.756	85.44
295.987	100.44
296.217	81.44
296.448	80.44
296.679	76.44
296.909	83.44
297.14	78.44
297.37	93.44
297.601	90.44
297.831	91.44
298.062	92.44
298.292	69.44
298.523	92.44
298.753	90.44
298.984	91.44
299.214	86.44
299.445	94.44
299.675	87.44
299.905	84.44
300.136	90.44
300.366	82.44
300.597	74.44
300.827	83.44
301.057	87.44
301.288	80.44
301.518	74.44
301.748	72.44
301.979	79.44
302.209	88.44
302.439	86.44
302.669	81.44
302.9	87.44
303.13	88.44
303.36	89.44
303.59	95.44
303.82	84.44
304.051	84.44
304.281	90.44
304.511	94.44
304.741	86.44
304.971	77.44
305.201	85.44
305.431	76.44
305.661	83.44
305.891	74.44
306.121	94.44
306.352	83.44
306.582	81.44
306.812	76.44
307.042	66.44
307.272	84.44
307.502	92.44
307.731	81.44
307.961	96.44
308.191	93.44
308.421	92.44
308.651	63.44
308.881	86.44
309.111	94.44
309.341	82.44
309.571	81.44
309.8	85.44
310.03	75.44
310.26	72.44
310.49	88.44
310.72	83.44
310.949	89.44
311.179	88.44
311.409	82.44
311.639	91.44
311.868	85.44
312.098	84.44
312.328	87.44
312.557	89.44
312.787	73.44
313.017	85.44
313.246	98.44
313.476	76.44
313.706	80.44
313.935	76.44
314.165	90.44
314.394	95.44
314.624	87.44
314.853	97.44
315.083	70.44
315.312	89.44
315.542	90.44
315.771	91.44
316.001	80.44
316.23	84.44
316.46	85.44
316.689	85.44
316.919	96.44
317.148	106.44
317.377	97.44
317.607	79.44
317.836	80.44
318.065	89.44
318.295	96.44
318.524	80.44
318.753	78.44
318.983	84.44
319.212	78.44
319.441	77.44
319.67	73.44
319.9	85.44
320.129	79.44
320.358	89.44
320.587	86.44
320.816	82.44
321.046	73.44
321.275	81.44
321.504	83.44
321.733	81.44
321.962	88.44
322.191	81.44
322.42	67.44
322.649	87.44
322.878	82.44
323.108	79.44
323.337	70.44
323.566	82.44
323.795	66.44
324.024	81.44
324.253	88.44
324.482	88.44
324.71	70.44
324.939	92.44
325.168	82.44
325.397	84.44
325.626	77.44
325.855	82.44
326.084	79.44
326.313	81.44
326.542	96.44
326.77	78.44
326.999	81.44
327.228	92.44
327.457	83.44
327.686	71.44
327.914	82.44
328.143	85.44
328.372	66.44
328.6	88.44
328.829	89.44
329.058	85.44
329.287	82.44
329.515	78.44
329.744	75.44
329.972	86.44
330.201	87.44
330.43	65.44
330.658	70.44
330.887	76.44
331.115	89.44
331.344	75.44
331.572	91.44
331.801	84.44
332.03	85.44
332.258	80.44
332.486	88.44
332.715	82.44
332.943	92.44
333.172	89.44
333.4	94.44
333.629	97.44
333.857	80.44
334.085	88.44
334.314	81.44
334.542	84.44
334.771	92.44
334.999	79.44
335.227	89.44
335.455	98.44
335.684	80.44
335.912	82.44
336.14	98.44
336.369	77.44
336.597	74.44
336.825	84.44
337.053	78.44
337.281	84.44
337.51	91.44
337.738	84.44
337.966	86.44
338.194	87.44
338.422	92.44
338.65	89.44
338.878	78.44
339.106	72.44
339.334	73.44
339.562	77.44
339.79	86.44
340.018	78.44
340.246	82.44
340.474	81.44
340.702	83.44
340.93	78.44
341.158	85.44
341.386	84.44
341.614	78.44
341.842	78.44
342.07	66.44
342.298	88.44
342.526	87.44
342.754	87.44
342.981	88.44
343.209	83.44
343.437	95.44
343.665	95.44
343.893	90.44
344.12	94.44
344.348	84.44
344.576	87.44
344.804	86.44
345.031	77.44
345.259	70.44
345.487	89.44
345.714	85.44
345.942	93.44
346.17	95.44
346.397	100.44
346.625	72.44
346.853	83.44
347.08	80.44
347.308	95.44
347.535	73.44
347.763	72.44
347.99	74.44
348.218	100.44
348.445	80.44
348.673	88.44
348.9	52.44
349.128	87.44
349.355	72.44
349.583	78.44
349.81	78.44
350.037	73.44
350.265	82.44
350.492	96.44
350.72	94.44
350.947	79.44
351.174	104.44
351.402	81.44
351.629	82.44
351.856	97.44
352.083	74.44
352.311	86.44
352.538	73.44
352.765	72.44
352.992	73.44
353.22	79.44
353.447	86.44
353.674	72.44
353.901	74.44
354.128	79.44
354.355	88.44
354.583	86.44
354.81	91.44
355.037	80.44
355.264	79.44
355.491	84.44
355.718	76.44
355.945	91.44
356.172	72.44
356.399	70.44
356.626	83.44
356.853	86.44
357.08	77.44
357.307	98.44
357.534	77.44
357.761	62.44
357.988	86.44
358.215	89.44
358.441	69.44
358.668	87.44
358.895	62.44
359.122	78.44
359.349	81.44
359.576	75.44
359.802	76.44
360.029	80.44
360.256	87.44
360.483	79.44
360.709	97.44
360.936	98.44
361.163	73.44
361.39	75.44
361.616	76.44
361.843	92.44
362.07	76.44
362.296	85.44
362.523	80.44
362.749	87.44
362.976	84.44
363.203	73.44
363.429	88.44
363.656	90.44
363.882	73.44
364.109	81.44
364.335	82.44
364.562	81.44
364.788	86.44
365.015	88.44
365.241	73.44
365.468	89.44
365.694	86.44
365.92	63.44
366.147	86.44
366.373	74.44
366.599	69.44
366.826	90.44
367.052	71.44
367.278	77.44
367.505	74.44
367.731	94.44
367.957	81.44
368.184	85.44
368.41	90.44
368.636	74.44
368.862	86.44
369.089	77.44
369.315	79.44
369.541	80.44
369.767	81.44
369.993	82.44
370.219	81.44
370.445	88.44
370.672	76.44
370.898	91.44
371.124	89.44
371.35	82.44
371.576	77.44
371.802	91.44
372.028	76.44
372.254	93.44
372.48	86.44
372.706	92.44
372.932	93.44
373.158	89.44
373.384	72.44
373.61	74.44
373.835	78.44
374.061	95.44
374.287	98.44
374.513	86.44
374.739	79.44
374.965	91.44
375.191	87.44
375.416	90.44
375.642	97.44
375.868	70.44
376.094	83.44
376.319	89.44
376.545	78.44
376.771	80.44
376.997	94.44
377.222	85.44
377.448	84.44
377.674	73.44
377.899	90.44
378.125	93.44
378.35	95.44
378.576	109.44
378.802	83.44
379.027	94.44
379.253	81.44
379.478	82.44
379.704	93.44
379.929	71.44
380.155	76.44
380.38	80.44
380.606	88.44
380.831	82.44
381.057	76.44
381.282	84.44
381.507	80.44
381.733	78.44
381.958	80.44
382.184	77.44
382.409	76.44
382.634	92.44
382.86	76.44
383.085	90.44
383.31	90.44
383.535	86.44
383.761	82.44
383.986	84.44
384.211	95.44
384.436	86.44
384.662	95.44
384.887	76.44
385.112	88.44
385.337	72.44
385.562	82.44
385.787	91.44
386.013	81.44
386.238	90.44
386.463	73.44
386.688	87.44
386.913	70.44
387.138	87.44
387.363	93.44
387.588	81.44
387.813	80.44
388.038	78.44
388.263	83.44
388.488	76.44
388.713	85.44
388.938	79.44
389.163	87.44
389.387	80.44
389.612	79.44
389.837	72.44
390.062	101.44
390.287	92.44
390.512	72.44
390.736	75.44
390.961	84.44
391.186	79.44
391.411	77.44
391.636	77.44
391.86	74.44
392.085	76.44
392.31	81.44
392.534	90.44
392.759	78.44
392.984	89.44
393.208	81.44
393.433	91.44
393.658	65.44
393.882	94.44
394.107	73.44
394.331	70.44
394.556	83.44
394.78	86.44
395.005	87.44
395.229	80.44
395.454	82.44
395.678	74.44
395.903	94.44
396.127	97.44
396.352	81.44
396.576	72.44
396.801	92.44
397.025	82.44
397.249	88.44
397.474	76.44
397.698	83.44
397.922	92.44
398.147	88.44
398.371	71.44
398.595	64.44
398.82	77.44
399.044	85.44
399.268	88.44
399.492	84.44
399.717	72.44
399.941	70.44
400.165	82.44
400.389	89.44
400.613	92.44
400.837	74.44
401.062	87.44
401.286	80.44
401.51	63.44
401.734	78.44
401.958	89.44
402.182	65.44
402.406	74.44
402.63	76.44
402.854	71.44
403.078	95.44
403.302	70.44
403.526	75.44
403.75	76.44
403.974	86.44
404.198	77.44
404.422	80.44
404.645	79.44
404.869	84.44
405.093	84.44
405.317	85.44
405.541	79.44
405.765	86.44
405.988	83.44
406.212	69.44
406.436	80.44
406.66	76.44
406.883	85.44
407.107	78.44
407.331	85.44
407.555	85.44
407.778	70.44
408.002	84.44
408.226	81.44
408.449	80.44
408.673	86.44
408.896	72.44
409.12	82.44
409.344	90.44
409.567	86.44
409.791	66.44
410.014	92.44
410.238	81.44
410.461	76.44
410.685	85.44
410.908	89.44
411.132	73.44
411.355	76.44
411.578	75.44
411.802	83.44
412.025	76.44
412.249	75.44
412.472	65.44
412.695	71.44
412.919	80.44
413.142	92.44
413.365	81.44
413.589	84.44
413.812	78.44
414.035	83.44
414.258	72.44
414.482	79.44
414.705	78.44
414.928	80.44
415.151	75.44
415.374	87.44
415.597	90.44
415.821	77.44
416.044	92.44
416.267	76.44
416.49	75.44
416.713	82.44
416.936	82.44
417.159	81.44
417.382	84.44
417.605	88.44
417.828	80.44
418.051	88.44
418.274	73.44
418.497	61.44
418.72	76.44
418.943	94.44
419.166	82.44
419.389	93.44
419.611	81.44
419.834	70.44
420.057	72.44
420.28	77.44
420.503	74.44
420.726	73.44
420.948	81.44
421.171	78.44
421.394	87.44
421.617	76.44
421.839	82.44
422.062	86.44
422.285	72.44
422.507	70.44
422.73	89.44
422.953	82.44
423.175	78.44
423.398	86.44
423.621	83.44
423.843	69.44
424.066	70.44
424.288	76.44
424.511	84.44
424.733	92.44
424.956	77.44
425.178	76.44
425.401	78.44
425.623	81.44
425.846	89.44
426.068	76.44
426.291	72.44
426.513	66.44
426.735	85.44
426.958	88.44
427.18	86.44
427.402	98.44
427.625	76.44
427.847	76.44
428.069	77.44
428.292	77.44
428.514	92.44
428.736	93.44
428.958	73.44
429.181	87.44
429.403	86.44
429.625	84.44
429.847	69.44
430.069	81.44
430.292	89.44
430.514	81.44
430.736	78.44
430.958	90.44
431.18	69.44
431.402	81.44
431.624	86.44
431.846	74.44
432.068	78.44
432.29	82.44
432.512	76.44
432.734	87.44
432.956	85.44
433.178	89.44
433.4	82.44
433.622	72.44
433.844	82.44
434.066	89.44
434.287	79.44
434.509	84.44
434.731	80.44
434.953	80.44
435.175	84.44
435.397	79.44
435.618	92.44
435.84	88.44
436.062	79.44
436.284	68.44
436.505	67.44
436.727	77.44
436.949	80.44
437.17	81.44
437.392	88.44
437.614	84.44
437.835	80.44
438.057	84.44
438.278	73.44
438.5	77.44
438.721	88.44
438.943	88.44
439.165	86.44
439.386	88.44
439.608	83.44
439.829	77.44
440.05	88.44
440.272	78.44
440.493	82.44
440.715	75.44
440.936	74.44
441.158	93.44
441.379	93.44
441.6	83.44
441.822	82.44
442.043	80.44
442.264	70.44
442.486	83.44
442.707	77.44
442.928	71.44
443.149	79.44
443.371	75.44
443.592	73.44
443.813	88.44
444.034	77.44
444.255	78.44
444.476	86.44
444.698	77.44
444.919	81.44
445.14	148.44
445.361	120.44
445.582	89.44
445.803	62.44
446.024	84.44
446.245	67.44
446.466	79.44
446.687	71.44
446.908	83.44
447.129	82.44
447.35	97.44
447.571	74.44
447.792	59.44
448.013	96.44
448.234	84.44
448.455	77.44
448.675	76.44
448.896	94.44
449.117	78.44
449.338	73.44
449.559	76.44
449.779	79.44
450	85.44
450.221	73.44
450.442	76.44
450.662	82.44
450.883	88.44
451.104	85.44
451.324	81.44
451.545	84.44
451.766	80.44
451.986	66.44
452.207	96.44
452.428	74.44
452.648	82.44
452.869	85.44
453.089	74.44
453.31	86.44
453.53	81.44
453.751	85.44
453.971	91.44
454.192	80.44
454.412	80.44
454.633	82.44
454.853	89.44
455.073	87.44
455.294	84.44
455.514	80.44
455.734	69.44
455.955	84.44
456.175	85.44
456.395	81.44
456.616	84.44
456.836	81.44
457.056	82.44
457.276	72.44
457.497	71.44
457.717	80.44
457.937	85.44
458.157	76.44
458.377	85.44
458.598	86.44
458.818	74.44
459.038	77.44
459.258	72.44
459.478	73.44
459.698	77.44
459.918	94.44
460.138	82.44
460.358	72.44
460.578	89.44
460.798	66.44
461.018	79.44
461.238	79.44
461.458	82.44
461.678	86.44
461.898	75.44
462.118	85.44
462.338	80.44
462.558	76.44
462.777	86.44
462.997	78.44
463.217	65.44
463.437	88.44
463.657	74.44
463.876	74.44
464.096	88.44
464.316	77.44
464.536	87.44
464.755	80.44
464.975	72.44
465.195	83.44
465.414	92.44
465.634	85.44
465.854	77.44
466.073	78.44
466.293	77.44
466.512	76.44
466.732	64.44
466.951	80.44
467.171	77.44
467.391	89.44
467.61	80.44
467.829	72.44
468.049	76.44
468.268	80.44
468.488	90.44
468.707	75.44
468.927	78.44
469.146	74.44
469.365	81.44
469.585	84.44
469.804	70.44
470.023	87.44
470.243	80.44
470.462	78.44
470.681	81.44
470.901	83.44
471.12	96.44
471.339	88.44
471.558	76.44
471.777	69.44
471.997	93.44
472.216	78.44
472.435	80.44
472.654	86.44
472.873	87.44
473.092	77.44
473.311	77.44
473.53	71.44
473.749	80.44
473.968	88.44
474.187	90.44
474.406	91.44
474.625	99.44
474.844	62.44
475.063	69.44
475.282	87.44
475.501	81.44
475.72	95.44
475.939	77.44
476.158	78.44
476.377	81.44
476.596	85.44
476.814	88.44
477.033	77.44
477.252	73.44
477.471	86.44
477.69	79.44
477.908	73.44
478.127	81.44
478.346	86.44
478.564	86.44
478.783	69.44
479.002	82.44
479.22	96.44
479.439	88.44
479.658	93.44
479.876	84.44
480.095	78.44
480.313	84.44
480.532	80.44
480.751	73.44
480.969	81.44
481.188	73.44
481.406	78.44
481.624	84.44
481.843	82.44
482.061	89.44
482.28	89.44
482.498	83.44
482.717	91.44
482.935	73.44
483.153	76.44
483.372	80.44
483.59	78.44
483.808	76.44
484.027	87.44
484.245	76.44
484.463	84.44
484.681	87.44
484.9	102.44
485.118	97.44
485.336	85.44
485.554	80.44
485.772	84.44
485.99	98.44
486.209	82.44
486.427	82.44
486.645	82.44
486.863	82.44
487.081	79.44
487.299	101.44
487.517	76.44
487.735	77.44
487.953	77.44
488.171	89.44
488.389	89.44
488.607	81.44
488.825	91.44
489.043	75.44
489.261	84.44
489.479	82.44
489.696	87.44
489.914	93.44
490.132	88.44
490.35	80.44
490.568	80.44
490.786	85.44
491.003	76.44
491.221	79.44
491.439	83.44
491.657	83.44
491.874	96.44
492.092	84.44
492.31	86.44
492.527	93.44
492.745	95.44
492.963	93.44
493.18	89.44
493.398	91.44
493.615	77.44
493.833	79.44
494.05	82.44
494.268	80.44
494.485	92.44
494.703	81.44
494.92	75.44
495.138	85.44
495.355	85.44
495.573	82.44
495.79	74.44
496.008	74.44
496.225	80.44
496.442	85.44
496.66	77.44
496.877	88.44
497.094	71.44
497.312	87.44
497.529	87.44
497.746	85.44
497.963	75.44
498.181	82.44
498.398	70.44
498.615	93.44
498.832	86.44
499.049	78.44
499.267	84.44
499.484	72.44
499.701	72.44
499.918	81.44
500.135	88.44
500.352	76.44
500.569	89.44
500.786	80.44
501.003	90.44
501.22	82.44
501.437	73.44
501.654	91.44
501.871	86.44
502.088	86.44
502.305	88.44
502.522	83.44
502.739	82.44
502.956	88.44
503.172	73.44
503.389	78.44
503.606	81.44
503.823	81.44
504.04	75.44
504.256	96.44
504.473	88.44
504.69	73.44
504.907	88.44
505.123	68.44
505.34	82.44
505.557	88.44
505.773	71.44
505.99	77.44
506.207	80.44
506.423	81.44
506.64	79.44
506.856	85.44
507.073	78.44
507.289	93.44
507.506	94.44
507.722	73.44
507.939	81.44
508.155	88.44
508.372	72.44
508.588	87.44
508.805	83.44
509.021	85.44
509.238	86.44
509.454	82.44
509.67	79.44
509.887	83.44
510.103	72.44
510.319	84.44
510.536	90.44
510.752	90.44
510.968	96.44
511.184	81.44
511.401	75.44
511.617	81.44
511.833	99.44
512.049	85.44
512.265	81.44
512.481	84.44
512.698	83.44
512.914	88.44
513.13	82.44
513.346	80.44
513.562	85.44
513.778	94.44
513.994	74.44
514.21	80.44
514.426	95.44
514.642	82.44
514.858	87.44
515.074	96.44
515.29	107.44
515.506	82.44
515.721	84.44
515.937	78.44
516.153	84.44
516.369	81.44
516.585	80.44
516.801	86.44
517.016	81.44
517.232	76.44
517.448	85.44
517.664	81.44
517.879	88.44
518.095	87.44
518.311	89.44
518.527	87.44
518.742	87.44
518.958	87.44
519.173	86.44
519.389	81.44
519.605	84.44
519.82	84.44
520.036	81.44
520.251	81.44
