Data from KBr_1_HRD10591_00018.txt Node
Date: Mon Jan 19 13:11:18 EST 2026
User: Yrep
Spectrometer: HR+D1059
Trigger mode: 0
Integration Time (sec): 1.000000E-1
Scans to average: 1
Electric dark correction enabled: true
Nonlinearity correction enabled: false
Boxcar width: 0
XAxis mode: Wavelengths
Number of Pixels in Spectrum: 2048
>>>>>Begin Spectral Data<<<<<
223.165	-23.25
223.4	-23.25
223.635	-23.25
223.869	-15.25
224.104	-13.25
224.338	-25.25
224.573	-1.25
224.808	-1.25
225.042	-5.25
225.277	0.75
225.511	7.75
225.746	9.75
225.98	-1.25
226.215	11.75
226.449	4.75
226.683	9.75
226.918	12.75
227.152	28.75
227.387	28.75
227.621	31.75
227.856	31.75
228.09	48.75
228.324	45.75
228.559	45.75
228.793	46.75
229.027	71.75
229.262	55.75
229.496	79.75
229.73	79.75
229.964	79.75
230.199	75.75
230.433	84.75
230.667	83.75
230.901	99.75
231.136	87.75
231.37	88.75
231.604	81.75
231.838	97.75
232.072	82.75
232.306	89.75
232.541	80.75
232.775	80.75
233.009	79.75
233.243	85.75
233.477	86.75
233.711	80.75
233.945	85.75
234.179	79.75
234.413	95.75
234.647	106.75
234.881	94.75
235.115	86.75
235.349	89.75
235.583	87.75
235.817	97.75
236.051	100.75
236.285	101.75
236.519	76.75
236.753	79.75
236.987	88.75
237.221	88.75
237.455	85.75
237.689	86.75
237.922	96.75
238.156	85.75
238.39	80.75
238.624	86.75
238.858	98.75
239.091	108.75
239.325	96.75
239.559	98.75
239.793	94.75
240.027	93.75
240.26	86.75
240.494	91.75
240.728	83.75
240.961	85.75
241.195	79.75
241.429	111.75
241.662	89.75
241.896	89.75
242.13	92.75
242.363	89.75
242.597	97.75
242.83	102.75
243.064	97.75
243.298	89.75
243.531	75.75
243.765	97.75
243.998	102.75
244.232	103.75
244.465	102.75
244.699	101.75
244.932	95.75
245.166	94.75
245.399	102.75
245.633	110.75
245.866	88.75
246.099	102.75
246.333	87.75
246.566	103.75
246.8	103.75
247.033	102.75
247.266	97.75
247.5	93.75
247.733	105.75
247.966	89.75
248.2	103.75
248.433	109.75
248.666	111.75
248.899	105.75
249.133	105.75
249.366	101.75
249.599	92.75
249.832	94.75
250.066	99.75
250.299	109.75
250.532	114.75
250.765	89.75
250.998	107.75
251.231	112.75
251.465	98.75
251.698	104.75
251.931	125.75
252.164	118.75
252.397	106.75
252.63	102.75
252.863	102.75
253.096	105.75
253.329	110.75
253.562	102.75
253.795	115.75
254.028	113.75
254.261	122.75
254.494	113.75
254.727	110.75
254.96	109.75
255.193	127.75
255.426	106.75
255.659	131.75
255.892	108.75
256.124	119.75
256.357	131.75
256.59	117.75
256.823	121.75
257.056	117.75
257.289	107.75
257.521	109.75
257.754	120.75
257.987	120.75
258.22	118.75
258.452	132.75
258.685	112.75
258.918	125.75
259.151	122.75
259.383	129.75
259.616	131.75
259.849	125.75
260.081	113.75
260.314	117.75
260.547	118.75
260.779	124.75
261.012	127.75
261.244	123.75
261.477	129.75
261.71	129.75
261.942	120.75
262.175	133.75
262.407	134.75
262.64	121.75
262.872	139.75
263.105	129.75
263.337	125.75
263.57	131.75
263.802	142.75
264.035	139.75
264.267	123.75
264.499	132.75
264.732	135.75
264.964	133.75
265.197	121.75
265.429	142.75
265.661	141.75
265.894	131.75
266.126	135.75
266.358	133.75
266.591	145.75
266.823	147.75
267.055	142.75
267.287	144.75
267.52	126.75
267.752	133.75
267.984	151.75
268.216	137.75
268.448	130.75
268.681	146.75
268.913	131.75
269.145	149.75
269.377	151.75
269.609	148.75
269.841	155.75
270.073	142.75
270.306	140.75
270.538	139.75
270.77	142.75
271.002	139.75
271.234	141.75
271.466	150.75
271.698	151.75
271.93	167.75
272.162	154.75
272.394	166.75
272.626	151.75
272.858	159.75
273.09	147.75
273.322	132.75
273.553	134.75
273.785	148.75
274.017	135.75
274.249	159.75
274.481	163.75
274.713	163.75
274.945	178.75
275.176	158.75
275.408	167.75
275.64	146.75
275.872	162.75
276.104	155.75
276.335	147.75
276.567	153.75
276.799	168.75
277.031	166.75
277.262	162.75
277.494	158.75
277.726	161.75
277.957	149.75
278.189	153.75
278.421	171.75
278.652	180.75
278.884	172.75
279.115	173.75
279.347	173.75
279.579	186.75
279.81	187.75
280.042	185.75
280.273	186.75
280.505	187.75
280.736	177.75
280.968	162.75
281.199	170.75
281.431	154.75
281.662	172.75
281.894	176.75
282.125	181.75
282.356	167.75
282.588	170.75
282.819	171.75
283.051	173.75
283.282	184.75
283.513	177.75
283.745	191.75
283.976	175.75
284.207	187.75
284.439	180.75
284.67	183.75
284.901	191.75
285.132	174.75
285.364	183.75
285.595	179.75
285.826	168.75
286.057	196.75
286.288	197.75
286.52	177.75
286.751	196.75
286.982	191.75
287.213	187.75
287.444	182.75
287.675	183.75
287.906	180.75
288.138	189.75
288.369	185.75
288.6	209.75
288.831	196.75
289.062	181.75
289.293	172.75
289.524	187.75
289.755	199.75
289.986	191.75
290.217	185.75
290.448	189.75
290.679	201.75
290.91	200.75
291.141	187.75
291.371	191.75
291.602	211.75
291.833	181.75
292.064	188.75
292.295	206.75
292.526	186.75
292.757	191.75
292.987	211.75
293.218	183.75
293.449	178.75
293.68	182.75
293.91	204.75
294.141	205.75
294.372	198.75
294.603	188.75
294.833	205.75
295.064	192.75
295.295	214.75
295.525	203.75
295.756	195.75
295.987	205.75
296.217	192.75
296.448	202.75
296.679	186.75
296.909	206.75
297.14	205.75
297.37	203.75
297.601	217.75
297.831	208.75
298.062	187.75
298.292	209.75
298.523	199.75
298.753	219.75
298.984	204.75
299.214	206.75
299.445	209.75
299.675	205.75
299.905	229.75
300.136	207.75
300.366	202.75
300.597	219.75
300.827	214.75
301.057	209.75
301.288	233.75
301.518	226.75
301.748	201.75
301.979	254.75
302.209	216.75
302.439	210.75
302.669	217.75
302.9	209.75
303.13	218.75
303.36	222.75
303.59	217.75
303.82	212.75
304.051	236.75
304.281	215.75
304.511	227.75
304.741	229.75
304.971	233.75
305.201	214.75
305.431	219.75
305.661	221.75
305.891	215.75
306.121	222.75
306.352	234.75
306.582	240.75
306.812	236.75
307.042	218.75
307.272	215.75
307.502	217.75
307.731	229.75
307.961	217.75
308.191	228.75
308.421	222.75
308.651	221.75
308.881	232.75
309.111	222.75
309.341	215.75
309.571	230.75
309.8	220.75
310.03	210.75
310.26	217.75
310.49	236.75
310.72	243.75
310.949	226.75
311.179	217.75
311.409	207.75
311.639	241.75
311.868	249.75
312.098	243.75
312.328	253.75
312.557	250.75
312.787	249.75
313.017	235.75
313.246	231.75
313.476	237.75
313.706	240.75
313.935	256.75
314.165	251.75
314.394	227.75
314.624	239.75
314.853	245.75
315.083	241.75
315.312	229.75
315.542	246.75
315.771	241.75
316.001	228.75
316.23	232.75
316.46	274.75
316.689	247.75
316.919	245.75
317.148	262.75
317.377	249.75
317.607	244.75
317.836	239.75
318.065	235.75
318.295	250.75
318.524	243.75
318.753	239.75
318.983	260.75
319.212	250.75
319.441	260.75
319.67	253.75
319.9	249.75
320.129	261.75
320.358	259.75
320.587	259.75
320.816	261.75
321.046	258.75
321.275	254.75
321.504	254.75
321.733	265.75
321.962	259.75
322.191	264.75
322.42	258.75
322.649	275.75
322.878	250.75
323.108	267.75
323.337	266.75
323.566	262.75
323.795	254.75
324.024	278.75
324.253	260.75
324.482	250.75
324.71	251.75
324.939	285.75
325.168	248.75
325.397	254.75
325.626	269.75
325.855	271.75
326.084	271.75
326.313	266.75
326.542	274.75
326.77	276.75
326.999	263.75
327.228	251.75
327.457	272.75
327.686	270.75
327.914	274.75
328.143	279.75
328.372	262.75
328.6	279.75
328.829	274.75
329.058	277.75
329.287	278.75
329.515	286.75
329.744	283.75
329.972	307.75
330.201	331.75
330.43	343.75
330.658	312.75
330.887	318.75
331.115	275.75
331.344	284.75
331.572	289.75
331.801	298.75
332.03	299.75
332.258	287.75
332.486	296.75
332.715	315.75
332.943	315.75
333.172	300.75
333.4	313.75
333.629	319.75
333.857	312.75
334.085	299.75
334.314	314.75
334.542	329.75
334.771	339.75
334.999	319.75
335.227	327.75
335.455	317.75
335.684	311.75
335.912	319.75
336.14	318.75
336.369	322.75
336.597	314.75
336.825	331.75
337.053	330.75
337.281	318.75
337.51	316.75
337.738	319.75
337.966	308.75
338.194	315.75
338.422	305.75
338.65	322.75
338.878	300.75
339.106	307.75
339.334	307.75
339.562	311.75
339.79	317.75
340.018	303.75
340.246	294.75
340.474	322.75
340.702	319.75
340.93	306.75
341.158	293.75
341.386	295.75
341.614	286.75
341.842	304.75
342.07	305.75
342.298	308.75
342.526	306.75
342.754	315.75
342.981	306.75
343.209	286.75
343.437	310.75
343.665	302.75
343.893	323.75
344.12	334.75
344.348	326.75
344.576	374.75
344.804	404.75
345.031	341.75
345.259	338.75
345.487	325.75
345.714	321.75
345.942	319.75
346.17	299.75
346.397	290.75
346.625	297.75
346.853	292.75
347.08	263.75
347.308	261.75
347.535	278.75
347.763	281.75
347.99	291.75
348.218	292.75
348.445	294.75
348.673	290.75
348.9	306.75
349.128	277.75
349.355	292.75
349.583	282.75
349.81	279.75
350.037	300.75
350.265	305.75
350.492	290.75
350.72	285.75
350.947	293.75
351.174	296.75
351.402	291.75
351.629	289.75
351.856	299.75
352.083	292.75
352.311	299.75
352.538	292.75
352.765	272.75
352.992	289.75
353.22	288.75
353.447	286.75
353.674	284.75
353.901	308.75
354.128	313.75
354.355	286.75
354.583	294.75
354.81	301.75
355.037	297.75
355.264	281.75
355.491	273.75
355.718	284.75
355.945	297.75
356.172	295.75
356.399	282.75
356.626	296.75
356.853	307.75
357.08	302.75
357.307	312.75
357.534	293.75
357.761	289.75
357.988	290.75
358.215	303.75
358.441	267.75
358.668	305.75
358.895	301.75
359.122	292.75
359.349	298.75
359.576	299.75
359.802	301.75
360.029	308.75
360.256	289.75
360.483	307.75
360.709	293.75
360.936	309.75
361.163	300.75
361.39	295.75
361.616	298.75
361.843	301.75
362.07	298.75
362.296	302.75
362.523	289.75
362.749	303.75
362.976	276.75
363.203	289.75
363.429	263.75
363.656	293.75
363.882	289.75
364.109	304.75
364.335	313.75
364.562	287.75
364.788	294.75
365.015	295.75
365.241	307.75
365.468	297.75
365.694	298.75
365.92	285.75
366.147	293.75
366.373	307.75
366.599	300.75
366.826	300.75
367.052	293.75
367.278	328.75
367.505	305.75
367.731	299.75
367.957	299.75
368.184	304.75
368.41	295.75
368.636	287.75
368.862	289.75
369.089	326.75
369.315	298.75
369.541	298.75
369.767	311.75
369.993	295.75
370.219	285.75
370.445	292.75
370.672	320.75
370.898	312.75
371.124	309.75
371.35	323.75
371.576	301.75
371.802	297.75
372.028	293.75
372.254	313.75
372.48	308.75
372.706	315.75
372.932	314.75
373.158	317.75
373.384	323.75
373.61	313.75
373.835	312.75
374.061	302.75
374.287	318.75
374.513	342.75
374.739	320.75
374.965	309.75
375.191	320.75
375.416	318.75
375.642	300.75
375.868	320.75
376.094	316.75
376.319	323.75
376.545	332.75
376.771	293.75
376.997	318.75
377.222	319.75
377.448	295.75
377.674	313.75
377.899	314.75
378.125	305.75
378.35	304.75
378.576	309.75
378.802	324.75
379.027	315.75
379.253	328.75
379.478	330.75
379.704	307.75
379.929	313.75
380.155	297.75
380.38	314.75
380.606	315.75
380.831	311.75
381.057	322.75
381.282	314.75
381.507	309.75
381.733	316.75
381.958	341.75
382.184	319.75
382.409	315.75
382.634	328.75
382.86	345.75
383.085	349.75
383.31	350.75
383.535	353.75
383.761	326.75
383.986	332.75
384.211	330.75
384.436	354.75
384.662	361.75
384.887	342.75
385.112	341.75
385.337	357.75
385.562	361.75
385.787	346.75
386.013	358.75
386.238	362.75
386.463	358.75
386.688	382.75
386.913	356.75
387.138	356.75
387.363	350.75
387.588	358.75
387.813	376.75
388.038	346.75
388.263	344.75
388.488	359.75
388.713	369.75
388.938	364.75
389.163	377.75
389.387	367.75
389.612	371.75
389.837	350.75
390.062	381.75
390.287	377.75
390.512	377.75
390.736	365.75
390.961	379.75
391.186	376.75
391.411	371.75
391.636	380.75
391.86	381.75
392.085	384.75
392.31	405.75
392.534	395.75
392.759	394.75
392.984	412.75
393.208	417.75
393.433	452.75
393.658	427.75
393.882	397.75
394.107	395.75
394.331	388.75
394.556	398.75
394.78	400.75
395.005	388.75
395.229	390.75
395.454	425.75
395.678	399.75
395.903	409.75
396.127	410.75
396.352	410.75
396.576	398.75
396.801	416.75
397.025	422.75
397.249	417.75
397.474	400.75
397.698	425.75
397.922	423.75
398.147	401.75
398.371	422.75
398.595	439.75
398.82	450.75
399.044	464.75
399.268	483.75
399.492	481.75
399.717	475.75
399.941	475.75
400.165	470.75
400.389	466.75
400.613	455.75
400.837	437.75
401.062	450.75
401.286	431.75
401.51	443.75
401.734	426.75
401.958	435.75
402.182	437.75
402.406	408.75
402.63	445.75
402.854	439.75
403.078	458.75
403.302	437.75
403.526	453.75
403.75	487.75
403.974	552.75
404.198	725.75
404.422	1031.75
404.645	1278.75
404.869	1088.75
405.093	817.75
405.317	550.75
405.541	497.75
405.765	468.75
405.988	462.75
406.212	445.75
406.436	451.75
406.66	441.75
406.883	444.75
407.107	457.75
407.331	455.75
407.555	461.75
407.778	446.75
408.002	463.75
408.226	443.75
408.449	442.75
408.673	463.75
408.896	446.75
409.12	437.75
409.344	413.75
409.567	428.75
409.791	438.75
410.014	449.75
410.238	444.75
410.461	430.75
410.685	412.75
410.908	414.75
411.132	419.75
411.355	418.75
411.578	422.75
411.802	412.75
412.025	433.75
412.249	417.75
412.472	425.75
412.695	405.75
412.919	415.75
413.142	424.75
413.365	414.75
413.589	406.75
413.812	409.75
414.035	433.75
414.258	401.75
414.482	410.75
414.705	435.75
414.928	409.75
415.151	422.75
415.374	415.75
415.597	419.75
415.821	397.75
416.044	389.75
416.267	397.75
416.49	399.75
416.713	401.75
416.936	411.75
417.159	399.75
417.382	395.75
417.605	401.75
417.828	414.75
418.051	430.75
418.274	409.75
418.497	403.75
418.72	416.75
418.943	429.75
419.166	448.75
419.389	439.75
419.611	436.75
419.834	426.75
420.057	413.75
420.28	394.75
420.503	406.75
420.726	386.75
420.948	377.75
421.171	412.75
421.394	398.75
421.617	424.75
421.839	414.75
422.062	420.75
422.285	417.75
422.507	440.75
422.73	466.75
422.953	457.75
423.175	421.75
423.398	424.75
423.621	409.75
423.843	423.75
424.066	397.75
424.288	415.75
424.511	410.75
424.733	411.75
424.956	394.75
425.178	401.75
425.401	421.75
425.623	404.75
425.846	399.75
426.068	399.75
426.291	398.75
426.513	388.75
426.735	391.75
426.958	394.75
427.18	383.75
427.402	392.75
427.625	423.75
427.847	381.75
428.069	387.75
428.292	392.75
428.514	396.75
428.736	398.75
428.958	387.75
429.181	384.75
429.403	393.75
429.625	378.75
429.847	391.75
430.069	379.75
430.292	379.75
430.514	385.75
430.736	378.75
430.958	398.75
431.18	374.75
431.402	378.75
431.624	372.75
431.846	367.75
432.068	344.75
432.29	347.75
432.512	364.75
432.734	392.75
432.956	370.75
433.178	398.75
433.4	388.75
433.622	380.75
433.844	393.75
434.066	383.75
434.287	377.75
434.509	353.75
434.731	373.75
434.953	378.75
435.175	375.75
435.397	395.75
435.618	386.75
435.84	365.75
436.062	363.75
436.284	372.75
436.505	381.75
436.727	388.75
436.949	383.75
437.17	383.75
437.392	383.75
437.614	368.75
437.835	362.75
438.057	361.75
438.278	360.75
438.5	390.75
438.721	375.75
438.943	370.75
439.165	370.75
439.386	372.75
439.608	374.75
439.829	383.75
440.05	374.75
440.272	380.75
440.493	376.75
440.715	390.75
440.936	397.75
441.158	387.75
441.379	383.75
441.6	402.75
441.822	393.75
442.043	398.75
442.264	381.75
442.486	378.75
442.707	370.75
442.928	393.75
443.149	395.75
443.371	375.75
443.592	406.75
443.813	405.75
444.034	409.75
444.255	379.75
444.476	407.75
444.698	402.75
444.919	388.75
445.14	490.75
445.361	442.75
445.582	407.75
445.803	413.75
446.024	406.75
446.245	394.75
446.466	366.75
446.687	383.75
446.908	406.75
447.129	388.75
447.35	385.75
447.571	384.75
447.792	367.75
448.013	363.75
448.234	362.75
448.455	362.75
448.675	380.75
448.896	369.75
449.117	356.75
449.338	347.75
449.559	393.75
449.779	379.75
450	353.75
450.221	364.75
450.442	339.75
450.662	348.75
450.883	342.75
451.104	357.75
451.324	349.75
451.545	347.75
451.766	341.75
451.986	338.75
452.207	359.75
452.428	351.75
452.648	354.75
452.869	329.75
453.089	326.75
453.31	333.75
453.53	329.75
453.751	347.75
453.971	344.75
454.192	315.75
454.412	330.75
454.633	337.75
454.853	353.75
455.073	339.75
455.294	328.75
455.514	332.75
455.734	339.75
455.955	325.75
456.175	329.75
456.395	316.75
456.616	324.75
456.836	329.75
457.056	329.75
457.276	310.75
457.497	331.75
457.717	333.75
457.937	329.75
458.157	329.75
458.377	318.75
458.598	338.75
458.818	325.75
459.038	354.75
459.258	335.75
459.478	349.75
459.698	355.75
459.918	363.75
460.138	360.75
460.358	393.75
460.578	397.75
460.798	418.75
461.018	393.75
461.238	380.75
461.458	401.75
461.678	378.75
461.898	389.75
462.118	396.75
462.338	411.75
462.558	415.75
462.777	417.75
462.997	403.75
463.217	436.75
463.437	417.75
463.657	410.75
463.876	390.75
464.096	395.75
464.316	395.75
464.536	411.75
464.755	405.75
464.975	395.75
465.195	393.75
465.414	385.75
465.634	384.75
465.854	378.75
466.073	392.75
466.293	368.75
466.512	380.75
466.732	407.75
466.951	394.75
467.171	398.75
467.391	401.75
467.61	412.75
467.829	407.75
468.049	410.75
468.268	392.75
468.488	410.75
468.707	374.75
468.927	399.75
469.146	403.75
469.365	412.75
469.585	426.75
469.804	429.75
470.023	441.75
470.243	437.75
470.462	457.75
470.681	482.75
470.901	429.75
471.12	410.75
471.339	410.75
471.558	414.75
471.777	422.75
471.997	396.75
472.216	393.75
472.435	403.75
472.654	366.75
472.873	374.75
473.092	372.75
473.311	398.75
473.53	390.75
473.749	395.75
473.968	388.75
474.187	397.75
474.406	392.75
474.625	396.75
474.844	383.75
475.063	406.75
475.282	406.75
475.501	411.75
475.72	407.75
475.939	406.75
476.158	405.75
476.377	422.75
476.596	401.75
476.814	417.75
477.033	412.75
477.252	435.75
477.471	424.75
477.69	457.75
477.908	469.75
478.127	467.75
478.346	486.75
478.564	531.75
478.783	479.75
479.002	468.75
479.22	483.75
479.439	469.75
479.658	446.75
479.876	435.75
480.095	450.75
480.313	459.75
480.532	456.75
480.751	454.75
480.969	436.75
481.188	455.75
481.406	455.75
481.624	450.75
481.843	455.75
482.061	425.75
482.28	458.75
482.498	426.75
482.717	431.75
482.935	453.75
483.153	446.75
483.372	456.75
483.59	437.75
483.808	433.75
484.027	447.75
484.245	453.75
484.463	431.75
484.681	448.75
484.9	422.75
485.118	451.75
485.336	449.75
485.554	407.75
485.772	409.75
485.99	405.75
486.209	405.75
486.427	440.75
486.645	441.75
486.863	443.75
487.081	457.75
487.299	442.75
487.517	469.75
487.735	471.75
487.953	491.75
488.171	453.75
488.389	465.75
488.607	456.75
488.825	420.75
489.043	445.75
489.261	433.75
489.479	444.75
489.696	447.75
489.914	426.75
490.132	462.75
490.35	463.75
490.568	469.75
490.786	496.75
491.003	497.75
491.221	483.75
491.439	491.75
491.657	500.75
491.874	518.75
492.092	533.75
492.31	543.75
492.527	536.75
492.745	501.75
492.963	544.75
493.18	539.75
493.398	499.75
493.615	505.75
493.833	476.75
494.05	498.75
494.268	485.75
494.485	512.75
494.703	497.75
494.92	494.75
495.138	503.75
495.355	485.75
495.573	510.75
495.79	518.75
496.008	475.75
496.225	502.75
496.442	509.75
496.66	510.75
496.877	536.75
497.094	529.75
497.312	525.75
497.529	535.75
497.746	497.75
497.963	505.75
498.181	527.75
498.398	532.75
498.615	550.75
498.832	541.75
499.049	561.75
499.267	591.75
499.484	614.75
499.701	643.75
499.918	677.75
500.135	704.75
500.352	712.75
500.569	694.75
500.786	712.75
501.003	710.75
501.22	662.75
501.437	648.75
501.654	618.75
501.871	567.75
502.088	555.75
502.305	519.75
502.522	550.75
502.739	551.75
502.956	530.75
503.172	519.75
503.389	504.75
503.606	491.75
