Data from KBr_1_HRD10591_00006.txt Node
Date: Mon Jan 19 13:11:17 EST 2026
User: Yrep
Spectrometer: HR+D1059
Trigger mode: 0
Integration Time (sec): 1.000000E-1
Scans to average: 1
Electric dark correction enabled: true
Nonlinearity correction enabled: false
Boxcar width: 0
XAxis mode: Wavelengths
Number of Pixels in Spectrum: 2048
>>>>>Begin Spectral Data<<<<<
223.165	-11.75
223.4	-11.75
223.635	-11.75
223.869	-11.75
224.104	-18.75
224.338	-27.75
224.573	-20.75
224.808	-15.75
225.042	-13.75
225.277	3.25
225.511	-0.75
225.746	0.25
225.98	7.25
226.215	12.25
226.449	15.25
226.683	17.25
226.918	26.25
227.152	39.25
227.387	36.25
227.621	35.25
227.856	49.25
228.09	49.25
228.324	44.25
228.559	51.25
228.793	49.25
229.027	59.25
229.262	60.25
229.496	59.25
229.73	63.25
229.964	76.25
230.199	72.25
230.433	78.25
230.667	73.25
230.901	76.25
231.136	52.25
231.37	67.25
231.604	79.25
231.838	94.25
232.072	76.25
232.306	82.25
232.541	83.25
232.775	72.25
233.009	70.25
233.243	92.25
233.477	78.25
233.711	78.25
233.945	70.25
234.179	81.25
234.413	87.25
234.647	83.25
234.881	77.25
235.115	75.25
235.349	83.25
235.583	88.25
235.817	73.25
236.051	65.25
236.285	87.25
236.519	74.25
236.753	74.25
236.987	71.25
237.221	65.25
237.455	75.25
237.689	70.25
237.922	79.25
238.156	76.25
238.39	80.25
238.624	79.25
238.858	72.25
239.091	78.25
239.325	76.25
239.559	74.25
239.793	55.25
240.027	70.25
240.26	73.25
240.494	69.25
240.728	70.25
240.961	68.25
241.195	82.25
241.429	59.25
241.662	62.25
241.896	76.25
242.13	70.25
242.363	72.25
242.597	75.25
242.83	69.25
243.064	56.25
243.298	79.25
243.531	79.25
243.765	84.25
243.998	71.25
244.232	76.25
244.465	65.25
244.699	73.25
244.932	65.25
245.166	75.25
245.399	66.25
245.633	60.25
245.866	81.25
246.099	79.25
246.333	71.25
246.566	71.25
246.8	53.25
247.033	85.25
247.266	70.25
247.5	71.25
247.733	89.25
247.966	90.25
248.2	73.25
248.433	79.25
248.666	84.25
248.899	85.25
249.133	73.25
249.366	73.25
249.599	80.25
249.832	77.25
250.066	72.25
250.299	93.25
250.532	76.25
250.765	75.25
250.998	78.25
251.231	85.25
251.465	66.25
251.698	69.25
251.931	70.25
252.164	63.25
252.397	79.25
252.63	57.25
252.863	81.25
253.096	76.25
253.329	83.25
253.562	77.25
253.795	80.25
254.028	100.25
254.261	70.25
254.494	80.25
254.727	77.25
254.96	68.25
255.193	79.25
255.426	75.25
255.659	84.25
255.892	83.25
256.124	80.25
256.357	90.25
256.59	75.25
256.823	73.25
257.056	78.25
257.289	72.25
257.521	70.25
257.754	75.25
257.987	79.25
258.22	61.25
258.452	84.25
258.685	89.25
258.918	80.25
259.151	80.25
259.383	88.25
259.616	81.25
259.849	90.25
260.081	86.25
260.314	59.25
260.547	71.25
260.779	70.25
261.012	76.25
261.244	77.25
261.477	92.25
261.71	71.25
261.942	80.25
262.175	67.25
262.407	78.25
262.64	78.25
262.872	83.25
263.105	76.25
263.337	80.25
263.57	78.25
263.802	69.25
264.035	83.25
264.267	85.25
264.499	74.25
264.732	77.25
264.964	83.25
265.197	75.25
265.429	85.25
265.661	72.25
265.894	83.25
266.126	92.25
266.358	91.25
266.591	85.25
266.823	79.25
267.055	75.25
267.287	88.25
267.52	80.25
267.752	75.25
267.984	78.25
268.216	87.25
268.448	92.25
268.681	96.25
268.913	94.25
269.145	76.25
269.377	78.25
269.609	84.25
269.841	74.25
270.073	66.25
270.306	68.25
270.538	77.25
270.77	80.25
271.002	66.25
271.234	91.25
271.466	79.25
271.698	91.25
271.93	91.25
272.162	67.25
272.394	84.25
272.626	80.25
272.858	93.25
273.09	81.25
273.322	86.25
273.553	80.25
273.785	105.25
274.017	75.25
274.249	68.25
274.481	87.25
274.713	83.25
274.945	79.25
275.176	65.25
275.408	74.25
275.64	74.25
275.872	72.25
276.104	79.25
276.335	70.25
276.567	78.25
276.799	68.25
277.031	90.25
277.262	62.25
277.494	84.25
277.726	65.25
277.957	79.25
278.189	87.25
278.421	73.25
278.652	75.25
278.884	81.25
279.115	95.25
279.347	91.25
279.579	105.25
279.81	92.25
280.042	91.25
280.273	79.25
280.505	75.25
280.736	77.25
280.968	100.25
281.199	79.25
281.431	79.25
281.662	84.25
281.894	71.25
282.125	96.25
282.356	57.25
282.588	90.25
282.819	77.25
283.051	80.25
283.282	89.25
283.513	92.25
283.745	87.25
283.976	90.25
284.207	89.25
284.439	78.25
284.67	84.25
284.901	84.25
285.132	74.25
285.364	67.25
285.595	85.25
285.826	87.25
286.057	78.25
286.288	89.25
286.52	79.25
286.751	70.25
286.982	73.25
287.213	87.25
287.444	81.25
287.675	70.25
287.906	81.25
288.138	81.25
288.369	84.25
288.6	73.25
288.831	73.25
289.062	92.25
289.293	94.25
289.524	78.25
289.755	76.25
289.986	87.25
290.217	83.25
290.448	71.25
290.679	75.25
290.91	78.25
291.141	87.25
291.371	79.25
291.602	94.25
291.833	75.25
292.064	89.25
292.295	87.25
292.526	80.25
292.757	74.25
292.987	88.25
293.218	99.25
293.449	93.25
293.68	83.25
293.91	76.25
294.141	89.25
294.372	71.25
294.603	69.25
294.833	87.25
295.064	73.25
295.295	77.25
295.525	87.25
295.756	89.25
295.987	82.25
296.217	80.25
296.448	87.25
296.679	80.25
296.909	89.25
297.14	85.25
297.37	87.25
297.601	85.25
297.831	79.25
298.062	83.25
298.292	84.25
298.523	78.25
298.753	80.25
298.984	89.25
299.214	79.25
299.445	78.25
299.675	84.25
299.905	83.25
300.136	71.25
300.366	88.25
300.597	87.25
300.827	83.25
301.057	84.25
301.288	87.25
301.518	91.25
301.748	89.25
301.979	85.25
302.209	90.25
302.439	79.25
302.669	76.25
302.9	80.25
303.13	76.25
303.36	78.25
303.59	79.25
303.82	80.25
304.051	75.25
304.281	87.25
304.511	67.25
304.741	78.25
304.971	86.25
305.201	103.25
305.431	79.25
305.661	79.25
305.891	94.25
306.121	83.25
306.352	82.25
306.582	91.25
306.812	92.25
307.042	61.25
307.272	80.25
307.502	77.25
307.731	93.25
307.961	83.25
308.191	91.25
308.421	85.25
308.651	87.25
308.881	83.25
309.111	80.25
309.341	75.25
309.571	85.25
309.8	82.25
310.03	86.25
310.26	91.25
310.49	84.25
310.72	86.25
310.949	77.25
311.179	101.25
311.409	83.25
311.639	71.25
311.868	81.25
312.098	82.25
312.328	88.25
312.557	73.25
312.787	88.25
313.017	83.25
313.246	87.25
313.476	87.25
313.706	85.25
313.935	76.25
314.165	91.25
314.394	88.25
314.624	96.25
314.853	84.25
315.083	79.25
315.312	79.25
315.542	79.25
315.771	81.25
316.001	83.25
316.23	91.25
316.46	100.25
316.689	79.25
316.919	89.25
317.148	86.25
317.377	92.25
317.607	83.25
317.836	83.25
318.065	80.25
318.295	70.25
318.524	76.25
318.753	102.25
318.983	85.25
319.212	75.25
319.441	77.25
319.67	95.25
319.9	77.25
320.129	86.25
320.358	75.25
320.587	85.25
320.816	84.25
321.046	85.25
321.275	80.25
321.504	86.25
321.733	85.25
321.962	88.25
322.191	89.25
322.42	81.25
322.649	90.25
322.878	76.25
323.108	94.25
323.337	77.25
323.566	85.25
323.795	96.25
324.024	88.25
324.253	78.25
324.482	81.25
324.71	77.25
324.939	90.25
325.168	77.25
325.397	77.25
325.626	64.25
325.855	70.25
326.084	85.25
326.313	93.25
326.542	89.25
326.77	89.25
326.999	90.25
327.228	92.25
327.457	84.25
327.686	91.25
327.914	94.25
328.143	81.25
328.372	72.25
328.6	87.25
328.829	82.25
329.058	79.25
329.287	87.25
329.515	76.25
329.744	84.25
329.972	85.25
330.201	75.25
330.43	90.25
330.658	80.25
330.887	80.25
331.115	79.25
331.344	81.25
331.572	71.25
331.801	94.25
332.03	83.25
332.258	86.25
332.486	72.25
332.715	93.25
332.943	88.25
333.172	85.25
333.4	76.25
333.629	75.25
333.857	90.25
334.085	81.25
334.314	89.25
334.542	86.25
334.771	88.25
334.999	83.25
335.227	78.25
335.455	80.25
335.684	88.25
335.912	87.25
336.14	96.25
336.369	88.25
336.597	80.25
336.825	84.25
337.053	83.25
337.281	83.25
337.51	85.25
337.738	74.25
337.966	85.25
338.194	90.25
338.422	87.25
338.65	91.25
338.878	84.25
339.106	95.25
339.334	91.25
339.562	87.25
339.79	81.25
340.018	82.25
340.246	80.25
340.474	89.25
340.702	88.25
340.93	86.25
341.158	85.25
341.386	83.25
341.614	60.25
341.842	75.25
342.07	84.25
342.298	83.25
342.526	83.25
342.754	85.25
342.981	89.25
343.209	93.25
343.437	99.25
343.665	72.25
343.893	84.25
344.12	87.25
344.348	87.25
344.576	75.25
344.804	73.25
345.031	87.25
345.259	86.25
345.487	96.25
345.714	91.25
345.942	75.25
346.17	80.25
346.397	64.25
346.625	84.25
346.853	79.25
347.08	83.25
347.308	77.25
347.535	77.25
347.763	83.25
347.99	86.25
348.218	93.25
348.445	91.25
348.673	92.25
348.9	77.25
349.128	90.25
349.355	83.25
349.583	79.25
349.81	79.25
350.037	75.25
350.265	88.25
350.492	78.25
350.72	84.25
350.947	91.25
351.174	79.25
351.402	66.25
351.629	76.25
351.856	81.25
352.083	77.25
352.311	76.25
352.538	95.25
352.765	86.25
352.992	81.25
353.22	94.25
353.447	88.25
353.674	88.25
353.901	87.25
354.128	78.25
354.355	75.25
354.583	100.25
354.81	84.25
355.037	93.25
355.264	89.25
355.491	93.25
355.718	83.25
355.945	85.25
356.172	79.25
356.399	87.25
356.626	85.25
356.853	71.25
357.08	76.25
357.307	87.25
357.534	75.25
357.761	95.25
357.988	74.25
358.215	75.25
358.441	81.25
358.668	68.25
358.895	86.25
359.122	82.25
359.349	84.25
359.576	91.25
359.802	85.25
360.029	84.25
360.256	85.25
360.483	88.25
360.709	85.25
360.936	91.25
361.163	91.25
361.39	90.25
361.616	73.25
361.843	88.25
362.07	71.25
362.296	77.25
362.523	69.25
362.749	70.25
362.976	77.25
363.203	95.25
363.429	100.25
363.656	95.25
363.882	85.25
364.109	76.25
364.335	72.25
364.562	79.25
364.788	75.25
365.015	87.25
365.241	79.25
365.468	104.25
365.694	82.25
365.92	85.25
366.147	76.25
366.373	70.25
366.599	102.25
366.826	81.25
367.052	79.25
367.278	89.25
367.505	81.25
367.731	87.25
367.957	82.25
368.184	82.25
368.41	86.25
368.636	79.25
368.862	92.25
369.089	92.25
369.315	83.25
369.541	93.25
369.767	88.25
369.993	91.25
370.219	75.25
370.445	74.25
370.672	82.25
370.898	94.25
371.124	88.25
371.35	75.25
371.576	90.25
371.802	81.25
372.028	83.25
372.254	90.25
372.48	77.25
372.706	86.25
372.932	73.25
373.158	88.25
373.384	100.25
373.61	95.25
373.835	87.25
374.061	96.25
374.287	83.25
374.513	60.25
374.739	82.25
374.965	102.25
375.191	92.25
375.416	82.25
375.642	94.25
375.868	83.25
376.094	74.25
376.319	73.25
376.545	81.25
376.771	88.25
376.997	100.25
377.222	84.25
377.448	85.25
377.674	88.25
377.899	92.25
378.125	85.25
378.35	81.25
378.576	81.25
378.802	80.25
379.027	81.25
379.253	81.25
379.478	88.25
379.704	81.25
379.929	66.25
380.155	78.25
380.38	89.25
380.606	80.25
380.831	91.25
381.057	93.25
381.282	67.25
381.507	83.25
381.733	84.25
381.958	80.25
382.184	103.25
382.409	95.25
382.634	78.25
382.86	99.25
383.085	92.25
383.31	89.25
383.535	90.25
383.761	90.25
383.986	96.25
384.211	76.25
384.436	76.25
384.662	81.25
384.887	85.25
385.112	88.25
385.337	81.25
385.562	83.25
385.787	88.25
386.013	73.25
386.238	69.25
386.463	79.25
386.688	92.25
386.913	88.25
387.138	87.25
387.363	76.25
387.588	87.25
387.813	95.25
388.038	77.25
388.263	80.25
388.488	86.25
388.713	79.25
388.938	74.25
389.163	86.25
389.387	85.25
389.612	86.25
389.837	85.25
390.062	72.25
390.287	83.25
390.512	85.25
390.736	72.25
390.961	83.25
391.186	94.25
391.411	66.25
391.636	83.25
391.86	75.25
392.085	75.25
392.31	87.25
392.534	84.25
392.759	72.25
392.984	88.25
393.208	83.25
393.433	85.25
393.658	79.25
393.882	83.25
394.107	84.25
394.331	91.25
394.556	78.25
394.78	77.25
395.005	72.25
395.229	77.25
395.454	85.25
395.678	87.25
395.903	94.25
396.127	62.25
396.352	74.25
396.576	79.25
396.801	84.25
397.025	92.25
397.249	87.25
397.474	91.25
397.698	72.25
397.922	85.25
398.147	85.25
398.371	78.25
398.595	84.25
398.82	69.25
399.044	80.25
399.268	73.25
399.492	91.25
399.717	88.25
399.941	88.25
400.165	79.25
400.389	92.25
400.613	91.25
400.837	71.25
401.062	73.25
401.286	96.25
401.51	83.25
401.734	70.25
401.958	73.25
402.182	80.25
402.406	87.25
402.63	74.25
402.854	89.25
403.078	89.25
403.302	79.25
403.526	80.25
403.75	79.25
403.974	73.25
404.198	78.25
404.422	87.25
404.645	73.25
404.869	76.25
405.093	78.25
405.317	88.25
405.541	92.25
405.765	95.25
405.988	82.25
406.212	85.25
406.436	72.25
406.66	80.25
406.883	79.25
407.107	88.25
407.331	81.25
407.555	83.25
407.778	94.25
408.002	103.25
408.226	79.25
408.449	77.25
408.673	89.25
408.896	86.25
409.12	81.25
409.344	81.25
409.567	78.25
409.791	91.25
410.014	91.25
410.238	80.25
410.461	94.25
410.685	75.25
410.908	73.25
411.132	85.25
411.355	89.25
411.578	83.25
411.802	87.25
412.025	82.25
412.249	87.25
412.472	106.25
412.695	83.25
412.919	84.25
413.142	80.25
413.365	73.25
413.589	90.25
413.812	87.25
414.035	89.25
414.258	78.25
414.482	72.25
414.705	78.25
414.928	74.25
415.151	83.25
415.374	73.25
415.597	83.25
415.821	67.25
416.044	69.25
416.267	90.25
416.49	72.25
416.713	72.25
416.936	86.25
417.159	78.25
417.382	79.25
417.605	74.25
417.828	104.25
418.051	90.25
418.274	93.25
418.497	79.25
418.72	92.25
418.943	83.25
419.166	87.25
419.389	83.25
419.611	75.25
419.834	92.25
420.057	75.25
420.28	69.25
420.503	86.25
420.726	71.25
420.948	78.25
421.171	96.25
421.394	86.25
421.617	101.25
421.839	92.25
422.062	90.25
422.285	79.25
422.507	76.25
422.73	74.25
422.953	91.25
423.175	73.25
423.398	88.25
423.621	86.25
423.843	81.25
424.066	78.25
424.288	74.25
424.511	73.25
424.733	83.25
424.956	86.25
425.178	82.25
425.401	66.25
425.623	83.25
425.846	90.25
426.068	93.25
426.291	84.25
426.513	81.25
426.735	104.25
426.958	77.25
427.18	80.25
427.402	85.25
427.625	92.25
427.847	80.25
428.069	84.25
428.292	80.25
428.514	68.25
428.736	80.25
428.958	61.25
429.181	69.25
429.403	76.25
429.625	73.25
429.847	95.25
430.069	94.25
430.292	76.25
430.514	88.25
430.736	83.25
430.958	80.25
431.18	73.25
431.402	73.25
431.624	80.25
431.846	72.25
432.068	81.25
432.29	92.25
432.512	87.25
432.734	80.25
432.956	83.25
433.178	87.25
433.4	80.25
433.622	80.25
433.844	86.25
434.066	87.25
434.287	94.25
434.509	89.25
434.731	79.25
434.953	70.25
435.175	79.25
435.397	89.25
435.618	78.25
435.84	67.25
436.062	80.25
436.284	92.25
436.505	87.25
436.727	77.25
436.949	89.25
437.17	85.25
437.392	66.25
437.614	86.25
437.835	81.25
438.057	87.25
438.278	88.25
438.5	80.25
438.721	88.25
438.943	79.25
439.165	78.25
439.386	82.25
439.608	76.25
439.829	91.25
440.05	84.25
440.272	83.25
440.493	72.25
440.715	82.25
440.936	83.25
441.158	89.25
441.379	81.25
441.6	70.25
441.822	84.25
442.043	76.25
442.264	83.25
442.486	83.25
442.707	85.25
442.928	75.25
443.149	79.25
443.371	75.25
443.592	76.25
443.813	84.25
444.034	81.25
444.255	80.25
444.476	76.25
444.698	81.25
444.919	90.25
445.14	135.25
445.361	111.25
445.582	73.25
445.803	107.25
446.024	80.25
446.245	83.25
446.466	76.25
446.687	83.25
446.908	83.25
447.129	88.25
447.35	63.25
447.571	88.25
447.792	99.25
448.013	71.25
448.234	93.25
448.455	94.25
448.675	94.25
448.896	73.25
449.117	83.25
449.338	64.25
449.559	81.25
449.779	88.25
450	90.25
450.221	79.25
450.442	75.25
450.662	80.25
450.883	77.25
451.104	83.25
451.324	73.25
451.545	81.25
451.766	84.25
451.986	84.25
452.207	82.25
452.428	87.25
452.648	80.25
452.869	73.25
453.089	85.25
453.31	84.25
453.53	78.25
453.751	85.25
453.971	87.25
454.192	78.25
454.412	86.25
454.633	84.25
454.853	74.25
455.073	78.25
455.294	63.25
455.514	85.25
455.734	86.25
455.955	84.25
456.175	76.25
456.395	84.25
456.616	88.25
456.836	90.25
457.056	72.25
457.276	65.25
457.497	77.25
457.717	79.25
457.937	80.25
458.157	95.25
458.377	72.25
458.598	75.25
458.818	91.25
459.038	87.25
459.258	91.25
459.478	72.25
459.698	91.25
459.918	82.25
460.138	63.25
460.358	66.25
460.578	85.25
460.798	78.25
461.018	74.25
461.238	79.25
461.458	76.25
461.678	74.25
461.898	89.25
462.118	87.25
462.338	74.25
462.558	74.25
462.777	75.25
462.997	77.25
463.217	80.25
463.437	94.25
463.657	80.25
463.876	87.25
464.096	88.25
464.316	85.25
464.536	70.25
464.755	80.25
464.975	80.25
465.195	72.25
465.414	79.25
465.634	92.25
465.854	65.25
466.073	72.25
466.293	101.25
466.512	76.25
466.732	74.25
466.951	76.25
467.171	80.25
467.391	78.25
467.61	80.25
467.829	86.25
468.049	85.25
468.268	85.25
468.488	75.25
468.707	80.25
468.927	101.25
469.146	91.25
469.365	75.25
469.585	70.25
469.804	79.25
470.023	65.25
470.243	88.25
470.462	79.25
470.681	93.25
470.901	86.25
471.12	76.25
471.339	83.25
471.558	83.25
471.777	78.25
471.997	73.25
472.216	83.25
472.435	79.25
472.654	70.25
472.873	91.25
473.092	86.25
473.311	74.25
473.53	82.25
473.749	81.25
473.968	87.25
474.187	75.25
474.406	69.25
474.625	90.25
474.844	75.25
475.063	76.25
475.282	84.25
475.501	72.25
475.72	89.25
475.939	64.25
476.158	78.25
476.377	84.25
476.596	84.25
476.814	97.25
477.033	84.25
477.252	76.25
477.471	82.25
477.69	88.25
477.908	88.25
478.127	79.25
478.346	81.25
478.564	77.25
478.783	75.25
479.002	77.25
479.22	70.25
479.439	83.25
479.658	69.25
479.876	77.25
480.095	84.25
480.313	85.25
480.532	88.25
480.751	72.25
480.969	75.25
481.188	81.25
481.406	73.25
481.624	84.25
481.843	73.25
482.061	79.25
482.28	85.25
482.498	95.25
482.717	87.25
482.935	86.25
483.153	82.25
483.372	71.25
483.59	91.25
483.808	61.25
484.027	81.25
484.245	90.25
484.463	81.25
484.681	81.25
484.9	82.25
485.118	76.25
485.336	84.25
485.554	86.25
485.772	92.25
485.99	84.25
486.209	83.25
486.427	60.25
486.645	77.25
486.863	81.25
487.081	85.25
487.299	87.25
487.517	89.25
487.735	79.25
487.953	75.25
488.171	86.25
488.389	58.25
488.607	67.25
488.825	76.25
489.043	77.25
489.261	85.25
489.479	74.25
489.696	81.25
489.914	78.25
490.132	83.25
490.35	75.25
490.568	72.25
490.786	86.25
491.003	99.25
491.221	77.25
491.439	90.25
491.657	71.25
491.874	87.25
492.092	82.25
492.31	83.25
492.527	78.25
492.745	73.25
492.963	76.25
493.18	73.25
493.398	79.25
493.615	77.25
493.833	99.25
494.05	86.25
494.268	77.25
494.485	81.25
494.703	77.25
494.92	77.25
495.138	86.25
495.355	75.25
495.573	86.25
495.79	70.25
496.008	86.25
496.225	74.25
496.442	101.25
496.66	83.25
496.877	75.25
497.094	69.25
497.312	87.25
497.529	97.25
497.746	77.25
497.963	81.25
498.181	90.25
498.398	89.25
498.615	73.25
498.832	84.25
499.049	77.25
499.267	77.25
499.484	80.25
499.701	88.25
499.918	76.25
500.135	81.25
500.352	80.25
500.569	77.25
500.786	88.25
501.003	92.25
501.22	80.25
501.437	80.25
501.654	96.25
501.871	74.25
502.088	78.25
502.305	83.25
502.522	77.25
502.739	83.25
502.956	81.25
503.172	78.25
503.389	80.25
503.606	74.25
503.823	79.25
504.04	92.25
504.256	83.25
504.473	84.25
504.69	75.25
504.907	83.25
505.123	89.25
505.34	74.25
505.557	87.25
505.773	81.25
505.99	81.25
506.207	74.25
506.423	81.25
506.64	88.25
506.856	77.25
507.073	75.25
507.289	75.25
507.506	77.25
507.722	69.25
507.939	97.25
508.155	77.25
508.372	78.25
508.588	84.25
508.805	88.25
509.021	78.25
509.238	92.25
509.454	83.25
509.67	84.25
509.887	81.25
510.103	60.25
510.319	63.25
510.536	73.25
510.752	69.25
510.968	77.25
511.184	94.25
511.401	75.25
511.617	88.25
511.833	60.25
512.049	71.25
512.265	93.25
512.481	78.25
512.698	71.25
512.914	73.25
513.13	89.25
513.346	69.25
513.562	71.25
513.778	76.25
513.994	77.25
514.21	75.25
514.426	76.25
514.642	103.25
514.858	90.25
515.074	86.25
515.29	87.25
515.506	84.25
515.721	75.25
515.937	81.25
516.153	86.25
516.369	85.25
516.585	86.25
516.801	88.25
517.016	79.25
517.232	82.25
517.448	74.25
517.664	85.25
517.879	83.25
518.095	72.25
518.311	73.25
518.527	81.25
518.742	77.25
518.958	78.25
519.173	63.25
519.389	79.25
519.605	91.25
519.82	78.25
520.036	80.25
