Data from KBr_1_HRD10591_00040.txt Node
Date: Mon Jan 19 13:11:20 EST 2026
User: Yrep
Spectrometer: HR+D1059
Trigger mode: 0
Integration Time (sec): 1.000000E-1
Scans to average: 1
Electric dark correction enabled: true
Nonlinearity correction enabled: false
Boxcar width: 0
XAxis mode: Wavelengths
Number of Pixels in Spectrum: 2048
>>>>>Begin Spectral Data<<<<<
223.165	-20.62
223.4	-20.62
223.635	-20.62
223.869	-7.62
224.104	-15.62
224.338	-9.62
224.573	-15.62
224.808	-23.62
225.042	-19.62
225.277	-11.62
225.511	8.38
225.746	0.38
225.98	12.38
226.215	4.38
226.449	8.38
226.683	28.38
226.918	27.38
227.152	34.38
227.387	34.38
227.621	36.38
227.856	44.38
228.09	33.38
228.324	42.38
228.559	57.38
228.793	48.38
229.027	74.38
229.262	68.38
229.496	71.38
229.73	65.38
229.964	65.38
230.199	80.38
230.433	71.38
230.667	68.38
230.901	62.38
231.136	80.38
231.37	87.38
231.604	68.38
231.838	72.38
232.072	91.38
232.306	77.38
232.541	79.38
232.775	76.38
233.009	74.38
233.243	86.38
233.477	87.38
233.711	87.38
233.945	83.38
234.179	74.38
234.413	90.38
234.647	76.38
234.881	80.38
235.115	74.38
235.349	81.38
235.583	82.38
235.817	85.38
236.051	67.38
236.285	60.38
236.519	78.38
236.753	85.38
236.987	73.38
237.221	80.38
237.455	64.38
237.689	77.38
237.922	79.38
238.156	74.38
238.39	78.38
238.624	86.38
238.858	73.38
239.091	74.38
239.325	89.38
239.559	65.38
239.793	58.38
240.027	71.38
240.26	80.38
240.494	74.38
240.728	69.38
240.961	65.38
241.195	70.38
241.429	76.38
241.662	58.38
241.896	64.38
242.13	59.38
242.363	68.38
242.597	78.38
242.83	70.38
243.064	64.38
243.298	80.38
243.531	80.38
243.765	72.38
243.998	71.38
244.232	81.38
244.465	75.38
244.699	85.38
244.932	68.38
245.166	69.38
245.399	59.38
245.633	71.38
245.866	72.38
246.099	75.38
246.333	68.38
246.566	61.38
246.8	69.38
247.033	80.38
247.266	64.38
247.5	65.38
247.733	78.38
247.966	83.38
248.2	68.38
248.433	68.38
248.666	69.38
248.899	73.38
249.133	75.38
249.366	100.38
249.599	92.38
249.832	81.38
250.066	76.38
250.299	68.38
250.532	80.38
250.765	77.38
250.998	80.38
251.231	79.38
251.465	81.38
251.698	86.38
251.931	72.38
252.164	58.38
252.397	85.38
252.63	67.38
252.863	70.38
253.096	80.38
253.329	74.38
253.562	88.38
253.795	87.38
254.028	84.38
254.261	78.38
254.494	69.38
254.727	73.38
254.96	67.38
255.193	75.38
255.426	70.38
255.659	77.38
255.892	69.38
256.124	60.38
256.357	77.38
256.59	74.38
256.823	78.38
257.056	74.38
257.289	60.38
257.521	71.38
257.754	72.38
257.987	87.38
258.22	78.38
258.452	81.38
258.685	71.38
258.918	74.38
259.151	84.38
259.383	72.38
259.616	82.38
259.849	73.38
260.081	79.38
260.314	64.38
260.547	67.38
260.779	84.38
261.012	79.38
261.244	86.38
261.477	90.38
261.71	96.38
261.942	73.38
262.175	87.38
262.407	75.38
262.64	107.38
262.872	82.38
263.105	69.38
263.337	90.38
263.57	84.38
263.802	75.38
264.035	81.38
264.267	75.38
264.499	83.38
264.732	79.38
264.964	73.38
265.197	74.38
265.429	75.38
265.661	82.38
265.894	77.38
266.126	85.38
266.358	67.38
266.591	89.38
266.823	78.38
267.055	82.38
267.287	86.38
267.52	71.38
267.752	76.38
267.984	87.38
268.216	79.38
268.448	76.38
268.681	83.38
268.913	72.38
269.145	88.38
269.377	90.38
269.609	99.38
269.841	90.38
270.073	82.38
270.306	86.38
270.538	96.38
270.77	80.38
271.002	75.38
271.234	69.38
271.466	76.38
271.698	89.38
271.93	95.38
272.162	82.38
272.394	73.38
272.626	93.38
272.858	80.38
273.09	70.38
273.322	54.38
273.553	80.38
273.785	72.38
274.017	67.38
274.249	81.38
274.481	79.38
274.713	89.38
274.945	78.38
275.176	73.38
275.408	89.38
275.64	76.38
275.872	74.38
276.104	72.38
276.335	68.38
276.567	78.38
276.799	82.38
277.031	84.38
277.262	82.38
277.494	78.38
277.726	85.38
277.957	72.38
278.189	69.38
278.421	90.38
278.652	83.38
278.884	77.38
279.115	74.38
279.347	80.38
279.579	79.38
279.81	75.38
280.042	88.38
280.273	86.38
280.505	72.38
280.736	76.38
280.968	72.38
281.199	77.38
281.431	82.38
281.662	92.38
281.894	75.38
282.125	80.38
282.356	88.38
282.588	85.38
282.819	80.38
283.051	79.38
283.282	71.38
283.513	94.38
283.745	86.38
283.976	81.38
284.207	90.38
284.439	77.38
284.67	84.38
284.901	88.38
285.132	71.38
285.364	81.38
285.595	93.38
285.826	79.38
286.057	91.38
286.288	78.38
286.52	76.38
286.751	93.38
286.982	86.38
287.213	85.38
287.444	72.38
287.675	80.38
287.906	74.38
288.138	94.38
288.369	75.38
288.6	77.38
288.831	75.38
289.062	72.38
289.293	72.38
289.524	91.38
289.755	94.38
289.986	98.38
290.217	82.38
290.448	102.38
290.679	72.38
290.91	84.38
291.141	86.38
291.371	87.38
291.602	79.38
291.833	74.38
292.064	81.38
292.295	84.38
292.526	72.38
292.757	80.38
292.987	68.38
293.218	85.38
293.449	73.38
293.68	75.38
293.91	79.38
294.141	85.38
294.372	78.38
294.603	86.38
294.833	85.38
295.064	92.38
295.295	89.38
295.525	74.38
295.756	86.38
295.987	77.38
296.217	83.38
296.448	92.38
296.679	91.38
296.909	87.38
297.14	79.38
297.37	94.38
297.601	81.38
297.831	76.38
298.062	89.38
298.292	92.38
298.523	90.38
298.753	73.38
298.984	82.38
299.214	68.38
299.445	78.38
299.675	76.38
299.905	88.38
300.136	87.38
300.366	93.38
300.597	90.38
300.827	83.38
301.057	70.38
301.288	88.38
301.518	86.38
301.748	86.38
301.979	86.38
302.209	76.38
302.439	76.38
302.669	91.38
302.9	84.38
303.13	77.38
303.36	81.38
303.59	76.38
303.82	99.38
304.051	93.38
304.281	76.38
304.511	71.38
304.741	68.38
304.971	88.38
305.201	79.38
305.431	65.38
305.661	90.38
305.891	92.38
306.121	80.38
306.352	82.38
306.582	77.38
306.812	83.38
307.042	78.38
307.272	77.38
307.502	89.38
307.731	83.38
307.961	75.38
308.191	87.38
308.421	86.38
308.651	86.38
308.881	71.38
309.111	86.38
309.341	79.38
309.571	73.38
309.8	88.38
310.03	92.38
310.26	82.38
310.49	103.38
310.72	88.38
310.949	104.38
311.179	87.38
311.409	87.38
311.639	93.38
311.868	80.38
312.098	83.38
312.328	63.38
312.557	84.38
312.787	77.38
313.017	75.38
313.246	85.38
313.476	88.38
313.706	78.38
313.935	82.38
314.165	69.38
314.394	100.38
314.624	92.38
314.853	84.38
315.083	75.38
315.312	83.38
315.542	79.38
315.771	83.38
316.001	88.38
316.23	90.38
316.46	79.38
316.689	84.38
316.919	72.38
317.148	100.38
317.377	93.38
317.607	91.38
317.836	98.38
318.065	91.38
318.295	84.38
318.524	68.38
318.753	81.38
318.983	92.38
319.212	84.38
319.441	73.38
319.67	100.38
319.9	86.38
320.129	85.38
320.358	98.38
320.587	71.38
320.816	75.38
321.046	88.38
321.275	85.38
321.504	82.38
321.733	85.38
321.962	86.38
322.191	80.38
322.42	79.38
322.649	79.38
322.878	78.38
323.108	75.38
323.337	75.38
323.566	83.38
323.795	78.38
324.024	84.38
324.253	79.38
324.482	68.38
324.71	72.38
324.939	84.38
325.168	74.38
325.397	74.38
325.626	88.38
325.855	73.38
326.084	80.38
326.313	92.38
326.542	72.38
326.77	74.38
326.999	80.38
327.228	75.38
327.457	88.38
327.686	89.38
327.914	84.38
328.143	93.38
328.372	91.38
328.6	89.38
328.829	73.38
329.058	79.38
329.287	75.38
329.515	87.38
329.744	88.38
329.972	83.38
330.201	83.38
330.43	87.38
330.658	77.38
330.887	69.38
331.115	75.38
331.344	71.38
331.572	92.38
331.801	74.38
332.03	77.38
332.258	79.38
332.486	73.38
332.715	95.38
332.943	65.38
333.172	79.38
333.4	77.38
333.629	88.38
333.857	82.38
334.085	92.38
334.314	74.38
334.542	68.38
334.771	86.38
334.999	87.38
335.227	89.38
335.455	83.38
335.684	76.38
335.912	76.38
336.14	95.38
336.369	73.38
336.597	78.38
336.825	88.38
337.053	77.38
337.281	80.38
337.51	79.38
337.738	93.38
337.966	78.38
338.194	92.38
338.422	74.38
338.65	85.38
338.878	84.38
339.106	84.38
339.334	85.38
339.562	93.38
339.79	85.38
340.018	93.38
340.246	85.38
340.474	68.38
340.702	77.38
340.93	76.38
341.158	70.38
341.386	72.38
341.614	72.38
341.842	76.38
342.07	87.38
342.298	84.38
342.526	79.38
342.754	87.38
342.981	84.38
343.209	80.38
343.437	95.38
343.665	91.38
343.893	86.38
344.12	88.38
344.348	84.38
344.576	93.38
344.804	83.38
345.031	78.38
345.259	72.38
345.487	77.38
345.714	87.38
345.942	79.38
346.17	93.38
346.397	91.38
346.625	86.38
346.853	81.38
347.08	82.38
347.308	73.38
347.535	75.38
347.763	74.38
347.99	87.38
348.218	80.38
348.445	88.38
348.673	77.38
348.9	78.38
349.128	90.38
349.355	79.38
349.583	93.38
349.81	87.38
350.037	86.38
350.265	78.38
350.492	88.38
350.72	72.38
350.947	78.38
351.174	85.38
351.402	99.38
351.629	84.38
351.856	84.38
352.083	81.38
352.311	75.38
352.538	89.38
352.765	86.38
352.992	72.38
353.22	84.38
353.447	71.38
353.674	81.38
353.901	95.38
354.128	84.38
354.355	74.38
354.583	72.38
354.81	62.38
355.037	75.38
355.264	82.38
355.491	70.38
355.718	77.38
355.945	78.38
356.172	89.38
356.399	69.38
356.626	76.38
356.853	79.38
357.08	85.38
357.307	81.38
357.534	81.38
357.761	80.38
357.988	72.38
358.215	77.38
358.441	82.38
358.668	68.38
358.895	70.38
359.122	85.38
359.349	82.38
359.576	88.38
359.802	87.38
360.029	80.38
360.256	82.38
360.483	71.38
360.709	68.38
360.936	84.38
361.163	79.38
361.39	78.38
361.616	72.38
361.843	72.38
362.07	80.38
362.296	98.38
362.523	94.38
362.749	91.38
362.976	85.38
363.203	84.38
363.429	82.38
363.656	65.38
363.882	76.38
364.109	85.38
364.335	87.38
364.562	91.38
364.788	75.38
365.015	85.38
365.241	74.38
365.468	73.38
365.694	77.38
365.92	79.38
366.147	80.38
366.373	77.38
366.599	80.38
366.826	78.38
367.052	71.38
367.278	92.38
367.505	87.38
367.731	90.38
367.957	88.38
368.184	76.38
368.41	90.38
368.636	78.38
368.862	95.38
369.089	88.38
369.315	78.38
369.541	78.38
369.767	72.38
369.993	91.38
370.219	68.38
370.445	84.38
370.672	85.38
370.898	74.38
371.124	93.38
371.35	79.38
371.576	82.38
371.802	78.38
372.028	77.38
372.254	73.38
372.48	88.38
372.706	81.38
372.932	76.38
373.158	84.38
373.384	90.38
373.61	82.38
373.835	89.38
374.061	79.38
374.287	78.38
374.513	80.38
374.739	93.38
374.965	84.38
375.191	86.38
375.416	72.38
375.642	72.38
375.868	65.38
376.094	84.38
376.319	83.38
376.545	71.38
376.771	82.38
376.997	70.38
377.222	85.38
377.448	84.38
377.674	91.38
377.899	77.38
378.125	86.38
378.35	73.38
378.576	68.38
378.802	71.38
379.027	75.38
379.253	82.38
379.478	94.38
379.704	89.38
379.929	72.38
380.155	82.38
380.38	87.38
380.606	67.38
380.831	70.38
381.057	83.38
381.282	90.38
381.507	70.38
381.733	80.38
381.958	63.38
382.184	65.38
382.409	74.38
382.634	85.38
382.86	71.38
383.085	75.38
383.31	81.38
383.535	84.38
383.761	85.38
383.986	70.38
384.211	74.38
384.436	88.38
384.662	75.38
384.887	82.38
385.112	70.38
385.337	86.38
385.562	80.38
385.787	86.38
386.013	81.38
386.238	76.38
386.463	84.38
386.688	89.38
386.913	90.38
387.138	98.38
387.363	95.38
387.588	100.38
387.813	86.38
388.038	77.38
388.263	87.38
388.488	73.38
388.713	74.38
388.938	86.38
389.163	71.38
389.387	80.38
389.612	74.38
389.837	85.38
390.062	90.38
390.287	72.38
390.512	79.38
390.736	79.38
390.961	82.38
391.186	84.38
391.411	71.38
391.636	78.38
391.86	72.38
392.085	90.38
392.31	58.38
392.534	72.38
392.759	87.38
392.984	79.38
393.208	85.38
393.433	95.38
393.658	90.38
393.882	85.38
394.107	64.38
394.331	82.38
394.556	69.38
394.78	62.38
395.005	84.38
395.229	92.38
395.454	78.38
395.678	84.38
395.903	93.38
396.127	82.38
396.352	74.38
396.576	86.38
396.801	74.38
397.025	84.38
397.249	76.38
397.474	80.38
397.698	99.38
397.922	81.38
398.147	64.38
398.371	86.38
398.595	72.38
398.82	82.38
399.044	78.38
399.268	92.38
399.492	86.38
399.717	90.38
399.941	63.38
400.165	72.38
400.389	76.38
400.613	58.38
400.837	84.38
401.062	94.38
401.286	70.38
401.51	79.38
401.734	83.38
401.958	75.38
402.182	76.38
402.406	86.38
402.63	66.38
402.854	91.38
403.078	90.38
403.302	88.38
403.526	81.38
403.75	84.38
403.974	73.38
404.198	88.38
404.422	89.38
404.645	86.38
404.869	95.38
405.093	86.38
405.317	78.38
405.541	84.38
405.765	89.38
405.988	64.38
406.212	87.38
406.436	86.38
406.66	77.38
406.883	79.38
407.107	79.38
407.331	72.38
407.555	78.38
407.778	90.38
408.002	73.38
408.226	77.38
408.449	91.38
408.673	83.38
408.896	71.38
409.12	94.38
409.344	91.38
409.567	83.38
409.791	90.38
410.014	78.38
410.238	84.38
410.461	74.38
410.685	72.38
410.908	86.38
411.132	83.38
411.355	87.38
411.578	80.38
411.802	95.38
412.025	70.38
412.249	89.38
412.472	75.38
412.695	88.38
412.919	77.38
413.142	95.38
413.365	91.38
413.589	72.38
413.812	70.38
414.035	87.38
414.258	82.38
414.482	77.38
414.705	85.38
414.928	79.38
415.151	78.38
415.374	78.38
415.597	82.38
415.821	75.38
416.044	84.38
416.267	76.38
416.49	92.38
416.713	83.38
416.936	93.38
417.159	93.38
417.382	78.38
417.605	69.38
417.828	67.38
418.051	79.38
418.274	80.38
418.497	76.38
418.72	69.38
418.943	78.38
419.166	77.38
419.389	77.38
419.611	80.38
419.834	81.38
420.057	74.38
420.28	74.38
420.503	74.38
420.726	73.38
420.948	56.38
421.171	74.38
421.394	87.38
421.617	77.38
421.839	89.38
422.062	85.38
422.285	87.38
422.507	63.38
422.73	64.38
422.953	91.38
423.175	87.38
423.398	82.38
423.621	67.38
423.843	82.38
424.066	73.38
424.288	78.38
424.511	88.38
424.733	61.38
424.956	82.38
425.178	80.38
425.401	71.38
425.623	81.38
425.846	70.38
426.068	86.38
426.291	73.38
426.513	74.38
426.735	90.38
426.958	77.38
427.18	72.38
427.402	68.38
427.625	75.38
427.847	70.38
428.069	83.38
428.292	84.38
428.514	75.38
428.736	69.38
428.958	84.38
429.181	77.38
429.403	78.38
429.625	86.38
429.847	87.38
430.069	84.38
430.292	92.38
430.514	73.38
430.736	74.38
430.958	90.38
431.18	83.38
431.402	75.38
431.624	72.38
431.846	83.38
432.068	80.38
432.29	67.38
432.512	77.38
432.734	87.38
432.956	89.38
433.178	80.38
433.4	76.38
433.622	86.38
433.844	87.38
434.066	83.38
434.287	66.38
434.509	68.38
434.731	83.38
434.953	60.38
435.175	86.38
435.397	75.38
435.618	76.38
435.84	90.38
436.062	80.38
436.284	84.38
436.505	68.38
436.727	91.38
436.949	85.38
437.17	76.38
437.392	88.38
437.614	76.38
437.835	84.38
438.057	76.38
438.278	73.38
438.5	71.38
438.721	77.38
438.943	77.38
439.165	85.38
439.386	78.38
439.608	80.38
439.829	72.38
440.05	90.38
440.272	98.38
440.493	83.38
440.715	73.38
440.936	80.38
441.158	80.38
441.379	82.38
441.6	92.38
441.822	84.38
442.043	67.38
442.264	72.38
442.486	85.38
442.707	77.38
442.928	75.38
443.149	85.38
443.371	81.38
443.592	70.38
443.813	77.38
444.034	82.38
444.255	86.38
444.476	74.38
444.698	70.38
444.919	76.38
445.14	157.38
445.361	124.38
445.582	98.38
445.803	91.38
446.024	62.38
446.245	72.38
446.466	80.38
446.687	85.38
446.908	71.38
447.129	63.38
447.35	74.38
447.571	74.38
447.792	83.38
448.013	87.38
448.234	76.38
448.455	87.38
448.675	75.38
448.896	82.38
449.117	93.38
449.338	72.38
449.559	74.38
449.779	75.38
450	84.38
450.221	74.38
450.442	70.38
450.662	59.38
450.883	82.38
451.104	78.38
451.324	68.38
451.545	71.38
451.766	87.38
451.986	77.38
452.207	80.38
452.428	87.38
452.648	73.38
452.869	87.38
453.089	69.38
453.31	81.38
453.53	74.38
453.751	88.38
453.971	78.38
454.192	85.38
454.412	74.38
454.633	83.38
454.853	75.38
455.073	81.38
455.294	74.38
455.514	70.38
455.734	65.38
455.955	95.38
456.175	68.38
456.395	70.38
456.616	87.38
456.836	74.38
457.056	64.38
457.276	72.38
457.497	70.38
457.717	66.38
457.937	80.38
458.157	75.38
458.377	75.38
458.598	76.38
458.818	83.38
459.038	82.38
459.258	70.38
459.478	75.38
459.698	74.38
459.918	84.38
460.138	81.38
460.358	82.38
460.578	77.38
460.798	79.38
461.018	92.38
461.238	71.38
461.458	84.38
461.678	71.38
461.898	71.38
462.118	67.38
462.338	80.38
462.558	79.38
462.777	78.38
462.997	85.38
463.217	76.38
463.437	86.38
463.657	80.38
463.876	69.38
464.096	90.38
464.316	70.38
464.536	84.38
464.755	84.38
464.975	92.38
465.195	86.38
465.414	85.38
465.634	78.38
465.854	75.38
466.073	76.38
466.293	65.38
466.512	85.38
466.732	87.38
466.951	91.38
467.171	74.38
467.391	64.38
467.61	80.38
467.829	80.38
468.049	83.38
468.268	82.38
468.488	75.38
468.707	76.38
468.927	73.38
469.146	87.38
469.365	88.38
469.585	74.38
469.804	65.38
470.023	83.38
470.243	98.38
470.462	72.38
470.681	72.38
470.901	88.38
471.12	79.38
471.339	78.38
471.558	79.38
471.777	87.38
471.997	74.38
472.216	82.38
472.435	79.38
472.654	91.38
472.873	75.38
473.092	91.38
473.311	90.38
473.53	76.38
473.749	85.38
473.968	81.38
474.187	82.38
474.406	83.38
474.625	89.38
474.844	90.38
475.063	70.38
475.282	77.38
475.501	87.38
475.72	91.38
475.939	76.38
476.158	83.38
476.377	72.38
476.596	74.38
476.814	80.38
477.033	81.38
477.252	77.38
477.471	82.38
477.69	76.38
477.908	101.38
478.127	86.38
478.346	62.38
478.564	77.38
478.783	79.38
479.002	85.38
479.22	76.38
479.439	81.38
479.658	61.38
479.876	65.38
480.095	68.38
480.313	87.38
480.532	73.38
480.751	84.38
480.969	77.38
481.188	74.38
481.406	97.38
481.624	76.38
481.843	82.38
482.061	85.38
482.28	74.38
482.498	77.38
482.717	88.38
482.935	79.38
483.153	77.38
483.372	93.38
483.59	90.38
483.808	75.38
484.027	87.38
484.245	81.38
484.463	91.38
484.681	90.38
484.9	86.38
485.118	89.38
485.336	89.38
485.554	85.38
485.772	78.38
485.99	88.38
486.209	82.38
486.427	77.38
486.645	87.38
486.863	84.38
487.081	83.38
487.299	78.38
487.517	74.38
487.735	82.38
487.953	80.38
488.171	76.38
488.389	73.38
488.607	79.38
488.825	81.38
489.043	78.38
489.261	88.38
489.479	74.38
489.696	82.38
489.914	65.38
490.132	85.38
490.35	78.38
490.568	76.38
490.786	99.38
491.003	80.38
491.221	87.38
491.439	92.38
491.657	69.38
491.874	82.38
492.092	82.38
492.31	78.38
492.527	80.38
492.745	87.38
492.963	91.38
493.18	112.38
493.398	74.38
493.615	86.38
493.833	74.38
494.05	80.38
494.268	75.38
494.485	77.38
494.703	79.38
494.92	69.38
495.138	86.38
495.355	82.38
495.573	81.38
495.79	77.38
496.008	106.38
496.225	86.38
496.442	84.38
496.66	92.38
496.877	83.38
497.094	99.38
497.312	79.38
497.529	86.38
497.746	83.38
497.963	78.38
498.181	72.38
498.398	80.38
498.615	84.38
498.832	69.38
499.049	80.38
499.267	86.38
499.484	87.38
499.701	75.38
499.918	81.38
500.135	94.38
500.352	86.38
500.569	75.38
500.786	88.38
501.003	90.38
501.22	88.38
501.437	74.38
501.654	75.38
501.871	75.38
502.088	80.38
502.305	77.38
502.522	74.38
502.739	84.38
502.956	85.38
503.172	68.38
503.389	60.38
503.606	83.38
503.823	85.38
504.04	86.38
504.256	84.38
504.473	75.38
504.69	63.38
504.907	85.38
505.123	93.38
505.34	95.38
505.557	72.38
505.773	80.38
505.99	75.38
506.207	80.38
506.423	82.38
506.64	91.38
506.856	73.38
507.073	86.38
507.289	61.38
507.506	78.38
507.722	83.38
507.939	80.38
508.155	94.38
508.372	83.38
508.588	77.38
508.805	93.38
509.021	75.38
509.238	71.38
509.454	80.38
509.67	81.38
509.887	88.38
510.103	83.38
510.319	81.38
510.536	82.38
510.752	72.38
510.968	89.38
511.184	86.38
511.401	65.38
511.617	81.38
511.833	76.38
512.049	93.38
512.265	75.38
512.481	76.38
512.698	82.38
512.914	79.38
513.13	78.38
513.346	83.38
513.562	91.38
513.778	88.38
513.994	84.38
514.21	78.38
514.426	76.38
514.642	73.38
514.858	82.38
515.074	77.38
515.29	83.38
515.506	79.38
515.721	72.38
515.937	75.38
516.153	80.38
516.369	78.38
516.585	78.38
516.801	57.38
517.016	64.38
517.232	83.38
517.448	82.38
517.664	68.38
517.879	85.38
518.095	86.38
518.311	77.38
518.527	80.38
518.742	80.38
518.958	85.38
519.173	85.38
519.389	90.38
519.605	76.38
519.82	77.38
520.036	89.38
520.251	75.38
