Data from KBr_1_HRD10591_00023.txt Node
Date: Mon Jan 19 13:11:18 EST 2026
User: Yrep
Spectrometer: HR+D1059
Trigger mode: 0
Integration Time (sec): 1.000000E-1
Scans to average: 1
Electric dark correction enabled: true
Nonlinearity correction enabled: false
Boxcar width: 0
XAxis mode: Wavelengths
Number of Pixels in Spectrum: 2048
>>>>>Begin Spectral Data<<<<<
223.165	-16.94
223.4	-16.94
223.635	-16.94
223.869	-22.94
224.104	-31.94
224.338	-13.94
224.573	-10.94
224.808	-9.94
225.042	-3.94
225.277	-13.94
225.511	-0.94
225.746	15.06
225.98	9.06
226.215	17.06
226.449	19.06
226.683	28.06
226.918	11.06
227.152	26.06
227.387	41.06
227.621	39.06
227.856	41.06
228.09	52.06
228.324	25.06
228.559	43.06
228.793	52.06
229.027	63.06
229.262	71.06
229.496	67.06
229.73	62.06
229.964	83.06
230.199	84.06
230.433	72.06
230.667	73.06
230.901	81.06
231.136	88.06
231.37	74.06
231.604	87.06
231.838	89.06
232.072	87.06
232.306	94.06
232.541	77.06
232.775	91.06
233.009	94.06
233.243	99.06
233.477	74.06
233.711	87.06
233.945	86.06
234.179	92.06
234.413	88.06
234.647	88.06
234.881	78.06
235.115	81.06
235.349	73.06
235.583	85.06
235.817	89.06
236.051	83.06
236.285	89.06
236.519	81.06
236.753	89.06
236.987	89.06
237.221	81.06
237.455	79.06
237.689	71.06
237.922	95.06
238.156	89.06
238.39	72.06
238.624	96.06
238.858	103.06
239.091	88.06
239.325	91.06
239.559	101.06
239.793	92.06
240.027	98.06
240.26	104.06
240.494	91.06
240.728	88.06
240.961	83.06
241.195	94.06
241.429	92.06
241.662	90.06
241.896	101.06
242.13	98.06
242.363	94.06
242.597	94.06
242.83	89.06
243.064	84.06
243.298	93.06
243.531	93.06
243.765	91.06
243.998	84.06
244.232	99.06
244.465	92.06
244.699	86.06
244.932	90.06
245.166	88.06
245.399	97.06
245.633	84.06
245.866	90.06
246.099	91.06
246.333	90.06
246.566	89.06
246.8	92.06
247.033	84.06
247.266	111.06
247.5	89.06
247.733	92.06
247.966	104.06
248.2	93.06
248.433	105.06
248.666	110.06
248.899	116.06
249.133	108.06
249.366	91.06
249.599	92.06
249.832	85.06
250.066	97.06
250.299	97.06
250.532	102.06
250.765	85.06
250.998	85.06
251.231	100.06
251.465	107.06
251.698	97.06
251.931	97.06
252.164	101.06
252.397	87.06
252.63	101.06
252.863	101.06
253.096	102.06
253.329	102.06
253.562	110.06
253.795	120.06
254.028	105.06
254.261	107.06
254.494	106.06
254.727	110.06
254.96	110.06
255.193	92.06
255.426	112.06
255.659	103.06
255.892	117.06
256.124	105.06
256.357	105.06
256.59	103.06
256.823	115.06
257.056	125.06
257.289	106.06
257.521	121.06
257.754	116.06
257.987	110.06
258.22	106.06
258.452	102.06
258.685	107.06
258.918	118.06
259.151	119.06
259.383	113.06
259.616	119.06
259.849	118.06
260.081	123.06
260.314	125.06
260.547	122.06
260.779	113.06
261.012	123.06
261.244	110.06
261.477	126.06
261.71	120.06
261.942	113.06
262.175	115.06
262.407	124.06
262.64	105.06
262.872	131.06
263.105	116.06
263.337	126.06
263.57	111.06
263.802	110.06
264.035	109.06
264.267	133.06
264.499	126.06
264.732	128.06
264.964	135.06
265.197	115.06
265.429	112.06
265.661	119.06
265.894	124.06
266.126	139.06
266.358	117.06
266.591	124.06
266.823	133.06
267.055	121.06
267.287	128.06
267.52	130.06
267.752	126.06
267.984	133.06
268.216	135.06
268.448	147.06
268.681	135.06
268.913	126.06
269.145	126.06
269.377	134.06
269.609	134.06
269.841	121.06
270.073	127.06
270.306	127.06
270.538	132.06
270.77	128.06
271.002	123.06
271.234	120.06
271.466	128.06
271.698	127.06
271.93	129.06
272.162	135.06
272.394	138.06
272.626	133.06
272.858	127.06
273.09	148.06
273.322	134.06
273.553	136.06
273.785	139.06
274.017	124.06
274.249	134.06
274.481	149.06
274.713	144.06
274.945	138.06
275.176	147.06
275.408	155.06
275.64	130.06
275.872	138.06
276.104	150.06
276.335	145.06
276.567	134.06
276.799	148.06
277.031	150.06
277.262	142.06
277.494	155.06
277.726	150.06
277.957	147.06
278.189	152.06
278.421	151.06
278.652	131.06
278.884	144.06
279.115	147.06
279.347	143.06
279.579	149.06
279.81	157.06
280.042	153.06
280.273	156.06
280.505	163.06
280.736	170.06
280.968	141.06
281.199	140.06
281.431	148.06
281.662	169.06
281.894	164.06
282.125	155.06
282.356	167.06
282.588	142.06
282.819	157.06
283.051	148.06
283.282	137.06
283.513	160.06
283.745	151.06
283.976	151.06
284.207	173.06
284.439	150.06
284.67	159.06
284.901	173.06
285.132	150.06
285.364	154.06
285.595	167.06
285.826	171.06
286.057	153.06
286.288	155.06
286.52	156.06
286.751	143.06
286.982	164.06
287.213	149.06
287.444	143.06
287.675	165.06
287.906	176.06
288.138	162.06
288.369	171.06
288.6	184.06
288.831	152.06
289.062	165.06
289.293	169.06
289.524	166.06
289.755	179.06
289.986	166.06
290.217	172.06
290.448	154.06
290.679	164.06
290.91	175.06
291.141	179.06
291.371	169.06
291.602	156.06
291.833	153.06
292.064	171.06
292.295	169.06
292.526	170.06
292.757	182.06
292.987	189.06
293.218	157.06
293.449	181.06
293.68	180.06
293.91	182.06
294.141	183.06
294.372	175.06
294.603	169.06
294.833	174.06
295.064	186.06
295.295	166.06
295.525	161.06
295.756	170.06
295.987	155.06
296.217	174.06
296.448	191.06
296.679	186.06
296.909	199.06
297.14	187.06
297.37	182.06
297.601	196.06
297.831	193.06
298.062	194.06
298.292	181.06
298.523	182.06
298.753	189.06
298.984	191.06
299.214	203.06
299.445	180.06
299.675	185.06
299.905	197.06
300.136	186.06
300.366	182.06
300.597	192.06
300.827	198.06
301.057	201.06
301.288	188.06
301.518	193.06
301.748	188.06
301.979	206.06
302.209	189.06
302.439	182.06
302.669	201.06
302.9	193.06
303.13	220.06
303.36	195.06
303.59	201.06
303.82	197.06
304.051	204.06
304.281	186.06
304.511	209.06
304.741	191.06
304.971	195.06
305.201	185.06
305.431	188.06
305.661	190.06
305.891	201.06
306.121	206.06
306.352	191.06
306.582	207.06
306.812	214.06
307.042	209.06
307.272	199.06
307.502	215.06
307.731	193.06
307.961	201.06
308.191	217.06
308.421	197.06
308.651	202.06
308.881	200.06
309.111	186.06
309.341	200.06
309.571	191.06
309.8	197.06
310.03	183.06
310.26	202.06
310.49	207.06
310.72	200.06
310.949	207.06
311.179	213.06
311.409	214.06
311.639	194.06
311.868	205.06
312.098	207.06
312.328	197.06
312.557	213.06
312.787	209.06
313.017	220.06
313.246	211.06
313.476	226.06
313.706	220.06
313.935	211.06
314.165	207.06
314.394	202.06
314.624	216.06
314.853	223.06
315.083	218.06
315.312	221.06
315.542	219.06
315.771	215.06
316.001	207.06
316.23	227.06
316.46	221.06
316.689	205.06
316.919	217.06
317.148	219.06
317.377	228.06
317.607	206.06
317.836	231.06
318.065	220.06
318.295	213.06
318.524	206.06
318.753	225.06
318.983	213.06
319.212	225.06
319.441	235.06
319.67	207.06
319.9	220.06
320.129	220.06
320.358	215.06
320.587	217.06
320.816	214.06
321.046	222.06
321.275	219.06
321.504	229.06
321.733	223.06
321.962	222.06
322.191	239.06
322.42	213.06
322.649	229.06
322.878	222.06
323.108	227.06
323.337	221.06
323.566	235.06
323.795	229.06
324.024	243.06
324.253	236.06
324.482	250.06
324.71	228.06
324.939	241.06
325.168	225.06
325.397	228.06
325.626	221.06
325.855	220.06
326.084	228.06
326.313	242.06
326.542	229.06
326.77	248.06
326.999	239.06
327.228	238.06
327.457	243.06
327.686	245.06
327.914	247.06
328.143	242.06
328.372	255.06
328.6	233.06
328.829	240.06
329.058	242.06
329.287	237.06
329.515	254.06
329.744	244.06
329.972	251.06
330.201	263.06
330.43	279.06
330.658	257.06
330.887	253.06
331.115	262.06
331.344	230.06
331.572	241.06
331.801	262.06
332.03	254.06
332.258	274.06
332.486	265.06
332.715	267.06
332.943	274.06
333.172	264.06
333.4	254.06
333.629	266.06
333.857	269.06
334.085	277.06
334.314	280.06
334.542	279.06
334.771	268.06
334.999	275.06
335.227	277.06
335.455	275.06
335.684	275.06
335.912	252.06
336.14	273.06
336.369	271.06
336.597	270.06
336.825	279.06
337.053	291.06
337.281	273.06
337.51	278.06
337.738	268.06
337.966	266.06
338.194	281.06
338.422	298.06
338.65	267.06
338.878	287.06
339.106	274.06
339.334	285.06
339.562	293.06
339.79	264.06
340.018	257.06
340.246	277.06
340.474	270.06
340.702	266.06
340.93	261.06
341.158	265.06
341.386	266.06
341.614	266.06
341.842	257.06
342.07	284.06
342.298	275.06
342.526	270.06
342.754	268.06
342.981	262.06
343.209	255.06
343.437	293.06
343.665	283.06
343.893	279.06
344.12	301.06
344.348	291.06
344.576	317.06
344.804	329.06
345.031	302.06
345.259	301.06
345.487	290.06
345.714	275.06
345.942	274.06
346.17	269.06
346.397	260.06
346.625	258.06
346.853	264.06
347.08	249.06
347.308	258.06
347.535	248.06
347.763	261.06
347.99	249.06
348.218	269.06
348.445	261.06
348.673	233.06
348.9	231.06
349.128	260.06
349.355	270.06
349.583	253.06
349.81	249.06
350.037	244.06
350.265	262.06
350.492	244.06
350.72	254.06
350.947	256.06
351.174	240.06
351.402	254.06
351.629	269.06
351.856	238.06
352.083	259.06
352.311	253.06
352.538	258.06
352.765	245.06
352.992	246.06
353.22	247.06
353.447	276.06
353.674	260.06
353.901	240.06
354.128	245.06
354.355	260.06
354.583	242.06
354.81	262.06
355.037	259.06
355.264	245.06
355.491	243.06
355.718	259.06
355.945	258.06
356.172	252.06
356.399	267.06
356.626	249.06
356.853	267.06
357.08	263.06
357.307	272.06
357.534	249.06
357.761	271.06
357.988	251.06
358.215	262.06
358.441	263.06
358.668	243.06
358.895	250.06
359.122	258.06
359.349	260.06
359.576	258.06
359.802	243.06
360.029	253.06
360.256	250.06
360.483	261.06
360.709	261.06
360.936	269.06
361.163	259.06
361.39	247.06
361.616	260.06
361.843	273.06
362.07	251.06
362.296	274.06
362.523	260.06
362.749	252.06
362.976	239.06
363.203	261.06
363.429	238.06
363.656	257.06
363.882	266.06
364.109	258.06
364.335	269.06
364.562	256.06
364.788	250.06
365.015	268.06
365.241	254.06
365.468	283.06
365.694	264.06
365.92	243.06
366.147	255.06
366.373	257.06
366.599	258.06
366.826	266.06
367.052	263.06
367.278	265.06
367.505	280.06
367.731	263.06
367.957	245.06
368.184	254.06
368.41	254.06
368.636	270.06
368.862	260.06
369.089	277.06
369.315	268.06
369.541	273.06
369.767	271.06
369.993	280.06
370.219	262.06
370.445	265.06
370.672	258.06
370.898	270.06
371.124	282.06
371.35	261.06
371.576	268.06
371.802	268.06
372.028	275.06
372.254	284.06
372.48	274.06
372.706	259.06
372.932	266.06
373.158	258.06
373.384	274.06
373.61	292.06
373.835	243.06
374.061	265.06
374.287	278.06
374.513	283.06
374.739	286.06
374.965	275.06
375.191	269.06
375.416	280.06
375.642	275.06
375.868	288.06
376.094	281.06
376.319	260.06
376.545	259.06
376.771	293.06
376.997	272.06
377.222	271.06
377.448	272.06
377.674	255.06
377.899	291.06
378.125	277.06
378.35	287.06
378.576	270.06
378.802	268.06
379.027	269.06
379.253	269.06
379.478	292.06
379.704	267.06
379.929	287.06
380.155	279.06
380.38	271.06
380.606	277.06
380.831	290.06
381.057	307.06
381.282	291.06
381.507	292.06
381.733	285.06
381.958	295.06
382.184	285.06
382.409	297.06
382.634	299.06
382.86	295.06
383.085	286.06
383.31	291.06
383.535	293.06
383.761	291.06
383.986	301.06
384.211	292.06
384.436	303.06
384.662	296.06
384.887	312.06
385.112	297.06
385.337	303.06
385.562	301.06
385.787	297.06
386.013	312.06
386.238	305.06
386.463	299.06
386.688	342.06
386.913	323.06
387.138	321.06
387.363	313.06
387.588	320.06
387.813	304.06
388.038	318.06
388.263	327.06
388.488	310.06
388.713	325.06
388.938	319.06
389.163	321.06
389.387	311.06
389.612	309.06
389.837	333.06
390.062	328.06
390.287	324.06
390.512	335.06
390.736	316.06
390.961	333.06
391.186	333.06
391.411	348.06
391.636	334.06
391.86	333.06
392.085	337.06
392.31	322.06
392.534	338.06
392.759	354.06
392.984	323.06
393.208	356.06
393.433	364.06
393.658	342.06
393.882	331.06
394.107	350.06
394.331	343.06
394.556	339.06
394.78	348.06
395.005	348.06
395.229	338.06
395.454	333.06
395.678	353.06
395.903	350.06
396.127	364.06
396.352	337.06
396.576	347.06
396.801	358.06
397.025	353.06
397.249	365.06
397.474	360.06
397.698	367.06
397.922	371.06
398.147	364.06
398.371	363.06
398.595	371.06
398.82	358.06
399.044	385.06
399.268	390.06
399.492	432.06
399.717	435.06
399.941	421.06
400.165	410.06
400.389	427.06
400.613	395.06
400.837	393.06
401.062	371.06
401.286	380.06
401.51	393.06
401.734	383.06
401.958	379.06
402.182	367.06
402.406	377.06
402.63	395.06
402.854	383.06
403.078	386.06
403.302	409.06
403.526	423.06
403.75	435.06
403.974	457.06
404.198	629.06
404.422	905.06
404.645	1065.06
404.869	931.06
405.093	656.06
405.317	527.06
405.541	451.06
405.765	418.06
405.988	427.06
406.212	407.06
406.436	394.06
406.66	386.06
406.883	394.06
407.107	401.06
407.331	405.06
407.555	414.06
407.778	407.06
408.002	405.06
408.226	410.06
408.449	403.06
408.673	395.06
408.896	393.06
409.12	391.06
409.344	389.06
409.567	381.06
409.791	382.06
410.014	388.06
410.238	386.06
410.461	367.06
410.685	383.06
410.908	376.06
411.132	390.06
411.355	384.06
411.578	395.06
411.802	372.06
412.025	383.06
412.249	357.06
412.472	351.06
412.695	401.06
412.919	371.06
413.142	373.06
413.365	374.06
413.589	370.06
413.812	363.06
414.035	351.06
414.258	366.06
414.482	369.06
414.705	372.06
414.928	384.06
415.151	360.06
415.374	356.06
415.597	354.06
415.821	346.06
416.044	351.06
416.267	369.06
416.49	365.06
416.713	375.06
416.936	365.06
417.159	349.06
417.382	358.06
417.605	360.06
417.828	379.06
418.051	380.06
418.274	389.06
418.497	359.06
418.72	392.06
418.943	391.06
419.166	372.06
419.389	401.06
419.611	392.06
419.834	384.06
420.057	384.06
420.28	370.06
420.503	353.06
420.726	363.06
420.948	370.06
421.171	344.06
421.394	368.06
421.617	381.06
421.839	371.06
422.062	372.06
422.285	369.06
422.507	393.06
422.73	395.06
422.953	386.06
423.175	333.06
423.398	364.06
423.621	358.06
423.843	364.06
424.066	378.06
424.288	378.06
424.511	359.06
424.733	357.06
424.956	374.06
425.178	372.06
425.401	356.06
425.623	366.06
425.846	345.06
426.068	357.06
426.291	367.06
426.513	345.06
426.735	349.06
426.958	367.06
427.18	358.06
427.402	341.06
427.625	348.06
427.847	339.06
428.069	340.06
428.292	346.06
428.514	340.06
428.736	363.06
428.958	355.06
429.181	336.06
429.403	332.06
429.625	330.06
429.847	353.06
430.069	342.06
430.292	358.06
430.514	344.06
430.736	345.06
430.958	347.06
431.18	344.06
431.402	339.06
431.624	308.06
431.846	331.06
432.068	313.06
432.29	332.06
432.512	344.06
432.734	356.06
432.956	349.06
433.178	334.06
433.4	350.06
433.622	356.06
433.844	343.06
434.066	329.06
434.287	330.06
434.509	323.06
434.731	326.06
434.953	330.06
435.175	330.06
435.397	333.06
435.618	337.06
435.84	332.06
436.062	342.06
436.284	334.06
436.505	329.06
436.727	332.06
436.949	331.06
437.17	359.06
437.392	352.06
437.614	342.06
437.835	313.06
438.057	312.06
438.278	328.06
438.5	332.06
438.721	346.06
438.943	344.06
439.165	353.06
439.386	349.06
439.608	345.06
439.829	330.06
440.05	354.06
440.272	366.06
440.493	344.06
440.715	357.06
440.936	351.06
441.158	360.06
441.379	360.06
441.6	367.06
441.822	376.06
442.043	357.06
442.264	335.06
442.486	348.06
442.707	353.06
442.928	365.06
443.149	356.06
443.371	340.06
443.592	378.06
443.813	385.06
444.034	369.06
444.255	360.06
444.476	362.06
444.698	353.06
444.919	375.06
445.14	457.06
445.361	415.06
445.582	365.06
445.803	355.06
446.024	365.06
446.245	363.06
446.466	374.06
446.687	350.06
446.908	350.06
447.129	347.06
447.35	347.06
447.571	336.06
447.792	335.06
448.013	325.06
448.234	354.06
448.455	327.06
448.675	330.06
448.896	329.06
449.117	318.06
449.338	320.06
449.559	314.06
449.779	301.06
450	324.06
450.221	318.06
450.442	320.06
450.662	326.06
450.883	323.06
451.104	321.06
451.324	309.06
451.545	311.06
451.766	324.06
451.986	311.06
452.207	320.06
452.428	315.06
452.648	327.06
452.869	294.06
453.089	300.06
453.31	325.06
453.53	299.06
453.751	282.06
453.971	284.06
454.192	286.06
454.412	301.06
454.633	289.06
454.853	301.06
455.073	290.06
455.294	291.06
455.514	307.06
455.734	311.06
455.955	305.06
456.175	287.06
456.395	305.06
456.616	299.06
456.836	272.06
457.056	295.06
457.276	290.06
457.497	302.06
457.717	289.06
457.937	314.06
458.157	308.06
458.377	304.06
458.598	296.06
458.818	308.06
459.038	298.06
459.258	294.06
459.478	318.06
459.698	329.06
459.918	303.06
460.138	331.06
460.358	359.06
460.578	342.06
460.798	342.06
461.018	356.06
461.238	347.06
461.458	365.06
461.678	371.06
461.898	359.06
462.118	354.06
462.338	363.06
462.558	360.06
462.777	369.06
462.997	377.06
463.217	379.06
463.437	380.06
463.657	390.06
463.876	367.06
464.096	361.06
464.316	365.06
464.536	391.06
464.755	371.06
464.975	358.06
465.195	362.06
465.414	337.06
465.634	359.06
465.854	334.06
466.073	344.06
466.293	356.06
466.512	343.06
466.732	359.06
466.951	338.06
467.171	346.06
467.391	382.06
467.61	368.06
467.829	346.06
468.049	361.06
468.268	351.06
468.488	349.06
468.707	353.06
468.927	361.06
469.146	351.06
469.365	366.06
469.585	370.06
469.804	377.06
470.023	388.06
470.243	362.06
470.462	389.06
470.681	401.06
470.901	393.06
471.12	373.06
471.339	370.06
471.558	369.06
471.777	363.06
471.997	370.06
472.216	342.06
472.435	348.06
472.654	338.06
472.873	347.06
473.092	345.06
473.311	338.06
473.53	334.06
473.749	346.06
473.968	340.06
474.187	348.06
474.406	356.06
474.625	346.06
474.844	351.06
475.063	341.06
475.282	365.06
475.501	358.06
475.72	364.06
475.939	371.06
476.158	351.06
476.377	377.06
476.596	361.06
476.814	337.06
477.033	357.06
477.252	358.06
477.471	371.06
477.69	413.06
477.908	399.06
478.127	427.06
478.346	410.06
478.564	418.06
478.783	441.06
479.002	421.06
479.22	439.06
479.439	408.06
479.658	404.06
479.876	393.06
480.095	400.06
480.313	401.06
480.532	396.06
480.751	405.06
480.969	387.06
481.188	401.06
481.406	398.06
481.624	386.06
481.843	391.06
482.061	372.06
482.28	374.06
482.498	386.06
482.717	392.06
482.935	394.06
483.153	396.06
483.372	382.06
483.59	415.06
483.808	373.06
484.027	376.06
484.245	396.06
484.463	396.06
484.681	417.06
484.9	421.06
485.118	389.06
485.336	385.06
485.554	384.06
485.772	365.06
485.99	371.06
486.209	387.06
486.427	393.06
486.645	400.06
486.863	398.06
487.081	403.06
487.299	407.06
487.517	392.06
487.735	433.06
487.953	421.06
488.171	428.06
488.389	424.06
488.607	403.06
488.825	403.06
489.043	406.06
489.261	393.06
489.479	402.06
489.696	388.06
489.914	414.06
490.132	392.06
490.35	423.06
490.568	408.06
490.786	438.06
491.003	435.06
491.221	445.06
491.439	460.06
491.657	461.06
491.874	488.06
492.092	479.06
492.31	483.06
492.527	485.06
492.745	479.06
492.963	477.06
493.18	452.06
493.398	470.06
493.615	454.06
493.833	437.06
494.05	445.06
494.268	454.06
494.485	443.06
494.703	449.06
494.92	455.06
495.138	445.06
495.355	438.06
495.573	454.06
495.79	446.06
496.008	465.06
496.225	447.06
496.442	435.06
496.66	470.06
496.877	454.06
497.094	444.06
497.312	466.06
497.529	455.06
497.746	469.06
497.963	443.06
498.181	466.06
498.398	465.06
498.615	491.06
498.832	497.06
499.049	508.06
499.267	518.06
499.484	567.06
499.701	566.06
499.918	604.06
500.135	617.06
500.352	638.06
500.569	650.06
500.786	655.06
501.003	624.06
501.22	595.06
501.437	561.06
501.654	548.06
501.871	542.06
502.088	512.06
502.305	513.06
502.522	496.06
502.739	500.06
502.956	456.06
503.172	467.06
503.389	445.06
503.606	444.06
503.823	426.06
