Data from KBr_1_HRD10591_00012.txt Node
Date: Mon Jan 19 13:11:17 EST 2026
User: Yrep
Spectrometer: HR+D1059
Trigger mode: 0
Integration Time (sec): 1.000000E-1
Scans to average: 1
Electric dark correction enabled: true
Nonlinearity correction enabled: false
Boxcar width: 0
XAxis mode: Wavelengths
Number of Pixels in Spectrum: 2048
>>>>>Begin Spectral Data<<<<<
223.165	-19.62
223.4	-19.62
223.635	-19.62
223.869	-20.62
224.104	-17.62
224.338	-17.62
224.573	-21.62
224.808	-6.62
225.042	-2.62
225.277	-1.62
225.511	7.38
225.746	-5.62
225.98	6.38
226.215	13.38
226.449	17.38
226.683	14.38
226.918	26.38
227.152	28.38
227.387	42.38
227.621	28.38
227.856	43.38
228.09	41.38
228.324	46.38
228.559	42.38
228.793	57.38
229.027	58.38
229.262	59.38
229.496	70.38
229.73	70.38
229.964	72.38
230.199	83.38
230.433	72.38
230.667	50.38
230.901	63.38
231.136	62.38
231.37	82.38
231.604	70.38
231.838	88.38
232.072	84.38
232.306	76.38
232.541	78.38
232.775	70.38
233.009	55.38
233.243	77.38
233.477	85.38
233.711	84.38
233.945	83.38
234.179	92.38
234.413	75.38
234.647	74.38
234.881	78.38
235.115	67.38
235.349	81.38
235.583	80.38
235.817	79.38
236.051	78.38
236.285	74.38
236.519	69.38
236.753	72.38
236.987	72.38
237.221	75.38
237.455	68.38
237.689	90.38
237.922	68.38
238.156	80.38
238.39	82.38
238.624	68.38
238.858	87.38
239.091	71.38
239.325	69.38
239.559	75.38
239.793	69.38
240.027	71.38
240.26	77.38
240.494	67.38
240.728	71.38
240.961	83.38
241.195	79.38
241.429	69.38
241.662	79.38
241.896	71.38
242.13	59.38
242.363	68.38
242.597	73.38
242.83	75.38
243.064	75.38
243.298	82.38
243.531	70.38
243.765	77.38
243.998	75.38
244.232	86.38
244.465	83.38
244.699	80.38
244.932	68.38
245.166	79.38
245.399	82.38
245.633	64.38
245.866	101.38
246.099	66.38
246.333	68.38
246.566	65.38
246.8	66.38
247.033	72.38
247.266	70.38
247.5	70.38
247.733	80.38
247.966	63.38
248.2	79.38
248.433	69.38
248.666	86.38
248.899	80.38
249.133	84.38
249.366	80.38
249.599	86.38
249.832	84.38
250.066	87.38
250.299	65.38
250.532	61.38
250.765	70.38
250.998	84.38
251.231	83.38
251.465	79.38
251.698	72.38
251.931	63.38
252.164	65.38
252.397	69.38
252.63	77.38
252.863	83.38
253.096	68.38
253.329	93.38
253.562	95.38
253.795	68.38
254.028	84.38
254.261	85.38
254.494	61.38
254.727	83.38
254.96	86.38
255.193	88.38
255.426	77.38
255.659	85.38
255.892	75.38
256.124	75.38
256.357	84.38
256.59	79.38
256.823	79.38
257.056	89.38
257.289	82.38
257.521	83.38
257.754	93.38
257.987	84.38
258.22	94.38
258.452	90.38
258.685	78.38
258.918	89.38
259.151	69.38
259.383	78.38
259.616	72.38
259.849	73.38
260.081	83.38
260.314	79.38
260.547	85.38
260.779	78.38
261.012	93.38
261.244	82.38
261.477	86.38
261.71	74.38
261.942	86.38
262.175	79.38
262.407	64.38
262.64	75.38
262.872	74.38
263.105	74.38
263.337	85.38
263.57	75.38
263.802	75.38
264.035	83.38
264.267	84.38
264.499	75.38
264.732	73.38
264.964	87.38
265.197	84.38
265.429	78.38
265.661	87.38
265.894	75.38
266.126	76.38
266.358	83.38
266.591	80.38
266.823	76.38
267.055	82.38
267.287	71.38
267.52	85.38
267.752	72.38
267.984	65.38
268.216	85.38
268.448	91.38
268.681	74.38
268.913	74.38
269.145	94.38
269.377	78.38
269.609	76.38
269.841	89.38
270.073	77.38
270.306	82.38
270.538	76.38
270.77	82.38
271.002	62.38
271.234	88.38
271.466	75.38
271.698	62.38
271.93	75.38
272.162	78.38
272.394	91.38
272.626	73.38
272.858	89.38
273.09	86.38
273.322	64.38
273.553	73.38
273.785	82.38
274.017	74.38
274.249	83.38
274.481	83.38
274.713	77.38
274.945	84.38
275.176	87.38
275.408	82.38
275.64	88.38
275.872	79.38
276.104	88.38
276.335	91.38
276.567	86.38
276.799	85.38
277.031	87.38
277.262	79.38
277.494	78.38
277.726	77.38
277.957	90.38
278.189	71.38
278.421	77.38
278.652	78.38
278.884	100.38
279.115	82.38
279.347	86.38
279.579	76.38
279.81	79.38
280.042	71.38
280.273	69.38
280.505	54.38
280.736	83.38
280.968	82.38
281.199	85.38
281.431	77.38
281.662	78.38
281.894	87.38
282.125	87.38
282.356	74.38
282.588	70.38
282.819	91.38
283.051	77.38
283.282	73.38
283.513	90.38
283.745	72.38
283.976	88.38
284.207	78.38
284.439	61.38
284.67	84.38
284.901	78.38
285.132	77.38
285.364	84.38
285.595	86.38
285.826	95.38
286.057	92.38
286.288	82.38
286.52	94.38
286.751	86.38
286.982	87.38
287.213	84.38
287.444	68.38
287.675	83.38
287.906	83.38
288.138	78.38
288.369	76.38
288.6	74.38
288.831	75.38
289.062	92.38
289.293	71.38
289.524	83.38
289.755	81.38
289.986	96.38
290.217	78.38
290.448	81.38
290.679	76.38
290.91	70.38
291.141	95.38
291.371	75.38
291.602	72.38
291.833	69.38
292.064	86.38
292.295	71.38
292.526	93.38
292.757	85.38
292.987	73.38
293.218	87.38
293.449	88.38
293.68	85.38
293.91	90.38
294.141	87.38
294.372	88.38
294.603	79.38
294.833	83.38
295.064	82.38
295.295	84.38
295.525	68.38
295.756	88.38
295.987	90.38
296.217	84.38
296.448	74.38
296.679	88.38
296.909	68.38
297.14	78.38
297.37	82.38
297.601	92.38
297.831	96.38
298.062	73.38
298.292	95.38
298.523	66.38
298.753	83.38
298.984	84.38
299.214	78.38
299.445	74.38
299.675	93.38
299.905	98.38
300.136	88.38
300.366	75.38
300.597	85.38
300.827	74.38
301.057	65.38
301.288	75.38
301.518	70.38
301.748	60.38
301.979	94.38
302.209	88.38
302.439	74.38
302.669	71.38
302.9	86.38
303.13	92.38
303.36	94.38
303.59	87.38
303.82	98.38
304.051	90.38
304.281	77.38
304.511	84.38
304.741	74.38
304.971	84.38
305.201	100.38
305.431	89.38
305.661	98.38
305.891	78.38
306.121	91.38
306.352	94.38
306.582	79.38
306.812	82.38
307.042	76.38
307.272	93.38
307.502	93.38
307.731	77.38
307.961	93.38
308.191	91.38
308.421	76.38
308.651	82.38
308.881	82.38
309.111	79.38
309.341	89.38
309.571	86.38
309.8	81.38
310.03	79.38
310.26	89.38
310.49	66.38
310.72	74.38
310.949	91.38
311.179	93.38
311.409	75.38
311.639	95.38
311.868	94.38
312.098	82.38
312.328	71.38
312.557	74.38
312.787	85.38
313.017	88.38
313.246	82.38
313.476	84.38
313.706	87.38
313.935	87.38
314.165	92.38
314.394	78.38
314.624	73.38
314.853	83.38
315.083	79.38
315.312	76.38
315.542	89.38
315.771	71.38
316.001	87.38
316.23	86.38
316.46	88.38
316.689	75.38
316.919	77.38
317.148	99.38
317.377	93.38
317.607	87.38
317.836	80.38
318.065	88.38
318.295	77.38
318.524	71.38
318.753	82.38
318.983	88.38
319.212	91.38
319.441	84.38
319.67	86.38
319.9	75.38
320.129	80.38
320.358	102.38
320.587	79.38
320.816	77.38
321.046	73.38
321.275	78.38
321.504	92.38
321.733	94.38
321.962	84.38
322.191	86.38
322.42	77.38
322.649	90.38
322.878	95.38
323.108	89.38
323.337	87.38
323.566	85.38
323.795	90.38
324.024	82.38
324.253	74.38
324.482	74.38
324.71	77.38
324.939	89.38
325.168	92.38
325.397	85.38
325.626	84.38
325.855	92.38
326.084	82.38
326.313	94.38
326.542	78.38
326.77	72.38
326.999	76.38
327.228	80.38
327.457	93.38
327.686	88.38
327.914	110.38
328.143	87.38
328.372	73.38
328.6	80.38
328.829	80.38
329.058	74.38
329.287	76.38
329.515	79.38
329.744	86.38
329.972	82.38
330.201	74.38
330.43	82.38
330.658	88.38
330.887	80.38
331.115	86.38
331.344	92.38
331.572	87.38
331.801	82.38
332.03	83.38
332.258	86.38
332.486	90.38
332.715	83.38
332.943	88.38
333.172	66.38
333.4	69.38
333.629	100.38
333.857	89.38
334.085	82.38
334.314	89.38
334.542	75.38
334.771	82.38
334.999	88.38
335.227	83.38
335.455	88.38
335.684	89.38
335.912	94.38
336.14	66.38
336.369	93.38
336.597	84.38
336.825	86.38
337.053	76.38
337.281	83.38
337.51	74.38
337.738	82.38
337.966	86.38
338.194	91.38
338.422	80.38
338.65	74.38
338.878	77.38
339.106	83.38
339.334	91.38
339.562	80.38
339.79	83.38
340.018	77.38
340.246	76.38
340.474	87.38
340.702	100.38
340.93	82.38
341.158	83.38
341.386	91.38
341.614	90.38
341.842	92.38
342.07	101.38
342.298	84.38
342.526	95.38
342.754	83.38
342.981	92.38
343.209	82.38
343.437	101.38
343.665	77.38
343.893	82.38
344.12	91.38
344.348	88.38
344.576	89.38
344.804	92.38
345.031	78.38
345.259	92.38
345.487	78.38
345.714	64.38
345.942	79.38
346.17	76.38
346.397	83.38
346.625	93.38
346.853	83.38
347.08	70.38
347.308	82.38
347.535	95.38
347.763	81.38
347.99	90.38
348.218	85.38
348.445	94.38
348.673	91.38
348.9	78.38
349.128	86.38
349.355	82.38
349.583	89.38
349.81	75.38
350.037	64.38
350.265	80.38
350.492	82.38
350.72	77.38
350.947	82.38
351.174	86.38
351.402	89.38
351.629	90.38
351.856	84.38
352.083	86.38
352.311	83.38
352.538	91.38
352.765	98.38
352.992	95.38
353.22	82.38
353.447	78.38
353.674	98.38
353.901	82.38
354.128	85.38
354.355	93.38
354.583	86.38
354.81	87.38
355.037	91.38
355.264	94.38
355.491	84.38
355.718	84.38
355.945	77.38
356.172	81.38
356.399	81.38
356.626	75.38
356.853	76.38
357.08	75.38
357.307	76.38
357.534	90.38
357.761	85.38
357.988	78.38
358.215	78.38
358.441	60.38
358.668	72.38
358.895	84.38
359.122	84.38
359.349	92.38
359.576	79.38
359.802	75.38
360.029	79.38
360.256	93.38
360.483	82.38
360.709	104.38
360.936	96.38
361.163	86.38
361.39	91.38
361.616	78.38
361.843	93.38
362.07	81.38
362.296	87.38
362.523	82.38
362.749	81.38
362.976	76.38
363.203	88.38
363.429	87.38
363.656	84.38
363.882	77.38
364.109	76.38
364.335	78.38
364.562	71.38
364.788	74.38
365.015	63.38
365.241	82.38
365.468	80.38
365.694	80.38
365.92	85.38
366.147	68.38
366.373	79.38
366.599	79.38
366.826	84.38
367.052	75.38
367.278	78.38
367.505	73.38
367.731	74.38
367.957	80.38
368.184	75.38
368.41	61.38
368.636	79.38
368.862	84.38
369.089	77.38
369.315	86.38
369.541	80.38
369.767	81.38
369.993	82.38
370.219	72.38
370.445	83.38
370.672	74.38
370.898	84.38
371.124	85.38
371.35	94.38
371.576	92.38
371.802	96.38
372.028	73.38
372.254	73.38
372.48	80.38
372.706	62.38
372.932	82.38
373.158	82.38
373.384	77.38
373.61	80.38
373.835	66.38
374.061	70.38
374.287	62.38
374.513	81.38
374.739	79.38
374.965	72.38
375.191	75.38
375.416	75.38
375.642	93.38
375.868	76.38
376.094	79.38
376.319	83.38
376.545	72.38
376.771	90.38
376.997	82.38
377.222	67.38
377.448	95.38
377.674	84.38
377.899	92.38
378.125	86.38
378.35	73.38
378.576	82.38
378.802	74.38
379.027	81.38
379.253	94.38
379.478	79.38
379.704	80.38
379.929	87.38
380.155	84.38
380.38	74.38
380.606	102.38
380.831	86.38
381.057	90.38
381.282	79.38
381.507	72.38
381.733	73.38
381.958	75.38
382.184	84.38
382.409	75.38
382.634	87.38
382.86	89.38
383.085	82.38
383.31	71.38
383.535	80.38
383.761	87.38
383.986	75.38
384.211	86.38
384.436	79.38
384.662	84.38
384.887	75.38
385.112	82.38
385.337	81.38
385.562	78.38
385.787	74.38
386.013	82.38
386.238	86.38
386.463	81.38
386.688	89.38
386.913	82.38
387.138	85.38
387.363	66.38
387.588	93.38
387.813	88.38
388.038	80.38
388.263	83.38
388.488	58.38
388.713	70.38
388.938	76.38
389.163	78.38
389.387	80.38
389.612	75.38
389.837	69.38
390.062	92.38
390.287	79.38
390.512	70.38
390.736	77.38
390.961	77.38
391.186	76.38
391.411	89.38
391.636	82.38
391.86	82.38
392.085	74.38
392.31	73.38
392.534	80.38
392.759	72.38
392.984	85.38
393.208	69.38
393.433	75.38
393.658	75.38
393.882	84.38
394.107	90.38
394.331	74.38
394.556	75.38
394.78	81.38
395.005	74.38
395.229	80.38
395.454	90.38
395.678	61.38
395.903	89.38
396.127	84.38
396.352	75.38
396.576	79.38
396.801	78.38
397.025	87.38
397.249	87.38
397.474	99.38
397.698	78.38
397.922	76.38
398.147	63.38
398.371	83.38
398.595	75.38
398.82	75.38
399.044	70.38
399.268	92.38
399.492	85.38
399.717	71.38
399.941	75.38
400.165	83.38
400.389	83.38
400.613	82.38
400.837	73.38
401.062	75.38
401.286	94.38
401.51	84.38
401.734	75.38
401.958	87.38
402.182	71.38
402.406	64.38
402.63	82.38
402.854	79.38
403.078	80.38
403.302	65.38
403.526	90.38
403.75	94.38
403.974	74.38
404.198	76.38
404.422	85.38
404.645	72.38
404.869	75.38
405.093	68.38
405.317	88.38
405.541	74.38
405.765	86.38
405.988	84.38
406.212	72.38
406.436	92.38
406.66	90.38
406.883	70.38
407.107	82.38
407.331	80.38
407.555	79.38
407.778	87.38
408.002	85.38
408.226	86.38
408.449	82.38
408.673	84.38
408.896	75.38
409.12	78.38
409.344	88.38
409.567	83.38
409.791	91.38
410.014	86.38
410.238	100.38
410.461	77.38
410.685	70.38
410.908	74.38
411.132	88.38
411.355	86.38
411.578	89.38
411.802	92.38
412.025	94.38
412.249	82.38
412.472	79.38
412.695	73.38
412.919	71.38
413.142	83.38
413.365	63.38
413.589	90.38
413.812	73.38
414.035	77.38
414.258	76.38
414.482	74.38
414.705	77.38
414.928	77.38
415.151	84.38
415.374	75.38
415.597	90.38
415.821	78.38
416.044	78.38
416.267	84.38
416.49	78.38
416.713	77.38
416.936	87.38
417.159	76.38
417.382	78.38
417.605	70.38
417.828	65.38
418.051	83.38
418.274	73.38
418.497	81.38
418.72	75.38
418.943	84.38
419.166	86.38
419.389	73.38
419.611	87.38
419.834	74.38
420.057	86.38
420.28	78.38
420.503	76.38
420.726	76.38
420.948	91.38
421.171	74.38
421.394	77.38
421.617	82.38
421.839	70.38
422.062	73.38
422.285	84.38
422.507	93.38
422.73	61.38
422.953	75.38
423.175	70.38
423.398	82.38
423.621	74.38
423.843	100.38
424.066	81.38
424.288	76.38
424.511	83.38
424.733	86.38
424.956	75.38
425.178	87.38
425.401	75.38
425.623	69.38
425.846	74.38
426.068	83.38
426.291	81.38
426.513	79.38
426.735	84.38
426.958	83.38
427.18	83.38
427.402	82.38
427.625	84.38
427.847	84.38
428.069	86.38
428.292	72.38
428.514	79.38
428.736	99.38
428.958	74.38
429.181	76.38
429.403	91.38
429.625	82.38
429.847	87.38
430.069	87.38
430.292	80.38
430.514	77.38
430.736	70.38
430.958	86.38
431.18	82.38
431.402	80.38
431.624	84.38
431.846	85.38
432.068	76.38
432.29	90.38
432.512	85.38
432.734	85.38
432.956	76.38
433.178	77.38
433.4	88.38
433.622	88.38
433.844	86.38
434.066	95.38
434.287	94.38
434.509	88.38
434.731	73.38
434.953	74.38
435.175	75.38
435.397	81.38
435.618	78.38
435.84	82.38
436.062	83.38
436.284	74.38
436.505	79.38
436.727	69.38
436.949	77.38
437.17	78.38
437.392	86.38
437.614	93.38
437.835	72.38
438.057	92.38
438.278	61.38
438.5	77.38
438.721	74.38
438.943	81.38
439.165	79.38
439.386	69.38
439.608	91.38
439.829	79.38
440.05	67.38
440.272	68.38
440.493	87.38
440.715	70.38
440.936	94.38
441.158	80.38
441.379	75.38
441.6	71.38
441.822	86.38
442.043	85.38
442.264	87.38
442.486	71.38
442.707	88.38
442.928	82.38
443.149	72.38
443.371	76.38
443.592	78.38
443.813	83.38
444.034	85.38
444.255	80.38
444.476	80.38
444.698	91.38
444.919	76.38
445.14	160.38
445.361	117.38
445.582	82.38
445.803	97.38
446.024	77.38
446.245	84.38
446.466	80.38
446.687	79.38
446.908	78.38
447.129	75.38
447.35	84.38
447.571	74.38
447.792	80.38
448.013	82.38
448.234	70.38
448.455	79.38
448.675	66.38
448.896	91.38
449.117	91.38
449.338	79.38
449.559	74.38
449.779	70.38
450	71.38
450.221	86.38
450.442	60.38
450.662	72.38
450.883	74.38
451.104	85.38
451.324	80.38
451.545	83.38
451.766	87.38
451.986	90.38
452.207	79.38
452.428	75.38
452.648	85.38
452.869	66.38
453.089	98.38
453.31	71.38
453.53	78.38
453.751	79.38
453.971	75.38
454.192	74.38
454.412	81.38
454.633	83.38
454.853	83.38
455.073	73.38
455.294	70.38
455.514	74.38
455.734	79.38
455.955	92.38
456.175	87.38
456.395	83.38
456.616	90.38
456.836	67.38
457.056	70.38
457.276	68.38
457.497	80.38
457.717	76.38
457.937	72.38
458.157	86.38
458.377	83.38
458.598	62.38
458.818	75.38
459.038	77.38
459.258	87.38
459.478	80.38
459.698	90.38
459.918	69.38
460.138	76.38
460.358	92.38
460.578	70.38
460.798	81.38
461.018	90.38
461.238	92.38
461.458	93.38
461.678	72.38
461.898	68.38
462.118	85.38
462.338	84.38
462.558	78.38
462.777	88.38
462.997	79.38
463.217	77.38
463.437	71.38
463.657	78.38
463.876	79.38
464.096	77.38
464.316	81.38
464.536	81.38
464.755	98.38
464.975	73.38
465.195	71.38
465.414	77.38
465.634	86.38
465.854	71.38
466.073	73.38
466.293	64.38
466.512	86.38
466.732	78.38
466.951	90.38
467.171	91.38
467.391	70.38
467.61	73.38
467.829	84.38
468.049	78.38
468.268	79.38
468.488	75.38
468.707	80.38
468.927	72.38
469.146	65.38
469.365	74.38
469.585	87.38
469.804	75.38
470.023	77.38
470.243	79.38
470.462	83.38
470.681	87.38
470.901	67.38
471.12	95.38
471.339	84.38
471.558	64.38
471.777	91.38
471.997	75.38
472.216	89.38
472.435	72.38
472.654	69.38
472.873	84.38
473.092	82.38
473.311	76.38
473.53	78.38
473.749	71.38
473.968	98.38
474.187	76.38
474.406	81.38
474.625	75.38
474.844	95.38
475.063	72.38
475.282	83.38
475.501	90.38
475.72	99.38
475.939	78.38
476.158	78.38
476.377	84.38
476.596	77.38
476.814	71.38
477.033	73.38
477.252	86.38
477.471	79.38
477.69	70.38
477.908	80.38
478.127	93.38
478.346	75.38
478.564	88.38
478.783	76.38
479.002	80.38
479.22	83.38
479.439	82.38
479.658	74.38
479.876	78.38
480.095	69.38
480.313	71.38
480.532	73.38
480.751	69.38
480.969	80.38
481.188	85.38
481.406	79.38
481.624	76.38
481.843	75.38
482.061	62.38
482.28	78.38
482.498	72.38
482.717	85.38
482.935	70.38
483.153	82.38
483.372	91.38
483.59	73.38
483.808	80.38
484.027	85.38
484.245	72.38
484.463	78.38
484.681	86.38
484.9	82.38
485.118	76.38
485.336	85.38
485.554	86.38
485.772	78.38
485.99	62.38
486.209	77.38
486.427	83.38
486.645	87.38
486.863	71.38
487.081	76.38
487.299	90.38
487.517	94.38
487.735	79.38
487.953	85.38
488.171	77.38
488.389	76.38
488.607	73.38
488.825	77.38
489.043	80.38
489.261	95.38
489.479	82.38
489.696	76.38
489.914	66.38
490.132	84.38
490.35	75.38
490.568	76.38
490.786	76.38
491.003	71.38
491.221	92.38
491.439	90.38
491.657	96.38
491.874	77.38
492.092	76.38
492.31	82.38
492.527	84.38
492.745	93.38
492.963	83.38
493.18	79.38
493.398	92.38
493.615	89.38
493.833	82.38
494.05	70.38
494.268	90.38
494.485	75.38
494.703	76.38
494.92	90.38
495.138	83.38
495.355	86.38
495.573	84.38
495.79	74.38
496.008	75.38
496.225	84.38
496.442	78.38
496.66	82.38
496.877	90.38
497.094	87.38
497.312	70.38
497.529	72.38
497.746	79.38
497.963	75.38
498.181	90.38
498.398	86.38
498.615	79.38
498.832	80.38
499.049	74.38
499.267	88.38
499.484	92.38
499.701	90.38
499.918	74.38
500.135	80.38
500.352	77.38
500.569	97.38
500.786	79.38
501.003	80.38
501.22	79.38
501.437	73.38
501.654	68.38
501.871	72.38
502.088	91.38
502.305	73.38
502.522	65.38
502.739	93.38
502.956	83.38
503.172	83.38
503.389	85.38
503.606	90.38
503.823	88.38
504.04	77.38
504.256	80.38
504.473	80.38
504.69	89.38
504.907	87.38
505.123	85.38
505.34	76.38
505.557	77.38
505.773	75.38
505.99	85.38
506.207	82.38
506.423	76.38
506.64	86.38
506.856	82.38
507.073	83.38
507.289	72.38
507.506	74.38
507.722	71.38
507.939	83.38
508.155	99.38
508.372	91.38
508.588	81.38
508.805	93.38
509.021	83.38
509.238	74.38
509.454	86.38
509.67	75.38
509.887	78.38
510.103	94.38
510.319	75.38
510.536	76.38
510.752	84.38
510.968	79.38
511.184	78.38
511.401	83.38
511.617	54.38
511.833	72.38
512.049	79.38
512.265	83.38
512.481	84.38
512.698	99.38
512.914	79.38
513.13	86.38
513.346	80.38
513.562	71.38
513.778	98.38
513.994	87.38
514.21	86.38
514.426	76.38
514.642	84.38
514.858	78.38
515.074	68.38
515.29	83.38
515.506	75.38
515.721	68.38
515.937	96.38
516.153	76.38
516.369	83.38
516.585	78.38
516.801	93.38
517.016	79.38
517.232	75.38
517.448	80.38
517.664	95.38
517.879	80.38
518.095	88.38
518.311	80.38
518.527	89.38
518.742	85.38
518.958	80.38
519.173	82.38
519.389	78.38
519.605	92.38
519.82	78.38
520.036	75.38
