Data from KBr_1_HRD10591_00013.txt Node
Date: Mon Jan 19 13:11:17 EST 2026
User: Yrep
Spectrometer: HR+D1059
Trigger mode: 0
Integration Time (sec): 1.000000E-1
Scans to average: 1
Electric dark correction enabled: true
Nonlinearity correction enabled: false
Boxcar width: 0
XAxis mode: Wavelengths
Number of Pixels in Spectrum: 2048
>>>>>Begin Spectral Data<<<<<
223.165	-8.56
223.4	-8.56
223.635	-8.56
223.869	-21.56
224.104	-22.56
224.338	-11.56
224.573	-21.56
224.808	-21.56
225.042	2.44
225.277	-3.56
225.511	6.44
225.746	-0.56
225.98	-1.56
226.215	14.44
226.449	11.44
226.683	15.44
226.918	26.44
227.152	36.44
227.387	31.44
227.621	45.44
227.856	49.44
228.09	44.44
228.324	47.44
228.559	49.44
228.793	59.44
229.027	64.44
229.262	56.44
229.496	70.44
229.73	76.44
229.964	81.44
230.199	80.44
230.433	75.44
230.667	72.44
230.901	82.44
231.136	89.44
231.37	86.44
231.604	84.44
231.838	85.44
232.072	75.44
232.306	74.44
232.541	81.44
232.775	93.44
233.009	86.44
233.243	92.44
233.477	79.44
233.711	83.44
233.945	91.44
234.179	81.44
234.413	85.44
234.647	89.44
234.881	99.44
235.115	87.44
235.349	89.44
235.583	108.44
235.817	74.44
236.051	90.44
236.285	86.44
236.519	79.44
236.753	88.44
236.987	89.44
237.221	77.44
237.455	89.44
237.689	79.44
237.922	76.44
238.156	86.44
238.39	91.44
238.624	69.44
238.858	85.44
239.091	86.44
239.325	91.44
239.559	93.44
239.793	85.44
240.027	84.44
240.26	87.44
240.494	87.44
240.728	87.44
240.961	74.44
241.195	87.44
241.429	86.44
241.662	91.44
241.896	96.44
242.13	90.44
242.363	97.44
242.597	93.44
242.83	103.44
243.064	99.44
243.298	95.44
243.531	85.44
243.765	93.44
243.998	76.44
244.232	93.44
244.465	101.44
244.699	76.44
244.932	97.44
245.166	103.44
245.399	103.44
245.633	112.44
245.866	99.44
246.099	107.44
246.333	102.44
246.566	100.44
246.8	92.44
247.033	97.44
247.266	105.44
247.5	94.44
247.733	102.44
247.966	107.44
248.2	102.44
248.433	100.44
248.666	122.44
248.899	98.44
249.133	102.44
249.366	111.44
249.599	103.44
249.832	100.44
250.066	130.44
250.299	114.44
250.532	124.44
250.765	104.44
250.998	90.44
251.231	102.44
251.465	113.44
251.698	110.44
251.931	116.44
252.164	117.44
252.397	109.44
252.63	120.44
252.863	116.44
253.096	118.44
253.329	110.44
253.562	120.44
253.795	121.44
254.028	117.44
254.261	106.44
254.494	110.44
254.727	106.44
254.96	121.44
255.193	110.44
255.426	114.44
255.659	120.44
255.892	117.44
256.124	120.44
256.357	119.44
256.59	121.44
256.823	129.44
257.056	121.44
257.289	118.44
257.521	118.44
257.754	106.44
257.987	107.44
258.22	119.44
258.452	124.44
258.685	133.44
258.918	123.44
259.151	137.44
259.383	132.44
259.616	115.44
259.849	130.44
260.081	131.44
260.314	133.44
260.547	128.44
260.779	135.44
261.012	128.44
261.244	123.44
261.477	130.44
261.71	110.44
261.942	137.44
262.175	117.44
262.407	106.44
262.64	124.44
262.872	130.44
263.105	141.44
263.337	134.44
263.57	121.44
263.802	123.44
264.035	133.44
264.267	132.44
264.499	127.44
264.732	134.44
264.964	136.44
265.197	135.44
265.429	140.44
265.661	123.44
265.894	129.44
266.126	133.44
266.358	140.44
266.591	135.44
266.823	151.44
267.055	122.44
267.287	134.44
267.52	149.44
267.752	132.44
267.984	141.44
268.216	135.44
268.448	142.44
268.681	150.44
268.913	149.44
269.145	143.44
269.377	138.44
269.609	136.44
269.841	151.44
270.073	156.44
270.306	150.44
270.538	136.44
270.77	152.44
271.002	152.44
271.234	146.44
271.466	165.44
271.698	143.44
271.93	151.44
272.162	140.44
272.394	142.44
272.626	149.44
272.858	144.44
273.09	147.44
273.322	142.44
273.553	153.44
273.785	154.44
274.017	146.44
274.249	138.44
274.481	149.44
274.713	157.44
274.945	163.44
275.176	149.44
275.408	157.44
275.64	153.44
275.872	156.44
276.104	144.44
276.335	171.44
276.567	171.44
276.799	166.44
277.031	154.44
277.262	161.44
277.494	176.44
277.726	158.44
277.957	158.44
278.189	173.44
278.421	166.44
278.652	146.44
278.884	173.44
279.115	163.44
279.347	180.44
279.579	197.44
279.81	184.44
280.042	186.44
280.273	181.44
280.505	167.44
280.736	177.44
280.968	157.44
281.199	174.44
281.431	164.44
281.662	165.44
281.894	154.44
282.125	175.44
282.356	161.44
282.588	177.44
282.819	180.44
283.051	174.44
283.282	179.44
283.513	175.44
283.745	183.44
283.976	188.44
284.207	180.44
284.439	179.44
284.67	185.44
284.901	172.44
285.132	185.44
285.364	185.44
285.595	197.44
285.826	180.44
286.057	178.44
286.288	184.44
286.52	184.44
286.751	196.44
286.982	190.44
287.213	199.44
287.444	191.44
287.675	180.44
287.906	190.44
288.138	176.44
288.369	187.44
288.6	185.44
288.831	175.44
289.062	193.44
289.293	193.44
289.524	194.44
289.755	185.44
289.986	207.44
290.217	179.44
290.448	191.44
290.679	188.44
290.91	204.44
291.141	178.44
291.371	197.44
291.602	196.44
291.833	205.44
292.064	181.44
292.295	188.44
292.526	189.44
292.757	185.44
292.987	202.44
293.218	189.44
293.449	187.44
293.68	188.44
293.91	196.44
294.141	198.44
294.372	194.44
294.603	206.44
294.833	189.44
295.064	188.44
295.295	209.44
295.525	202.44
295.756	202.44
295.987	210.44
296.217	204.44
296.448	197.44
296.679	216.44
296.909	202.44
297.14	204.44
297.37	213.44
297.601	212.44
297.831	202.44
298.062	211.44
298.292	210.44
298.523	206.44
298.753	219.44
298.984	202.44
299.214	207.44
299.445	208.44
299.675	207.44
299.905	216.44
300.136	218.44
300.366	214.44
300.597	228.44
300.827	217.44
301.057	211.44
301.288	212.44
301.518	221.44
301.748	206.44
301.979	238.44
302.209	223.44
302.439	227.44
302.669	220.44
302.9	220.44
303.13	200.44
303.36	237.44
303.59	210.44
303.82	211.44
304.051	219.44
304.281	217.44
304.511	228.44
304.741	225.44
304.971	237.44
305.201	235.44
305.431	228.44
305.661	231.44
305.891	230.44
306.121	216.44
306.352	238.44
306.582	240.44
306.812	218.44
307.042	231.44
307.272	211.44
307.502	219.44
307.731	203.44
307.961	225.44
308.191	229.44
308.421	236.44
308.651	231.44
308.881	232.44
309.111	247.44
309.341	231.44
309.571	231.44
309.8	226.44
310.03	227.44
310.26	233.44
310.49	242.44
310.72	243.44
310.949	239.44
311.179	253.44
311.409	225.44
311.639	239.44
311.868	225.44
312.098	237.44
312.328	246.44
312.557	245.44
312.787	250.44
313.017	229.44
313.246	247.44
313.476	235.44
313.706	237.44
313.935	244.44
314.165	255.44
314.394	242.44
314.624	233.44
314.853	251.44
315.083	261.44
315.312	261.44
315.542	254.44
315.771	246.44
316.001	235.44
316.23	263.44
316.46	249.44
316.689	255.44
316.919	254.44
317.148	242.44
317.377	246.44
317.607	262.44
317.836	247.44
318.065	246.44
318.295	229.44
318.524	256.44
318.753	259.44
318.983	243.44
319.212	249.44
319.441	253.44
319.67	253.44
319.9	267.44
320.129	248.44
320.358	266.44
320.587	254.44
320.816	276.44
321.046	270.44
321.275	264.44
321.504	270.44
321.733	270.44
321.962	269.44
322.191	267.44
322.42	255.44
322.649	240.44
322.878	263.44
323.108	271.44
323.337	267.44
323.566	270.44
323.795	258.44
324.024	263.44
324.253	260.44
324.482	265.44
324.71	276.44
324.939	261.44
325.168	262.44
325.397	274.44
325.626	274.44
325.855	260.44
326.084	275.44
326.313	274.44
326.542	269.44
326.77	253.44
326.999	256.44
327.228	273.44
327.457	259.44
327.686	281.44
327.914	280.44
328.143	300.44
328.372	273.44
328.6	269.44
328.829	288.44
329.058	279.44
329.287	267.44
329.515	298.44
329.744	305.44
329.972	318.44
330.201	343.44
330.43	342.44
330.658	306.44
330.887	266.44
331.115	296.44
331.344	297.44
331.572	299.44
331.801	286.44
332.03	285.44
332.258	305.44
332.486	295.44
332.715	295.44
332.943	309.44
333.172	307.44
333.4	307.44
333.629	318.44
333.857	336.44
334.085	330.44
334.314	322.44
334.542	313.44
334.771	323.44
334.999	305.44
335.227	338.44
335.455	307.44
335.684	316.44
335.912	320.44
336.14	310.44
336.369	313.44
336.597	313.44
336.825	310.44
337.053	319.44
337.281	335.44
337.51	335.44
337.738	330.44
337.966	319.44
338.194	339.44
338.422	327.44
338.65	324.44
338.878	320.44
339.106	309.44
339.334	307.44
339.562	325.44
339.79	319.44
340.018	326.44
340.246	328.44
340.474	308.44
340.702	317.44
340.93	299.44
341.158	322.44
341.386	308.44
341.614	305.44
341.842	303.44
342.07	300.44
342.298	301.44
342.526	289.44
342.754	309.44
342.981	306.44
343.209	319.44
343.437	320.44
343.665	321.44
343.893	319.44
344.12	328.44
344.348	334.44
344.576	354.44
344.804	398.44
345.031	360.44
345.259	333.44
345.487	303.44
345.714	306.44
345.942	282.44
346.17	299.44
346.397	301.44
346.625	285.44
346.853	298.44
347.08	297.44
347.308	290.44
347.535	297.44
347.763	296.44
347.99	303.44
348.218	290.44
348.445	290.44
348.673	268.44
348.9	284.44
349.128	281.44
349.355	285.44
349.583	286.44
349.81	289.44
350.037	302.44
350.265	311.44
350.492	293.44
350.72	283.44
350.947	275.44
351.174	303.44
351.402	309.44
351.629	305.44
351.856	299.44
352.083	280.44
352.311	313.44
352.538	277.44
352.765	316.44
352.992	313.44
353.22	294.44
353.447	286.44
353.674	313.44
353.901	291.44
354.128	312.44
354.355	301.44
354.583	287.44
354.81	297.44
355.037	295.44
355.264	299.44
355.491	308.44
355.718	301.44
355.945	300.44
356.172	294.44
356.399	300.44
356.626	304.44
356.853	299.44
357.08	292.44
357.307	287.44
357.534	261.44
357.761	315.44
357.988	298.44
358.215	305.44
358.441	277.44
358.668	300.44
358.895	276.44
359.122	291.44
359.349	287.44
359.576	303.44
359.802	303.44
360.029	300.44
360.256	303.44
360.483	298.44
360.709	295.44
360.936	303.44
361.163	297.44
361.39	302.44
361.616	303.44
361.843	298.44
362.07	293.44
362.296	286.44
362.523	296.44
362.749	295.44
362.976	293.44
363.203	314.44
363.429	290.44
363.656	306.44
363.882	301.44
364.109	291.44
364.335	300.44
364.562	301.44
364.788	305.44
365.015	301.44
365.241	286.44
365.468	311.44
365.694	295.44
365.92	303.44
366.147	296.44
366.373	293.44
366.599	309.44
366.826	298.44
367.052	315.44
367.278	297.44
367.505	300.44
367.731	308.44
367.957	320.44
368.184	302.44
368.41	313.44
368.636	309.44
368.862	304.44
369.089	316.44
369.315	291.44
369.541	306.44
369.767	301.44
369.993	296.44
370.219	298.44
370.445	311.44
370.672	297.44
370.898	303.44
371.124	308.44
371.35	290.44
371.576	308.44
371.802	307.44
372.028	311.44
372.254	322.44
372.48	321.44
372.706	308.44
372.932	307.44
373.158	297.44
373.384	326.44
373.61	309.44
373.835	313.44
374.061	299.44
374.287	322.44
374.513	339.44
374.739	307.44
374.965	315.44
375.191	302.44
375.416	317.44
375.642	348.44
375.868	326.44
376.094	326.44
376.319	311.44
376.545	311.44
376.771	328.44
376.997	318.44
377.222	313.44
377.448	307.44
377.674	305.44
377.899	306.44
378.125	327.44
378.35	326.44
378.576	303.44
378.802	311.44
379.027	313.44
379.253	303.44
379.478	302.44
379.704	305.44
379.929	317.44
380.155	330.44
380.38	319.44
380.606	328.44
380.831	303.44
381.057	339.44
381.282	318.44
381.507	315.44
381.733	316.44
381.958	329.44
382.184	331.44
382.409	327.44
382.634	353.44
382.86	335.44
383.085	337.44
383.31	348.44
383.535	326.44
383.761	341.44
383.986	352.44
384.211	336.44
384.436	348.44
384.662	353.44
384.887	349.44
385.112	325.44
385.337	345.44
385.562	362.44
385.787	354.44
386.013	344.44
386.238	348.44
386.463	364.44
386.688	350.44
386.913	365.44
387.138	361.44
387.363	372.44
387.588	355.44
387.813	364.44
388.038	369.44
388.263	364.44
388.488	362.44
388.713	372.44
388.938	381.44
389.163	344.44
389.387	377.44
389.612	346.44
389.837	377.44
390.062	383.44
390.287	366.44
390.512	348.44
390.736	376.44
390.961	373.44
391.186	382.44
391.411	396.44
391.636	380.44
391.86	394.44
392.085	389.44
392.31	402.44
392.534	403.44
392.759	414.44
392.984	391.44
393.208	414.44
393.433	457.44
393.658	429.44
393.882	410.44
394.107	387.44
394.331	403.44
394.556	398.44
394.78	404.44
395.005	403.44
395.229	396.44
395.454	423.44
395.678	401.44
395.903	421.44
396.127	401.44
396.352	418.44
396.576	394.44
396.801	426.44
397.025	426.44
397.249	405.44
397.474	410.44
397.698	410.44
397.922	408.44
398.147	414.44
398.371	418.44
398.595	443.44
398.82	442.44
399.044	445.44
399.268	479.44
399.492	482.44
399.717	499.44
399.941	484.44
400.165	497.44
400.389	441.44
400.613	434.44
400.837	457.44
401.062	440.44
401.286	421.44
401.51	435.44
401.734	435.44
401.958	422.44
402.182	401.44
402.406	421.44
402.63	431.44
402.854	435.44
403.078	436.44
403.302	447.44
403.526	472.44
403.75	486.44
403.974	573.44
404.198	766.44
404.422	1141.44
404.645	1382.44
404.869	1185.44
405.093	869.44
405.317	604.44
405.541	519.44
405.765	472.44
405.988	463.44
406.212	466.44
406.436	457.44
406.66	447.44
406.883	440.44
407.107	445.44
407.331	440.44
407.555	452.44
407.778	445.44
408.002	433.44
408.226	448.44
408.449	437.44
408.673	442.44
408.896	445.44
409.12	426.44
409.344	433.44
409.567	410.44
409.791	441.44
410.014	433.44
410.238	411.44
410.461	443.44
410.685	421.44
410.908	415.44
411.132	443.44
411.355	421.44
411.578	398.44
411.802	413.44
412.025	413.44
412.249	421.44
412.472	407.44
412.695	420.44
412.919	443.44
413.142	429.44
413.365	386.44
413.589	416.44
413.812	438.44
414.035	430.44
414.258	425.44
414.482	426.44
414.705	414.44
414.928	434.44
415.151	419.44
415.374	416.44
415.597	421.44
415.821	411.44
416.044	400.44
416.267	415.44
416.49	424.44
416.713	397.44
416.936	397.44
417.159	395.44
417.382	402.44
417.605	405.44
417.828	403.44
418.051	437.44
418.274	434.44
418.497	433.44
418.72	421.44
418.943	413.44
419.166	461.44
419.389	447.44
419.611	435.44
419.834	414.44
420.057	443.44
420.28	419.44
420.503	414.44
420.726	415.44
420.948	404.44
421.171	394.44
421.394	409.44
421.617	415.44
421.839	407.44
422.062	405.44
422.285	422.44
422.507	432.44
422.73	484.44
422.953	476.44
423.175	423.44
423.398	402.44
423.621	401.44
423.843	399.44
424.066	411.44
424.288	436.44
424.511	413.44
424.733	403.44
424.956	419.44
425.178	389.44
425.401	404.44
425.623	404.44
425.846	382.44
426.068	402.44
426.291	409.44
426.513	387.44
426.735	391.44
426.958	403.44
427.18	385.44
427.402	391.44
427.625	407.44
427.847	393.44
428.069	375.44
428.292	362.44
428.514	386.44
428.736	383.44
428.958	382.44
429.181	392.44
429.403	395.44
429.625	375.44
429.847	388.44
430.069	383.44
430.292	405.44
430.514	383.44
430.736	371.44
430.958	380.44
431.18	375.44
431.402	387.44
431.624	365.44
431.846	356.44
432.068	380.44
432.29	363.44
432.512	374.44
432.734	396.44
432.956	379.44
433.178	394.44
433.4	386.44
433.622	394.44
433.844	399.44
434.066	387.44
434.287	359.44
434.509	370.44
434.731	382.44
434.953	361.44
435.175	403.44
435.397	378.44
435.618	367.44
435.84	362.44
436.062	353.44
436.284	357.44
436.505	398.44
436.727	378.44
436.949	381.44
437.17	383.44
437.392	377.44
437.614	382.44
437.835	346.44
438.057	355.44
438.278	355.44
438.5	375.44
438.721	362.44
438.943	402.44
439.165	395.44
439.386	383.44
439.608	409.44
439.829	376.44
440.05	384.44
440.272	373.44
440.493	377.44
440.715	376.44
440.936	418.44
441.158	379.44
441.379	378.44
441.6	399.44
441.822	374.44
442.043	375.44
442.264	394.44
442.486	387.44
442.707	383.44
442.928	391.44
443.149	395.44
443.371	384.44
443.592	391.44
443.813	381.44
444.034	397.44
444.255	404.44
444.476	400.44
444.698	398.44
444.919	424.44
445.14	497.44
445.361	441.44
445.582	426.44
445.803	399.44
446.024	403.44
446.245	406.44
446.466	393.44
446.687	367.44
446.908	388.44
447.129	369.44
447.35	381.44
447.571	364.44
447.792	365.44
448.013	361.44
448.234	396.44
448.455	369.44
448.675	376.44
448.896	368.44
449.117	366.44
449.338	346.44
449.559	359.44
449.779	344.44
450	361.44
450.221	356.44
450.442	363.44
450.662	363.44
450.883	365.44
451.104	364.44
451.324	356.44
451.545	377.44
451.766	369.44
451.986	340.44
452.207	357.44
452.428	349.44
452.648	337.44
452.869	348.44
453.089	342.44
453.31	356.44
453.53	334.44
453.751	325.44
453.971	356.44
454.192	348.44
454.412	331.44
454.633	335.44
454.853	339.44
455.073	329.44
455.294	346.44
455.514	355.44
455.734	353.44
455.955	325.44
456.175	327.44
456.395	341.44
456.616	334.44
456.836	311.44
457.056	333.44
457.276	325.44
457.497	313.44
457.717	319.44
457.937	336.44
458.157	333.44
458.377	335.44
458.598	334.44
458.818	350.44
459.038	346.44
459.258	333.44
459.478	347.44
459.698	347.44
459.918	366.44
460.138	367.44
460.358	389.44
460.578	376.44
460.798	390.44
461.018	405.44
461.238	388.44
461.458	379.44
461.678	409.44
461.898	373.44
462.118	395.44
462.338	390.44
462.558	390.44
462.777	397.44
462.997	407.44
463.217	411.44
463.437	433.44
463.657	402.44
463.876	425.44
464.096	411.44
464.316	421.44
464.536	427.44
464.755	414.44
464.975	404.44
465.195	410.44
465.414	391.44
465.634	387.44
465.854	385.44
466.073	389.44
466.293	368.44
466.512	389.44
466.732	372.44
466.951	406.44
467.171	390.44
467.391	394.44
467.61	391.44
467.829	423.44
468.049	430.44
468.268	400.44
468.488	383.44
468.707	397.44
468.927	388.44
469.146	413.44
469.365	405.44
469.585	405.44
469.804	409.44
470.023	448.44
470.243	470.44
470.462	485.44
470.681	469.44
470.901	459.44
471.12	455.44
471.339	419.44
471.558	423.44
471.777	400.44
471.997	406.44
472.216	386.44
472.435	393.44
472.654	363.44
472.873	386.44
473.092	378.44
473.311	391.44
473.53	387.44
473.749	414.44
473.968	389.44
474.187	394.44
474.406	379.44
474.625	386.44
474.844	397.44
475.063	407.44
475.282	397.44
475.501	385.44
475.72	399.44
475.939	403.44
476.158	407.44
476.377	413.44
476.596	404.44
476.814	401.44
477.033	425.44
477.252	420.44
477.471	430.44
477.69	460.44
477.908	482.44
478.127	491.44
478.346	478.44
478.564	511.44
478.783	502.44
479.002	487.44
479.22	471.44
479.439	485.44
479.658	441.44
479.876	443.44
480.095	434.44
480.313	450.44
480.532	456.44
480.751	451.44
480.969	464.44
481.188	440.44
481.406	448.44
481.624	468.44
481.843	478.44
482.061	480.44
482.28	457.44
482.498	430.44
482.717	445.44
482.935	446.44
483.153	458.44
483.372	455.44
483.59	446.44
483.808	449.44
484.027	439.44
484.245	433.44
484.463	442.44
484.681	447.44
484.9	456.44
485.118	453.44
485.336	433.44
485.554	443.44
485.772	435.44
485.99	424.44
486.209	428.44
486.427	418.44
486.645	436.44
486.863	452.44
487.081	457.44
487.299	455.44
487.517	456.44
487.735	448.44
487.953	486.44
488.171	482.44
488.389	465.44
488.607	465.44
488.825	450.44
489.043	443.44
489.261	435.44
489.479	454.44
489.696	465.44
489.914	451.44
490.132	468.44
490.35	487.44
490.568	482.44
490.786	506.44
491.003	489.44
491.221	504.44
491.439	486.44
491.657	500.44
491.874	524.44
492.092	539.44
492.31	561.44
492.527	559.44
492.745	545.44
492.963	511.44
493.18	515.44
493.398	514.44
493.615	519.44
493.833	512.44
494.05	477.44
494.268	507.44
494.485	482.44
494.703	493.44
494.92	479.44
495.138	485.44
495.355	518.44
495.573	502.44
495.79	506.44
496.008	499.44
496.225	509.44
496.442	514.44
496.66	526.44
496.877	491.44
497.094	508.44
497.312	517.44
497.529	525.44
497.746	523.44
497.963	529.44
498.181	549.44
498.398	539.44
498.615	563.44
498.832	547.44
499.049	549.44
499.267	604.44
499.484	615.44
499.701	627.44
499.918	659.44
500.135	673.44
500.352	697.44
500.569	728.44
500.786	698.44
501.003	681.44
501.22	673.44
501.437	632.44
501.654	604.44
501.871	578.44
502.088	567.44
502.305	586.44
502.522	549.44
502.739	545.44
502.956	525.44
503.172	505.44
503.389	507.44
503.606	520.44
