Data from KBr_1_HRD10591_00031.txt Node
Date: Mon Jan 19 13:11:19 EST 2026
User: Yrep
Spectrometer: HR+D1059
Trigger mode: 0
Integration Time (sec): 1.000000E-1
Scans to average: 1
Electric dark correction enabled: true
Nonlinearity correction enabled: false
Boxcar width: 0
XAxis mode: Wavelengths
Number of Pixels in Spectrum: 2048
>>>>>Begin Spectral Data<<<<<
223.165	-17.56
223.4	-17.56
223.635	-17.56
223.869	-27.56
224.104	-26.56
224.338	-11.56
224.573	-10.56
224.808	-5.56
225.042	-10.56
225.277	-11.56
225.511	-3.56
225.746	12.44
225.98	13.44
226.215	3.44
226.449	20.44
226.683	21.44
226.918	22.44
227.152	31.44
227.387	27.44
227.621	36.44
227.856	47.44
228.09	52.44
228.324	45.44
228.559	66.44
228.793	49.44
229.027	62.44
229.262	73.44
229.496	78.44
229.73	55.44
229.964	54.44
230.199	68.44
230.433	73.44
230.667	83.44
230.901	72.44
231.136	76.44
231.37	98.44
231.604	80.44
231.838	86.44
232.072	83.44
232.306	88.44
232.541	80.44
232.775	72.44
233.009	72.44
233.243	85.44
233.477	82.44
233.711	75.44
233.945	74.44
234.179	71.44
234.413	85.44
234.647	79.44
234.881	68.44
235.115	79.44
235.349	77.44
235.583	88.44
235.817	64.44
236.051	77.44
236.285	68.44
236.519	78.44
236.753	88.44
236.987	71.44
237.221	71.44
237.455	82.44
237.689	69.44
237.922	75.44
238.156	80.44
238.39	78.44
238.624	85.44
238.858	83.44
239.091	75.44
239.325	62.44
239.559	91.44
239.793	86.44
240.027	94.44
240.26	84.44
240.494	84.44
240.728	77.44
240.961	74.44
241.195	79.44
241.429	80.44
241.662	67.44
241.896	79.44
242.13	77.44
242.363	74.44
242.597	78.44
242.83	74.44
243.064	65.44
243.298	88.44
243.531	86.44
243.765	72.44
243.998	83.44
244.232	75.44
244.465	75.44
244.699	69.44
244.932	80.44
245.166	69.44
245.399	79.44
245.633	77.44
245.866	80.44
246.099	71.44
246.333	70.44
246.566	64.44
246.8	77.44
247.033	67.44
247.266	78.44
247.5	78.44
247.733	77.44
247.966	73.44
248.2	68.44
248.433	73.44
248.666	71.44
248.899	78.44
249.133	78.44
249.366	87.44
249.599	75.44
249.832	74.44
250.066	68.44
250.299	71.44
250.532	71.44
250.765	61.44
250.998	82.44
251.231	100.44
251.465	79.44
251.698	74.44
251.931	83.44
252.164	85.44
252.397	74.44
252.63	81.44
252.863	83.44
253.096	82.44
253.329	71.44
253.562	76.44
253.795	81.44
254.028	82.44
254.261	89.44
254.494	78.44
254.727	70.44
254.96	72.44
255.193	73.44
255.426	76.44
255.659	59.44
255.892	74.44
256.124	82.44
256.357	77.44
256.59	88.44
256.823	75.44
257.056	70.44
257.289	87.44
257.521	63.44
257.754	82.44
257.987	72.44
258.22	75.44
258.452	95.44
258.685	73.44
258.918	78.44
259.151	88.44
259.383	66.44
259.616	79.44
259.849	76.44
260.081	82.44
260.314	79.44
260.547	95.44
260.779	66.44
261.012	90.44
261.244	67.44
261.477	91.44
261.71	82.44
261.942	71.44
262.175	79.44
262.407	91.44
262.64	78.44
262.872	84.44
263.105	74.44
263.337	78.44
263.57	78.44
263.802	82.44
264.035	77.44
264.267	76.44
264.499	91.44
264.732	82.44
264.964	87.44
265.197	71.44
265.429	102.44
265.661	87.44
265.894	71.44
266.126	80.44
266.358	71.44
266.591	84.44
266.823	79.44
267.055	88.44
267.287	83.44
267.52	72.44
267.752	74.44
267.984	76.44
268.216	88.44
268.448	84.44
268.681	79.44
268.913	108.44
269.145	95.44
269.377	78.44
269.609	74.44
269.841	91.44
270.073	86.44
270.306	93.44
270.538	96.44
270.77	85.44
271.002	75.44
271.234	76.44
271.466	79.44
271.698	82.44
271.93	80.44
272.162	78.44
272.394	91.44
272.626	82.44
272.858	76.44
273.09	97.44
273.322	80.44
273.553	70.44
273.785	81.44
274.017	80.44
274.249	90.44
274.481	77.44
274.713	79.44
274.945	82.44
275.176	90.44
275.408	80.44
275.64	77.44
275.872	82.44
276.104	81.44
276.335	75.44
276.567	90.44
276.799	89.44
277.031	89.44
277.262	86.44
277.494	80.44
277.726	79.44
277.957	84.44
278.189	91.44
278.421	76.44
278.652	82.44
278.884	90.44
279.115	84.44
279.347	78.44
279.579	101.44
279.81	102.44
280.042	85.44
280.273	61.44
280.505	87.44
280.736	71.44
280.968	80.44
281.199	95.44
281.431	80.44
281.662	88.44
281.894	72.44
282.125	85.44
282.356	74.44
282.588	83.44
282.819	74.44
283.051	93.44
283.282	91.44
283.513	75.44
283.745	73.44
283.976	77.44
284.207	79.44
284.439	85.44
284.67	94.44
284.901	76.44
285.132	84.44
285.364	71.44
285.595	65.44
285.826	78.44
286.057	77.44
286.288	80.44
286.52	89.44
286.751	78.44
286.982	92.44
287.213	68.44
287.444	98.44
287.675	90.44
287.906	75.44
288.138	80.44
288.369	86.44
288.6	89.44
288.831	83.44
289.062	83.44
289.293	85.44
289.524	86.44
289.755	91.44
289.986	82.44
290.217	84.44
290.448	80.44
290.679	89.44
290.91	93.44
291.141	71.44
291.371	79.44
291.602	87.44
291.833	85.44
292.064	91.44
292.295	80.44
292.526	76.44
292.757	86.44
292.987	92.44
293.218	98.44
293.449	90.44
293.68	84.44
293.91	78.44
294.141	91.44
294.372	88.44
294.603	84.44
294.833	86.44
295.064	84.44
295.295	84.44
295.525	92.44
295.756	90.44
295.987	99.44
296.217	86.44
296.448	80.44
296.679	82.44
296.909	79.44
297.14	92.44
297.37	94.44
297.601	106.44
297.831	81.44
298.062	70.44
298.292	96.44
298.523	87.44
298.753	71.44
298.984	86.44
299.214	99.44
299.445	93.44
299.675	65.44
299.905	86.44
300.136	91.44
300.366	72.44
300.597	82.44
300.827	78.44
301.057	84.44
301.288	80.44
301.518	79.44
301.748	79.44
301.979	92.44
302.209	82.44
302.439	75.44
302.669	82.44
302.9	96.44
303.13	79.44
303.36	82.44
303.59	87.44
303.82	93.44
304.051	73.44
304.281	89.44
304.511	83.44
304.741	90.44
304.971	83.44
305.201	78.44
305.431	85.44
305.661	89.44
305.891	84.44
306.121	90.44
306.352	86.44
306.582	88.44
306.812	80.44
307.042	87.44
307.272	77.44
307.502	80.44
307.731	79.44
307.961	71.44
308.191	97.44
308.421	65.44
308.651	79.44
308.881	95.44
309.111	83.44
309.341	83.44
309.571	76.44
309.8	78.44
310.03	82.44
310.26	77.44
310.49	80.44
310.72	88.44
310.949	86.44
311.179	69.44
311.409	90.44
311.639	90.44
311.868	84.44
312.098	91.44
312.328	86.44
312.557	80.44
312.787	78.44
313.017	91.44
313.246	76.44
313.476	83.44
313.706	77.44
313.935	85.44
314.165	99.44
314.394	79.44
314.624	96.44
314.853	79.44
315.083	82.44
315.312	76.44
315.542	75.44
315.771	85.44
316.001	85.44
316.23	74.44
316.46	87.44
316.689	84.44
316.919	83.44
317.148	83.44
317.377	102.44
317.607	84.44
317.836	96.44
318.065	89.44
318.295	84.44
318.524	69.44
318.753	85.44
318.983	87.44
319.212	93.44
319.441	86.44
319.67	90.44
319.9	83.44
320.129	86.44
320.358	84.44
320.587	79.44
320.816	88.44
321.046	91.44
321.275	80.44
321.504	82.44
321.733	98.44
321.962	86.44
322.191	72.44
322.42	86.44
322.649	90.44
322.878	87.44
323.108	79.44
323.337	65.44
323.566	75.44
323.795	76.44
324.024	84.44
324.253	70.44
324.482	94.44
324.71	88.44
324.939	91.44
325.168	78.44
325.397	87.44
325.626	82.44
325.855	88.44
326.084	83.44
326.313	74.44
326.542	78.44
326.77	84.44
326.999	88.44
327.228	85.44
327.457	73.44
327.686	72.44
327.914	78.44
328.143	81.44
328.372	84.44
328.6	72.44
328.829	80.44
329.058	79.44
329.287	93.44
329.515	71.44
329.744	86.44
329.972	78.44
330.201	85.44
330.43	81.44
330.658	87.44
330.887	81.44
331.115	79.44
331.344	76.44
331.572	94.44
331.801	89.44
332.03	75.44
332.258	92.44
332.486	72.44
332.715	87.44
332.943	81.44
333.172	82.44
333.4	70.44
333.629	88.44
333.857	78.44
334.085	76.44
334.314	71.44
334.542	74.44
334.771	77.44
334.999	85.44
335.227	87.44
335.455	85.44
335.684	100.44
335.912	82.44
336.14	89.44
336.369	93.44
336.597	85.44
336.825	84.44
337.053	84.44
337.281	80.44
337.51	77.44
337.738	83.44
337.966	76.44
338.194	83.44
338.422	83.44
338.65	92.44
338.878	85.44
339.106	85.44
339.334	72.44
339.562	78.44
339.79	69.44
340.018	99.44
340.246	64.44
340.474	87.44
340.702	75.44
340.93	95.44
341.158	84.44
341.386	87.44
341.614	82.44
341.842	98.44
342.07	93.44
342.298	76.44
342.526	72.44
342.754	78.44
342.981	86.44
343.209	87.44
343.437	103.44
343.665	82.44
343.893	92.44
344.12	91.44
344.348	71.44
344.576	82.44
344.804	86.44
345.031	79.44
345.259	78.44
345.487	80.44
345.714	89.44
345.942	85.44
346.17	95.44
346.397	88.44
346.625	82.44
346.853	79.44
347.08	79.44
347.308	87.44
347.535	80.44
347.763	73.44
347.99	75.44
348.218	96.44
348.445	65.44
348.673	76.44
348.9	85.44
349.128	87.44
349.355	81.44
349.583	83.44
349.81	72.44
350.037	73.44
350.265	80.44
350.492	91.44
350.72	79.44
350.947	85.44
351.174	82.44
351.402	82.44
351.629	83.44
351.856	75.44
352.083	89.44
352.311	82.44
352.538	80.44
352.765	79.44
352.992	83.44
353.22	91.44
353.447	81.44
353.674	84.44
353.901	82.44
354.128	74.44
354.355	74.44
354.583	83.44
354.81	83.44
355.037	74.44
355.264	91.44
355.491	80.44
355.718	86.44
355.945	92.44
356.172	88.44
356.399	98.44
356.626	72.44
356.853	96.44
357.08	78.44
357.307	82.44
357.534	74.44
357.761	78.44
357.988	91.44
358.215	88.44
358.441	74.44
358.668	71.44
358.895	87.44
359.122	77.44
359.349	80.44
359.576	81.44
359.802	83.44
360.029	97.44
360.256	82.44
360.483	84.44
360.709	73.44
360.936	79.44
361.163	75.44
361.39	82.44
361.616	77.44
361.843	78.44
362.07	79.44
362.296	66.44
362.523	81.44
362.749	83.44
362.976	71.44
363.203	88.44
363.429	73.44
363.656	62.44
363.882	70.44
364.109	92.44
364.335	86.44
364.562	91.44
364.788	83.44
365.015	87.44
365.241	84.44
365.468	87.44
365.694	76.44
365.92	76.44
366.147	79.44
366.373	76.44
366.599	84.44
366.826	81.44
367.052	71.44
367.278	83.44
367.505	81.44
367.731	78.44
367.957	92.44
368.184	81.44
368.41	96.44
368.636	85.44
368.862	77.44
369.089	78.44
369.315	74.44
369.541	80.44
369.767	77.44
369.993	69.44
370.219	82.44
370.445	79.44
370.672	77.44
370.898	79.44
371.124	65.44
371.35	93.44
371.576	73.44
371.802	79.44
372.028	87.44
372.254	85.44
372.48	73.44
372.706	79.44
372.932	73.44
373.158	85.44
373.384	83.44
373.61	78.44
373.835	83.44
374.061	70.44
374.287	70.44
374.513	88.44
374.739	89.44
374.965	73.44
375.191	75.44
375.416	82.44
375.642	82.44
375.868	75.44
376.094	101.44
376.319	91.44
376.545	75.44
376.771	74.44
376.997	84.44
377.222	88.44
377.448	76.44
377.674	86.44
377.899	86.44
378.125	74.44
378.35	75.44
378.576	70.44
378.802	77.44
379.027	87.44
379.253	75.44
379.478	78.44
379.704	80.44
379.929	81.44
380.155	58.44
380.38	82.44
380.606	74.44
380.831	73.44
381.057	70.44
381.282	60.44
381.507	79.44
381.733	85.44
381.958	75.44
382.184	72.44
382.409	89.44
382.634	78.44
382.86	76.44
383.085	85.44
383.31	92.44
383.535	72.44
383.761	80.44
383.986	78.44
384.211	94.44
384.436	78.44
384.662	90.44
384.887	85.44
385.112	66.44
385.337	80.44
385.562	78.44
385.787	73.44
386.013	76.44
386.238	84.44
386.463	80.44
386.688	88.44
386.913	78.44
387.138	74.44
387.363	72.44
387.588	79.44
387.813	94.44
388.038	91.44
388.263	96.44
388.488	68.44
388.713	85.44
388.938	73.44
389.163	65.44
389.387	76.44
389.612	83.44
389.837	85.44
390.062	78.44
390.287	75.44
390.512	86.44
390.736	91.44
390.961	74.44
391.186	88.44
391.411	83.44
391.636	84.44
391.86	84.44
392.085	85.44
392.31	74.44
392.534	78.44
392.759	87.44
392.984	93.44
393.208	87.44
393.433	76.44
393.658	60.44
393.882	68.44
394.107	84.44
394.331	73.44
394.556	68.44
394.78	73.44
395.005	82.44
395.229	78.44
395.454	83.44
395.678	75.44
395.903	72.44
396.127	88.44
396.352	86.44
396.576	91.44
396.801	82.44
397.025	78.44
397.249	76.44
397.474	80.44
397.698	79.44
397.922	85.44
398.147	76.44
398.371	79.44
398.595	77.44
398.82	82.44
399.044	73.44
399.268	82.44
399.492	80.44
399.717	68.44
399.941	87.44
400.165	85.44
400.389	85.44
400.613	93.44
400.837	96.44
401.062	72.44
401.286	63.44
401.51	74.44
401.734	89.44
401.958	67.44
402.182	71.44
402.406	77.44
402.63	79.44
402.854	72.44
403.078	70.44
403.302	69.44
403.526	80.44
403.75	62.44
403.974	78.44
404.198	76.44
404.422	78.44
404.645	87.44
404.869	87.44
405.093	78.44
405.317	61.44
405.541	78.44
405.765	78.44
405.988	71.44
406.212	85.44
406.436	92.44
406.66	86.44
406.883	82.44
407.107	52.44
407.331	71.44
407.555	78.44
407.778	78.44
408.002	74.44
408.226	96.44
408.449	64.44
408.673	73.44
408.896	76.44
409.12	65.44
409.344	84.44
409.567	71.44
409.791	86.44
410.014	86.44
410.238	64.44
410.461	86.44
410.685	77.44
410.908	79.44
411.132	67.44
411.355	75.44
411.578	87.44
411.802	86.44
412.025	76.44
412.249	86.44
412.472	87.44
412.695	82.44
412.919	92.44
413.142	79.44
413.365	74.44
413.589	84.44
413.812	78.44
414.035	82.44
414.258	91.44
414.482	74.44
414.705	84.44
414.928	87.44
415.151	70.44
415.374	74.44
415.597	83.44
415.821	93.44
416.044	82.44
416.267	86.44
416.49	83.44
416.713	64.44
416.936	79.44
417.159	79.44
417.382	82.44
417.605	80.44
417.828	86.44
418.051	78.44
418.274	74.44
418.497	75.44
418.72	78.44
418.943	82.44
419.166	79.44
419.389	88.44
419.611	72.44
419.834	73.44
420.057	65.44
420.28	84.44
420.503	77.44
420.726	66.44
420.948	68.44
421.171	77.44
421.394	64.44
421.617	72.44
421.839	73.44
422.062	88.44
422.285	71.44
422.507	78.44
422.73	75.44
422.953	86.44
423.175	80.44
423.398	75.44
423.621	92.44
423.843	82.44
424.066	68.44
424.288	75.44
424.511	72.44
424.733	85.44
424.956	86.44
425.178	80.44
425.401	67.44
425.623	70.44
425.846	85.44
426.068	78.44
426.291	74.44
426.513	77.44
426.735	68.44
426.958	63.44
427.18	82.44
427.402	88.44
427.625	84.44
427.847	76.44
428.069	76.44
428.292	83.44
428.514	78.44
428.736	88.44
428.958	77.44
429.181	83.44
429.403	78.44
429.625	78.44
429.847	76.44
430.069	78.44
430.292	76.44
430.514	80.44
430.736	96.44
430.958	82.44
431.18	79.44
431.402	88.44
431.624	76.44
431.846	92.44
432.068	87.44
432.29	78.44
432.512	96.44
432.734	85.44
432.956	74.44
433.178	90.44
433.4	78.44
433.622	74.44
433.844	90.44
434.066	82.44
434.287	96.44
434.509	88.44
434.731	81.44
434.953	73.44
435.175	77.44
435.397	71.44
435.618	78.44
435.84	71.44
436.062	72.44
436.284	78.44
436.505	83.44
436.727	84.44
436.949	81.44
437.17	69.44
437.392	75.44
437.614	89.44
437.835	69.44
438.057	74.44
438.278	76.44
438.5	81.44
438.721	83.44
438.943	85.44
439.165	78.44
439.386	75.44
439.608	78.44
439.829	72.44
440.05	91.44
440.272	78.44
440.493	84.44
440.715	74.44
440.936	67.44
441.158	82.44
441.379	78.44
441.6	69.44
441.822	71.44
442.043	75.44
442.264	84.44
442.486	78.44
442.707	77.44
442.928	80.44
443.149	81.44
443.371	88.44
443.592	95.44
443.813	82.44
444.034	70.44
444.255	75.44
444.476	93.44
444.698	77.44
444.919	77.44
445.14	151.44
445.361	97.44
445.582	85.44
445.803	68.44
446.024	74.44
446.245	72.44
446.466	77.44
446.687	71.44
446.908	85.44
447.129	91.44
447.35	81.44
447.571	69.44
447.792	84.44
448.013	73.44
448.234	73.44
448.455	82.44
448.675	86.44
448.896	86.44
449.117	91.44
449.338	89.44
449.559	86.44
449.779	77.44
450	90.44
450.221	85.44
450.442	71.44
450.662	73.44
450.883	82.44
451.104	82.44
451.324	73.44
451.545	81.44
451.766	79.44
451.986	77.44
452.207	69.44
452.428	75.44
452.648	76.44
452.869	82.44
453.089	75.44
453.31	83.44
453.53	84.44
453.751	80.44
453.971	84.44
454.192	79.44
454.412	85.44
454.633	81.44
454.853	91.44
455.073	72.44
455.294	81.44
455.514	70.44
455.734	72.44
455.955	85.44
456.175	72.44
456.395	79.44
456.616	67.44
456.836	90.44
457.056	70.44
457.276	86.44
457.497	91.44
457.717	90.44
457.937	77.44
458.157	73.44
458.377	84.44
458.598	68.44
458.818	82.44
459.038	82.44
459.258	69.44
459.478	72.44
459.698	82.44
459.918	76.44
460.138	90.44
460.358	77.44
460.578	80.44
460.798	89.44
461.018	82.44
461.238	74.44
461.458	95.44
461.678	87.44
461.898	73.44
462.118	82.44
462.338	77.44
462.558	84.44
462.777	86.44
462.997	87.44
463.217	84.44
463.437	78.44
463.657	70.44
463.876	67.44
464.096	82.44
464.316	86.44
464.536	78.44
464.755	84.44
464.975	83.44
465.195	92.44
465.414	71.44
465.634	74.44
465.854	78.44
466.073	85.44
466.293	82.44
466.512	66.44
466.732	73.44
466.951	71.44
467.171	75.44
467.391	83.44
467.61	94.44
467.829	71.44
468.049	80.44
468.268	88.44
468.488	78.44
468.707	87.44
468.927	91.44
469.146	71.44
469.365	83.44
469.585	72.44
469.804	87.44
470.023	83.44
470.243	77.44
470.462	76.44
470.681	60.44
470.901	75.44
471.12	82.44
471.339	83.44
471.558	80.44
471.777	72.44
471.997	87.44
472.216	66.44
472.435	73.44
472.654	77.44
472.873	77.44
473.092	88.44
473.311	86.44
473.53	79.44
473.749	100.44
473.968	99.44
474.187	84.44
474.406	83.44
474.625	85.44
474.844	87.44
475.063	73.44
475.282	85.44
475.501	74.44
475.72	72.44
475.939	79.44
476.158	85.44
476.377	70.44
476.596	77.44
476.814	79.44
477.033	80.44
477.252	90.44
477.471	75.44
477.69	76.44
477.908	73.44
478.127	81.44
478.346	77.44
478.564	76.44
478.783	83.44
479.002	84.44
479.22	76.44
479.439	84.44
479.658	82.44
479.876	92.44
480.095	84.44
480.313	87.44
480.532	82.44
480.751	71.44
480.969	79.44
481.188	86.44
481.406	72.44
481.624	77.44
481.843	86.44
482.061	93.44
482.28	77.44
482.498	80.44
482.717	78.44
482.935	79.44
483.153	78.44
483.372	81.44
483.59	89.44
483.808	70.44
484.027	74.44
484.245	84.44
484.463	79.44
484.681	93.44
484.9	73.44
485.118	80.44
485.336	82.44
485.554	79.44
485.772	70.44
485.99	77.44
486.209	82.44
486.427	101.44
486.645	80.44
486.863	67.44
487.081	75.44
487.299	79.44
487.517	74.44
487.735	96.44
487.953	80.44
488.171	63.44
488.389	77.44
488.607	80.44
488.825	73.44
489.043	82.44
489.261	79.44
489.479	76.44
489.696	102.44
489.914	68.44
490.132	85.44
490.35	71.44
490.568	75.44
490.786	74.44
491.003	83.44
491.221	86.44
491.439	80.44
491.657	73.44
491.874	74.44
492.092	96.44
492.31	69.44
492.527	79.44
492.745	77.44
492.963	80.44
493.18	83.44
493.398	86.44
493.615	83.44
493.833	86.44
494.05	73.44
494.268	87.44
494.485	85.44
494.703	78.44
494.92	80.44
495.138	72.44
495.355	71.44
495.573	89.44
495.79	86.44
496.008	91.44
496.225	93.44
496.442	95.44
496.66	84.44
496.877	82.44
497.094	87.44
497.312	76.44
497.529	77.44
497.746	73.44
497.963	84.44
498.181	86.44
498.398	78.44
498.615	81.44
498.832	78.44
499.049	93.44
499.267	84.44
499.484	82.44
499.701	86.44
499.918	77.44
500.135	85.44
500.352	77.44
500.569	74.44
500.786	70.44
501.003	83.44
501.22	78.44
501.437	78.44
501.654	87.44
501.871	78.44
502.088	86.44
502.305	91.44
502.522	70.44
502.739	84.44
502.956	72.44
503.172	82.44
503.389	90.44
503.606	77.44
503.823	86.44
504.04	81.44
504.256	89.44
504.473	80.44
504.69	77.44
504.907	81.44
505.123	71.44
505.34	92.44
505.557	78.44
505.773	84.44
505.99	82.44
506.207	73.44
506.423	75.44
506.64	91.44
506.856	82.44
507.073	85.44
507.289	73.44
507.506	85.44
507.722	82.44
507.939	78.44
508.155	80.44
508.372	70.44
508.588	80.44
508.805	76.44
509.021	77.44
509.238	78.44
509.454	90.44
509.67	81.44
509.887	72.44
510.103	86.44
510.319	83.44
510.536	74.44
510.752	82.44
510.968	70.44
511.184	79.44
511.401	70.44
511.617	61.44
511.833	73.44
512.049	65.44
512.265	77.44
512.481	80.44
512.698	87.44
512.914	96.44
513.13	81.44
513.346	74.44
513.562	66.44
513.778	71.44
513.994	98.44
514.21	72.44
514.426	89.44
514.642	78.44
514.858	90.44
515.074	88.44
515.29	85.44
515.506	99.44
515.721	88.44
515.937	76.44
516.153	65.44
516.369	78.44
516.585	79.44
516.801	87.44
517.016	79.44
517.232	88.44
517.448	68.44
517.664	85.44
517.879	81.44
518.095	76.44
518.311	82.44
518.527	82.44
518.742	72.44
518.958	76.44
519.173	78.44
519.389	82.44
519.605	80.44
519.82	73.44
520.036	78.44
