Data from KBr_1_HRD10591_00010.txt Node
Date: Mon Jan 19 13:11:17 EST 2026
User: Yrep
Spectrometer: HR+D1059
Trigger mode: 0
Integration Time (sec): 1.000000E-1
Scans to average: 1
Electric dark correction enabled: true
Nonlinearity correction enabled: false
Boxcar width: 0
XAxis mode: Wavelengths
Number of Pixels in Spectrum: 2048
>>>>>Begin Spectral Data<<<<<
223.165	-33.94
223.4	-33.94
223.635	-33.94
223.869	-13.94
224.104	-37.94
224.338	-26.94
224.573	-7.94
224.808	2.06
225.042	-0.94
225.277	-0.94
225.511	3.06
225.746	12.06
225.98	5.06
226.215	5.06
226.449	19.06
226.683	16.06
226.918	24.06
227.152	36.06
227.387	27.06
227.621	25.06
227.856	41.06
228.09	49.06
228.324	52.06
228.559	54.06
228.793	71.06
229.027	64.06
229.262	58.06
229.496	55.06
229.73	73.06
229.964	78.06
230.199	65.06
230.433	79.06
230.667	65.06
230.901	75.06
231.136	59.06
231.37	80.06
231.604	77.06
231.838	93.06
232.072	84.06
232.306	91.06
232.541	88.06
232.775	77.06
233.009	73.06
233.243	75.06
233.477	68.06
233.711	74.06
233.945	73.06
234.179	64.06
234.413	74.06
234.647	76.06
234.881	82.06
235.115	65.06
235.349	76.06
235.583	78.06
235.817	74.06
236.051	78.06
236.285	85.06
236.519	76.06
236.753	89.06
236.987	83.06
237.221	70.06
237.455	84.06
237.689	77.06
237.922	70.06
238.156	74.06
238.39	70.06
238.624	78.06
238.858	67.06
239.091	76.06
239.325	89.06
239.559	84.06
239.793	73.06
240.027	62.06
240.26	70.06
240.494	75.06
240.728	60.06
240.961	94.06
241.195	70.06
241.429	85.06
241.662	67.06
241.896	65.06
242.13	87.06
242.363	74.06
242.597	81.06
242.83	87.06
243.064	79.06
243.298	70.06
243.531	70.06
243.765	81.06
243.998	69.06
244.232	79.06
244.465	68.06
244.699	70.06
244.932	68.06
245.166	71.06
245.399	67.06
245.633	74.06
245.866	87.06
246.099	78.06
246.333	70.06
246.566	76.06
246.8	78.06
247.033	60.06
247.266	79.06
247.5	77.06
247.733	85.06
247.966	82.06
248.2	80.06
248.433	69.06
248.666	74.06
248.899	83.06
249.133	70.06
249.366	78.06
249.599	86.06
249.832	79.06
250.066	82.06
250.299	86.06
250.532	80.06
250.765	85.06
250.998	84.06
251.231	87.06
251.465	71.06
251.698	87.06
251.931	82.06
252.164	62.06
252.397	75.06
252.63	71.06
252.863	83.06
253.096	85.06
253.329	90.06
253.562	83.06
253.795	61.06
254.028	70.06
254.261	78.06
254.494	80.06
254.727	85.06
254.96	79.06
255.193	78.06
255.426	88.06
255.659	76.06
255.892	77.06
256.124	78.06
256.357	85.06
256.59	79.06
256.823	83.06
257.056	78.06
257.289	66.06
257.521	77.06
257.754	73.06
257.987	70.06
258.22	78.06
258.452	62.06
258.685	64.06
258.918	80.06
259.151	90.06
259.383	75.06
259.616	70.06
259.849	76.06
260.081	91.06
260.314	77.06
260.547	86.06
260.779	82.06
261.012	78.06
261.244	88.06
261.477	71.06
261.71	70.06
261.942	80.06
262.175	75.06
262.407	92.06
262.64	85.06
262.872	83.06
263.105	83.06
263.337	84.06
263.57	70.06
263.802	80.06
264.035	72.06
264.267	78.06
264.499	78.06
264.732	79.06
264.964	79.06
265.197	85.06
265.429	80.06
265.661	82.06
265.894	85.06
266.126	74.06
266.358	90.06
266.591	76.06
266.823	82.06
267.055	90.06
267.287	71.06
267.52	72.06
267.752	61.06
267.984	71.06
268.216	78.06
268.448	81.06
268.681	82.06
268.913	94.06
269.145	85.06
269.377	77.06
269.609	89.06
269.841	85.06
270.073	90.06
270.306	85.06
270.538	85.06
270.77	84.06
271.002	77.06
271.234	72.06
271.466	74.06
271.698	79.06
271.93	82.06
272.162	85.06
272.394	78.06
272.626	78.06
272.858	62.06
273.09	72.06
273.322	70.06
273.553	81.06
273.785	86.06
274.017	73.06
274.249	87.06
274.481	87.06
274.713	87.06
274.945	77.06
275.176	90.06
275.408	70.06
275.64	80.06
275.872	79.06
276.104	84.06
276.335	82.06
276.567	94.06
276.799	69.06
277.031	71.06
277.262	79.06
277.494	84.06
277.726	91.06
277.957	86.06
278.189	79.06
278.421	86.06
278.652	93.06
278.884	82.06
279.115	88.06
279.347	85.06
279.579	90.06
279.81	76.06
280.042	84.06
280.273	87.06
280.505	94.06
280.736	88.06
280.968	91.06
281.199	86.06
281.431	72.06
281.662	88.06
281.894	84.06
282.125	85.06
282.356	79.06
282.588	58.06
282.819	74.06
283.051	69.06
283.282	82.06
283.513	82.06
283.745	85.06
283.976	92.06
284.207	85.06
284.439	91.06
284.67	83.06
284.901	78.06
285.132	90.06
285.364	79.06
285.595	82.06
285.826	76.06
286.057	70.06
286.288	85.06
286.52	79.06
286.751	64.06
286.982	85.06
287.213	89.06
287.444	83.06
287.675	78.06
287.906	80.06
288.138	74.06
288.369	86.06
288.6	76.06
288.831	77.06
289.062	75.06
289.293	69.06
289.524	69.06
289.755	76.06
289.986	72.06
290.217	84.06
290.448	82.06
290.679	88.06
290.91	87.06
291.141	79.06
291.371	84.06
291.602	79.06
291.833	92.06
292.064	86.06
292.295	76.06
292.526	87.06
292.757	98.06
292.987	78.06
293.218	76.06
293.449	78.06
293.68	79.06
293.91	88.06
294.141	82.06
294.372	101.06
294.603	89.06
294.833	74.06
295.064	74.06
295.295	72.06
295.525	82.06
295.756	69.06
295.987	77.06
296.217	86.06
296.448	90.06
296.679	91.06
296.909	79.06
297.14	84.06
297.37	76.06
297.601	92.06
297.831	87.06
298.062	79.06
298.292	76.06
298.523	88.06
298.753	80.06
298.984	97.06
299.214	78.06
299.445	90.06
299.675	72.06
299.905	84.06
300.136	84.06
300.366	91.06
300.597	98.06
300.827	76.06
301.057	75.06
301.288	80.06
301.518	78.06
301.748	82.06
301.979	103.06
302.209	86.06
302.439	83.06
302.669	81.06
302.9	91.06
303.13	86.06
303.36	86.06
303.59	95.06
303.82	87.06
304.051	75.06
304.281	90.06
304.511	100.06
304.741	74.06
304.971	86.06
305.201	98.06
305.431	88.06
305.661	92.06
305.891	79.06
306.121	85.06
306.352	85.06
306.582	83.06
306.812	93.06
307.042	77.06
307.272	87.06
307.502	97.06
307.731	98.06
307.961	73.06
308.191	84.06
308.421	82.06
308.651	78.06
308.881	86.06
309.111	81.06
309.341	91.06
309.571	87.06
309.8	87.06
310.03	66.06
310.26	103.06
310.49	82.06
310.72	96.06
310.949	84.06
311.179	78.06
311.409	94.06
311.639	85.06
311.868	76.06
312.098	80.06
312.328	84.06
312.557	79.06
312.787	70.06
313.017	84.06
313.246	88.06
313.476	83.06
313.706	65.06
313.935	74.06
314.165	94.06
314.394	82.06
314.624	72.06
314.853	82.06
315.083	86.06
315.312	82.06
315.542	82.06
315.771	75.06
316.001	93.06
316.23	81.06
316.46	76.06
316.689	86.06
316.919	71.06
317.148	65.06
317.377	87.06
317.607	89.06
317.836	89.06
318.065	83.06
318.295	90.06
318.524	77.06
318.753	76.06
318.983	79.06
319.212	85.06
319.441	102.06
319.67	87.06
319.9	77.06
320.129	79.06
320.358	74.06
320.587	91.06
320.816	98.06
321.046	77.06
321.275	88.06
321.504	86.06
321.733	74.06
321.962	92.06
322.191	80.06
322.42	87.06
322.649	90.06
322.878	93.06
323.108	82.06
323.337	72.06
323.566	88.06
323.795	74.06
324.024	91.06
324.253	82.06
324.482	87.06
324.71	74.06
324.939	74.06
325.168	86.06
325.397	80.06
325.626	80.06
325.855	75.06
326.084	99.06
326.313	88.06
326.542	86.06
326.77	78.06
326.999	88.06
327.228	88.06
327.457	82.06
327.686	75.06
327.914	88.06
328.143	81.06
328.372	74.06
328.6	82.06
328.829	72.06
329.058	76.06
329.287	83.06
329.515	92.06
329.744	87.06
329.972	76.06
330.201	99.06
330.43	83.06
330.658	79.06
330.887	69.06
331.115	82.06
331.344	78.06
331.572	82.06
331.801	76.06
332.03	82.06
332.258	82.06
332.486	89.06
332.715	72.06
332.943	79.06
333.172	80.06
333.4	87.06
333.629	92.06
333.857	82.06
334.085	89.06
334.314	91.06
334.542	87.06
334.771	79.06
334.999	87.06
335.227	74.06
335.455	83.06
335.684	83.06
335.912	95.06
336.14	87.06
336.369	83.06
336.597	78.06
336.825	79.06
337.053	95.06
337.281	86.06
337.51	75.06
337.738	78.06
337.966	62.06
338.194	86.06
338.422	83.06
338.65	76.06
338.878	77.06
339.106	97.06
339.334	72.06
339.562	74.06
339.79	77.06
340.018	96.06
340.246	75.06
340.474	82.06
340.702	70.06
340.93	89.06
341.158	70.06
341.386	80.06
341.614	95.06
341.842	76.06
342.07	78.06
342.298	80.06
342.526	73.06
342.754	76.06
342.981	93.06
343.209	88.06
343.437	101.06
343.665	75.06
343.893	74.06
344.12	77.06
344.348	83.06
344.576	72.06
344.804	70.06
345.031	67.06
345.259	65.06
345.487	93.06
345.714	74.06
345.942	90.06
346.17	86.06
346.397	84.06
346.625	83.06
346.853	72.06
347.08	72.06
347.308	73.06
347.535	79.06
347.763	86.06
347.99	78.06
348.218	81.06
348.445	80.06
348.673	74.06
348.9	74.06
349.128	78.06
349.355	87.06
349.583	76.06
349.81	81.06
350.037	79.06
350.265	86.06
350.492	85.06
350.72	85.06
350.947	82.06
351.174	92.06
351.402	76.06
351.629	92.06
351.856	86.06
352.083	76.06
352.311	84.06
352.538	80.06
352.765	79.06
352.992	86.06
353.22	83.06
353.447	74.06
353.674	65.06
353.901	77.06
354.128	85.06
354.355	93.06
354.583	63.06
354.81	76.06
355.037	90.06
355.264	82.06
355.491	94.06
355.718	104.06
355.945	81.06
356.172	84.06
356.399	77.06
356.626	85.06
356.853	79.06
357.08	92.06
357.307	84.06
357.534	71.06
357.761	86.06
357.988	87.06
358.215	78.06
358.441	76.06
358.668	78.06
358.895	71.06
359.122	78.06
359.349	71.06
359.576	82.06
359.802	78.06
360.029	85.06
360.256	91.06
360.483	83.06
360.709	88.06
360.936	85.06
361.163	88.06
361.39	72.06
361.616	73.06
361.843	82.06
362.07	76.06
362.296	89.06
362.523	92.06
362.749	82.06
362.976	88.06
363.203	91.06
363.429	74.06
363.656	76.06
363.882	77.06
364.109	91.06
364.335	79.06
364.562	75.06
364.788	79.06
365.015	82.06
365.241	78.06
365.468	97.06
365.694	80.06
365.92	80.06
366.147	78.06
366.373	89.06
366.599	80.06
366.826	68.06
367.052	80.06
367.278	86.06
367.505	80.06
367.731	85.06
367.957	75.06
368.184	79.06
368.41	77.06
368.636	76.06
368.862	90.06
369.089	88.06
369.315	85.06
369.541	93.06
369.767	77.06
369.993	94.06
370.219	80.06
370.445	72.06
370.672	72.06
370.898	87.06
371.124	79.06
371.35	78.06
371.576	78.06
371.802	70.06
372.028	83.06
372.254	82.06
372.48	70.06
372.706	76.06
372.932	67.06
373.158	80.06
373.384	88.06
373.61	85.06
373.835	78.06
374.061	83.06
374.287	82.06
374.513	96.06
374.739	84.06
374.965	79.06
375.191	70.06
375.416	95.06
375.642	90.06
375.868	80.06
376.094	78.06
376.319	77.06
376.545	70.06
376.771	71.06
376.997	89.06
377.222	92.06
377.448	82.06
377.674	99.06
377.899	79.06
378.125	89.06
378.35	79.06
378.576	76.06
378.802	81.06
379.027	84.06
379.253	77.06
379.478	78.06
379.704	80.06
379.929	83.06
380.155	85.06
380.38	80.06
380.606	81.06
380.831	90.06
381.057	84.06
381.282	95.06
381.507	79.06
381.733	76.06
381.958	79.06
382.184	79.06
382.409	74.06
382.634	81.06
382.86	84.06
383.085	87.06
383.31	69.06
383.535	76.06
383.761	84.06
383.986	82.06
384.211	82.06
384.436	83.06
384.662	70.06
384.887	83.06
385.112	78.06
385.337	77.06
385.562	82.06
385.787	75.06
386.013	71.06
386.238	76.06
386.463	87.06
386.688	101.06
386.913	87.06
387.138	65.06
387.363	81.06
387.588	69.06
387.813	80.06
388.038	96.06
388.263	86.06
388.488	83.06
388.713	72.06
388.938	88.06
389.163	102.06
389.387	84.06
389.612	90.06
389.837	83.06
390.062	73.06
390.287	90.06
390.512	78.06
390.736	89.06
390.961	77.06
391.186	73.06
391.411	65.06
391.636	75.06
391.86	79.06
392.085	78.06
392.31	60.06
392.534	89.06
392.759	98.06
392.984	87.06
393.208	86.06
393.433	72.06
393.658	70.06
393.882	63.06
394.107	87.06
394.331	75.06
394.556	85.06
394.78	88.06
395.005	82.06
395.229	77.06
395.454	57.06
395.678	74.06
395.903	76.06
396.127	82.06
396.352	68.06
396.576	85.06
396.801	71.06
397.025	87.06
397.249	88.06
397.474	87.06
397.698	87.06
397.922	76.06
398.147	80.06
398.371	78.06
398.595	89.06
398.82	74.06
399.044	78.06
399.268	83.06
399.492	67.06
399.717	87.06
399.941	78.06
400.165	92.06
400.389	98.06
400.613	78.06
400.837	90.06
401.062	74.06
401.286	73.06
401.51	88.06
401.734	93.06
401.958	79.06
402.182	75.06
402.406	84.06
402.63	76.06
402.854	76.06
403.078	63.06
403.302	75.06
403.526	86.06
403.75	75.06
403.974	77.06
404.198	88.06
404.422	90.06
404.645	73.06
404.869	65.06
405.093	80.06
405.317	79.06
405.541	76.06
405.765	76.06
405.988	95.06
406.212	83.06
406.436	83.06
406.66	88.06
406.883	82.06
407.107	92.06
407.331	85.06
407.555	79.06
407.778	86.06
408.002	74.06
408.226	78.06
408.449	91.06
408.673	83.06
408.896	92.06
409.12	74.06
409.344	85.06
409.567	71.06
409.791	84.06
410.014	68.06
410.238	82.06
410.461	73.06
410.685	92.06
410.908	85.06
411.132	79.06
411.355	73.06
411.578	80.06
411.802	86.06
412.025	76.06
412.249	75.06
412.472	80.06
412.695	83.06
412.919	78.06
413.142	76.06
413.365	78.06
413.589	65.06
413.812	77.06
414.035	84.06
414.258	82.06
414.482	82.06
414.705	95.06
414.928	82.06
415.151	83.06
415.374	82.06
415.597	83.06
415.821	65.06
416.044	82.06
416.267	79.06
416.49	86.06
416.713	86.06
416.936	87.06
417.159	80.06
417.382	74.06
417.605	78.06
417.828	77.06
418.051	85.06
418.274	71.06
418.497	75.06
418.72	72.06
418.943	83.06
419.166	85.06
419.389	84.06
419.611	71.06
419.834	84.06
420.057	63.06
420.28	69.06
420.503	66.06
420.726	64.06
420.948	71.06
421.171	70.06
421.394	84.06
421.617	70.06
421.839	79.06
422.062	74.06
422.285	69.06
422.507	70.06
422.73	75.06
422.953	77.06
423.175	77.06
423.398	82.06
423.621	80.06
423.843	76.06
424.066	79.06
424.288	79.06
424.511	83.06
424.733	87.06
424.956	80.06
425.178	85.06
425.401	86.06
425.623	82.06
425.846	79.06
426.068	84.06
426.291	80.06
426.513	78.06
426.735	77.06
426.958	71.06
427.18	83.06
427.402	87.06
427.625	75.06
427.847	82.06
428.069	91.06
428.292	84.06
428.514	76.06
428.736	82.06
428.958	63.06
429.181	82.06
429.403	74.06
429.625	70.06
429.847	90.06
430.069	88.06
430.292	72.06
430.514	67.06
430.736	64.06
430.958	73.06
431.18	69.06
431.402	78.06
431.624	78.06
431.846	81.06
432.068	79.06
432.29	71.06
432.512	79.06
432.734	90.06
432.956	79.06
433.178	74.06
433.4	74.06
433.622	82.06
433.844	87.06
434.066	74.06
434.287	68.06
434.509	71.06
434.731	81.06
434.953	80.06
435.175	57.06
435.397	71.06
435.618	72.06
435.84	89.06
436.062	63.06
436.284	71.06
436.505	87.06
436.727	76.06
436.949	84.06
437.17	84.06
437.392	85.06
437.614	56.06
437.835	72.06
438.057	62.06
438.278	83.06
438.5	83.06
438.721	73.06
438.943	69.06
439.165	79.06
439.386	74.06
439.608	82.06
439.829	75.06
440.05	75.06
440.272	70.06
440.493	81.06
440.715	85.06
440.936	79.06
441.158	89.06
441.379	86.06
441.6	90.06
441.822	71.06
442.043	73.06
442.264	86.06
442.486	78.06
442.707	78.06
442.928	75.06
443.149	70.06
443.371	79.06
443.592	82.06
443.813	74.06
444.034	65.06
444.255	73.06
444.476	72.06
444.698	74.06
444.919	72.06
445.14	137.06
445.361	115.06
445.582	89.06
445.803	76.06
446.024	72.06
446.245	83.06
446.466	82.06
446.687	77.06
446.908	98.06
447.129	96.06
447.35	78.06
447.571	75.06
447.792	68.06
448.013	74.06
448.234	65.06
448.455	85.06
448.675	82.06
448.896	80.06
449.117	76.06
449.338	74.06
449.559	72.06
449.779	89.06
450	68.06
450.221	85.06
450.442	89.06
450.662	63.06
450.883	85.06
451.104	81.06
451.324	78.06
451.545	80.06
451.766	73.06
451.986	83.06
452.207	83.06
452.428	82.06
452.648	85.06
452.869	81.06
453.089	80.06
453.31	76.06
453.53	67.06
453.751	73.06
453.971	67.06
454.192	70.06
454.412	81.06
454.633	77.06
454.853	80.06
455.073	70.06
455.294	81.06
455.514	84.06
455.734	80.06
455.955	77.06
456.175	72.06
456.395	82.06
456.616	84.06
456.836	78.06
457.056	82.06
457.276	71.06
457.497	69.06
457.717	77.06
457.937	81.06
458.157	95.06
458.377	91.06
458.598	71.06
458.818	98.06
459.038	78.06
459.258	78.06
459.478	74.06
459.698	69.06
459.918	76.06
460.138	77.06
460.358	68.06
460.578	88.06
460.798	75.06
461.018	82.06
461.238	69.06
461.458	82.06
461.678	83.06
461.898	75.06
462.118	77.06
462.338	71.06
462.558	86.06
462.777	87.06
462.997	73.06
463.217	62.06
463.437	70.06
463.657	80.06
463.876	73.06
464.096	83.06
464.316	86.06
464.536	83.06
464.755	80.06
464.975	79.06
465.195	74.06
465.414	75.06
465.634	66.06
465.854	82.06
466.073	83.06
466.293	80.06
466.512	72.06
466.732	84.06
466.951	84.06
467.171	82.06
467.391	87.06
467.61	76.06
467.829	87.06
468.049	87.06
468.268	78.06
468.488	95.06
468.707	76.06
468.927	70.06
469.146	92.06
469.365	76.06
469.585	63.06
469.804	72.06
470.023	82.06
470.243	79.06
470.462	86.06
470.681	74.06
470.901	77.06
471.12	76.06
471.339	89.06
471.558	84.06
471.777	78.06
471.997	82.06
472.216	88.06
472.435	77.06
472.654	74.06
472.873	89.06
473.092	90.06
473.311	95.06
473.53	89.06
473.749	80.06
473.968	83.06
474.187	91.06
474.406	96.06
474.625	81.06
474.844	70.06
475.063	67.06
475.282	74.06
475.501	86.06
475.72	91.06
475.939	76.06
476.158	84.06
476.377	82.06
476.596	75.06
476.814	77.06
477.033	70.06
477.252	91.06
477.471	78.06
477.69	67.06
477.908	64.06
478.127	77.06
478.346	70.06
478.564	73.06
478.783	82.06
479.002	61.06
479.22	76.06
479.439	70.06
479.658	84.06
479.876	68.06
480.095	79.06
480.313	90.06
480.532	78.06
480.751	84.06
480.969	84.06
481.188	72.06
481.406	79.06
481.624	72.06
481.843	82.06
482.061	86.06
482.28	87.06
482.498	78.06
482.717	73.06
482.935	75.06
483.153	80.06
483.372	87.06
483.59	86.06
483.808	84.06
484.027	82.06
484.245	88.06
484.463	82.06
484.681	91.06
484.9	76.06
485.118	69.06
485.336	80.06
485.554	60.06
485.772	85.06
485.99	85.06
486.209	82.06
486.427	60.06
486.645	70.06
486.863	66.06
487.081	85.06
487.299	69.06
487.517	89.06
487.735	73.06
487.953	93.06
488.171	83.06
488.389	87.06
488.607	88.06
488.825	92.06
489.043	81.06
489.261	83.06
489.479	91.06
489.696	78.06
489.914	86.06
490.132	76.06
490.35	85.06
490.568	77.06
490.786	68.06
491.003	74.06
491.221	80.06
491.439	85.06
491.657	75.06
491.874	90.06
492.092	87.06
492.31	81.06
492.527	70.06
492.745	73.06
492.963	74.06
493.18	81.06
493.398	82.06
493.615	78.06
493.833	74.06
494.05	75.06
494.268	81.06
494.485	87.06
494.703	89.06
494.92	67.06
495.138	78.06
495.355	76.06
495.573	88.06
495.79	78.06
496.008	80.06
496.225	91.06
496.442	87.06
496.66	80.06
496.877	95.06
497.094	80.06
497.312	78.06
497.529	72.06
497.746	75.06
497.963	78.06
498.181	64.06
498.398	82.06
498.615	75.06
498.832	85.06
499.049	91.06
499.267	82.06
499.484	88.06
499.701	84.06
499.918	81.06
500.135	72.06
500.352	64.06
500.569	82.06
500.786	72.06
501.003	85.06
501.22	61.06
501.437	85.06
501.654	82.06
501.871	84.06
502.088	84.06
502.305	80.06
502.522	78.06
502.739	82.06
502.956	89.06
503.172	73.06
503.389	78.06
503.606	79.06
503.823	79.06
504.04	80.06
504.256	88.06
504.473	87.06
504.69	87.06
504.907	71.06
505.123	67.06
505.34	87.06
505.557	74.06
505.773	68.06
505.99	88.06
506.207	77.06
506.423	72.06
506.64	85.06
506.856	85.06
507.073	74.06
507.289	76.06
507.506	83.06
507.722	85.06
507.939	76.06
508.155	91.06
508.372	86.06
508.588	81.06
508.805	85.06
509.021	85.06
509.238	87.06
509.454	78.06
509.67	83.06
509.887	75.06
510.103	92.06
510.319	87.06
510.536	73.06
510.752	78.06
510.968	91.06
511.184	71.06
511.401	73.06
511.617	87.06
511.833	84.06
512.049	96.06
512.265	91.06
512.481	78.06
512.698	74.06
512.914	74.06
513.13	82.06
513.346	85.06
513.562	87.06
513.778	78.06
513.994	76.06
514.21	83.06
514.426	87.06
514.642	72.06
514.858	76.06
515.074	102.06
515.29	84.06
515.506	72.06
515.721	75.06
515.937	92.06
516.153	84.06
516.369	91.06
516.585	83.06
516.801	87.06
517.016	77.06
517.232	92.06
517.448	83.06
517.664	84.06
517.879	86.06
518.095	83.06
518.311	75.06
518.527	73.06
518.742	72.06
518.958	82.06
519.173	77.06
519.389	93.06
519.605	79.06
519.82	70.06
520.036	75.06
520.251	71.06
