Data from KBr_1_HRD10591_00020.txt Node
Date: Mon Jan 19 13:11:18 EST 2026
User: Yrep
Spectrometer: HR+D1059
Trigger mode: 0
Integration Time (sec): 1.000000E-1
Scans to average: 1
Electric dark correction enabled: true
Nonlinearity correction enabled: false
Boxcar width: 0
XAxis mode: Wavelengths
Number of Pixels in Spectrum: 2048
>>>>>Begin Spectral Data<<<<<
223.165	-14.88
223.4	-14.88
223.635	-14.88
223.869	-29.88
224.104	-15.88
224.338	-7.88
224.573	-5.88
224.808	-3.88
225.042	-11.88
225.277	-11.88
225.511	1.12
225.746	-8.88
225.98	18.12
226.215	4.12
226.449	-7.88
226.683	34.12
226.918	29.12
227.152	32.12
227.387	37.12
227.621	40.12
227.856	41.12
228.09	43.12
228.324	36.12
228.559	51.12
228.793	42.12
229.027	60.12
229.262	65.12
229.496	58.12
229.73	52.12
229.964	78.12
230.199	70.12
230.433	71.12
230.667	73.12
230.901	74.12
231.136	77.12
231.37	77.12
231.604	74.12
231.838	69.12
232.072	80.12
232.306	78.12
232.541	72.12
232.775	74.12
233.009	79.12
233.243	65.12
233.477	76.12
233.711	76.12
233.945	68.12
234.179	77.12
234.413	83.12
234.647	83.12
234.881	85.12
235.115	81.12
235.349	76.12
235.583	77.12
235.817	76.12
236.051	64.12
236.285	69.12
236.519	80.12
236.753	60.12
236.987	85.12
237.221	84.12
237.455	59.12
237.689	68.12
237.922	84.12
238.156	65.12
238.39	61.12
238.624	75.12
238.858	72.12
239.091	61.12
239.325	74.12
239.559	81.12
239.793	72.12
240.027	92.12
240.26	86.12
240.494	63.12
240.728	71.12
240.961	72.12
241.195	76.12
241.429	69.12
241.662	66.12
241.896	76.12
242.13	76.12
242.363	83.12
242.597	70.12
242.83	77.12
243.064	73.12
243.298	80.12
243.531	76.12
243.765	80.12
243.998	72.12
244.232	89.12
244.465	68.12
244.699	61.12
244.932	68.12
245.166	74.12
245.399	66.12
245.633	80.12
245.866	68.12
246.099	78.12
246.333	75.12
246.566	71.12
246.8	77.12
247.033	81.12
247.266	76.12
247.5	83.12
247.733	66.12
247.966	86.12
248.2	73.12
248.433	87.12
248.666	91.12
248.899	75.12
249.133	77.12
249.366	70.12
249.599	70.12
249.832	81.12
250.066	85.12
250.299	73.12
250.532	77.12
250.765	72.12
250.998	78.12
251.231	77.12
251.465	79.12
251.698	80.12
251.931	66.12
252.164	69.12
252.397	89.12
252.63	69.12
252.863	80.12
253.096	68.12
253.329	62.12
253.562	88.12
253.795	76.12
254.028	77.12
254.261	68.12
254.494	60.12
254.727	82.12
254.96	81.12
255.193	73.12
255.426	72.12
255.659	70.12
255.892	89.12
256.124	86.12
256.357	64.12
256.59	73.12
256.823	67.12
257.056	65.12
257.289	63.12
257.521	82.12
257.754	82.12
257.987	83.12
258.22	68.12
258.452	74.12
258.685	84.12
258.918	86.12
259.151	77.12
259.383	78.12
259.616	82.12
259.849	78.12
260.081	69.12
260.314	80.12
260.547	81.12
260.779	81.12
261.012	83.12
261.244	73.12
261.477	84.12
261.71	72.12
261.942	66.12
262.175	82.12
262.407	70.12
262.64	83.12
262.872	89.12
263.105	87.12
263.337	77.12
263.57	72.12
263.802	91.12
264.035	66.12
264.267	74.12
264.499	76.12
264.732	88.12
264.964	79.12
265.197	80.12
265.429	86.12
265.661	67.12
265.894	80.12
266.126	84.12
266.358	78.12
266.591	74.12
266.823	81.12
267.055	76.12
267.287	84.12
267.52	64.12
267.752	76.12
267.984	88.12
268.216	81.12
268.448	83.12
268.681	79.12
268.913	75.12
269.145	80.12
269.377	69.12
269.609	85.12
269.841	84.12
270.073	83.12
270.306	86.12
270.538	80.12
270.77	80.12
271.002	92.12
271.234	68.12
271.466	90.12
271.698	89.12
271.93	84.12
272.162	78.12
272.394	74.12
272.626	81.12
272.858	75.12
273.09	82.12
273.322	77.12
273.553	77.12
273.785	76.12
274.017	83.12
274.249	85.12
274.481	73.12
274.713	69.12
274.945	88.12
275.176	89.12
275.408	60.12
275.64	73.12
275.872	71.12
276.104	81.12
276.335	88.12
276.567	74.12
276.799	81.12
277.031	67.12
277.262	74.12
277.494	80.12
277.726	83.12
277.957	84.12
278.189	76.12
278.421	69.12
278.652	80.12
278.884	74.12
279.115	76.12
279.347	77.12
279.579	78.12
279.81	92.12
280.042	91.12
280.273	76.12
280.505	67.12
280.736	90.12
280.968	79.12
281.199	79.12
281.431	83.12
281.662	78.12
281.894	82.12
282.125	72.12
282.356	80.12
282.588	73.12
282.819	87.12
283.051	81.12
283.282	78.12
283.513	86.12
283.745	76.12
283.976	97.12
284.207	86.12
284.439	79.12
284.67	95.12
284.901	84.12
285.132	85.12
285.364	68.12
285.595	79.12
285.826	77.12
286.057	76.12
286.288	83.12
286.52	65.12
286.751	74.12
286.982	76.12
287.213	90.12
287.444	84.12
287.675	86.12
287.906	75.12
288.138	80.12
288.369	72.12
288.6	101.12
288.831	77.12
289.062	89.12
289.293	80.12
289.524	81.12
289.755	79.12
289.986	86.12
290.217	84.12
290.448	78.12
290.679	80.12
290.91	83.12
291.141	89.12
291.371	76.12
291.602	81.12
291.833	84.12
292.064	76.12
292.295	89.12
292.526	85.12
292.757	69.12
292.987	92.12
293.218	86.12
293.449	68.12
293.68	78.12
293.91	78.12
294.141	88.12
294.372	85.12
294.603	80.12
294.833	70.12
295.064	81.12
295.295	76.12
295.525	84.12
295.756	94.12
295.987	81.12
296.217	70.12
296.448	88.12
296.679	65.12
296.909	86.12
297.14	74.12
297.37	78.12
297.601	85.12
297.831	77.12
298.062	82.12
298.292	85.12
298.523	89.12
298.753	89.12
298.984	79.12
299.214	80.12
299.445	81.12
299.675	80.12
299.905	90.12
300.136	74.12
300.366	78.12
300.597	86.12
300.827	91.12
301.057	79.12
301.288	90.12
301.518	76.12
301.748	77.12
301.979	91.12
302.209	82.12
302.439	74.12
302.669	91.12
302.9	83.12
303.13	98.12
303.36	76.12
303.59	75.12
303.82	83.12
304.051	82.12
304.281	90.12
304.511	78.12
304.741	97.12
304.971	81.12
305.201	74.12
305.431	86.12
305.661	76.12
305.891	83.12
306.121	82.12
306.352	86.12
306.582	104.12
306.812	103.12
307.042	75.12
307.272	80.12
307.502	83.12
307.731	87.12
307.961	82.12
308.191	96.12
308.421	76.12
308.651	82.12
308.881	85.12
309.111	82.12
309.341	72.12
309.571	86.12
309.8	84.12
310.03	81.12
310.26	96.12
310.49	78.12
310.72	71.12
310.949	89.12
311.179	71.12
311.409	75.12
311.639	82.12
311.868	87.12
312.098	90.12
312.328	79.12
312.557	79.12
312.787	86.12
313.017	80.12
313.246	94.12
313.476	88.12
313.706	80.12
313.935	76.12
314.165	90.12
314.394	83.12
314.624	81.12
314.853	93.12
315.083	84.12
315.312	76.12
315.542	67.12
315.771	93.12
316.001	81.12
316.23	82.12
316.46	73.12
316.689	80.12
316.919	78.12
317.148	79.12
317.377	74.12
317.607	101.12
317.836	91.12
318.065	68.12
318.295	73.12
318.524	82.12
318.753	69.12
318.983	82.12
319.212	88.12
319.441	106.12
319.67	76.12
319.9	68.12
320.129	77.12
320.358	81.12
320.587	86.12
320.816	91.12
321.046	88.12
321.275	90.12
321.504	85.12
321.733	83.12
321.962	81.12
322.191	81.12
322.42	88.12
322.649	85.12
322.878	88.12
323.108	92.12
323.337	94.12
323.566	90.12
323.795	77.12
324.024	81.12
324.253	71.12
324.482	83.12
324.71	81.12
324.939	70.12
325.168	93.12
325.397	79.12
325.626	76.12
325.855	82.12
326.084	101.12
326.313	75.12
326.542	81.12
326.77	81.12
326.999	82.12
327.228	82.12
327.457	88.12
327.686	67.12
327.914	81.12
328.143	75.12
328.372	80.12
328.6	85.12
328.829	72.12
329.058	68.12
329.287	73.12
329.515	74.12
329.744	86.12
329.972	80.12
330.201	82.12
330.43	76.12
330.658	81.12
330.887	80.12
331.115	92.12
331.344	84.12
331.572	82.12
331.801	71.12
332.03	78.12
332.258	70.12
332.486	74.12
332.715	71.12
332.943	81.12
333.172	75.12
333.4	77.12
333.629	73.12
333.857	76.12
334.085	69.12
334.314	67.12
334.542	76.12
334.771	89.12
334.999	64.12
335.227	84.12
335.455	85.12
335.684	91.12
335.912	79.12
336.14	78.12
336.369	80.12
336.597	84.12
336.825	75.12
337.053	78.12
337.281	74.12
337.51	73.12
337.738	75.12
337.966	83.12
338.194	69.12
338.422	86.12
338.65	78.12
338.878	77.12
339.106	83.12
339.334	70.12
339.562	82.12
339.79	81.12
340.018	81.12
340.246	89.12
340.474	91.12
340.702	85.12
340.93	83.12
341.158	85.12
341.386	92.12
341.614	66.12
341.842	80.12
342.07	85.12
342.298	80.12
342.526	90.12
342.754	77.12
342.981	80.12
343.209	84.12
343.437	80.12
343.665	77.12
343.893	80.12
344.12	91.12
344.348	81.12
344.576	86.12
344.804	81.12
345.031	74.12
345.259	75.12
345.487	84.12
345.714	81.12
345.942	82.12
346.17	76.12
346.397	75.12
346.625	72.12
346.853	75.12
347.08	93.12
347.308	71.12
347.535	75.12
347.763	73.12
347.99	77.12
348.218	83.12
348.445	71.12
348.673	92.12
348.9	79.12
349.128	86.12
349.355	66.12
349.583	74.12
349.81	80.12
350.037	91.12
350.265	80.12
350.492	73.12
350.72	92.12
350.947	65.12
351.174	64.12
351.402	79.12
351.629	69.12
351.856	78.12
352.083	75.12
352.311	83.12
352.538	73.12
352.765	83.12
352.992	91.12
353.22	72.12
353.447	73.12
353.674	75.12
353.901	90.12
354.128	73.12
354.355	81.12
354.583	82.12
354.81	83.12
355.037	89.12
355.264	75.12
355.491	76.12
355.718	58.12
355.945	79.12
356.172	87.12
356.399	86.12
356.626	89.12
356.853	91.12
357.08	86.12
357.307	76.12
357.534	72.12
357.761	76.12
357.988	67.12
358.215	81.12
358.441	75.12
358.668	75.12
358.895	90.12
359.122	76.12
359.349	84.12
359.576	78.12
359.802	85.12
360.029	77.12
360.256	75.12
360.483	65.12
360.709	82.12
360.936	96.12
361.163	73.12
361.39	83.12
361.616	76.12
361.843	76.12
362.07	72.12
362.296	78.12
362.523	81.12
362.749	72.12
362.976	73.12
363.203	82.12
363.429	70.12
363.656	74.12
363.882	75.12
364.109	70.12
364.335	70.12
364.562	79.12
364.788	67.12
365.015	69.12
365.241	92.12
365.468	80.12
365.694	74.12
365.92	70.12
366.147	84.12
366.373	82.12
366.599	86.12
366.826	82.12
367.052	80.12
367.278	68.12
367.505	81.12
367.731	86.12
367.957	81.12
368.184	78.12
368.41	75.12
368.636	85.12
368.862	78.12
369.089	66.12
369.315	80.12
369.541	80.12
369.767	82.12
369.993	83.12
370.219	85.12
370.445	82.12
370.672	73.12
370.898	85.12
371.124	75.12
371.35	80.12
371.576	88.12
371.802	82.12
372.028	76.12
372.254	77.12
372.48	80.12
372.706	75.12
372.932	86.12
373.158	62.12
373.384	71.12
373.61	87.12
373.835	77.12
374.061	92.12
374.287	84.12
374.513	81.12
374.739	87.12
374.965	84.12
375.191	80.12
375.416	64.12
375.642	64.12
375.868	75.12
376.094	78.12
376.319	89.12
376.545	68.12
376.771	77.12
376.997	83.12
377.222	83.12
377.448	79.12
377.674	70.12
377.899	77.12
378.125	78.12
378.35	81.12
378.576	81.12
378.802	83.12
379.027	73.12
379.253	88.12
379.478	71.12
379.704	67.12
379.929	89.12
380.155	79.12
380.38	78.12
380.606	88.12
380.831	81.12
381.057	92.12
381.282	86.12
381.507	76.12
381.733	75.12
381.958	76.12
382.184	77.12
382.409	85.12
382.634	85.12
382.86	92.12
383.085	77.12
383.31	75.12
383.535	77.12
383.761	73.12
383.986	82.12
384.211	79.12
384.436	78.12
384.662	80.12
384.887	58.12
385.112	63.12
385.337	89.12
385.562	85.12
385.787	65.12
386.013	80.12
386.238	76.12
386.463	84.12
386.688	82.12
386.913	73.12
387.138	84.12
387.363	78.12
387.588	80.12
387.813	73.12
388.038	80.12
388.263	88.12
388.488	76.12
388.713	70.12
388.938	76.12
389.163	72.12
389.387	80.12
389.612	67.12
389.837	72.12
390.062	70.12
390.287	84.12
390.512	78.12
390.736	81.12
390.961	77.12
391.186	76.12
391.411	75.12
391.636	73.12
391.86	61.12
392.085	82.12
392.31	77.12
392.534	77.12
392.759	79.12
392.984	76.12
393.208	87.12
393.433	73.12
393.658	77.12
393.882	85.12
394.107	83.12
394.331	79.12
394.556	76.12
394.78	71.12
395.005	88.12
395.229	75.12
395.454	73.12
395.678	68.12
395.903	79.12
396.127	80.12
396.352	87.12
396.576	77.12
396.801	69.12
397.025	73.12
397.249	76.12
397.474	77.12
397.698	75.12
397.922	79.12
398.147	82.12
398.371	93.12
398.595	66.12
398.82	75.12
399.044	81.12
399.268	70.12
399.492	74.12
399.717	77.12
399.941	76.12
400.165	82.12
400.389	84.12
400.613	71.12
400.837	85.12
401.062	83.12
401.286	87.12
401.51	78.12
401.734	80.12
401.958	75.12
402.182	76.12
402.406	83.12
402.63	57.12
402.854	74.12
403.078	74.12
403.302	68.12
403.526	73.12
403.75	78.12
403.974	77.12
404.198	62.12
404.422	82.12
404.645	74.12
404.869	68.12
405.093	76.12
405.317	79.12
405.541	88.12
405.765	70.12
405.988	80.12
406.212	78.12
406.436	68.12
406.66	61.12
406.883	84.12
407.107	81.12
407.331	72.12
407.555	82.12
407.778	70.12
408.002	76.12
408.226	68.12
408.449	84.12
408.673	83.12
408.896	83.12
409.12	88.12
409.344	83.12
409.567	74.12
409.791	56.12
410.014	66.12
410.238	59.12
410.461	76.12
410.685	74.12
410.908	87.12
411.132	82.12
411.355	67.12
411.578	80.12
411.802	88.12
412.025	65.12
412.249	70.12
412.472	66.12
412.695	87.12
412.919	78.12
413.142	75.12
413.365	68.12
413.589	80.12
413.812	81.12
414.035	90.12
414.258	77.12
414.482	68.12
414.705	72.12
414.928	80.12
415.151	82.12
415.374	75.12
415.597	73.12
415.821	66.12
416.044	75.12
416.267	82.12
416.49	71.12
416.713	77.12
416.936	74.12
417.159	65.12
417.382	76.12
417.605	77.12
417.828	75.12
418.051	68.12
418.274	71.12
418.497	67.12
418.72	67.12
418.943	78.12
419.166	73.12
419.389	73.12
419.611	73.12
419.834	77.12
420.057	82.12
420.28	73.12
420.503	84.12
420.726	78.12
420.948	72.12
421.171	65.12
421.394	82.12
421.617	81.12
421.839	76.12
422.062	73.12
422.285	76.12
422.507	88.12
422.73	76.12
422.953	67.12
423.175	76.12
423.398	86.12
423.621	74.12
423.843	68.12
424.066	71.12
424.288	74.12
424.511	77.12
424.733	78.12
424.956	75.12
425.178	61.12
425.401	87.12
425.623	76.12
425.846	65.12
426.068	66.12
426.291	79.12
426.513	69.12
426.735	91.12
426.958	78.12
427.18	84.12
427.402	59.12
427.625	78.12
427.847	73.12
428.069	73.12
428.292	80.12
428.514	84.12
428.736	67.12
428.958	78.12
429.181	75.12
429.403	81.12
429.625	84.12
429.847	76.12
430.069	76.12
430.292	69.12
430.514	83.12
430.736	82.12
430.958	94.12
431.18	73.12
431.402	78.12
431.624	84.12
431.846	70.12
432.068	86.12
432.29	73.12
432.512	81.12
432.734	74.12
432.956	84.12
433.178	76.12
433.4	56.12
433.622	99.12
433.844	72.12
434.066	68.12
434.287	91.12
434.509	63.12
434.731	70.12
434.953	83.12
435.175	88.12
435.397	77.12
435.618	80.12
435.84	70.12
436.062	70.12
436.284	78.12
436.505	77.12
436.727	72.12
436.949	81.12
437.17	67.12
437.392	84.12
437.614	71.12
437.835	83.12
438.057	68.12
438.278	76.12
438.5	76.12
438.721	81.12
438.943	83.12
439.165	86.12
439.386	63.12
439.608	68.12
439.829	74.12
440.05	78.12
440.272	62.12
440.493	79.12
440.715	80.12
440.936	84.12
441.158	72.12
441.379	77.12
441.6	69.12
441.822	65.12
442.043	58.12
442.264	83.12
442.486	75.12
442.707	72.12
442.928	87.12
443.149	82.12
443.371	78.12
443.592	75.12
443.813	75.12
444.034	69.12
444.255	85.12
444.476	81.12
444.698	66.12
444.919	80.12
445.14	157.12
445.361	126.12
445.582	83.12
445.803	76.12
446.024	63.12
446.245	68.12
446.466	68.12
446.687	83.12
446.908	67.12
447.129	80.12
447.35	78.12
447.571	92.12
447.792	71.12
448.013	84.12
448.234	74.12
448.455	71.12
448.675	76.12
448.896	61.12
449.117	75.12
449.338	84.12
449.559	76.12
449.779	78.12
450	81.12
450.221	85.12
450.442	69.12
450.662	84.12
450.883	68.12
451.104	80.12
451.324	70.12
451.545	84.12
451.766	61.12
451.986	80.12
452.207	73.12
452.428	66.12
452.648	88.12
452.869	77.12
453.089	68.12
453.31	66.12
453.53	80.12
453.751	63.12
453.971	93.12
454.192	75.12
454.412	76.12
454.633	93.12
454.853	79.12
455.073	77.12
455.294	88.12
455.514	85.12
455.734	61.12
455.955	80.12
456.175	77.12
456.395	69.12
456.616	67.12
456.836	75.12
457.056	68.12
457.276	60.12
457.497	60.12
457.717	74.12
457.937	82.12
458.157	80.12
458.377	93.12
458.598	75.12
458.818	85.12
459.038	80.12
459.258	72.12
459.478	82.12
459.698	74.12
459.918	83.12
460.138	77.12
460.358	77.12
460.578	71.12
460.798	85.12
461.018	71.12
461.238	72.12
461.458	89.12
461.678	83.12
461.898	74.12
462.118	86.12
462.338	80.12
462.558	74.12
462.777	63.12
462.997	84.12
463.217	73.12
463.437	84.12
463.657	74.12
463.876	90.12
464.096	87.12
464.316	68.12
464.536	60.12
464.755	62.12
464.975	77.12
465.195	65.12
465.414	72.12
465.634	71.12
465.854	81.12
466.073	71.12
466.293	75.12
466.512	77.12
466.732	75.12
466.951	72.12
467.171	77.12
467.391	63.12
467.61	80.12
467.829	65.12
468.049	88.12
468.268	73.12
468.488	80.12
468.707	74.12
468.927	73.12
469.146	73.12
469.365	81.12
469.585	78.12
469.804	77.12
470.023	78.12
470.243	73.12
470.462	82.12
470.681	88.12
470.901	81.12
471.12	70.12
471.339	86.12
471.558	76.12
471.777	78.12
471.997	72.12
472.216	73.12
472.435	77.12
472.654	84.12
472.873	85.12
473.092	85.12
473.311	74.12
473.53	59.12
473.749	76.12
473.968	82.12
474.187	74.12
474.406	71.12
474.625	80.12
474.844	76.12
475.063	88.12
475.282	84.12
475.501	69.12
475.72	89.12
475.939	78.12
476.158	72.12
476.377	72.12
476.596	86.12
476.814	80.12
477.033	81.12
477.252	69.12
477.471	79.12
477.69	82.12
477.908	82.12
478.127	97.12
478.346	75.12
478.564	73.12
478.783	89.12
479.002	75.12
479.22	83.12
479.439	71.12
479.658	75.12
479.876	68.12
480.095	71.12
480.313	82.12
480.532	77.12
480.751	70.12
480.969	68.12
481.188	77.12
481.406	82.12
481.624	94.12
481.843	81.12
482.061	80.12
482.28	89.12
482.498	84.12
482.717	89.12
482.935	86.12
483.153	84.12
483.372	63.12
483.59	88.12
483.808	74.12
484.027	79.12
484.245	68.12
484.463	76.12
484.681	69.12
484.9	81.12
485.118	71.12
485.336	58.12
485.554	81.12
485.772	81.12
485.99	84.12
486.209	78.12
486.427	69.12
486.645	68.12
486.863	83.12
487.081	77.12
487.299	68.12
487.517	80.12
487.735	79.12
487.953	69.12
488.171	88.12
488.389	88.12
488.607	76.12
488.825	86.12
489.043	70.12
489.261	81.12
489.479	77.12
489.696	70.12
489.914	88.12
490.132	80.12
490.35	76.12
490.568	69.12
490.786	72.12
491.003	79.12
491.221	76.12
491.439	78.12
491.657	85.12
491.874	77.12
492.092	81.12
492.31	82.12
492.527	81.12
492.745	71.12
492.963	78.12
493.18	80.12
493.398	80.12
493.615	73.12
493.833	70.12
494.05	77.12
494.268	68.12
494.485	88.12
494.703	99.12
494.92	88.12
495.138	77.12
495.355	98.12
495.573	83.12
495.79	82.12
496.008	88.12
496.225	83.12
496.442	70.12
496.66	82.12
496.877	82.12
497.094	89.12
497.312	82.12
497.529	61.12
497.746	66.12
497.963	81.12
498.181	68.12
498.398	76.12
498.615	80.12
498.832	68.12
499.049	74.12
499.267	68.12
499.484	72.12
499.701	80.12
499.918	81.12
500.135	86.12
500.352	69.12
500.569	72.12
500.786	72.12
501.003	73.12
501.22	75.12
501.437	87.12
501.654	68.12
501.871	84.12
502.088	74.12
502.305	75.12
502.522	76.12
502.739	77.12
502.956	71.12
503.172	82.12
503.389	84.12
503.606	60.12
503.823	78.12
504.04	90.12
504.256	72.12
504.473	75.12
504.69	83.12
504.907	73.12
505.123	83.12
505.34	96.12
505.557	74.12
505.773	80.12
505.99	69.12
506.207	80.12
506.423	81.12
506.64	74.12
506.856	88.12
507.073	71.12
507.289	73.12
507.506	58.12
507.722	77.12
507.939	72.12
508.155	81.12
508.372	99.12
508.588	94.12
508.805	75.12
509.021	86.12
509.238	87.12
509.454	73.12
509.67	67.12
509.887	69.12
510.103	80.12
510.319	82.12
510.536	67.12
510.752	67.12
510.968	78.12
511.184	77.12
511.401	68.12
511.617	83.12
511.833	83.12
512.049	84.12
512.265	79.12
512.481	75.12
512.698	66.12
512.914	85.12
513.13	72.12
513.346	76.12
513.562	71.12
513.778	72.12
513.994	79.12
514.21	69.12
514.426	82.12
514.642	77.12
514.858	72.12
515.074	87.12
515.29	92.12
515.506	72.12
515.721	88.12
515.937	85.12
516.153	82.12
516.369	90.12
516.585	77.12
516.801	76.12
517.016	76.12
517.232	74.12
517.448	84.12
517.664	89.12
517.879	83.12
518.095	76.12
518.311	86.12
518.527	76.12
518.742	86.12
518.958	74.12
519.173	84.12
519.389	68.12
519.605	73.12
519.82	66.12
520.036	83.12
520.251	86.12
