Data from KBr_1_HRD10591_00034.txt Node
Date: Mon Jan 19 13:11:19 EST 2026
User: Yrep
Spectrometer: HR+D1059
Trigger mode: 0
Integration Time (sec): 1.000000E-1
Scans to average: 1
Electric dark correction enabled: true
Nonlinearity correction enabled: false
Boxcar width: 0
XAxis mode: Wavelengths
Number of Pixels in Spectrum: 2048
>>>>>Begin Spectral Data<<<<<
223.165	-12.31
223.4	-12.31
223.635	-12.31
223.869	-20.31
224.104	-29.31
224.338	-18.31
224.573	-21.31
224.808	-16.31
225.042	-12.31
225.277	-4.31
225.511	-1.31
225.746	4.69
225.98	8.69
226.215	11.69
226.449	20.69
226.683	25.69
226.918	36.69
227.152	27.69
227.387	31.69
227.621	41.69
227.856	48.69
228.09	36.69
228.324	46.69
228.559	63.69
228.793	72.69
229.027	56.69
229.262	67.69
229.496	66.69
229.73	72.69
229.964	78.69
230.199	67.69
230.433	88.69
230.667	97.69
230.901	92.69
231.136	82.69
231.37	84.69
231.604	85.69
231.838	86.69
232.072	70.69
232.306	84.69
232.541	92.69
232.775	75.69
233.009	83.69
233.243	86.69
233.477	78.69
233.711	76.69
233.945	89.69
234.179	97.69
234.413	66.69
234.647	91.69
234.881	93.69
235.115	84.69
235.349	100.69
235.583	87.69
235.817	91.69
236.051	82.69
236.285	78.69
236.519	73.69
236.753	86.69
236.987	80.69
237.221	89.69
237.455	80.69
237.689	76.69
237.922	82.69
238.156	74.69
238.39	86.69
238.624	69.69
238.858	85.69
239.091	80.69
239.325	81.69
239.559	82.69
239.793	84.69
240.027	72.69
240.26	83.69
240.494	83.69
240.728	82.69
240.961	84.69
241.195	77.69
241.429	84.69
241.662	73.69
241.896	82.69
242.13	85.69
242.363	91.69
242.597	82.69
242.83	85.69
243.064	84.69
243.298	88.69
243.531	93.69
243.765	84.69
243.998	88.69
244.232	91.69
244.465	77.69
244.699	70.69
244.932	78.69
245.166	79.69
245.399	97.69
245.633	96.69
245.866	71.69
246.099	79.69
246.333	81.69
246.566	90.69
246.8	82.69
247.033	72.69
247.266	76.69
247.5	80.69
247.733	81.69
247.966	80.69
248.2	79.69
248.433	85.69
248.666	81.69
248.899	75.69
249.133	85.69
249.366	84.69
249.599	74.69
249.832	72.69
250.066	86.69
250.299	89.69
250.532	95.69
250.765	77.69
250.998	71.69
251.231	99.69
251.465	76.69
251.698	78.69
251.931	86.69
252.164	74.69
252.397	91.69
252.63	82.69
252.863	91.69
253.096	98.69
253.329	91.69
253.562	90.69
253.795	84.69
254.028	106.69
254.261	92.69
254.494	85.69
254.727	105.69
254.96	90.69
255.193	82.69
255.426	93.69
255.659	80.69
255.892	84.69
256.124	82.69
256.357	77.69
256.59	64.69
256.823	84.69
257.056	87.69
257.289	91.69
257.521	80.69
257.754	85.69
257.987	89.69
258.22	90.69
258.452	99.69
258.685	91.69
258.918	93.69
259.151	91.69
259.383	87.69
259.616	90.69
259.849	101.69
260.081	85.69
260.314	84.69
260.547	90.69
260.779	94.69
261.012	95.69
261.244	100.69
261.477	103.69
261.71	97.69
261.942	86.69
262.175	89.69
262.407	75.69
262.64	90.69
262.872	83.69
263.105	83.69
263.337	84.69
263.57	74.69
263.802	76.69
264.035	74.69
264.267	90.69
264.499	87.69
264.732	87.69
264.964	86.69
265.197	83.69
265.429	86.69
265.661	89.69
265.894	82.69
266.126	81.69
266.358	81.69
266.591	85.69
266.823	83.69
267.055	86.69
267.287	93.69
267.52	84.69
267.752	81.69
267.984	90.69
268.216	82.69
268.448	93.69
268.681	95.69
268.913	83.69
269.145	90.69
269.377	84.69
269.609	95.69
269.841	99.69
270.073	86.69
270.306	87.69
270.538	86.69
270.77	76.69
271.002	86.69
271.234	86.69
271.466	93.69
271.698	75.69
271.93	80.69
272.162	81.69
272.394	92.69
272.626	99.69
272.858	86.69
273.09	90.69
273.322	90.69
273.553	90.69
273.785	82.69
274.017	99.69
274.249	83.69
274.481	85.69
274.713	113.69
274.945	80.69
275.176	92.69
275.408	82.69
275.64	94.69
275.872	93.69
276.104	66.69
276.335	94.69
276.567	91.69
276.799	77.69
277.031	73.69
277.262	84.69
277.494	89.69
277.726	77.69
277.957	78.69
278.189	74.69
278.421	102.69
278.652	93.69
278.884	91.69
279.115	84.69
279.347	90.69
279.579	81.69
279.81	91.69
280.042	84.69
280.273	92.69
280.505	88.69
280.736	84.69
280.968	78.69
281.199	90.69
281.431	82.69
281.662	85.69
281.894	82.69
282.125	81.69
282.356	86.69
282.588	111.69
282.819	91.69
283.051	82.69
283.282	94.69
283.513	91.69
283.745	89.69
283.976	91.69
284.207	95.69
284.439	90.69
284.67	88.69
284.901	76.69
285.132	91.69
285.364	83.69
285.595	102.69
285.826	86.69
286.057	101.69
286.288	71.69
286.52	90.69
286.751	98.69
286.982	98.69
287.213	88.69
287.444	80.69
287.675	92.69
287.906	91.69
288.138	98.69
288.369	80.69
288.6	92.69
288.831	93.69
289.062	98.69
289.293	101.69
289.524	94.69
289.755	90.69
289.986	97.69
290.217	103.69
290.448	96.69
290.679	79.69
290.91	100.69
291.141	88.69
291.371	93.69
291.602	88.69
291.833	93.69
292.064	83.69
292.295	102.69
292.526	104.69
292.757	86.69
292.987	90.69
293.218	103.69
293.449	100.69
293.68	98.69
293.91	86.69
294.141	95.69
294.372	88.69
294.603	100.69
294.833	100.69
295.064	89.69
295.295	73.69
295.525	81.69
295.756	93.69
295.987	87.69
296.217	78.69
296.448	82.69
296.679	92.69
296.909	97.69
297.14	90.69
297.37	91.69
297.601	84.69
297.831	90.69
298.062	76.69
298.292	93.69
298.523	99.69
298.753	77.69
298.984	87.69
299.214	83.69
299.445	87.69
299.675	92.69
299.905	85.69
300.136	88.69
300.366	87.69
300.597	85.69
300.827	81.69
301.057	95.69
301.288	103.69
301.518	100.69
301.748	90.69
301.979	97.69
302.209	103.69
302.439	85.69
302.669	98.69
302.9	82.69
303.13	87.69
303.36	81.69
303.59	90.69
303.82	100.69
304.051	70.69
304.281	90.69
304.511	84.69
304.741	90.69
304.971	90.69
305.201	101.69
305.431	115.69
305.661	83.69
305.891	85.69
306.121	91.69
306.352	90.69
306.582	95.69
306.812	96.69
307.042	94.69
307.272	98.69
307.502	91.69
307.731	83.69
307.961	95.69
308.191	99.69
308.421	100.69
308.651	93.69
308.881	87.69
309.111	88.69
309.341	93.69
309.571	88.69
309.8	93.69
310.03	88.69
310.26	95.69
310.49	94.69
310.72	86.69
310.949	85.69
311.179	90.69
311.409	91.69
311.639	94.69
311.868	90.69
312.098	80.69
312.328	90.69
312.557	98.69
312.787	87.69
313.017	90.69
313.246	88.69
313.476	91.69
313.706	82.69
313.935	86.69
314.165	87.69
314.394	89.69
314.624	80.69
314.853	100.69
315.083	100.69
315.312	94.69
315.542	84.69
315.771	93.69
316.001	94.69
316.23	86.69
316.46	88.69
316.689	95.69
316.919	80.69
317.148	91.69
317.377	88.69
317.607	91.69
317.836	98.69
318.065	92.69
318.295	89.69
318.524	92.69
318.753	85.69
318.983	103.69
319.212	93.69
319.441	80.69
319.67	88.69
319.9	84.69
320.129	85.69
320.358	83.69
320.587	92.69
320.816	94.69
321.046	87.69
321.275	96.69
321.504	74.69
321.733	87.69
321.962	92.69
322.191	94.69
322.42	91.69
322.649	88.69
322.878	82.69
323.108	98.69
323.337	91.69
323.566	90.69
323.795	89.69
324.024	95.69
324.253	102.69
324.482	91.69
324.71	97.69
324.939	104.69
325.168	99.69
325.397	77.69
325.626	89.69
325.855	92.69
326.084	101.69
326.313	82.69
326.542	91.69
326.77	94.69
326.999	91.69
327.228	107.69
327.457	83.69
327.686	91.69
327.914	80.69
328.143	89.69
328.372	83.69
328.6	86.69
328.829	88.69
329.058	90.69
329.287	85.69
329.515	84.69
329.744	83.69
329.972	90.69
330.201	102.69
330.43	98.69
330.658	98.69
330.887	84.69
331.115	98.69
331.344	79.69
331.572	88.69
331.801	80.69
332.03	82.69
332.258	86.69
332.486	90.69
332.715	88.69
332.943	98.69
333.172	86.69
333.4	78.69
333.629	89.69
333.857	86.69
334.085	88.69
334.314	97.69
334.542	95.69
334.771	95.69
334.999	96.69
335.227	95.69
335.455	90.69
335.684	97.69
335.912	100.69
336.14	84.69
336.369	89.69
336.597	82.69
336.825	86.69
337.053	94.69
337.281	94.69
337.51	86.69
337.738	86.69
337.966	80.69
338.194	83.69
338.422	88.69
338.65	98.69
338.878	86.69
339.106	84.69
339.334	102.69
339.562	98.69
339.79	79.69
340.018	82.69
340.246	91.69
340.474	96.69
340.702	91.69
340.93	93.69
341.158	91.69
341.386	85.69
341.614	88.69
341.842	100.69
342.07	92.69
342.298	80.69
342.526	82.69
342.754	79.69
342.981	95.69
343.209	110.69
343.437	95.69
343.665	98.69
343.893	96.69
344.12	96.69
344.348	102.69
344.576	99.69
344.804	78.69
345.031	100.69
345.259	88.69
345.487	91.69
345.714	90.69
345.942	88.69
346.17	78.69
346.397	89.69
346.625	90.69
346.853	95.69
347.08	85.69
347.308	80.69
347.535	75.69
347.763	84.69
347.99	102.69
348.218	89.69
348.445	90.69
348.673	84.69
348.9	104.69
349.128	96.69
349.355	96.69
349.583	90.69
349.81	84.69
350.037	88.69
350.265	93.69
350.492	94.69
350.72	99.69
350.947	86.69
351.174	90.69
351.402	85.69
351.629	87.69
351.856	82.69
352.083	99.69
352.311	101.69
352.538	112.69
352.765	86.69
352.992	97.69
353.22	97.69
353.447	91.69
353.674	100.69
353.901	78.69
354.128	80.69
354.355	78.69
354.583	84.69
354.81	90.69
355.037	83.69
355.264	102.69
355.491	69.69
355.718	90.69
355.945	78.69
356.172	86.69
356.399	91.69
356.626	87.69
356.853	84.69
357.08	96.69
357.307	91.69
357.534	99.69
357.761	110.69
357.988	111.69
358.215	95.69
358.441	86.69
358.668	86.69
358.895	87.69
359.122	90.69
359.349	92.69
359.576	87.69
359.802	86.69
360.029	87.69
360.256	79.69
360.483	86.69
360.709	88.69
360.936	86.69
361.163	92.69
361.39	80.69
361.616	86.69
361.843	87.69
362.07	85.69
362.296	92.69
362.523	88.69
362.749	88.69
362.976	96.69
363.203	94.69
363.429	89.69
363.656	87.69
363.882	84.69
364.109	95.69
364.335	94.69
364.562	90.69
364.788	92.69
365.015	94.69
365.241	91.69
365.468	92.69
365.694	101.69
365.92	99.69
366.147	89.69
366.373	90.69
366.599	88.69
366.826	92.69
367.052	89.69
367.278	84.69
367.505	83.69
367.731	85.69
367.957	97.69
368.184	93.69
368.41	92.69
368.636	79.69
368.862	84.69
369.089	93.69
369.315	81.69
369.541	82.69
369.767	90.69
369.993	79.69
370.219	82.69
370.445	95.69
370.672	88.69
370.898	78.69
371.124	69.69
371.35	79.69
371.576	73.69
371.802	96.69
372.028	95.69
372.254	100.69
372.48	106.69
372.706	79.69
372.932	96.69
373.158	90.69
373.384	89.69
373.61	93.69
373.835	75.69
374.061	85.69
374.287	78.69
374.513	93.69
374.739	95.69
374.965	88.69
375.191	90.69
375.416	93.69
375.642	89.69
375.868	96.69
376.094	80.69
376.319	94.69
376.545	84.69
376.771	91.69
376.997	102.69
377.222	81.69
377.448	108.69
377.674	90.69
377.899	87.69
378.125	87.69
378.35	101.69
378.576	99.69
378.802	79.69
379.027	88.69
379.253	96.69
379.478	78.69
379.704	86.69
379.929	88.69
380.155	94.69
380.38	103.69
380.606	91.69
380.831	89.69
381.057	96.69
381.282	86.69
381.507	71.69
381.733	92.69
381.958	95.69
382.184	92.69
382.409	87.69
382.634	94.69
382.86	87.69
383.085	81.69
383.31	92.69
383.535	75.69
383.761	90.69
383.986	91.69
384.211	87.69
384.436	91.69
384.662	88.69
384.887	92.69
385.112	93.69
385.337	96.69
385.562	88.69
385.787	96.69
386.013	77.69
386.238	76.69
386.463	96.69
386.688	97.69
386.913	93.69
387.138	89.69
387.363	90.69
387.588	87.69
387.813	78.69
388.038	79.69
388.263	86.69
388.488	105.69
388.713	94.69
388.938	83.69
389.163	87.69
389.387	98.69
389.612	107.69
389.837	86.69
390.062	86.69
390.287	94.69
390.512	94.69
390.736	95.69
390.961	83.69
391.186	85.69
391.411	104.69
391.636	68.69
391.86	79.69
392.085	98.69
392.31	84.69
392.534	86.69
392.759	92.69
392.984	76.69
393.208	83.69
393.433	81.69
393.658	89.69
393.882	83.69
394.107	84.69
394.331	80.69
394.556	100.69
394.78	95.69
395.005	90.69
395.229	83.69
395.454	88.69
395.678	79.69
395.903	75.69
396.127	97.69
396.352	94.69
396.576	92.69
396.801	85.69
397.025	72.69
397.249	76.69
397.474	79.69
397.698	84.69
397.922	103.69
398.147	76.69
398.371	84.69
398.595	79.69
398.82	87.69
399.044	95.69
399.268	79.69
399.492	84.69
399.717	87.69
399.941	82.69
400.165	87.69
400.389	96.69
400.613	82.69
400.837	84.69
401.062	97.69
401.286	89.69
401.51	90.69
401.734	94.69
401.958	93.69
402.182	87.69
402.406	87.69
402.63	96.69
402.854	95.69
403.078	90.69
403.302	80.69
403.526	90.69
403.75	62.69
403.974	87.69
404.198	72.69
404.422	90.69
404.645	78.69
404.869	91.69
405.093	85.69
405.317	95.69
405.541	85.69
405.765	99.69
405.988	98.69
406.212	104.69
406.436	96.69
406.66	101.69
406.883	90.69
407.107	79.69
407.331	85.69
407.555	73.69
407.778	72.69
408.002	90.69
408.226	82.69
408.449	86.69
408.673	95.69
408.896	94.69
409.12	77.69
409.344	97.69
409.567	87.69
409.791	93.69
410.014	94.69
410.238	80.69
410.461	82.69
410.685	88.69
410.908	100.69
411.132	97.69
411.355	82.69
411.578	91.69
411.802	66.69
412.025	88.69
412.249	84.69
412.472	77.69
412.695	92.69
412.919	85.69
413.142	86.69
413.365	87.69
413.589	84.69
413.812	86.69
414.035	97.69
414.258	85.69
414.482	87.69
414.705	88.69
414.928	110.69
415.151	81.69
415.374	84.69
415.597	103.69
415.821	73.69
416.044	75.69
416.267	83.69
416.49	87.69
416.713	82.69
416.936	85.69
417.159	92.69
417.382	90.69
417.605	93.69
417.828	86.69
418.051	83.69
418.274	91.69
418.497	90.69
418.72	84.69
418.943	90.69
419.166	90.69
419.389	93.69
419.611	90.69
419.834	79.69
420.057	72.69
420.28	92.69
420.503	84.69
420.726	92.69
420.948	86.69
421.171	83.69
421.394	102.69
421.617	95.69
421.839	78.69
422.062	79.69
422.285	79.69
422.507	91.69
422.73	75.69
422.953	75.69
423.175	83.69
423.398	86.69
423.621	86.69
423.843	72.69
424.066	92.69
424.288	81.69
424.511	71.69
424.733	90.69
424.956	76.69
425.178	82.69
425.401	79.69
425.623	74.69
425.846	97.69
426.068	78.69
426.291	83.69
426.513	100.69
426.735	97.69
426.958	91.69
427.18	96.69
427.402	91.69
427.625	93.69
427.847	71.69
428.069	93.69
428.292	84.69
428.514	80.69
428.736	86.69
428.958	87.69
429.181	87.69
429.403	98.69
429.625	92.69
429.847	86.69
430.069	96.69
430.292	93.69
430.514	96.69
430.736	97.69
430.958	96.69
431.18	87.69
431.402	82.69
431.624	84.69
431.846	74.69
432.068	84.69
432.29	91.69
432.512	103.69
432.734	82.69
432.956	84.69
433.178	94.69
433.4	96.69
433.622	87.69
433.844	102.69
434.066	92.69
434.287	94.69
434.509	74.69
434.731	82.69
434.953	100.69
435.175	95.69
435.397	86.69
435.618	82.69
435.84	63.69
436.062	86.69
436.284	85.69
436.505	82.69
436.727	85.69
436.949	91.69
437.17	74.69
437.392	78.69
437.614	90.69
437.835	100.69
438.057	72.69
438.278	88.69
438.5	84.69
438.721	92.69
438.943	93.69
439.165	88.69
439.386	87.69
439.608	97.69
439.829	85.69
440.05	93.69
440.272	92.69
440.493	95.69
440.715	98.69
440.936	92.69
441.158	89.69
441.379	89.69
441.6	79.69
441.822	85.69
442.043	96.69
442.264	90.69
442.486	89.69
442.707	86.69
442.928	84.69
443.149	89.69
443.371	99.69
443.592	79.69
443.813	82.69
444.034	84.69
444.255	79.69
444.476	72.69
444.698	73.69
444.919	103.69
445.14	162.69
445.361	132.69
445.582	89.69
445.803	90.69
446.024	94.69
446.245	88.69
446.466	93.69
446.687	86.69
446.908	84.69
447.129	77.69
447.35	88.69
447.571	84.69
447.792	97.69
448.013	77.69
448.234	84.69
448.455	86.69
448.675	81.69
448.896	83.69
449.117	84.69
449.338	91.69
449.559	92.69
449.779	88.69
450	90.69
450.221	93.69
450.442	80.69
450.662	92.69
450.883	80.69
451.104	90.69
451.324	95.69
451.545	88.69
451.766	90.69
451.986	87.69
452.207	69.69
452.428	99.69
452.648	85.69
452.869	73.69
453.089	84.69
453.31	93.69
453.53	86.69
453.751	95.69
453.971	93.69
454.192	100.69
454.412	93.69
454.633	79.69
454.853	85.69
455.073	85.69
455.294	91.69
455.514	93.69
455.734	88.69
455.955	104.69
456.175	80.69
456.395	93.69
456.616	86.69
456.836	95.69
457.056	100.69
457.276	85.69
457.497	87.69
457.717	76.69
457.937	88.69
458.157	77.69
458.377	83.69
458.598	94.69
458.818	101.69
459.038	85.69
459.258	83.69
459.478	86.69
459.698	75.69
459.918	80.69
460.138	85.69
460.358	83.69
460.578	84.69
460.798	94.69
461.018	95.69
461.238	92.69
461.458	90.69
461.678	80.69
461.898	91.69
462.118	98.69
462.338	73.69
462.558	93.69
462.777	92.69
462.997	95.69
463.217	81.69
463.437	99.69
463.657	90.69
463.876	78.69
464.096	88.69
464.316	86.69
464.536	82.69
464.755	76.69
464.975	87.69
465.195	85.69
465.414	95.69
465.634	82.69
465.854	80.69
466.073	79.69
466.293	82.69
466.512	88.69
466.732	81.69
466.951	80.69
467.171	102.69
467.391	83.69
467.61	81.69
467.829	77.69
468.049	79.69
468.268	78.69
468.488	90.69
468.707	86.69
468.927	84.69
469.146	92.69
469.365	90.69
469.585	90.69
469.804	78.69
470.023	81.69
470.243	86.69
470.462	101.69
470.681	83.69
470.901	92.69
471.12	97.69
471.339	101.69
471.558	86.69
471.777	92.69
471.997	81.69
472.216	101.69
472.435	78.69
472.654	68.69
472.873	84.69
473.092	78.69
473.311	93.69
473.53	88.69
473.749	82.69
473.968	99.69
474.187	91.69
474.406	101.69
474.625	92.69
474.844	88.69
475.063	85.69
475.282	93.69
475.501	88.69
475.72	103.69
475.939	80.69
476.158	86.69
476.377	76.69
476.596	75.69
476.814	83.69
477.033	97.69
477.252	84.69
477.471	87.69
477.69	79.69
477.908	81.69
478.127	90.69
478.346	88.69
478.564	85.69
478.783	100.69
479.002	90.69
479.22	92.69
479.439	98.69
479.658	85.69
479.876	73.69
480.095	87.69
480.313	93.69
480.532	96.69
480.751	80.69
480.969	87.69
481.188	87.69
481.406	91.69
481.624	91.69
481.843	87.69
482.061	91.69
482.28	93.69
482.498	101.69
482.717	83.69
482.935	94.69
483.153	78.69
483.372	90.69
483.59	88.69
483.808	92.69
484.027	93.69
484.245	94.69
484.463	72.69
484.681	81.69
484.9	98.69
485.118	92.69
485.336	87.69
485.554	90.69
485.772	74.69
485.99	90.69
486.209	102.69
486.427	83.69
486.645	91.69
486.863	87.69
487.081	72.69
487.299	90.69
487.517	87.69
487.735	90.69
487.953	77.69
488.171	94.69
488.389	77.69
488.607	83.69
488.825	97.69
489.043	101.69
489.261	83.69
489.479	85.69
489.696	79.69
489.914	91.69
490.132	87.69
490.35	82.69
490.568	83.69
490.786	76.69
491.003	76.69
491.221	91.69
491.439	82.69
491.657	74.69
491.874	88.69
492.092	85.69
492.31	89.69
492.527	77.69
492.745	95.69
492.963	91.69
493.18	79.69
493.398	95.69
493.615	93.69
493.833	92.69
494.05	91.69
494.268	88.69
494.485	94.69
494.703	99.69
494.92	100.69
495.138	93.69
495.355	93.69
495.573	88.69
495.79	94.69
496.008	90.69
496.225	92.69
496.442	89.69
496.66	84.69
496.877	94.69
497.094	92.69
497.312	90.69
497.529	97.69
497.746	87.69
497.963	92.69
498.181	91.69
498.398	91.69
498.615	88.69
498.832	103.69
499.049	68.69
499.267	90.69
499.484	84.69
499.701	87.69
499.918	86.69
500.135	85.69
500.352	90.69
500.569	92.69
500.786	88.69
501.003	86.69
501.22	87.69
501.437	96.69
501.654	90.69
501.871	86.69
502.088	85.69
502.305	84.69
502.522	90.69
502.739	91.69
502.956	88.69
503.172	80.69
503.389	91.69
503.606	79.69
503.823	78.69
504.04	78.69
504.256	82.69
504.473	68.69
504.69	78.69
504.907	78.69
505.123	84.69
505.34	84.69
505.557	81.69
505.773	90.69
505.99	90.69
506.207	98.69
506.423	90.69
506.64	82.69
506.856	86.69
507.073	91.69
507.289	80.69
507.506	97.69
507.722	81.69
507.939	93.69
508.155	82.69
508.372	86.69
508.588	82.69
508.805	70.69
509.021	82.69
509.238	84.69
509.454	83.69
509.67	75.69
509.887	76.69
510.103	76.69
510.319	98.69
510.536	98.69
510.752	86.69
510.968	88.69
511.184	97.69
511.401	85.69
511.617	80.69
511.833	91.69
512.049	75.69
512.265	86.69
512.481	89.69
512.698	91.69
512.914	97.69
513.13	98.69
513.346	83.69
513.562	84.69
513.778	87.69
513.994	101.69
514.21	85.69
514.426	93.69
514.642	87.69
514.858	94.69
515.074	93.69
515.29	85.69
515.506	83.69
515.721	96.69
515.937	85.69
516.153	106.69
516.369	92.69
516.585	87.69
516.801	93.69
517.016	71.69
517.232	82.69
517.448	98.69
517.664	99.69
517.879	87.69
518.095	87.69
518.311	96.69
518.527	86.69
518.742	87.69
518.958	92.69
