Data from KBr_1_HRD10591_00019.txt Node
Date: Mon Jan 19 13:11:18 EST 2026
User: Yrep
Spectrometer: HR+D1059
Trigger mode: 0
Integration Time (sec): 1.000000E-1
Scans to average: 1
Electric dark correction enabled: true
Nonlinearity correction enabled: false
Boxcar width: 0
XAxis mode: Wavelengths
Number of Pixels in Spectrum: 2048
>>>>>Begin Spectral Data<<<<<
223.165	-6.56
223.4	-6.56
223.635	-6.56
223.869	-10.56
224.104	-22.56
224.338	-19.56
224.573	-4.56
224.808	-7.56
225.042	-16.56
225.277	-1.56
225.511	4.44
225.746	2.44
225.98	9.44
226.215	-1.56
226.449	9.44
226.683	16.44
226.918	18.44
227.152	30.44
227.387	39.44
227.621	49.44
227.856	41.44
228.09	48.44
228.324	50.44
228.559	58.44
228.793	61.44
229.027	51.44
229.262	76.44
229.496	54.44
229.73	75.44
229.964	80.44
230.199	82.44
230.433	85.44
230.667	74.44
230.901	78.44
231.136	65.44
231.37	71.44
231.604	87.44
231.838	83.44
232.072	94.44
232.306	79.44
232.541	82.44
232.775	85.44
233.009	77.44
233.243	83.44
233.477	81.44
233.711	74.44
233.945	88.44
234.179	89.44
234.413	87.44
234.647	77.44
234.881	69.44
235.115	96.44
235.349	73.44
235.583	82.44
235.817	72.44
236.051	87.44
236.285	84.44
236.519	88.44
236.753	93.44
236.987	67.44
237.221	70.44
237.455	73.44
237.689	81.44
237.922	75.44
238.156	68.44
238.39	73.44
238.624	70.44
238.858	70.44
239.091	73.44
239.325	67.44
239.559	77.44
239.793	90.44
240.027	75.44
240.26	70.44
240.494	77.44
240.728	77.44
240.961	81.44
241.195	89.44
241.429	88.44
241.662	84.44
241.896	83.44
242.13	73.44
242.363	78.44
242.597	76.44
242.83	97.44
243.064	65.44
243.298	77.44
243.531	88.44
243.765	77.44
243.998	69.44
244.232	80.44
244.465	82.44
244.699	65.44
244.932	85.44
245.166	83.44
245.399	70.44
245.633	79.44
245.866	76.44
246.099	75.44
246.333	75.44
246.566	77.44
246.8	73.44
247.033	70.44
247.266	73.44
247.5	78.44
247.733	79.44
247.966	101.44
248.2	78.44
248.433	75.44
248.666	79.44
248.899	83.44
249.133	73.44
249.366	70.44
249.599	82.44
249.832	81.44
250.066	79.44
250.299	86.44
250.532	61.44
250.765	75.44
250.998	80.44
251.231	75.44
251.465	85.44
251.698	83.44
251.931	81.44
252.164	71.44
252.397	73.44
252.63	81.44
252.863	68.44
253.096	80.44
253.329	80.44
253.562	58.44
253.795	75.44
254.028	90.44
254.261	79.44
254.494	82.44
254.727	80.44
254.96	84.44
255.193	88.44
255.426	83.44
255.659	74.44
255.892	78.44
256.124	77.44
256.357	82.44
256.59	103.44
256.823	81.44
257.056	89.44
257.289	88.44
257.521	67.44
257.754	82.44
257.987	77.44
258.22	92.44
258.452	79.44
258.685	80.44
258.918	83.44
259.151	84.44
259.383	81.44
259.616	79.44
259.849	93.44
260.081	81.44
260.314	74.44
260.547	78.44
260.779	77.44
261.012	87.44
261.244	67.44
261.477	86.44
261.71	78.44
261.942	77.44
262.175	84.44
262.407	92.44
262.64	90.44
262.872	91.44
263.105	79.44
263.337	85.44
263.57	91.44
263.802	90.44
264.035	95.44
264.267	87.44
264.499	67.44
264.732	79.44
264.964	88.44
265.197	85.44
265.429	83.44
265.661	79.44
265.894	79.44
266.126	90.44
266.358	88.44
266.591	82.44
266.823	89.44
267.055	78.44
267.287	98.44
267.52	83.44
267.752	77.44
267.984	87.44
268.216	91.44
268.448	82.44
268.681	77.44
268.913	81.44
269.145	86.44
269.377	79.44
269.609	81.44
269.841	77.44
270.073	82.44
270.306	71.44
270.538	91.44
270.77	82.44
271.002	86.44
271.234	71.44
271.466	76.44
271.698	88.44
271.93	87.44
272.162	87.44
272.394	88.44
272.626	91.44
272.858	86.44
273.09	86.44
273.322	88.44
273.553	83.44
273.785	77.44
274.017	73.44
274.249	86.44
274.481	87.44
274.713	91.44
274.945	75.44
275.176	93.44
275.408	81.44
275.64	89.44
275.872	90.44
276.104	87.44
276.335	80.44
276.567	82.44
276.799	77.44
277.031	78.44
277.262	72.44
277.494	93.44
277.726	89.44
277.957	83.44
278.189	85.44
278.421	77.44
278.652	77.44
278.884	85.44
279.115	80.44
279.347	81.44
279.579	79.44
279.81	88.44
280.042	73.44
280.273	89.44
280.505	83.44
280.736	93.44
280.968	84.44
281.199	86.44
281.431	85.44
281.662	82.44
281.894	75.44
282.125	84.44
282.356	92.44
282.588	86.44
282.819	82.44
283.051	98.44
283.282	86.44
283.513	91.44
283.745	95.44
283.976	72.44
284.207	85.44
284.439	95.44
284.67	81.44
284.901	95.44
285.132	94.44
285.364	86.44
285.595	92.44
285.826	86.44
286.057	88.44
286.288	79.44
286.52	90.44
286.751	81.44
286.982	84.44
287.213	87.44
287.444	91.44
287.675	98.44
287.906	85.44
288.138	87.44
288.369	81.44
288.6	82.44
288.831	97.44
289.062	87.44
289.293	83.44
289.524	94.44
289.755	71.44
289.986	85.44
290.217	79.44
290.448	68.44
290.679	92.44
290.91	87.44
291.141	90.44
291.371	79.44
291.602	96.44
291.833	86.44
292.064	95.44
292.295	77.44
292.526	68.44
292.757	90.44
292.987	79.44
293.218	93.44
293.449	87.44
293.68	87.44
293.91	76.44
294.141	103.44
294.372	79.44
294.603	71.44
294.833	91.44
295.064	87.44
295.295	91.44
295.525	95.44
295.756	90.44
295.987	79.44
296.217	88.44
296.448	90.44
296.679	70.44
296.909	82.44
297.14	95.44
297.37	87.44
297.601	94.44
297.831	91.44
298.062	89.44
298.292	83.44
298.523	97.44
298.753	86.44
298.984	75.44
299.214	97.44
299.445	89.44
299.675	79.44
299.905	95.44
300.136	80.44
300.366	73.44
300.597	75.44
300.827	90.44
301.057	88.44
301.288	87.44
301.518	84.44
301.748	89.44
301.979	90.44
302.209	87.44
302.439	77.44
302.669	90.44
302.9	85.44
303.13	98.44
303.36	87.44
303.59	87.44
303.82	85.44
304.051	93.44
304.281	87.44
304.511	89.44
304.741	82.44
304.971	78.44
305.201	81.44
305.431	83.44
305.661	89.44
305.891	80.44
306.121	79.44
306.352	88.44
306.582	80.44
306.812	94.44
307.042	80.44
307.272	88.44
307.502	96.44
307.731	89.44
307.961	78.44
308.191	82.44
308.421	90.44
308.651	93.44
308.881	83.44
309.111	90.44
309.341	88.44
309.571	87.44
309.8	88.44
310.03	75.44
310.26	84.44
310.49	80.44
310.72	89.44
310.949	85.44
311.179	92.44
311.409	83.44
311.639	73.44
311.868	94.44
312.098	74.44
312.328	82.44
312.557	73.44
312.787	91.44
313.017	86.44
313.246	104.44
313.476	88.44
313.706	92.44
313.935	89.44
314.165	96.44
314.394	80.44
314.624	86.44
314.853	95.44
315.083	90.44
315.312	82.44
315.542	94.44
315.771	114.44
316.001	82.44
316.23	86.44
316.46	82.44
316.689	88.44
316.919	101.44
317.148	97.44
317.377	90.44
317.607	93.44
317.836	94.44
318.065	91.44
318.295	92.44
318.524	74.44
318.753	93.44
318.983	103.44
319.212	84.44
319.441	82.44
319.67	81.44
319.9	92.44
320.129	87.44
320.358	86.44
320.587	80.44
320.816	89.44
321.046	98.44
321.275	87.44
321.504	77.44
321.733	79.44
321.962	83.44
322.191	92.44
322.42	87.44
322.649	79.44
322.878	83.44
323.108	89.44
323.337	74.44
323.566	73.44
323.795	88.44
324.024	84.44
324.253	81.44
324.482	86.44
324.71	89.44
324.939	92.44
325.168	75.44
325.397	85.44
325.626	88.44
325.855	87.44
326.084	83.44
326.313	93.44
326.542	97.44
326.77	93.44
326.999	93.44
327.228	88.44
327.457	78.44
327.686	85.44
327.914	81.44
328.143	83.44
328.372	102.44
328.6	97.44
328.829	81.44
329.058	82.44
329.287	79.44
329.515	90.44
329.744	95.44
329.972	92.44
330.201	89.44
330.43	80.44
330.658	91.44
330.887	74.44
331.115	82.44
331.344	77.44
331.572	82.44
331.801	87.44
332.03	100.44
332.258	89.44
332.486	78.44
332.715	79.44
332.943	90.44
333.172	75.44
333.4	90.44
333.629	78.44
333.857	79.44
334.085	77.44
334.314	80.44
334.542	81.44
334.771	96.44
334.999	82.44
335.227	86.44
335.455	95.44
335.684	91.44
335.912	79.44
336.14	92.44
336.369	83.44
336.597	73.44
336.825	96.44
337.053	82.44
337.281	90.44
337.51	89.44
337.738	91.44
337.966	78.44
338.194	85.44
338.422	97.44
338.65	82.44
338.878	83.44
339.106	93.44
339.334	77.44
339.562	98.44
339.79	74.44
340.018	78.44
340.246	101.44
340.474	109.44
340.702	80.44
340.93	84.44
341.158	72.44
341.386	93.44
341.614	82.44
341.842	88.44
342.07	76.44
342.298	78.44
342.526	88.44
342.754	91.44
342.981	88.44
343.209	82.44
343.437	101.44
343.665	90.44
343.893	81.44
344.12	80.44
344.348	80.44
344.576	65.44
344.804	93.44
345.031	91.44
345.259	93.44
345.487	87.44
345.714	89.44
345.942	85.44
346.17	80.44
346.397	81.44
346.625	77.44
346.853	84.44
347.08	67.44
347.308	86.44
347.535	89.44
347.763	91.44
347.99	89.44
348.218	96.44
348.445	74.44
348.673	86.44
348.9	88.44
349.128	94.44
349.355	87.44
349.583	82.44
349.81	88.44
350.037	81.44
350.265	80.44
350.492	85.44
350.72	80.44
350.947	85.44
351.174	88.44
351.402	83.44
351.629	81.44
351.856	73.44
352.083	76.44
352.311	83.44
352.538	86.44
352.765	98.44
352.992	84.44
353.22	83.44
353.447	90.44
353.674	85.44
353.901	83.44
354.128	103.44
354.355	85.44
354.583	71.44
354.81	89.44
355.037	92.44
355.264	87.44
355.491	97.44
355.718	81.44
355.945	83.44
356.172	77.44
356.399	64.44
356.626	84.44
356.853	89.44
357.08	77.44
357.307	85.44
357.534	81.44
357.761	98.44
357.988	87.44
358.215	83.44
358.441	96.44
358.668	85.44
358.895	80.44
359.122	95.44
359.349	81.44
359.576	68.44
359.802	78.44
360.029	81.44
360.256	88.44
360.483	80.44
360.709	78.44
360.936	79.44
361.163	91.44
361.39	80.44
361.616	83.44
361.843	96.44
362.07	80.44
362.296	87.44
362.523	77.44
362.749	78.44
362.976	91.44
363.203	93.44
363.429	87.44
363.656	91.44
363.882	86.44
364.109	89.44
364.335	84.44
364.562	86.44
364.788	79.44
365.015	84.44
365.241	83.44
365.468	81.44
365.694	74.44
365.92	87.44
366.147	73.44
366.373	75.44
366.599	85.44
366.826	87.44
367.052	93.44
367.278	91.44
367.505	90.44
367.731	98.44
367.957	77.44
368.184	85.44
368.41	71.44
368.636	88.44
368.862	92.44
369.089	106.44
369.315	87.44
369.541	81.44
369.767	94.44
369.993	72.44
370.219	76.44
370.445	67.44
370.672	76.44
370.898	75.44
371.124	98.44
371.35	75.44
371.576	89.44
371.802	79.44
372.028	91.44
372.254	97.44
372.48	79.44
372.706	76.44
372.932	104.44
373.158	86.44
373.384	82.44
373.61	95.44
373.835	82.44
374.061	69.44
374.287	91.44
374.513	91.44
374.739	85.44
374.965	91.44
375.191	94.44
375.416	73.44
375.642	84.44
375.868	89.44
376.094	90.44
376.319	78.44
376.545	98.44
376.771	92.44
376.997	82.44
377.222	72.44
377.448	92.44
377.674	85.44
377.899	81.44
378.125	86.44
378.35	88.44
378.576	92.44
378.802	85.44
379.027	78.44
379.253	87.44
379.478	90.44
379.704	90.44
379.929	76.44
380.155	85.44
380.38	67.44
380.606	87.44
380.831	98.44
381.057	88.44
381.282	76.44
381.507	89.44
381.733	85.44
381.958	77.44
382.184	81.44
382.409	85.44
382.634	96.44
382.86	79.44
383.085	95.44
383.31	87.44
383.535	90.44
383.761	92.44
383.986	77.44
384.211	86.44
384.436	90.44
384.662	66.44
384.887	85.44
385.112	87.44
385.337	80.44
385.562	75.44
385.787	87.44
386.013	85.44
386.238	86.44
386.463	89.44
386.688	94.44
386.913	89.44
387.138	77.44
387.363	82.44
387.588	82.44
387.813	86.44
388.038	78.44
388.263	79.44
388.488	84.44
388.713	81.44
388.938	85.44
389.163	82.44
389.387	74.44
389.612	84.44
389.837	80.44
390.062	89.44
390.287	88.44
390.512	86.44
390.736	65.44
390.961	90.44
391.186	85.44
391.411	78.44
391.636	79.44
391.86	77.44
392.085	92.44
392.31	83.44
392.534	83.44
392.759	81.44
392.984	85.44
393.208	88.44
393.433	73.44
393.658	67.44
393.882	94.44
394.107	80.44
394.331	79.44
394.556	86.44
394.78	84.44
395.005	82.44
395.229	80.44
395.454	79.44
395.678	87.44
395.903	90.44
396.127	84.44
396.352	76.44
396.576	75.44
396.801	83.44
397.025	82.44
397.249	87.44
397.474	79.44
397.698	87.44
397.922	80.44
398.147	90.44
398.371	73.44
398.595	86.44
398.82	76.44
399.044	95.44
399.268	89.44
399.492	73.44
399.717	88.44
399.941	83.44
400.165	82.44
400.389	91.44
400.613	80.44
400.837	92.44
401.062	91.44
401.286	93.44
401.51	85.44
401.734	80.44
401.958	80.44
402.182	78.44
402.406	90.44
402.63	80.44
402.854	81.44
403.078	89.44
403.302	86.44
403.526	92.44
403.75	96.44
403.974	82.44
404.198	77.44
404.422	68.44
404.645	91.44
404.869	82.44
405.093	82.44
405.317	100.44
405.541	79.44
405.765	95.44
405.988	83.44
406.212	90.44
406.436	83.44
406.66	86.44
406.883	87.44
407.107	83.44
407.331	73.44
407.555	89.44
407.778	77.44
408.002	81.44
408.226	75.44
408.449	73.44
408.673	78.44
408.896	80.44
409.12	82.44
409.344	89.44
409.567	80.44
409.791	83.44
410.014	93.44
410.238	87.44
410.461	81.44
410.685	84.44
410.908	77.44
411.132	71.44
411.355	77.44
411.578	90.44
411.802	75.44
412.025	75.44
412.249	87.44
412.472	86.44
412.695	77.44
412.919	78.44
413.142	87.44
413.365	85.44
413.589	79.44
413.812	79.44
414.035	86.44
414.258	74.44
414.482	79.44
414.705	79.44
414.928	77.44
415.151	80.44
415.374	85.44
415.597	75.44
415.821	78.44
416.044	80.44
416.267	89.44
416.49	69.44
416.713	89.44
416.936	79.44
417.159	71.44
417.382	96.44
417.605	86.44
417.828	96.44
418.051	86.44
418.274	76.44
418.497	83.44
418.72	82.44
418.943	69.44
419.166	75.44
419.389	89.44
419.611	73.44
419.834	77.44
420.057	78.44
420.28	71.44
420.503	74.44
420.726	75.44
420.948	75.44
421.171	76.44
421.394	94.44
421.617	77.44
421.839	89.44
422.062	89.44
422.285	77.44
422.507	70.44
422.73	73.44
422.953	71.44
423.175	73.44
423.398	74.44
423.621	86.44
423.843	94.44
424.066	81.44
424.288	82.44
424.511	79.44
424.733	81.44
424.956	86.44
425.178	75.44
425.401	82.44
425.623	85.44
425.846	77.44
426.068	72.44
426.291	92.44
426.513	88.44
426.735	107.44
426.958	85.44
427.18	85.44
427.402	84.44
427.625	110.44
427.847	78.44
428.069	82.44
428.292	87.44
428.514	94.44
428.736	98.44
428.958	92.44
429.181	77.44
429.403	82.44
429.625	87.44
429.847	77.44
430.069	77.44
430.292	104.44
430.514	80.44
430.736	87.44
430.958	74.44
431.18	84.44
431.402	87.44
431.624	81.44
431.846	73.44
432.068	89.44
432.29	82.44
432.512	79.44
432.734	85.44
432.956	96.44
433.178	88.44
433.4	92.44
433.622	80.44
433.844	86.44
434.066	85.44
434.287	80.44
434.509	90.44
434.731	90.44
434.953	82.44
435.175	88.44
435.397	87.44
435.618	89.44
435.84	69.44
436.062	86.44
436.284	81.44
436.505	96.44
436.727	85.44
436.949	87.44
437.17	90.44
437.392	81.44
437.614	77.44
437.835	84.44
438.057	79.44
438.278	81.44
438.5	82.44
438.721	91.44
438.943	74.44
439.165	85.44
439.386	75.44
439.608	78.44
439.829	83.44
440.05	82.44
440.272	59.44
440.493	82.44
440.715	75.44
440.936	74.44
441.158	87.44
441.379	76.44
441.6	80.44
441.822	71.44
442.043	94.44
442.264	81.44
442.486	77.44
442.707	75.44
442.928	75.44
443.149	73.44
443.371	78.44
443.592	82.44
443.813	89.44
444.034	86.44
444.255	72.44
444.476	77.44
444.698	71.44
444.919	88.44
445.14	160.44
445.361	135.44
445.582	77.44
445.803	78.44
446.024	80.44
446.245	88.44
446.466	79.44
446.687	86.44
446.908	80.44
447.129	95.44
447.35	80.44
447.571	77.44
447.792	74.44
448.013	79.44
448.234	91.44
448.455	94.44
448.675	78.44
448.896	76.44
449.117	79.44
449.338	82.44
449.559	84.44
449.779	65.44
450	86.44
450.221	91.44
450.442	88.44
450.662	76.44
450.883	73.44
451.104	74.44
451.324	61.44
451.545	87.44
451.766	79.44
451.986	78.44
452.207	91.44
452.428	78.44
452.648	83.44
452.869	69.44
453.089	101.44
453.31	80.44
453.53	77.44
453.751	88.44
453.971	89.44
454.192	74.44
454.412	91.44
454.633	78.44
454.853	73.44
455.073	77.44
455.294	79.44
455.514	61.44
455.734	86.44
455.955	78.44
456.175	83.44
456.395	91.44
456.616	62.44
456.836	78.44
457.056	85.44
457.276	76.44
457.497	73.44
457.717	71.44
457.937	86.44
458.157	80.44
458.377	88.44
458.598	77.44
458.818	78.44
459.038	80.44
459.258	79.44
459.478	85.44
459.698	79.44
459.918	87.44
460.138	82.44
460.358	85.44
460.578	89.44
460.798	70.44
461.018	81.44
461.238	93.44
461.458	81.44
461.678	79.44
461.898	89.44
462.118	77.44
462.338	85.44
462.558	79.44
462.777	89.44
462.997	85.44
463.217	68.44
463.437	75.44
463.657	81.44
463.876	70.44
464.096	76.44
464.316	80.44
464.536	91.44
464.755	76.44
464.975	83.44
465.195	86.44
465.414	86.44
465.634	82.44
465.854	86.44
466.073	86.44
466.293	93.44
466.512	88.44
466.732	73.44
466.951	84.44
467.171	79.44
467.391	86.44
467.61	87.44
467.829	86.44
468.049	76.44
468.268	96.44
468.488	81.44
468.707	71.44
468.927	91.44
469.146	81.44
469.365	99.44
469.585	82.44
469.804	89.44
470.023	74.44
470.243	92.44
470.462	72.44
470.681	75.44
470.901	72.44
471.12	81.44
471.339	82.44
471.558	77.44
471.777	86.44
471.997	88.44
472.216	81.44
472.435	94.44
472.654	89.44
472.873	94.44
473.092	81.44
473.311	82.44
473.53	82.44
473.749	89.44
473.968	90.44
474.187	82.44
474.406	78.44
474.625	82.44
474.844	81.44
475.063	71.44
475.282	88.44
475.501	89.44
475.72	79.44
475.939	85.44
476.158	89.44
476.377	86.44
476.596	87.44
476.814	93.44
477.033	80.44
477.252	69.44
477.471	97.44
477.69	91.44
477.908	90.44
478.127	87.44
478.346	77.44
478.564	77.44
478.783	86.44
479.002	77.44
479.22	75.44
479.439	75.44
479.658	80.44
479.876	82.44
480.095	96.44
480.313	75.44
480.532	87.44
480.751	87.44
480.969	94.44
481.188	75.44
481.406	80.44
481.624	85.44
481.843	84.44
482.061	76.44
482.28	77.44
482.498	66.44
482.717	83.44
482.935	78.44
483.153	86.44
483.372	80.44
483.59	94.44
483.808	75.44
484.027	98.44
484.245	80.44
484.463	83.44
484.681	93.44
484.9	88.44
485.118	91.44
485.336	83.44
485.554	82.44
485.772	92.44
485.99	95.44
486.209	94.44
486.427	81.44
486.645	77.44
486.863	94.44
487.081	90.44
487.299	92.44
487.517	82.44
487.735	83.44
487.953	86.44
488.171	69.44
488.389	77.44
488.607	81.44
488.825	83.44
489.043	88.44
489.261	100.44
489.479	84.44
489.696	89.44
489.914	77.44
490.132	75.44
490.35	81.44
490.568	92.44
490.786	82.44
491.003	78.44
491.221	72.44
491.439	86.44
491.657	90.44
491.874	93.44
492.092	76.44
492.31	80.44
492.527	83.44
492.745	93.44
492.963	81.44
493.18	78.44
493.398	91.44
493.615	78.44
493.833	96.44
494.05	83.44
494.268	82.44
494.485	85.44
494.703	88.44
494.92	91.44
495.138	97.44
495.355	82.44
495.573	67.44
495.79	84.44
496.008	85.44
496.225	86.44
496.442	81.44
496.66	90.44
496.877	101.44
497.094	96.44
497.312	75.44
497.529	98.44
497.746	66.44
497.963	85.44
498.181	83.44
498.398	89.44
498.615	97.44
498.832	73.44
499.049	99.44
499.267	88.44
499.484	80.44
499.701	74.44
499.918	83.44
500.135	91.44
500.352	112.44
500.569	91.44
500.786	101.44
501.003	90.44
501.22	75.44
501.437	93.44
501.654	77.44
501.871	85.44
502.088	81.44
502.305	83.44
502.522	86.44
502.739	81.44
502.956	87.44
503.172	71.44
503.389	81.44
503.606	76.44
503.823	92.44
504.04	87.44
504.256	77.44
504.473	82.44
504.69	82.44
504.907	85.44
505.123	93.44
505.34	91.44
505.557	80.44
505.773	81.44
505.99	78.44
506.207	85.44
506.423	77.44
506.64	75.44
506.856	91.44
507.073	92.44
507.289	88.44
507.506	66.44
507.722	93.44
507.939	79.44
508.155	96.44
508.372	81.44
508.588	67.44
508.805	91.44
509.021	86.44
509.238	94.44
509.454	80.44
509.67	82.44
509.887	60.44
510.103	78.44
510.319	75.44
510.536	80.44
510.752	71.44
510.968	83.44
511.184	106.44
511.401	85.44
511.617	93.44
511.833	87.44
512.049	88.44
512.265	93.44
512.481	76.44
512.698	85.44
512.914	99.44
513.13	101.44
513.346	88.44
513.562	93.44
513.778	86.44
513.994	83.44
514.21	67.44
514.426	93.44
514.642	82.44
514.858	85.44
515.074	99.44
515.29	77.44
515.506	75.44
515.721	84.44
515.937	97.44
516.153	71.44
516.369	77.44
516.585	92.44
516.801	102.44
517.016	73.44
517.232	87.44
517.448	81.44
517.664	80.44
517.879	73.44
518.095	88.44
518.311	103.44
518.527	74.44
518.742	94.44
518.958	79.44
519.173	79.44
519.389	85.44
519.605	73.44
519.82	88.44
520.036	88.44
