Data from KBr_1_HRD10591_00025.txt Node
Date: Mon Jan 19 13:11:18 EST 2026
User: Yrep
Spectrometer: HR+D1059
Trigger mode: 0
Integration Time (sec): 1.000000E-1
Scans to average: 1
Electric dark correction enabled: true
Nonlinearity correction enabled: false
Boxcar width: 0
XAxis mode: Wavelengths
Number of Pixels in Spectrum: 2048
>>>>>Begin Spectral Data<<<<<
223.165	-25.62
223.4	-25.62
223.635	-25.62
223.869	-14.62
224.104	-22.62
224.338	-4.62
224.573	-16.62
224.808	-17.62
225.042	13.38
225.277	-11.62
225.511	1.38
225.746	9.38
225.98	4.38
226.215	14.38
226.449	16.38
226.683	12.38
226.918	17.38
227.152	24.38
227.387	42.38
227.621	36.38
227.856	30.38
228.09	51.38
228.324	43.38
228.559	62.38
228.793	67.38
229.027	57.38
229.262	58.38
229.496	68.38
229.73	72.38
229.964	61.38
230.199	66.38
230.433	79.38
230.667	73.38
230.901	79.38
231.136	63.38
231.37	71.38
231.604	78.38
231.838	64.38
232.072	94.38
232.306	78.38
232.541	91.38
232.775	91.38
233.009	78.38
233.243	59.38
233.477	79.38
233.711	81.38
233.945	87.38
234.179	73.38
234.413	76.38
234.647	79.38
234.881	87.38
235.115	85.38
235.349	75.38
235.583	85.38
235.817	73.38
236.051	80.38
236.285	74.38
236.519	83.38
236.753	73.38
236.987	78.38
237.221	73.38
237.455	87.38
237.689	79.38
237.922	62.38
238.156	74.38
238.39	78.38
238.624	70.38
238.858	54.38
239.091	77.38
239.325	73.38
239.559	70.38
239.793	58.38
240.027	80.38
240.26	63.38
240.494	76.38
240.728	73.38
240.961	70.38
241.195	72.38
241.429	78.38
241.662	69.38
241.896	73.38
242.13	66.38
242.363	84.38
242.597	63.38
242.83	91.38
243.064	61.38
243.298	77.38
243.531	71.38
243.765	71.38
243.998	92.38
244.232	73.38
244.465	77.38
244.699	73.38
244.932	73.38
245.166	93.38
245.399	77.38
245.633	70.38
245.866	92.38
246.099	84.38
246.333	95.38
246.566	85.38
246.8	73.38
247.033	78.38
247.266	58.38
247.5	82.38
247.733	68.38
247.966	80.38
248.2	85.38
248.433	76.38
248.666	78.38
248.899	71.38
249.133	90.38
249.366	76.38
249.599	84.38
249.832	88.38
250.066	75.38
250.299	73.38
250.532	80.38
250.765	85.38
250.998	81.38
251.231	78.38
251.465	84.38
251.698	82.38
251.931	77.38
252.164	83.38
252.397	73.38
252.63	77.38
252.863	78.38
253.096	80.38
253.329	102.38
253.562	76.38
253.795	66.38
254.028	81.38
254.261	86.38
254.494	75.38
254.727	73.38
254.96	66.38
255.193	79.38
255.426	85.38
255.659	85.38
255.892	85.38
256.124	84.38
256.357	77.38
256.59	79.38
256.823	83.38
257.056	87.38
257.289	72.38
257.521	91.38
257.754	87.38
257.987	84.38
258.22	72.38
258.452	75.38
258.685	87.38
258.918	73.38
259.151	78.38
259.383	86.38
259.616	88.38
259.849	80.38
260.081	76.38
260.314	86.38
260.547	75.38
260.779	73.38
261.012	90.38
261.244	78.38
261.477	101.38
261.71	79.38
261.942	77.38
262.175	72.38
262.407	77.38
262.64	72.38
262.872	78.38
263.105	89.38
263.337	80.38
263.57	89.38
263.802	79.38
264.035	82.38
264.267	71.38
264.499	75.38
264.732	70.38
264.964	85.38
265.197	73.38
265.429	74.38
265.661	76.38
265.894	77.38
266.126	78.38
266.358	87.38
266.591	80.38
266.823	64.38
267.055	73.38
267.287	84.38
267.52	80.38
267.752	78.38
267.984	85.38
268.216	95.38
268.448	105.38
268.681	86.38
268.913	73.38
269.145	81.38
269.377	73.38
269.609	77.38
269.841	77.38
270.073	68.38
270.306	86.38
270.538	76.38
270.77	73.38
271.002	63.38
271.234	85.38
271.466	72.38
271.698	71.38
271.93	90.38
272.162	76.38
272.394	85.38
272.626	88.38
272.858	83.38
273.09	79.38
273.322	69.38
273.553	73.38
273.785	84.38
274.017	76.38
274.249	85.38
274.481	80.38
274.713	97.38
274.945	74.38
275.176	77.38
275.408	93.38
275.64	78.38
275.872	85.38
276.104	90.38
276.335	75.38
276.567	73.38
276.799	83.38
277.031	92.38
277.262	66.38
277.494	92.38
277.726	83.38
277.957	76.38
278.189	84.38
278.421	94.38
278.652	91.38
278.884	71.38
279.115	71.38
279.347	80.38
279.579	74.38
279.81	73.38
280.042	80.38
280.273	77.38
280.505	80.38
280.736	89.38
280.968	88.38
281.199	72.38
281.431	85.38
281.662	79.38
281.894	79.38
282.125	76.38
282.356	76.38
282.588	85.38
282.819	83.38
283.051	86.38
283.282	99.38
283.513	87.38
283.745	72.38
283.976	77.38
284.207	85.38
284.439	83.38
284.67	83.38
284.901	76.38
285.132	87.38
285.364	82.38
285.595	76.38
285.826	83.38
286.057	93.38
286.288	74.38
286.52	79.38
286.751	80.38
286.982	82.38
287.213	78.38
287.444	85.38
287.675	81.38
287.906	91.38
288.138	102.38
288.369	98.38
288.6	85.38
288.831	83.38
289.062	87.38
289.293	76.38
289.524	77.38
289.755	82.38
289.986	82.38
290.217	84.38
290.448	79.38
290.679	91.38
290.91	91.38
291.141	79.38
291.371	78.38
291.602	74.38
291.833	63.38
292.064	74.38
292.295	78.38
292.526	93.38
292.757	91.38
292.987	94.38
293.218	89.38
293.449	89.38
293.68	91.38
293.91	93.38
294.141	97.38
294.372	86.38
294.603	88.38
294.833	82.38
295.064	69.38
295.295	83.38
295.525	80.38
295.756	76.38
295.987	71.38
296.217	86.38
296.448	81.38
296.679	83.38
296.909	81.38
297.14	89.38
297.37	86.38
297.601	87.38
297.831	84.38
298.062	78.38
298.292	86.38
298.523	85.38
298.753	93.38
298.984	72.38
299.214	89.38
299.445	93.38
299.675	81.38
299.905	84.38
300.136	60.38
300.366	84.38
300.597	91.38
300.827	76.38
301.057	90.38
301.288	76.38
301.518	87.38
301.748	81.38
301.979	97.38
302.209	69.38
302.439	81.38
302.669	89.38
302.9	95.38
303.13	76.38
303.36	93.38
303.59	95.38
303.82	91.38
304.051	80.38
304.281	72.38
304.511	78.38
304.741	83.38
304.971	88.38
305.201	80.38
305.431	95.38
305.661	80.38
305.891	71.38
306.121	68.38
306.352	71.38
306.582	78.38
306.812	80.38
307.042	86.38
307.272	78.38
307.502	89.38
307.731	92.38
307.961	76.38
308.191	92.38
308.421	72.38
308.651	73.38
308.881	101.38
309.111	83.38
309.341	83.38
309.571	95.38
309.8	86.38
310.03	80.38
310.26	87.38
310.49	94.38
310.72	88.38
310.949	90.38
311.179	82.38
311.409	93.38
311.639	87.38
311.868	95.38
312.098	80.38
312.328	81.38
312.557	71.38
312.787	72.38
313.017	78.38
313.246	89.38
313.476	93.38
313.706	87.38
313.935	83.38
314.165	78.38
314.394	63.38
314.624	83.38
314.853	84.38
315.083	88.38
315.312	87.38
315.542	88.38
315.771	79.38
316.001	89.38
316.23	83.38
316.46	85.38
316.689	91.38
316.919	89.38
317.148	80.38
317.377	76.38
317.607	94.38
317.836	88.38
318.065	67.38
318.295	76.38
318.524	81.38
318.753	82.38
318.983	81.38
319.212	81.38
319.441	84.38
319.67	96.38
319.9	77.38
320.129	79.38
320.358	72.38
320.587	81.38
320.816	77.38
321.046	74.38
321.275	78.38
321.504	92.38
321.733	80.38
321.962	78.38
322.191	90.38
322.42	87.38
322.649	99.38
322.878	84.38
323.108	83.38
323.337	86.38
323.566	88.38
323.795	85.38
324.024	68.38
324.253	75.38
324.482	66.38
324.71	73.38
324.939	81.38
325.168	80.38
325.397	93.38
325.626	77.38
325.855	77.38
326.084	77.38
326.313	78.38
326.542	85.38
326.77	73.38
326.999	82.38
327.228	69.38
327.457	90.38
327.686	85.38
327.914	80.38
328.143	87.38
328.372	79.38
328.6	89.38
328.829	72.38
329.058	68.38
329.287	64.38
329.515	92.38
329.744	86.38
329.972	86.38
330.201	89.38
330.43	88.38
330.658	75.38
330.887	72.38
331.115	93.38
331.344	97.38
331.572	91.38
331.801	93.38
332.03	92.38
332.258	80.38
332.486	87.38
332.715	85.38
332.943	90.38
333.172	68.38
333.4	75.38
333.629	93.38
333.857	77.38
334.085	73.38
334.314	97.38
334.542	75.38
334.771	92.38
334.999	73.38
335.227	71.38
335.455	89.38
335.684	84.38
335.912	88.38
336.14	86.38
336.369	77.38
336.597	77.38
336.825	88.38
337.053	86.38
337.281	79.38
337.51	91.38
337.738	86.38
337.966	84.38
338.194	88.38
338.422	75.38
338.65	86.38
338.878	80.38
339.106	80.38
339.334	88.38
339.562	77.38
339.79	85.38
340.018	76.38
340.246	88.38
340.474	96.38
340.702	91.38
340.93	95.38
341.158	72.38
341.386	67.38
341.614	83.38
341.842	84.38
342.07	77.38
342.298	91.38
342.526	79.38
342.754	83.38
342.981	75.38
343.209	85.38
343.437	99.38
343.665	75.38
343.893	73.38
344.12	81.38
344.348	89.38
344.576	74.38
344.804	92.38
345.031	71.38
345.259	75.38
345.487	91.38
345.714	78.38
345.942	80.38
346.17	77.38
346.397	78.38
346.625	80.38
346.853	89.38
347.08	84.38
347.308	90.38
347.535	71.38
347.763	89.38
347.99	93.38
348.218	86.38
348.445	88.38
348.673	87.38
348.9	86.38
349.128	92.38
349.355	71.38
349.583	81.38
349.81	80.38
350.037	87.38
350.265	85.38
350.492	84.38
350.72	89.38
350.947	79.38
351.174	81.38
351.402	87.38
351.629	85.38
351.856	77.38
352.083	93.38
352.311	82.38
352.538	83.38
352.765	86.38
352.992	76.38
353.22	83.38
353.447	82.38
353.674	91.38
353.901	84.38
354.128	77.38
354.355	75.38
354.583	75.38
354.81	90.38
355.037	86.38
355.264	83.38
355.491	95.38
355.718	80.38
355.945	81.38
356.172	76.38
356.399	83.38
356.626	76.38
356.853	82.38
357.08	94.38
357.307	84.38
357.534	86.38
357.761	86.38
357.988	84.38
358.215	80.38
358.441	61.38
358.668	86.38
358.895	88.38
359.122	92.38
359.349	75.38
359.576	85.38
359.802	90.38
360.029	73.38
360.256	74.38
360.483	80.38
360.709	86.38
360.936	86.38
361.163	85.38
361.39	86.38
361.616	84.38
361.843	70.38
362.07	72.38
362.296	78.38
362.523	95.38
362.749	78.38
362.976	83.38
363.203	81.38
363.429	72.38
363.656	78.38
363.882	80.38
364.109	87.38
364.335	78.38
364.562	76.38
364.788	91.38
365.015	77.38
365.241	71.38
365.468	91.38
365.694	95.38
365.92	68.38
366.147	86.38
366.373	87.38
366.599	84.38
366.826	85.38
367.052	89.38
367.278	78.38
367.505	80.38
367.731	79.38
367.957	74.38
368.184	69.38
368.41	77.38
368.636	71.38
368.862	87.38
369.089	89.38
369.315	79.38
369.541	87.38
369.767	86.38
369.993	69.38
370.219	79.38
370.445	72.38
370.672	79.38
370.898	86.38
371.124	86.38
371.35	81.38
371.576	80.38
371.802	74.38
372.028	75.38
372.254	81.38
372.48	87.38
372.706	76.38
372.932	93.38
373.158	94.38
373.384	86.38
373.61	96.38
373.835	77.38
374.061	80.38
374.287	85.38
374.513	73.38
374.739	75.38
374.965	78.38
375.191	88.38
375.416	85.38
375.642	86.38
375.868	73.38
376.094	78.38
376.319	87.38
376.545	81.38
376.771	81.38
376.997	77.38
377.222	76.38
377.448	89.38
377.674	77.38
377.899	89.38
378.125	77.38
378.35	82.38
378.576	81.38
378.802	78.38
379.027	83.38
379.253	77.38
379.478	79.38
379.704	87.38
379.929	79.38
380.155	80.38
380.38	81.38
380.606	76.38
380.831	92.38
381.057	81.38
381.282	75.38
381.507	84.38
381.733	73.38
381.958	78.38
382.184	76.38
382.409	70.38
382.634	73.38
382.86	92.38
383.085	81.38
383.31	83.38
383.535	94.38
383.761	86.38
383.986	76.38
384.211	71.38
384.436	86.38
384.662	92.38
384.887	79.38
385.112	72.38
385.337	89.38
385.562	96.38
385.787	65.38
386.013	75.38
386.238	79.38
386.463	85.38
386.688	87.38
386.913	86.38
387.138	78.38
387.363	59.38
387.588	77.38
387.813	64.38
388.038	90.38
388.263	83.38
388.488	79.38
388.713	95.38
388.938	85.38
389.163	81.38
389.387	79.38
389.612	71.38
389.837	89.38
390.062	82.38
390.287	65.38
390.512	73.38
390.736	86.38
390.961	84.38
391.186	76.38
391.411	68.38
391.636	84.38
391.86	78.38
392.085	81.38
392.31	72.38
392.534	83.38
392.759	71.38
392.984	68.38
393.208	84.38
393.433	81.38
393.658	89.38
393.882	86.38
394.107	88.38
394.331	88.38
394.556	83.38
394.78	80.38
395.005	79.38
395.229	88.38
395.454	88.38
395.678	79.38
395.903	87.38
396.127	77.38
396.352	81.38
396.576	89.38
396.801	79.38
397.025	78.38
397.249	68.38
397.474	90.38
397.698	83.38
397.922	79.38
398.147	67.38
398.371	75.38
398.595	76.38
398.82	67.38
399.044	82.38
399.268	86.38
399.492	79.38
399.717	90.38
399.941	70.38
400.165	88.38
400.389	75.38
400.613	79.38
400.837	65.38
401.062	78.38
401.286	73.38
401.51	85.38
401.734	79.38
401.958	87.38
402.182	76.38
402.406	72.38
402.63	70.38
402.854	87.38
403.078	87.38
403.302	76.38
403.526	96.38
403.75	85.38
403.974	85.38
404.198	83.38
404.422	84.38
404.645	54.38
404.869	82.38
405.093	81.38
405.317	91.38
405.541	77.38
405.765	79.38
405.988	88.38
406.212	77.38
406.436	79.38
406.66	100.38
406.883	84.38
407.107	72.38
407.331	75.38
407.555	67.38
407.778	71.38
408.002	80.38
408.226	80.38
408.449	76.38
408.673	83.38
408.896	64.38
409.12	85.38
409.344	80.38
409.567	79.38
409.791	84.38
410.014	83.38
410.238	76.38
410.461	65.38
410.685	95.38
410.908	64.38
411.132	66.38
411.355	72.38
411.578	76.38
411.802	87.38
412.025	86.38
412.249	86.38
412.472	78.38
412.695	79.38
412.919	77.38
413.142	80.38
413.365	87.38
413.589	68.38
413.812	76.38
414.035	80.38
414.258	93.38
414.482	72.38
414.705	69.38
414.928	83.38
415.151	83.38
415.374	70.38
415.597	73.38
415.821	79.38
416.044	67.38
416.267	84.38
416.49	79.38
416.713	85.38
416.936	79.38
417.159	72.38
417.382	75.38
417.605	73.38
417.828	97.38
418.051	83.38
418.274	78.38
418.497	80.38
418.72	86.38
418.943	77.38
419.166	79.38
419.389	55.38
419.611	76.38
419.834	86.38
420.057	91.38
420.28	77.38
420.503	84.38
420.726	91.38
420.948	80.38
421.171	65.38
421.394	74.38
421.617	80.38
421.839	85.38
422.062	92.38
422.285	80.38
422.507	72.38
422.73	80.38
422.953	64.38
423.175	64.38
423.398	67.38
423.621	76.38
423.843	78.38
424.066	73.38
424.288	85.38
424.511	73.38
424.733	77.38
424.956	74.38
425.178	66.38
425.401	78.38
425.623	72.38
425.846	93.38
426.068	69.38
426.291	80.38
426.513	68.38
426.735	77.38
426.958	86.38
427.18	75.38
427.402	82.38
427.625	91.38
427.847	77.38
428.069	81.38
428.292	87.38
428.514	87.38
428.736	77.38
428.958	76.38
429.181	79.38
429.403	78.38
429.625	79.38
429.847	92.38
430.069	92.38
430.292	80.38
430.514	77.38
430.736	78.38
430.958	110.38
431.18	92.38
431.402	70.38
431.624	83.38
431.846	77.38
432.068	85.38
432.29	86.38
432.512	71.38
432.734	81.38
432.956	88.38
433.178	80.38
433.4	92.38
433.622	72.38
433.844	83.38
434.066	72.38
434.287	87.38
434.509	84.38
434.731	88.38
434.953	84.38
435.175	64.38
435.397	76.38
435.618	75.38
435.84	81.38
436.062	82.38
436.284	88.38
436.505	69.38
436.727	79.38
436.949	79.38
437.17	84.38
437.392	84.38
437.614	75.38
437.835	72.38
438.057	84.38
438.278	68.38
438.5	80.38
438.721	84.38
438.943	81.38
439.165	91.38
439.386	70.38
439.608	74.38
439.829	60.38
440.05	83.38
440.272	79.38
440.493	76.38
440.715	69.38
440.936	75.38
441.158	79.38
441.379	76.38
441.6	75.38
441.822	76.38
442.043	77.38
442.264	75.38
442.486	89.38
442.707	84.38
442.928	76.38
443.149	69.38
443.371	91.38
443.592	88.38
443.813	73.38
444.034	79.38
444.255	75.38
444.476	72.38
444.698	73.38
444.919	83.38
445.14	168.38
445.361	120.38
445.582	71.38
445.803	79.38
446.024	70.38
446.245	90.38
446.466	70.38
446.687	82.38
446.908	79.38
447.129	92.38
447.35	88.38
447.571	84.38
447.792	63.38
448.013	80.38
448.234	78.38
448.455	68.38
448.675	92.38
448.896	69.38
449.117	77.38
449.338	60.38
449.559	83.38
449.779	73.38
450	85.38
450.221	77.38
450.442	71.38
450.662	80.38
450.883	72.38
451.104	84.38
451.324	85.38
451.545	71.38
451.766	79.38
451.986	84.38
452.207	79.38
452.428	83.38
452.648	83.38
452.869	89.38
453.089	85.38
453.31	92.38
453.53	85.38
453.751	76.38
453.971	79.38
454.192	78.38
454.412	73.38
454.633	95.38
454.853	89.38
455.073	76.38
455.294	78.38
455.514	84.38
455.734	93.38
455.955	72.38
456.175	82.38
456.395	84.38
456.616	83.38
456.836	73.38
457.056	71.38
457.276	63.38
457.497	79.38
457.717	92.38
457.937	87.38
458.157	84.38
458.377	77.38
458.598	80.38
458.818	79.38
459.038	85.38
459.258	90.38
459.478	79.38
459.698	85.38
459.918	86.38
460.138	85.38
460.358	72.38
460.578	71.38
460.798	73.38
461.018	69.38
461.238	80.38
461.458	89.38
461.678	87.38
461.898	73.38
462.118	76.38
462.338	89.38
462.558	73.38
462.777	88.38
462.997	88.38
463.217	74.38
463.437	91.38
463.657	89.38
463.876	80.38
464.096	78.38
464.316	63.38
464.536	64.38
464.755	72.38
464.975	76.38
465.195	78.38
465.414	78.38
465.634	76.38
465.854	92.38
466.073	86.38
466.293	81.38
466.512	79.38
466.732	75.38
466.951	74.38
467.171	78.38
467.391	74.38
467.61	82.38
467.829	72.38
468.049	87.38
468.268	81.38
468.488	64.38
468.707	81.38
468.927	70.38
469.146	92.38
469.365	83.38
469.585	76.38
469.804	73.38
470.023	92.38
470.243	89.38
470.462	82.38
470.681	79.38
470.901	99.38
471.12	81.38
471.339	75.38
471.558	91.38
471.777	92.38
471.997	70.38
472.216	88.38
472.435	79.38
472.654	76.38
472.873	65.38
473.092	96.38
473.311	74.38
473.53	72.38
473.749	87.38
473.968	75.38
474.187	80.38
474.406	72.38
474.625	81.38
474.844	88.38
475.063	91.38
475.282	85.38
475.501	83.38
475.72	75.38
475.939	101.38
476.158	69.38
476.377	85.38
476.596	80.38
476.814	62.38
477.033	79.38
477.252	85.38
477.471	81.38
477.69	79.38
477.908	70.38
478.127	77.38
478.346	71.38
478.564	77.38
478.783	81.38
479.002	72.38
479.22	77.38
479.439	88.38
479.658	93.38
479.876	84.38
480.095	81.38
480.313	79.38
480.532	80.38
480.751	76.38
480.969	77.38
481.188	85.38
481.406	87.38
481.624	80.38
481.843	72.38
482.061	74.38
482.28	88.38
482.498	78.38
482.717	69.38
482.935	66.38
483.153	90.38
483.372	74.38
483.59	83.38
483.808	72.38
484.027	80.38
484.245	90.38
484.463	82.38
484.681	87.38
484.9	79.38
485.118	85.38
485.336	83.38
485.554	80.38
485.772	84.38
485.99	74.38
486.209	77.38
486.427	91.38
486.645	80.38
486.863	66.38
487.081	78.38
487.299	83.38
487.517	86.38
487.735	86.38
487.953	91.38
488.171	87.38
488.389	86.38
488.607	72.38
488.825	92.38
489.043	77.38
489.261	86.38
489.479	87.38
489.696	70.38
489.914	82.38
490.132	78.38
490.35	82.38
490.568	89.38
490.786	92.38
491.003	95.38
491.221	69.38
491.439	81.38
491.657	81.38
491.874	95.38
492.092	80.38
492.31	91.38
492.527	79.38
492.745	73.38
492.963	83.38
493.18	89.38
493.398	90.38
493.615	76.38
493.833	78.38
494.05	81.38
494.268	75.38
494.485	72.38
494.703	99.38
494.92	87.38
495.138	70.38
495.355	91.38
495.573	79.38
495.79	73.38
496.008	91.38
496.225	69.38
496.442	76.38
496.66	87.38
496.877	87.38
497.094	89.38
497.312	88.38
497.529	80.38
497.746	69.38
497.963	83.38
498.181	88.38
498.398	66.38
498.615	87.38
498.832	87.38
499.049	78.38
499.267	79.38
499.484	78.38
499.701	91.38
499.918	71.38
500.135	72.38
500.352	80.38
500.569	73.38
500.786	94.38
501.003	84.38
501.22	79.38
501.437	73.38
501.654	71.38
501.871	69.38
502.088	84.38
502.305	73.38
502.522	71.38
502.739	94.38
502.956	91.38
503.172	75.38
503.389	70.38
503.606	96.38
503.823	72.38
504.04	57.38
504.256	64.38
504.473	80.38
504.69	86.38
504.907	92.38
505.123	74.38
505.34	81.38
505.557	84.38
505.773	89.38
505.99	65.38
506.207	79.38
506.423	77.38
506.64	83.38
506.856	77.38
507.073	92.38
507.289	70.38
507.506	87.38
507.722	78.38
507.939	72.38
508.155	90.38
508.372	87.38
508.588	92.38
508.805	75.38
509.021	83.38
509.238	69.38
509.454	88.38
509.67	85.38
509.887	90.38
510.103	79.38
510.319	91.38
510.536	83.38
510.752	74.38
510.968	76.38
511.184	72.38
511.401	73.38
511.617	93.38
511.833	75.38
512.049	91.38
512.265	80.38
512.481	82.38
512.698	75.38
512.914	83.38
513.13	80.38
513.346	83.38
513.562	80.38
513.778	94.38
513.994	93.38
514.21	78.38
514.426	96.38
514.642	62.38
514.858	89.38
515.074	94.38
515.29	69.38
515.506	77.38
515.721	69.38
515.937	76.38
516.153	58.38
516.369	76.38
516.585	79.38
516.801	76.38
517.016	83.38
517.232	81.38
517.448	92.38
517.664	76.38
517.879	79.38
518.095	78.38
518.311	85.38
518.527	94.38
518.742	73.38
518.958	93.38
519.173	86.38
519.389	63.38
519.605	89.38
519.82	75.38
520.036	79.38
520.251	92.38
