Data from KBr_1_HRD10591_00021.txt Node
Date: Mon Jan 19 13:11:18 EST 2026
User: Yrep
Spectrometer: HR+D1059
Trigger mode: 0
Integration Time (sec): 1.000000E-1
Scans to average: 1
Electric dark correction enabled: true
Nonlinearity correction enabled: false
Boxcar width: 0
XAxis mode: Wavelengths
Number of Pixels in Spectrum: 2048
>>>>>Begin Spectral Data<<<<<
223.165	-16.88
223.4	-16.88
223.635	-16.88
223.869	-19.88
224.104	-17.88
224.338	-8.88
224.573	-8.88
224.808	-2.88
225.042	-4.88
225.277	-6.88
225.511	-16.88
225.746	-8.88
225.98	12.12
226.215	17.12
226.449	17.12
226.683	25.12
226.918	10.12
227.152	31.12
227.387	37.12
227.621	30.12
227.856	50.12
228.09	47.12
228.324	37.12
228.559	59.12
228.793	51.12
229.027	54.12
229.262	50.12
229.496	84.12
229.73	58.12
229.964	81.12
230.199	77.12
230.433	69.12
230.667	75.12
230.901	86.12
231.136	73.12
231.37	90.12
231.604	73.12
231.838	83.12
232.072	81.12
232.306	73.12
232.541	89.12
232.775	78.12
233.009	82.12
233.243	78.12
233.477	64.12
233.711	90.12
233.945	81.12
234.179	87.12
234.413	75.12
234.647	75.12
234.881	79.12
235.115	94.12
235.349	82.12
235.583	89.12
235.817	80.12
236.051	63.12
236.285	65.12
236.519	78.12
236.753	71.12
236.987	86.12
237.221	74.12
237.455	72.12
237.689	63.12
237.922	77.12
238.156	58.12
238.39	67.12
238.624	61.12
238.858	85.12
239.091	70.12
239.325	77.12
239.559	55.12
239.793	78.12
240.027	76.12
240.26	65.12
240.494	73.12
240.728	71.12
240.961	74.12
241.195	77.12
241.429	84.12
241.662	81.12
241.896	62.12
242.13	74.12
242.363	75.12
242.597	82.12
242.83	87.12
243.064	75.12
243.298	74.12
243.531	79.12
243.765	77.12
243.998	82.12
244.232	65.12
244.465	71.12
244.699	100.12
244.932	88.12
245.166	80.12
245.399	81.12
245.633	81.12
245.866	83.12
246.099	85.12
246.333	66.12
246.566	78.12
246.8	77.12
247.033	86.12
247.266	75.12
247.5	73.12
247.733	90.12
247.966	83.12
248.2	76.12
248.433	81.12
248.666	71.12
248.899	72.12
249.133	86.12
249.366	74.12
249.599	79.12
249.832	63.12
250.066	73.12
250.299	66.12
250.532	71.12
250.765	63.12
250.998	83.12
251.231	87.12
251.465	65.12
251.698	85.12
251.931	71.12
252.164	71.12
252.397	84.12
252.63	75.12
252.863	81.12
253.096	71.12
253.329	82.12
253.562	63.12
253.795	86.12
254.028	90.12
254.261	73.12
254.494	80.12
254.727	79.12
254.96	78.12
255.193	83.12
255.426	90.12
255.659	79.12
255.892	84.12
256.124	76.12
256.357	83.12
256.59	87.12
256.823	76.12
257.056	85.12
257.289	86.12
257.521	83.12
257.754	79.12
257.987	81.12
258.22	79.12
258.452	88.12
258.685	73.12
258.918	57.12
259.151	61.12
259.383	88.12
259.616	68.12
259.849	83.12
260.081	77.12
260.314	77.12
260.547	80.12
260.779	67.12
261.012	72.12
261.244	72.12
261.477	71.12
261.71	78.12
261.942	76.12
262.175	64.12
262.407	74.12
262.64	83.12
262.872	86.12
263.105	86.12
263.337	80.12
263.57	69.12
263.802	78.12
264.035	84.12
264.267	80.12
264.499	67.12
264.732	93.12
264.964	82.12
265.197	81.12
265.429	95.12
265.661	94.12
265.894	91.12
266.126	78.12
266.358	65.12
266.591	76.12
266.823	97.12
267.055	80.12
267.287	86.12
267.52	67.12
267.752	77.12
267.984	72.12
268.216	83.12
268.448	85.12
268.681	85.12
268.913	91.12
269.145	84.12
269.377	90.12
269.609	74.12
269.841	84.12
270.073	71.12
270.306	83.12
270.538	77.12
270.77	83.12
271.002	91.12
271.234	81.12
271.466	82.12
271.698	69.12
271.93	76.12
272.162	83.12
272.394	71.12
272.626	71.12
272.858	77.12
273.09	86.12
273.322	80.12
273.553	81.12
273.785	86.12
274.017	82.12
274.249	79.12
274.481	75.12
274.713	84.12
274.945	84.12
275.176	87.12
275.408	88.12
275.64	84.12
275.872	61.12
276.104	86.12
276.335	80.12
276.567	79.12
276.799	75.12
277.031	91.12
277.262	85.12
277.494	77.12
277.726	81.12
277.957	71.12
278.189	79.12
278.421	85.12
278.652	67.12
278.884	77.12
279.115	80.12
279.347	96.12
279.579	84.12
279.81	71.12
280.042	79.12
280.273	85.12
280.505	78.12
280.736	77.12
280.968	83.12
281.199	77.12
281.431	73.12
281.662	75.12
281.894	81.12
282.125	73.12
282.356	81.12
282.588	96.12
282.819	69.12
283.051	71.12
283.282	82.12
283.513	83.12
283.745	88.12
283.976	78.12
284.207	78.12
284.439	76.12
284.67	93.12
284.901	91.12
285.132	85.12
285.364	99.12
285.595	80.12
285.826	74.12
286.057	87.12
286.288	73.12
286.52	76.12
286.751	91.12
286.982	80.12
287.213	81.12
287.444	84.12
287.675	86.12
287.906	79.12
288.138	79.12
288.369	77.12
288.6	72.12
288.831	89.12
289.062	73.12
289.293	85.12
289.524	81.12
289.755	84.12
289.986	71.12
290.217	73.12
290.448	70.12
290.679	86.12
290.91	89.12
291.141	73.12
291.371	91.12
291.602	77.12
291.833	79.12
292.064	77.12
292.295	76.12
292.526	73.12
292.757	89.12
292.987	83.12
293.218	82.12
293.449	66.12
293.68	91.12
293.91	83.12
294.141	83.12
294.372	83.12
294.603	91.12
294.833	78.12
295.064	86.12
295.295	71.12
295.525	81.12
295.756	80.12
295.987	89.12
296.217	75.12
296.448	82.12
296.679	87.12
296.909	84.12
297.14	72.12
297.37	88.12
297.601	76.12
297.831	94.12
298.062	83.12
298.292	81.12
298.523	77.12
298.753	92.12
298.984	86.12
299.214	92.12
299.445	80.12
299.675	75.12
299.905	73.12
300.136	79.12
300.366	86.12
300.597	93.12
300.827	79.12
301.057	84.12
301.288	93.12
301.518	77.12
301.748	86.12
301.979	98.12
302.209	75.12
302.439	81.12
302.669	94.12
302.9	82.12
303.13	80.12
303.36	84.12
303.59	73.12
303.82	89.12
304.051	83.12
304.281	88.12
304.511	91.12
304.741	91.12
304.971	73.12
305.201	85.12
305.431	92.12
305.661	74.12
305.891	64.12
306.121	73.12
306.352	82.12
306.582	75.12
306.812	91.12
307.042	83.12
307.272	74.12
307.502	81.12
307.731	83.12
307.961	78.12
308.191	96.12
308.421	101.12
308.651	85.12
308.881	81.12
309.111	76.12
309.341	79.12
309.571	81.12
309.8	96.12
310.03	94.12
310.26	89.12
310.49	72.12
310.72	80.12
310.949	101.12
311.179	86.12
311.409	91.12
311.639	81.12
311.868	90.12
312.098	92.12
312.328	88.12
312.557	91.12
312.787	94.12
313.017	81.12
313.246	79.12
313.476	74.12
313.706	65.12
313.935	82.12
314.165	81.12
314.394	88.12
314.624	70.12
314.853	76.12
315.083	75.12
315.312	94.12
315.542	79.12
315.771	91.12
316.001	91.12
316.23	83.12
316.46	84.12
316.689	83.12
316.919	91.12
317.148	84.12
317.377	85.12
317.607	75.12
317.836	73.12
318.065	82.12
318.295	86.12
318.524	81.12
318.753	76.12
318.983	88.12
319.212	99.12
319.441	79.12
319.67	81.12
319.9	84.12
320.129	75.12
320.358	85.12
320.587	92.12
320.816	99.12
321.046	73.12
321.275	89.12
321.504	62.12
321.733	80.12
321.962	81.12
322.191	82.12
322.42	79.12
322.649	86.12
322.878	78.12
323.108	87.12
323.337	73.12
323.566	95.12
323.795	99.12
324.024	87.12
324.253	77.12
324.482	87.12
324.71	80.12
324.939	83.12
325.168	83.12
325.397	85.12
325.626	79.12
325.855	72.12
326.084	99.12
326.313	74.12
326.542	73.12
326.77	72.12
326.999	77.12
327.228	81.12
327.457	96.12
327.686	85.12
327.914	85.12
328.143	85.12
328.372	89.12
328.6	76.12
328.829	61.12
329.058	86.12
329.287	86.12
329.515	77.12
329.744	79.12
329.972	92.12
330.201	87.12
330.43	64.12
330.658	88.12
330.887	78.12
331.115	87.12
331.344	80.12
331.572	72.12
331.801	60.12
332.03	93.12
332.258	93.12
332.486	80.12
332.715	91.12
332.943	88.12
333.172	84.12
333.4	80.12
333.629	88.12
333.857	87.12
334.085	81.12
334.314	97.12
334.542	93.12
334.771	77.12
334.999	82.12
335.227	79.12
335.455	84.12
335.684	93.12
335.912	100.12
336.14	80.12
336.369	78.12
336.597	73.12
336.825	100.12
337.053	77.12
337.281	95.12
337.51	87.12
337.738	88.12
337.966	72.12
338.194	84.12
338.422	76.12
338.65	74.12
338.878	91.12
339.106	80.12
339.334	91.12
339.562	84.12
339.79	79.12
340.018	83.12
340.246	80.12
340.474	63.12
340.702	80.12
340.93	95.12
341.158	89.12
341.386	91.12
341.614	79.12
341.842	77.12
342.07	83.12
342.298	90.12
342.526	78.12
342.754	73.12
342.981	83.12
343.209	71.12
343.437	91.12
343.665	88.12
343.893	91.12
344.12	100.12
344.348	73.12
344.576	96.12
344.804	84.12
345.031	83.12
345.259	83.12
345.487	89.12
345.714	80.12
345.942	82.12
346.17	74.12
346.397	86.12
346.625	80.12
346.853	97.12
347.08	83.12
347.308	83.12
347.535	76.12
347.763	87.12
347.99	90.12
348.218	87.12
348.445	82.12
348.673	86.12
348.9	90.12
349.128	84.12
349.355	87.12
349.583	87.12
349.81	79.12
350.037	71.12
350.265	77.12
350.492	73.12
350.72	77.12
350.947	72.12
351.174	88.12
351.402	88.12
351.629	86.12
351.856	90.12
352.083	70.12
352.311	84.12
352.538	88.12
352.765	90.12
352.992	79.12
353.22	72.12
353.447	97.12
353.674	79.12
353.901	86.12
354.128	80.12
354.355	72.12
354.583	78.12
354.81	78.12
355.037	82.12
355.264	84.12
355.491	86.12
355.718	88.12
355.945	65.12
356.172	82.12
356.399	81.12
356.626	79.12
356.853	74.12
357.08	92.12
357.307	76.12
357.534	72.12
357.761	78.12
357.988	70.12
358.215	76.12
358.441	80.12
358.668	83.12
358.895	93.12
359.122	86.12
359.349	84.12
359.576	83.12
359.802	76.12
360.029	83.12
360.256	75.12
360.483	84.12
360.709	85.12
360.936	88.12
361.163	74.12
361.39	79.12
361.616	78.12
361.843	87.12
362.07	75.12
362.296	74.12
362.523	75.12
362.749	66.12
362.976	81.12
363.203	94.12
363.429	85.12
363.656	80.12
363.882	77.12
364.109	83.12
364.335	83.12
364.562	77.12
364.788	77.12
365.015	80.12
365.241	85.12
365.468	88.12
365.694	80.12
365.92	95.12
366.147	80.12
366.373	77.12
366.599	86.12
366.826	83.12
367.052	91.12
367.278	84.12
367.505	88.12
367.731	97.12
367.957	77.12
368.184	85.12
368.41	76.12
368.636	76.12
368.862	88.12
369.089	89.12
369.315	79.12
369.541	91.12
369.767	79.12
369.993	81.12
370.219	78.12
370.445	74.12
370.672	83.12
370.898	79.12
371.124	80.12
371.35	79.12
371.576	90.12
371.802	77.12
372.028	74.12
372.254	80.12
372.48	86.12
372.706	75.12
372.932	88.12
373.158	75.12
373.384	76.12
373.61	78.12
373.835	72.12
374.061	92.12
374.287	81.12
374.513	80.12
374.739	85.12
374.965	89.12
375.191	74.12
375.416	91.12
375.642	81.12
375.868	87.12
376.094	87.12
376.319	84.12
376.545	81.12
376.771	80.12
376.997	84.12
377.222	73.12
377.448	87.12
377.674	82.12
377.899	87.12
378.125	99.12
378.35	73.12
378.576	75.12
378.802	66.12
379.027	85.12
379.253	79.12
379.478	83.12
379.704	78.12
379.929	93.12
380.155	86.12
380.38	76.12
380.606	87.12
380.831	87.12
381.057	88.12
381.282	88.12
381.507	82.12
381.733	91.12
381.958	77.12
382.184	76.12
382.409	70.12
382.634	73.12
382.86	87.12
383.085	83.12
383.31	70.12
383.535	106.12
383.761	81.12
383.986	85.12
384.211	79.12
384.436	73.12
384.662	74.12
384.887	92.12
385.112	88.12
385.337	58.12
385.562	69.12
385.787	86.12
386.013	87.12
386.238	67.12
386.463	78.12
386.688	102.12
386.913	89.12
387.138	80.12
387.363	67.12
387.588	79.12
387.813	85.12
388.038	81.12
388.263	85.12
388.488	92.12
388.713	76.12
388.938	87.12
389.163	93.12
389.387	79.12
389.612	80.12
389.837	82.12
390.062	102.12
390.287	80.12
390.512	97.12
390.736	83.12
390.961	71.12
391.186	80.12
391.411	82.12
391.636	90.12
391.86	76.12
392.085	83.12
392.31	81.12
392.534	76.12
392.759	82.12
392.984	87.12
393.208	86.12
393.433	83.12
393.658	77.12
393.882	82.12
394.107	83.12
394.331	84.12
394.556	70.12
394.78	89.12
395.005	75.12
395.229	83.12
395.454	71.12
395.678	91.12
395.903	83.12
396.127	71.12
396.352	93.12
396.576	79.12
396.801	75.12
397.025	78.12
397.249	93.12
397.474	73.12
397.698	75.12
397.922	83.12
398.147	78.12
398.371	83.12
398.595	95.12
398.82	81.12
399.044	68.12
399.268	87.12
399.492	88.12
399.717	84.12
399.941	94.12
400.165	95.12
400.389	81.12
400.613	83.12
400.837	80.12
401.062	103.12
401.286	82.12
401.51	88.12
401.734	73.12
401.958	71.12
402.182	75.12
402.406	73.12
402.63	87.12
402.854	88.12
403.078	87.12
403.302	83.12
403.526	73.12
403.75	82.12
403.974	67.12
404.198	66.12
404.422	78.12
404.645	76.12
404.869	77.12
405.093	77.12
405.317	75.12
405.541	79.12
405.765	77.12
405.988	83.12
406.212	101.12
406.436	81.12
406.66	88.12
406.883	87.12
407.107	95.12
407.331	76.12
407.555	71.12
407.778	94.12
408.002	84.12
408.226	75.12
408.449	65.12
408.673	85.12
408.896	86.12
409.12	82.12
409.344	87.12
409.567	79.12
409.791	91.12
410.014	79.12
410.238	79.12
410.461	75.12
410.685	90.12
410.908	73.12
411.132	82.12
411.355	62.12
411.578	78.12
411.802	90.12
412.025	90.12
412.249	89.12
412.472	89.12
412.695	80.12
412.919	86.12
413.142	83.12
413.365	85.12
413.589	69.12
413.812	92.12
414.035	95.12
414.258	94.12
414.482	83.12
414.705	79.12
414.928	80.12
415.151	73.12
415.374	81.12
415.597	88.12
415.821	76.12
416.044	85.12
416.267	86.12
416.49	64.12
416.713	91.12
416.936	82.12
417.159	83.12
417.382	91.12
417.605	85.12
417.828	76.12
418.051	83.12
418.274	87.12
418.497	80.12
418.72	79.12
418.943	86.12
419.166	83.12
419.389	93.12
419.611	81.12
419.834	94.12
420.057	88.12
420.28	81.12
420.503	91.12
420.726	85.12
420.948	88.12
421.171	92.12
421.394	76.12
421.617	77.12
421.839	75.12
422.062	84.12
422.285	85.12
422.507	85.12
422.73	94.12
422.953	89.12
423.175	80.12
423.398	84.12
423.621	86.12
423.843	87.12
424.066	88.12
424.288	76.12
424.511	91.12
424.733	83.12
424.956	73.12
425.178	79.12
425.401	89.12
425.623	80.12
425.846	88.12
426.068	78.12
426.291	92.12
426.513	85.12
426.735	92.12
426.958	82.12
427.18	78.12
427.402	91.12
427.625	89.12
427.847	81.12
428.069	87.12
428.292	87.12
428.514	83.12
428.736	90.12
428.958	83.12
429.181	77.12
429.403	88.12
429.625	90.12
429.847	94.12
430.069	77.12
430.292	87.12
430.514	75.12
430.736	86.12
430.958	79.12
431.18	79.12
431.402	86.12
431.624	76.12
431.846	72.12
432.068	83.12
432.29	80.12
432.512	73.12
432.734	94.12
432.956	78.12
433.178	88.12
433.4	86.12
433.622	87.12
433.844	78.12
434.066	79.12
434.287	88.12
434.509	78.12
434.731	72.12
434.953	87.12
435.175	71.12
435.397	75.12
435.618	76.12
435.84	76.12
436.062	73.12
436.284	79.12
436.505	83.12
436.727	81.12
436.949	84.12
437.17	69.12
437.392	83.12
437.614	92.12
437.835	79.12
438.057	83.12
438.278	70.12
438.5	85.12
438.721	77.12
438.943	81.12
439.165	93.12
439.386	91.12
439.608	83.12
439.829	73.12
440.05	89.12
440.272	76.12
440.493	87.12
440.715	89.12
440.936	84.12
441.158	75.12
441.379	73.12
441.6	79.12
441.822	80.12
442.043	95.12
442.264	73.12
442.486	98.12
442.707	73.12
442.928	83.12
443.149	87.12
443.371	86.12
443.592	79.12
443.813	91.12
444.034	76.12
444.255	71.12
444.476	70.12
444.698	91.12
444.919	75.12
445.14	157.12
445.361	104.12
445.582	70.12
445.803	85.12
446.024	89.12
446.245	94.12
446.466	78.12
446.687	99.12
446.908	80.12
447.129	69.12
447.35	85.12
447.571	91.12
447.792	79.12
448.013	75.12
448.234	91.12
448.455	84.12
448.675	89.12
448.896	77.12
449.117	80.12
449.338	71.12
449.559	71.12
449.779	73.12
450	62.12
450.221	79.12
450.442	94.12
450.662	94.12
450.883	72.12
451.104	77.12
451.324	89.12
451.545	82.12
451.766	78.12
451.986	83.12
452.207	72.12
452.428	80.12
452.648	71.12
452.869	89.12
453.089	81.12
453.31	80.12
453.53	72.12
453.751	76.12
453.971	82.12
454.192	87.12
454.412	69.12
454.633	88.12
454.853	89.12
455.073	78.12
455.294	78.12
455.514	82.12
455.734	82.12
455.955	87.12
456.175	73.12
456.395	71.12
456.616	87.12
456.836	92.12
457.056	76.12
457.276	80.12
457.497	77.12
457.717	78.12
457.937	85.12
458.157	79.12
458.377	86.12
458.598	79.12
458.818	77.12
459.038	79.12
459.258	84.12
459.478	78.12
459.698	89.12
459.918	93.12
460.138	85.12
460.358	71.12
460.578	78.12
460.798	81.12
461.018	70.12
461.238	72.12
461.458	59.12
461.678	88.12
461.898	78.12
462.118	87.12
462.338	78.12
462.558	80.12
462.777	82.12
462.997	79.12
463.217	79.12
463.437	69.12
463.657	89.12
463.876	84.12
464.096	91.12
464.316	83.12
464.536	76.12
464.755	75.12
464.975	74.12
465.195	76.12
465.414	70.12
465.634	88.12
465.854	61.12
466.073	88.12
466.293	80.12
466.512	83.12
466.732	83.12
466.951	83.12
467.171	76.12
467.391	94.12
467.61	75.12
467.829	80.12
468.049	91.12
468.268	89.12
468.488	73.12
468.707	74.12
468.927	83.12
469.146	79.12
469.365	73.12
469.585	89.12
469.804	87.12
470.023	83.12
470.243	94.12
470.462	85.12
470.681	100.12
470.901	93.12
471.12	84.12
471.339	82.12
471.558	81.12
471.777	87.12
471.997	80.12
472.216	90.12
472.435	76.12
472.654	71.12
472.873	89.12
473.092	83.12
473.311	84.12
473.53	87.12
473.749	84.12
473.968	75.12
474.187	77.12
474.406	74.12
474.625	83.12
474.844	95.12
475.063	84.12
475.282	79.12
475.501	75.12
475.72	88.12
475.939	96.12
476.158	84.12
476.377	87.12
476.596	100.12
476.814	78.12
477.033	88.12
477.252	78.12
477.471	85.12
477.69	86.12
477.908	81.12
478.127	91.12
478.346	95.12
478.564	101.12
478.783	93.12
479.002	83.12
479.22	92.12
479.439	92.12
479.658	89.12
479.876	69.12
480.095	97.12
480.313	94.12
480.532	88.12
480.751	77.12
480.969	84.12
481.188	73.12
481.406	86.12
481.624	80.12
481.843	75.12
482.061	87.12
482.28	74.12
482.498	64.12
482.717	89.12
482.935	84.12
483.153	78.12
483.372	80.12
483.59	78.12
483.808	87.12
484.027	103.12
484.245	78.12
484.463	89.12
484.681	79.12
484.9	87.12
485.118	62.12
485.336	86.12
485.554	87.12
485.772	86.12
485.99	87.12
486.209	79.12
486.427	85.12
486.645	79.12
486.863	87.12
487.081	77.12
487.299	87.12
487.517	85.12
487.735	69.12
487.953	89.12
488.171	81.12
488.389	81.12
488.607	80.12
488.825	78.12
489.043	86.12
489.261	86.12
489.479	83.12
489.696	83.12
489.914	68.12
490.132	84.12
490.35	75.12
490.568	88.12
490.786	73.12
491.003	71.12
491.221	80.12
491.439	92.12
491.657	86.12
491.874	81.12
492.092	85.12
492.31	86.12
492.527	79.12
492.745	75.12
492.963	92.12
493.18	69.12
493.398	76.12
493.615	74.12
493.833	78.12
494.05	78.12
494.268	78.12
494.485	72.12
494.703	85.12
494.92	69.12
495.138	86.12
495.355	82.12
495.573	84.12
495.79	91.12
496.008	76.12
496.225	79.12
496.442	84.12
496.66	75.12
496.877	70.12
497.094	80.12
497.312	96.12
497.529	91.12
497.746	92.12
497.963	93.12
498.181	81.12
498.398	90.12
498.615	80.12
498.832	77.12
499.049	92.12
499.267	74.12
499.484	75.12
499.701	96.12
499.918	88.12
500.135	72.12
500.352	83.12
500.569	80.12
500.786	71.12
501.003	80.12
501.22	110.12
501.437	83.12
501.654	72.12
501.871	87.12
502.088	87.12
502.305	80.12
502.522	76.12
502.739	88.12
502.956	81.12
503.172	73.12
503.389	70.12
503.606	93.12
503.823	69.12
504.04	84.12
504.256	93.12
504.473	93.12
504.69	74.12
504.907	87.12
505.123	81.12
505.34	75.12
505.557	75.12
505.773	101.12
505.99	76.12
506.207	88.12
506.423	91.12
506.64	92.12
506.856	88.12
507.073	76.12
507.289	81.12
507.506	100.12
507.722	81.12
507.939	90.12
508.155	99.12
508.372	85.12
508.588	75.12
508.805	67.12
509.021	89.12
509.238	85.12
509.454	73.12
509.67	96.12
509.887	85.12
510.103	88.12
510.319	81.12
510.536	82.12
510.752	80.12
510.968	89.12
511.184	78.12
511.401	80.12
511.617	85.12
511.833	78.12
512.049	97.12
512.265	78.12
512.481	75.12
512.698	95.12
512.914	86.12
513.13	75.12
513.346	81.12
513.562	87.12
513.778	83.12
513.994	83.12
514.21	76.12
514.426	81.12
514.642	75.12
514.858	88.12
515.074	79.12
515.29	95.12
515.506	83.12
515.721	76.12
515.937	99.12
516.153	85.12
516.369	74.12
516.585	85.12
516.801	69.12
517.016	81.12
517.232	86.12
517.448	87.12
517.664	84.12
517.879	87.12
518.095	71.12
518.311	70.12
518.527	85.12
518.742	83.12
518.958	76.12
519.173	87.12
519.389	91.12
519.605	83.12
519.82	91.12
520.036	84.12
