Data from KBr_1_HRD10591_00017.txt Node
Date: Mon Jan 19 13:11:18 EST 2026
User: Yrep
Spectrometer: HR+D1059
Trigger mode: 0
Integration Time (sec): 1.000000E-1
Scans to average: 1
Electric dark correction enabled: true
Nonlinearity correction enabled: false
Boxcar width: 0
XAxis mode: Wavelengths
Number of Pixels in Spectrum: 2048
>>>>>Begin Spectral Data<<<<<
223.165	-31.5
223.4	-31.5
223.635	-31.5
223.869	-19.5
224.104	-11.5
224.338	-21.5
224.573	-7.5
224.808	-11.5
225.042	-2.5
225.277	-32.5
225.511	-9.5
225.746	0.5
225.98	10.5
226.215	19.5
226.449	17.5
226.683	19.5
226.918	32.5
227.152	47.5
227.387	47.5
227.621	50.5
227.856	70.5
228.09	50.5
228.324	66.5
228.559	58.5
228.793	55.5
229.027	74.5
229.262	67.5
229.496	57.5
229.73	72.5
229.964	57.5
230.199	72.5
230.433	87.5
230.667	69.5
230.901	80.5
231.136	76.5
231.37	89.5
231.604	83.5
231.838	97.5
232.072	74.5
232.306	83.5
232.541	79.5
232.775	91.5
233.009	88.5
233.243	74.5
233.477	70.5
233.711	83.5
233.945	75.5
234.179	84.5
234.413	73.5
234.647	76.5
234.881	77.5
235.115	87.5
235.349	82.5
235.583	83.5
235.817	81.5
236.051	86.5
236.285	73.5
236.519	79.5
236.753	79.5
236.987	76.5
237.221	85.5
237.455	59.5
237.689	77.5
237.922	85.5
238.156	73.5
238.39	71.5
238.624	80.5
238.858	69.5
239.091	66.5
239.325	74.5
239.559	79.5
239.793	82.5
240.027	67.5
240.26	84.5
240.494	77.5
240.728	76.5
240.961	66.5
241.195	74.5
241.429	78.5
241.662	69.5
241.896	73.5
242.13	77.5
242.363	72.5
242.597	73.5
242.83	87.5
243.064	77.5
243.298	77.5
243.531	73.5
243.765	85.5
243.998	66.5
244.232	69.5
244.465	67.5
244.699	81.5
244.932	80.5
245.166	90.5
245.399	96.5
245.633	91.5
245.866	82.5
246.099	65.5
246.333	77.5
246.566	88.5
246.8	80.5
247.033	88.5
247.266	71.5
247.5	79.5
247.733	94.5
247.966	79.5
248.2	82.5
248.433	73.5
248.666	78.5
248.899	81.5
249.133	83.5
249.366	84.5
249.599	83.5
249.832	77.5
250.066	90.5
250.299	81.5
250.532	85.5
250.765	81.5
250.998	73.5
251.231	82.5
251.465	89.5
251.698	77.5
251.931	79.5
252.164	77.5
252.397	77.5
252.63	89.5
252.863	83.5
253.096	81.5
253.329	90.5
253.562	88.5
253.795	76.5
254.028	91.5
254.261	74.5
254.494	76.5
254.727	77.5
254.96	63.5
255.193	93.5
255.426	76.5
255.659	80.5
255.892	75.5
256.124	72.5
256.357	93.5
256.59	82.5
256.823	70.5
257.056	95.5
257.289	90.5
257.521	86.5
257.754	86.5
257.987	83.5
258.22	91.5
258.452	82.5
258.685	75.5
258.918	87.5
259.151	85.5
259.383	66.5
259.616	79.5
259.849	80.5
260.081	99.5
260.314	86.5
260.547	74.5
260.779	62.5
261.012	79.5
261.244	94.5
261.477	83.5
261.71	81.5
261.942	92.5
262.175	78.5
262.407	73.5
262.64	73.5
262.872	64.5
263.105	89.5
263.337	81.5
263.57	83.5
263.802	85.5
264.035	92.5
264.267	79.5
264.499	93.5
264.732	81.5
264.964	78.5
265.197	83.5
265.429	67.5
265.661	80.5
265.894	84.5
266.126	81.5
266.358	92.5
266.591	78.5
266.823	93.5
267.055	80.5
267.287	82.5
267.52	88.5
267.752	85.5
267.984	96.5
268.216	85.5
268.448	90.5
268.681	74.5
268.913	80.5
269.145	81.5
269.377	82.5
269.609	97.5
269.841	89.5
270.073	86.5
270.306	82.5
270.538	99.5
270.77	96.5
271.002	68.5
271.234	81.5
271.466	81.5
271.698	76.5
271.93	89.5
272.162	81.5
272.394	85.5
272.626	95.5
272.858	84.5
273.09	79.5
273.322	83.5
273.553	81.5
273.785	98.5
274.017	83.5
274.249	85.5
274.481	89.5
274.713	73.5
274.945	94.5
275.176	82.5
275.408	78.5
275.64	89.5
275.872	77.5
276.104	74.5
276.335	65.5
276.567	77.5
276.799	80.5
277.031	81.5
277.262	90.5
277.494	77.5
277.726	83.5
277.957	80.5
278.189	101.5
278.421	85.5
278.652	93.5
278.884	92.5
279.115	82.5
279.347	92.5
279.579	85.5
279.81	82.5
280.042	79.5
280.273	69.5
280.505	74.5
280.736	76.5
280.968	71.5
281.199	97.5
281.431	85.5
281.662	86.5
281.894	87.5
282.125	90.5
282.356	82.5
282.588	90.5
282.819	80.5
283.051	97.5
283.282	87.5
283.513	93.5
283.745	98.5
283.976	87.5
284.207	85.5
284.439	89.5
284.67	84.5
284.901	82.5
285.132	84.5
285.364	72.5
285.595	79.5
285.826	96.5
286.057	94.5
286.288	75.5
286.52	78.5
286.751	77.5
286.982	76.5
287.213	77.5
287.444	85.5
287.675	97.5
287.906	90.5
288.138	89.5
288.369	86.5
288.6	84.5
288.831	73.5
289.062	80.5
289.293	88.5
289.524	96.5
289.755	91.5
289.986	78.5
290.217	81.5
290.448	83.5
290.679	74.5
290.91	80.5
291.141	79.5
291.371	86.5
291.602	83.5
291.833	87.5
292.064	91.5
292.295	89.5
292.526	92.5
292.757	76.5
292.987	93.5
293.218	82.5
293.449	82.5
293.68	94.5
293.91	82.5
294.141	84.5
294.372	90.5
294.603	74.5
294.833	79.5
295.064	93.5
295.295	93.5
295.525	89.5
295.756	76.5
295.987	82.5
296.217	84.5
296.448	94.5
296.679	87.5
296.909	81.5
297.14	87.5
297.37	92.5
297.601	82.5
297.831	103.5
298.062	85.5
298.292	90.5
298.523	95.5
298.753	68.5
298.984	84.5
299.214	90.5
299.445	104.5
299.675	85.5
299.905	81.5
300.136	82.5
300.366	77.5
300.597	85.5
300.827	71.5
301.057	86.5
301.288	97.5
301.518	78.5
301.748	84.5
301.979	95.5
302.209	89.5
302.439	88.5
302.669	90.5
302.9	87.5
303.13	85.5
303.36	90.5
303.59	92.5
303.82	93.5
304.051	96.5
304.281	101.5
304.511	85.5
304.741	78.5
304.971	94.5
305.201	96.5
305.431	89.5
305.661	77.5
305.891	88.5
306.121	96.5
306.352	91.5
306.582	90.5
306.812	87.5
307.042	78.5
307.272	74.5
307.502	73.5
307.731	88.5
307.961	99.5
308.191	82.5
308.421	85.5
308.651	83.5
308.881	89.5
309.111	92.5
309.341	90.5
309.571	87.5
309.8	79.5
310.03	93.5
310.26	92.5
310.49	85.5
310.72	97.5
310.949	90.5
311.179	87.5
311.409	89.5
311.639	90.5
311.868	98.5
312.098	82.5
312.328	83.5
312.557	87.5
312.787	68.5
313.017	87.5
313.246	84.5
313.476	84.5
313.706	90.5
313.935	80.5
314.165	84.5
314.394	82.5
314.624	84.5
314.853	89.5
315.083	79.5
315.312	91.5
315.542	97.5
315.771	80.5
316.001	82.5
316.23	90.5
316.46	89.5
316.689	93.5
316.919	82.5
317.148	82.5
317.377	101.5
317.607	82.5
317.836	76.5
318.065	97.5
318.295	85.5
318.524	91.5
318.753	76.5
318.983	81.5
319.212	79.5
319.441	80.5
319.67	80.5
319.9	87.5
320.129	95.5
320.358	80.5
320.587	80.5
320.816	78.5
321.046	89.5
321.275	89.5
321.504	86.5
321.733	79.5
321.962	99.5
322.191	104.5
322.42	82.5
322.649	90.5
322.878	95.5
323.108	89.5
323.337	84.5
323.566	85.5
323.795	88.5
324.024	84.5
324.253	71.5
324.482	93.5
324.71	79.5
324.939	65.5
325.168	89.5
325.397	77.5
325.626	99.5
325.855	77.5
326.084	86.5
326.313	76.5
326.542	79.5
326.77	86.5
326.999	87.5
327.228	94.5
327.457	84.5
327.686	90.5
327.914	90.5
328.143	88.5
328.372	91.5
328.6	92.5
328.829	80.5
329.058	91.5
329.287	85.5
329.515	106.5
329.744	89.5
329.972	87.5
330.201	78.5
330.43	87.5
330.658	85.5
330.887	87.5
331.115	77.5
331.344	94.5
331.572	85.5
331.801	79.5
332.03	88.5
332.258	98.5
332.486	90.5
332.715	86.5
332.943	87.5
333.172	99.5
333.4	96.5
333.629	68.5
333.857	75.5
334.085	89.5
334.314	93.5
334.542	87.5
334.771	82.5
334.999	86.5
335.227	97.5
335.455	74.5
335.684	85.5
335.912	90.5
336.14	77.5
336.369	86.5
336.597	92.5
336.825	90.5
337.053	86.5
337.281	81.5
337.51	73.5
337.738	86.5
337.966	88.5
338.194	94.5
338.422	85.5
338.65	95.5
338.878	97.5
339.106	80.5
339.334	86.5
339.562	79.5
339.79	81.5
340.018	76.5
340.246	94.5
340.474	94.5
340.702	93.5
340.93	93.5
341.158	92.5
341.386	89.5
341.614	93.5
341.842	81.5
342.07	85.5
342.298	81.5
342.526	84.5
342.754	81.5
342.981	91.5
343.209	90.5
343.437	93.5
343.665	87.5
343.893	79.5
344.12	87.5
344.348	80.5
344.576	73.5
344.804	81.5
345.031	86.5
345.259	97.5
345.487	81.5
345.714	82.5
345.942	84.5
346.17	90.5
346.397	84.5
346.625	86.5
346.853	80.5
347.08	93.5
347.308	83.5
347.535	80.5
347.763	89.5
347.99	80.5
348.218	87.5
348.445	79.5
348.673	97.5
348.9	94.5
349.128	76.5
349.355	89.5
349.583	88.5
349.81	92.5
350.037	83.5
350.265	86.5
350.492	82.5
350.72	88.5
350.947	88.5
351.174	91.5
351.402	77.5
351.629	74.5
351.856	72.5
352.083	77.5
352.311	83.5
352.538	85.5
352.765	86.5
352.992	92.5
353.22	73.5
353.447	87.5
353.674	64.5
353.901	76.5
354.128	78.5
354.355	89.5
354.583	86.5
354.81	91.5
355.037	86.5
355.264	89.5
355.491	85.5
355.718	68.5
355.945	70.5
356.172	80.5
356.399	74.5
356.626	82.5
356.853	60.5
357.08	77.5
357.307	93.5
357.534	82.5
357.761	86.5
357.988	72.5
358.215	85.5
358.441	86.5
358.668	75.5
358.895	81.5
359.122	86.5
359.349	84.5
359.576	74.5
359.802	79.5
360.029	89.5
360.256	90.5
360.483	79.5
360.709	66.5
360.936	92.5
361.163	94.5
361.39	99.5
361.616	73.5
361.843	89.5
362.07	90.5
362.296	97.5
362.523	88.5
362.749	77.5
362.976	90.5
363.203	84.5
363.429	83.5
363.656	98.5
363.882	76.5
364.109	86.5
364.335	89.5
364.562	83.5
364.788	72.5
365.015	79.5
365.241	93.5
365.468	79.5
365.694	84.5
365.92	89.5
366.147	77.5
366.373	90.5
366.599	75.5
366.826	75.5
367.052	79.5
367.278	77.5
367.505	82.5
367.731	88.5
367.957	97.5
368.184	89.5
368.41	95.5
368.636	87.5
368.862	81.5
369.089	87.5
369.315	72.5
369.541	92.5
369.767	93.5
369.993	86.5
370.219	85.5
370.445	82.5
370.672	83.5
370.898	82.5
371.124	86.5
371.35	84.5
371.576	89.5
371.802	94.5
372.028	85.5
372.254	79.5
372.48	77.5
372.706	75.5
372.932	74.5
373.158	70.5
373.384	73.5
373.61	77.5
373.835	79.5
374.061	77.5
374.287	90.5
374.513	89.5
374.739	92.5
374.965	78.5
375.191	103.5
375.416	85.5
375.642	81.5
375.868	103.5
376.094	79.5
376.319	99.5
376.545	90.5
376.771	82.5
376.997	94.5
377.222	95.5
377.448	87.5
377.674	88.5
377.899	77.5
378.125	88.5
378.35	74.5
378.576	92.5
378.802	85.5
379.027	80.5
379.253	78.5
379.478	76.5
379.704	82.5
379.929	83.5
380.155	82.5
380.38	87.5
380.606	101.5
380.831	73.5
381.057	84.5
381.282	81.5
381.507	86.5
381.733	76.5
381.958	75.5
382.184	67.5
382.409	78.5
382.634	71.5
382.86	86.5
383.085	92.5
383.31	88.5
383.535	83.5
383.761	81.5
383.986	94.5
384.211	74.5
384.436	85.5
384.662	81.5
384.887	78.5
385.112	94.5
385.337	82.5
385.562	92.5
385.787	85.5
386.013	79.5
386.238	73.5
386.463	86.5
386.688	99.5
386.913	75.5
387.138	85.5
387.363	76.5
387.588	90.5
387.813	82.5
388.038	77.5
388.263	91.5
388.488	89.5
388.713	84.5
388.938	90.5
389.163	97.5
389.387	81.5
389.612	96.5
389.837	78.5
390.062	79.5
390.287	85.5
390.512	90.5
390.736	93.5
390.961	71.5
391.186	85.5
391.411	75.5
391.636	84.5
391.86	86.5
392.085	90.5
392.31	81.5
392.534	76.5
392.759	80.5
392.984	83.5
393.208	82.5
393.433	74.5
393.658	80.5
393.882	78.5
394.107	91.5
394.331	85.5
394.556	79.5
394.78	88.5
395.005	81.5
395.229	87.5
395.454	81.5
395.678	82.5
395.903	89.5
396.127	77.5
396.352	75.5
396.576	84.5
396.801	82.5
397.025	64.5
397.249	93.5
397.474	81.5
397.698	70.5
397.922	82.5
398.147	85.5
398.371	58.5
398.595	82.5
398.82	82.5
399.044	74.5
399.268	82.5
399.492	84.5
399.717	83.5
399.941	93.5
400.165	85.5
400.389	80.5
400.613	83.5
400.837	95.5
401.062	86.5
401.286	72.5
401.51	84.5
401.734	81.5
401.958	79.5
402.182	75.5
402.406	77.5
402.63	83.5
402.854	75.5
403.078	80.5
403.302	102.5
403.526	89.5
403.75	79.5
403.974	75.5
404.198	103.5
404.422	73.5
404.645	82.5
404.869	83.5
405.093	66.5
405.317	92.5
405.541	81.5
405.765	75.5
405.988	73.5
406.212	86.5
406.436	78.5
406.66	93.5
406.883	92.5
407.107	75.5
407.331	78.5
407.555	75.5
407.778	87.5
408.002	83.5
408.226	81.5
408.449	85.5
408.673	89.5
408.896	64.5
409.12	78.5
409.344	72.5
409.567	85.5
409.791	85.5
410.014	88.5
410.238	84.5
410.461	73.5
410.685	75.5
410.908	89.5
411.132	94.5
411.355	77.5
411.578	86.5
411.802	85.5
412.025	84.5
412.249	82.5
412.472	72.5
412.695	86.5
412.919	90.5
413.142	73.5
413.365	75.5
413.589	80.5
413.812	72.5
414.035	83.5
414.258	85.5
414.482	80.5
414.705	70.5
414.928	74.5
415.151	72.5
415.374	87.5
415.597	84.5
415.821	77.5
416.044	89.5
416.267	89.5
416.49	74.5
416.713	83.5
416.936	90.5
417.159	85.5
417.382	82.5
417.605	81.5
417.828	75.5
418.051	77.5
418.274	73.5
418.497	71.5
418.72	83.5
418.943	73.5
419.166	81.5
419.389	70.5
419.611	69.5
419.834	86.5
420.057	74.5
420.28	72.5
420.503	62.5
420.726	97.5
420.948	85.5
421.171	67.5
421.394	74.5
421.617	79.5
421.839	65.5
422.062	79.5
422.285	73.5
422.507	78.5
422.73	81.5
422.953	82.5
423.175	89.5
423.398	71.5
423.621	73.5
423.843	72.5
424.066	87.5
424.288	87.5
424.511	72.5
424.733	85.5
424.956	85.5
425.178	88.5
425.401	86.5
425.623	71.5
425.846	87.5
426.068	77.5
426.291	82.5
426.513	83.5
426.735	81.5
426.958	74.5
427.18	72.5
427.402	72.5
427.625	81.5
427.847	76.5
428.069	84.5
428.292	77.5
428.514	80.5
428.736	81.5
428.958	67.5
429.181	66.5
429.403	91.5
429.625	83.5
429.847	72.5
430.069	93.5
430.292	104.5
430.514	79.5
430.736	69.5
430.958	78.5
431.18	84.5
431.402	65.5
431.624	67.5
431.846	83.5
432.068	93.5
432.29	85.5
432.512	78.5
432.734	83.5
432.956	79.5
433.178	73.5
433.4	79.5
433.622	83.5
433.844	74.5
434.066	93.5
434.287	75.5
434.509	69.5
434.731	95.5
434.953	86.5
435.175	83.5
435.397	93.5
435.618	83.5
435.84	78.5
436.062	80.5
436.284	76.5
436.505	78.5
436.727	63.5
436.949	85.5
437.17	74.5
437.392	83.5
437.614	90.5
437.835	80.5
438.057	77.5
438.278	73.5
438.5	71.5
438.721	75.5
438.943	65.5
439.165	79.5
439.386	62.5
439.608	82.5
439.829	78.5
440.05	96.5
440.272	82.5
440.493	83.5
440.715	78.5
440.936	89.5
441.158	90.5
441.379	91.5
441.6	84.5
441.822	88.5
442.043	101.5
442.264	63.5
442.486	66.5
442.707	78.5
442.928	77.5
443.149	76.5
443.371	80.5
443.592	87.5
443.813	94.5
444.034	79.5
444.255	80.5
444.476	82.5
444.698	91.5
444.919	82.5
445.14	173.5
445.361	117.5
445.582	65.5
445.803	75.5
446.024	70.5
446.245	79.5
446.466	86.5
446.687	84.5
446.908	87.5
447.129	68.5
447.35	77.5
447.571	87.5
447.792	77.5
448.013	65.5
448.234	81.5
448.455	92.5
448.675	90.5
448.896	74.5
449.117	77.5
449.338	72.5
449.559	78.5
449.779	92.5
450	79.5
450.221	81.5
450.442	83.5
450.662	63.5
450.883	86.5
451.104	82.5
451.324	79.5
451.545	87.5
451.766	91.5
451.986	91.5
452.207	78.5
452.428	79.5
452.648	96.5
452.869	80.5
453.089	90.5
453.31	89.5
453.53	73.5
453.751	77.5
453.971	78.5
454.192	82.5
454.412	73.5
454.633	83.5
454.853	85.5
455.073	73.5
455.294	73.5
455.514	90.5
455.734	76.5
455.955	98.5
456.175	77.5
456.395	93.5
456.616	86.5
456.836	80.5
457.056	58.5
457.276	65.5
457.497	80.5
457.717	87.5
457.937	73.5
458.157	65.5
458.377	74.5
458.598	90.5
458.818	82.5
459.038	77.5
459.258	80.5
459.478	82.5
459.698	78.5
459.918	94.5
460.138	82.5
460.358	89.5
460.578	74.5
460.798	85.5
461.018	89.5
461.238	87.5
461.458	82.5
461.678	101.5
461.898	75.5
462.118	80.5
462.338	90.5
462.558	87.5
462.777	73.5
462.997	91.5
463.217	72.5
463.437	91.5
463.657	87.5
463.876	78.5
464.096	81.5
464.316	85.5
464.536	76.5
464.755	81.5
464.975	80.5
465.195	87.5
465.414	75.5
465.634	71.5
465.854	82.5
466.073	74.5
466.293	90.5
466.512	86.5
466.732	85.5
466.951	76.5
467.171	76.5
467.391	102.5
467.61	72.5
467.829	86.5
468.049	89.5
468.268	88.5
468.488	78.5
468.707	79.5
468.927	59.5
469.146	73.5
469.365	75.5
469.585	90.5
469.804	93.5
470.023	91.5
470.243	79.5
470.462	77.5
470.681	86.5
470.901	87.5
471.12	89.5
471.339	82.5
471.558	83.5
471.777	80.5
471.997	66.5
472.216	85.5
472.435	87.5
472.654	78.5
472.873	79.5
473.092	84.5
473.311	95.5
473.53	70.5
473.749	73.5
473.968	83.5
474.187	71.5
474.406	83.5
474.625	87.5
474.844	88.5
475.063	74.5
475.282	79.5
475.501	90.5
475.72	94.5
475.939	80.5
476.158	86.5
476.377	90.5
476.596	83.5
476.814	85.5
477.033	74.5
477.252	67.5
477.471	73.5
477.69	90.5
477.908	82.5
478.127	78.5
478.346	82.5
478.564	67.5
478.783	99.5
479.002	77.5
479.22	85.5
479.439	88.5
479.658	95.5
479.876	75.5
480.095	77.5
480.313	96.5
480.532	76.5
480.751	87.5
480.969	91.5
481.188	70.5
481.406	93.5
481.624	89.5
481.843	91.5
482.061	92.5
482.28	90.5
482.498	75.5
482.717	75.5
482.935	72.5
483.153	70.5
483.372	79.5
483.59	83.5
483.808	96.5
484.027	94.5
484.245	93.5
484.463	82.5
484.681	90.5
484.9	87.5
485.118	83.5
485.336	87.5
485.554	86.5
485.772	90.5
485.99	87.5
486.209	86.5
486.427	93.5
486.645	75.5
486.863	86.5
487.081	82.5
487.299	75.5
487.517	87.5
487.735	84.5
487.953	81.5
488.171	86.5
488.389	79.5
488.607	86.5
488.825	78.5
489.043	80.5
489.261	86.5
489.479	96.5
489.696	94.5
489.914	73.5
490.132	83.5
490.35	92.5
490.568	72.5
490.786	88.5
491.003	79.5
491.221	90.5
491.439	86.5
491.657	90.5
491.874	88.5
492.092	92.5
492.31	87.5
492.527	89.5
492.745	87.5
492.963	87.5
493.18	78.5
493.398	85.5
493.615	76.5
493.833	86.5
494.05	78.5
494.268	67.5
494.485	93.5
494.703	79.5
494.92	89.5
495.138	83.5
495.355	81.5
495.573	79.5
495.79	99.5
496.008	91.5
496.225	68.5
496.442	80.5
496.66	78.5
496.877	76.5
497.094	102.5
497.312	94.5
497.529	83.5
497.746	95.5
497.963	83.5
498.181	97.5
498.398	79.5
498.615	87.5
498.832	81.5
499.049	81.5
499.267	83.5
499.484	70.5
499.701	92.5
499.918	77.5
500.135	74.5
500.352	71.5
500.569	75.5
500.786	76.5
501.003	95.5
501.22	69.5
501.437	82.5
501.654	82.5
501.871	77.5
502.088	69.5
502.305	93.5
502.522	77.5
502.739	79.5
502.956	79.5
503.172	96.5
503.389	90.5
503.606	68.5
503.823	84.5
504.04	84.5
504.256	86.5
504.473	86.5
504.69	66.5
504.907	91.5
505.123	89.5
505.34	69.5
505.557	86.5
505.773	92.5
505.99	101.5
506.207	86.5
506.423	83.5
506.64	85.5
506.856	77.5
507.073	83.5
507.289	84.5
507.506	85.5
507.722	80.5
507.939	82.5
508.155	88.5
508.372	82.5
508.588	92.5
508.805	91.5
509.021	96.5
509.238	90.5
509.454	78.5
509.67	75.5
509.887	77.5
510.103	73.5
510.319	81.5
510.536	86.5
510.752	76.5
510.968	95.5
511.184	85.5
511.401	92.5
511.617	76.5
511.833	80.5
512.049	88.5
512.265	81.5
512.481	78.5
512.698	80.5
512.914	85.5
513.13	93.5
513.346	81.5
513.562	67.5
513.778	79.5
513.994	74.5
514.21	77.5
514.426	81.5
514.642	78.5
514.858	102.5
515.074	107.5
515.29	64.5
515.506	87.5
515.721	72.5
515.937	101.5
516.153	86.5
516.369	67.5
516.585	88.5
516.801	81.5
517.016	81.5
517.232	71.5
517.448	95.5
517.664	83.5
517.879	75.5
518.095	94.5
518.311	90.5
518.527	99.5
518.742	89.5
518.958	78.5
519.173	87.5
519.389	94.5
519.605	89.5
519.82	73.5
520.036	73.5
520.251	79.5
520.467	89.5
520.682	82.5
520.898	82.5
521.113	83.5
521.329	87.5
521.544	103.5
521.76	91.5
521.975	86.5
522.19	87.5
522.406	76.5
522.621	77.5
522.836	81.5
523.052	91.5
523.267	90.5
523.482	92.5
523.698	91.5
523.913	94.5
524.128	78.5
524.343	93.5
524.559	88.5
524.774	80.5
524.989	86.5
525.204	85.5
525.419	88.5
525.634	95.5
525.849	76.5
526.064	89.5
526.28	101.5
526.495	91.5
526.71	90.5
526.925	66.5
527.14	94.5
527.355	93.5
527.57	89.5
527.785	97.5
527.999	78.5
528.214	72.5
528.429	79.5
528.644	78.5
528.859	93.5
529.074	101.5
529.289	91.5
529.503	82.5
529.718	81.5
529.933	81.5
530.148	81.5
530.363	76.5
530.577	92.5
530.792	83.5
531.007	87.5
531.221	79.5
531.436	90.5
531.651	83.5
531.865	91.5
532.08	93.5
532.295	96.5
532.509	91.5
532.724	62.5
532.938	72.5
533.153	94.5
533.367	78.5
533.582	79.5
533.796	76.5
534.011	86.5
534.225	103.5
534.44	87.5
534.654	86.5
534.868	88.5
535.083	80.5
535.297	90.5
535.511	88.5
535.726	76.5
535.94	94.5
536.154	85.5
536.369	78.5
536.583	82.5
536.797	82.5
537.011	109.5
537.225	77.5
537.44	102.5
537.654	85.5
537.868	105.5
538.082	82.5
538.296	79.5
538.51	79.5
538.724	85.5
538.938	82.5
539.153	66.5
539.367	90.5
539.581	88.5
539.795	83.5
540.009	77.5
540.222	93.5
