Data from KBr_1_HRD10591_00005.txt Node
Date: Mon Jan 19 13:11:16 EST 2026
User: Yrep
Spectrometer: HR+D1059
Trigger mode: 0
Integration Time (sec): 1.000000E-1
Scans to average: 1
Electric dark correction enabled: true
Nonlinearity correction enabled: false
Boxcar width: 0
XAxis mode: Wavelengths
Number of Pixels in Spectrum: 2048
>>>>>Begin Spectral Data<<<<<
223.165	-24
223.4	-24
223.635	-24
223.869	-23
224.104	-20
224.338	-13
224.573	-4
224.808	-23
225.042	-5
225.277	-19
225.511	-5
225.746	-3
225.98	15
226.215	20
226.449	13
226.683	25
226.918	32
227.152	34
227.387	20
227.621	33
227.856	48
228.09	46
228.324	55
228.559	59
228.793	76
229.027	65
229.262	69
229.496	59
229.73	58
229.964	72
230.199	79
230.433	82
230.667	75
230.901	68
231.136	91
231.37	77
231.604	81
231.838	80
232.072	75
232.306	73
232.541	77
232.775	89
233.009	75
233.243	89
233.477	82
233.711	81
233.945	82
234.179	67
234.413	71
234.647	81
234.881	81
235.115	76
235.349	78
235.583	81
235.817	78
236.051	82
236.285	72
236.519	81
236.753	78
236.987	71
237.221	83
237.455	75
237.689	81
237.922	68
238.156	84
238.39	79
238.624	77
238.858	87
239.091	90
239.325	79
239.559	69
239.793	74
240.027	73
240.26	83
240.494	84
240.728	75
240.961	70
241.195	77
241.429	64
241.662	55
241.896	87
242.13	72
242.363	73
242.597	74
242.83	66
243.064	81
243.298	71
243.531	74
243.765	74
243.998	84
244.232	79
244.465	77
244.699	89
244.932	81
245.166	87
245.399	68
245.633	70
245.866	80
246.099	74
246.333	73
246.566	77
246.8	86
247.033	73
247.266	80
247.5	72
247.733	69
247.966	65
248.2	82
248.433	80
248.666	83
248.899	89
249.133	62
249.366	76
249.599	83
249.832	76
250.066	75
250.299	73
250.532	73
250.765	86
250.998	78
251.231	83
251.465	73
251.698	62
251.931	65
252.164	74
252.397	85
252.63	75
252.863	70
253.096	79
253.329	64
253.562	73
253.795	83
254.028	89
254.261	89
254.494	76
254.727	76
254.96	78
255.193	83
255.426	81
255.659	71
255.892	75
256.124	83
256.357	89
256.59	88
256.823	76
257.056	86
257.289	82
257.521	86
257.754	78
257.987	82
258.22	79
258.452	73
258.685	70
258.918	85
259.151	77
259.383	78
259.616	79
259.849	74
260.081	76
260.314	76
260.547	66
260.779	72
261.012	88
261.244	75
261.477	78
261.71	85
261.942	93
262.175	84
262.407	71
262.64	101
262.872	65
263.105	62
263.337	80
263.57	71
263.802	65
264.035	71
264.267	89
264.499	63
264.732	84
264.964	75
265.197	76
265.429	87
265.661	77
265.894	77
266.126	76
266.358	67
266.591	80
266.823	71
267.055	85
267.287	85
267.52	72
267.752	90
267.984	89
268.216	71
268.448	83
268.681	84
268.913	78
269.145	78
269.377	81
269.609	87
269.841	85
270.073	83
270.306	92
270.538	80
270.77	96
271.002	63
271.234	68
271.466	71
271.698	73
271.93	84
272.162	83
272.394	99
272.626	73
272.858	78
273.09	86
273.322	87
273.553	82
273.785	88
274.017	79
274.249	76
274.481	88
274.713	77
274.945	75
275.176	78
275.408	85
275.64	87
275.872	79
276.104	91
276.335	77
276.567	77
276.799	86
277.031	75
277.262	93
277.494	87
277.726	86
277.957	82
278.189	84
278.421	77
278.652	77
278.884	73
279.115	100
279.347	75
279.579	83
279.81	79
280.042	65
280.273	75
280.505	79
280.736	62
280.968	85
281.199	89
281.431	83
281.662	88
281.894	87
282.125	92
282.356	98
282.588	77
282.819	77
283.051	89
283.282	87
283.513	68
283.745	70
283.976	80
284.207	84
284.439	78
284.67	99
284.901	85
285.132	79
285.364	90
285.595	87
285.826	86
286.057	83
286.288	87
286.52	91
286.751	77
286.982	88
287.213	89
287.444	81
287.675	88
287.906	85
288.138	71
288.369	73
288.6	76
288.831	71
289.062	80
289.293	88
289.524	81
289.755	96
289.986	83
290.217	92
290.448	80
290.679	72
290.91	70
291.141	83
291.371	85
291.602	73
291.833	94
292.064	84
292.295	95
292.526	74
292.757	81
292.987	85
293.218	83
293.449	66
293.68	83
293.91	86
294.141	95
294.372	92
294.603	79
294.833	79
295.064	88
295.295	92
295.525	72
295.756	76
295.987	99
296.217	67
296.448	79
296.679	86
296.909	97
297.14	75
297.37	91
297.601	103
297.831	96
298.062	83
298.292	70
298.523	83
298.753	81
298.984	81
299.214	79
299.445	80
299.675	86
299.905	91
300.136	79
300.366	90
300.597	75
300.827	91
301.057	77
301.288	84
301.518	87
301.748	87
301.979	88
302.209	83
302.439	80
302.669	84
302.9	75
303.13	87
303.36	78
303.59	72
303.82	91
304.051	92
304.281	79
304.511	86
304.741	79
304.971	84
305.201	87
305.431	91
305.661	85
305.891	85
306.121	94
306.352	76
306.582	94
306.812	86
307.042	86
307.272	84
307.502	75
307.731	88
307.961	80
308.191	88
308.421	76
308.651	74
308.881	81
309.111	98
309.341	91
309.571	77
309.8	72
310.03	63
310.26	85
310.49	87
310.72	79
310.949	71
311.179	72
311.409	85
311.639	82
311.868	85
312.098	88
312.328	76
312.557	75
312.787	90
313.017	84
313.246	86
313.476	86
313.706	71
313.935	79
314.165	80
314.394	77
314.624	82
314.853	82
315.083	88
315.312	82
315.542	71
315.771	85
316.001	80
316.23	69
316.46	70
316.689	90
316.919	78
317.148	88
317.377	99
317.607	84
317.836	87
318.065	96
318.295	66
318.524	77
318.753	75
318.983	76
319.212	86
319.441	91
319.67	71
319.9	80
320.129	81
320.358	92
320.587	87
320.816	89
321.046	79
321.275	88
321.504	79
321.733	79
321.962	75
322.191	69
322.42	89
322.649	84
322.878	95
323.108	95
323.337	87
323.566	83
323.795	88
324.024	93
324.253	72
324.482	72
324.71	75
324.939	77
325.168	76
325.397	80
325.626	83
325.855	76
326.084	76
326.313	87
326.542	84
326.77	83
326.999	85
327.228	90
327.457	71
327.686	73
327.914	95
328.143	87
328.372	92
328.6	91
328.829	85
329.058	79
329.287	81
329.515	74
329.744	80
329.972	70
330.201	79
330.43	93
330.658	94
330.887	77
331.115	71
331.344	77
331.572	95
331.801	77
332.03	77
332.258	90
332.486	80
332.715	84
332.943	82
333.172	79
333.4	79
333.629	89
333.857	97
334.085	74
334.314	95
334.542	83
334.771	95
334.999	76
335.227	81
335.455	74
335.684	75
335.912	95
336.14	93
336.369	96
336.597	93
336.825	91
337.053	90
337.281	76
337.51	85
337.738	91
337.966	87
338.194	89
338.422	80
338.65	81
338.878	90
339.106	95
339.334	80
339.562	79
339.79	85
340.018	71
340.246	80
340.474	75
340.702	88
340.93	81
341.158	91
341.386	84
341.614	93
341.842	84
342.07	72
342.298	84
342.526	86
342.754	77
342.981	81
343.209	89
343.437	79
343.665	79
343.893	74
344.12	78
344.348	95
344.576	80
344.804	89
345.031	93
345.259	91
345.487	81
345.714	80
345.942	86
346.17	95
346.397	92
346.625	88
346.853	85
347.08	72
347.308	91
347.535	91
347.763	82
347.99	81
348.218	94
348.445	87
348.673	81
348.9	99
349.128	79
349.355	82
349.583	83
349.81	71
350.037	79
350.265	95
350.492	87
350.72	92
350.947	86
351.174	93
351.402	83
351.629	78
351.856	87
352.083	88
352.311	88
352.538	84
352.765	90
352.992	88
353.22	78
353.447	92
353.674	73
353.901	77
354.128	83
354.355	83
354.583	78
354.81	102
355.037	88
355.264	81
355.491	86
355.718	86
355.945	92
356.172	77
356.399	90
356.626	85
356.853	87
357.08	72
357.307	85
357.534	84
357.761	69
357.988	96
358.215	72
358.441	83
358.668	85
358.895	87
359.122	82
359.349	80
359.576	82
359.802	85
360.029	91
360.256	90
360.483	90
360.709	81
360.936	94
361.163	84
361.39	85
361.616	82
361.843	83
362.07	100
362.296	83
362.523	92
362.749	83
362.976	86
363.203	79
363.429	71
363.656	91
363.882	69
364.109	88
364.335	83
364.562	76
364.788	64
365.015	85
365.241	93
365.468	81
365.694	73
365.92	85
366.147	81
366.373	85
366.599	84
366.826	73
367.052	96
367.278	90
367.505	83
367.731	87
367.957	87
368.184	78
368.41	72
368.636	82
368.862	88
369.089	80
369.315	83
369.541	89
369.767	84
369.993	74
370.219	68
370.445	89
370.672	83
370.898	88
371.124	93
371.35	69
371.576	85
371.802	88
372.028	74
372.254	75
372.48	79
372.706	80
372.932	71
373.158	92
373.384	71
373.61	89
373.835	86
374.061	69
374.287	74
374.513	87
374.739	82
374.965	101
375.191	83
375.416	73
375.642	84
375.868	84
376.094	80
376.319	87
376.545	92
376.771	74
376.997	76
377.222	89
377.448	75
377.674	83
377.899	87
378.125	70
378.35	78
378.576	87
378.802	91
379.027	92
379.253	74
379.478	71
379.704	84
379.929	62
380.155	76
380.38	89
380.606	94
380.831	75
381.057	95
381.282	89
381.507	79
381.733	72
381.958	83
382.184	69
382.409	73
382.634	86
382.86	87
383.085	96
383.31	65
383.535	78
383.761	84
383.986	80
384.211	80
384.436	81
384.662	67
384.887	89
385.112	91
385.337	88
385.562	56
385.787	96
386.013	84
386.238	74
386.463	85
386.688	91
386.913	68
387.138	77
387.363	90
387.588	79
387.813	82
388.038	78
388.263	88
388.488	63
388.713	86
388.938	77
389.163	71
389.387	87
389.612	71
389.837	81
390.062	91
390.287	68
390.512	87
390.736	81
390.961	93
391.186	87
391.411	78
391.636	71
391.86	83
392.085	78
392.31	66
392.534	75
392.759	74
392.984	74
393.208	87
393.433	79
393.658	82
393.882	105
394.107	74
394.331	68
394.556	75
394.78	79
395.005	78
395.229	97
395.454	66
395.678	84
395.903	81
396.127	75
396.352	83
396.576	77
396.801	89
397.025	84
397.249	92
397.474	78
397.698	81
397.922	87
398.147	84
398.371	76
398.595	93
398.82	78
399.044	73
399.268	99
399.492	73
399.717	73
399.941	79
400.165	65
400.389	78
400.613	73
400.837	78
401.062	73
401.286	76
401.51	75
401.734	88
401.958	89
402.182	67
402.406	79
402.63	90
402.854	75
403.078	83
403.302	71
403.526	77
403.75	85
403.974	75
404.198	84
404.422	82
404.645	73
404.869	85
405.093	81
405.317	83
405.541	88
405.765	85
405.988	79
406.212	80
406.436	75
406.66	79
406.883	75
407.107	66
407.331	77
407.555	84
407.778	85
408.002	77
408.226	69
408.449	87
408.673	71
408.896	62
409.12	78
409.344	77
409.567	75
409.791	84
410.014	84
410.238	85
410.461	72
410.685	80
410.908	103
411.132	83
411.355	96
411.578	75
411.802	71
412.025	73
412.249	87
412.472	89
412.695	87
412.919	88
413.142	80
413.365	83
413.589	85
413.812	79
414.035	89
414.258	80
414.482	78
414.705	86
414.928	83
415.151	79
415.374	92
415.597	81
415.821	77
416.044	87
416.267	78
416.49	68
416.713	83
416.936	92
417.159	73
417.382	78
417.605	95
417.828	81
418.051	93
418.274	91
418.497	78
418.72	79
418.943	76
419.166	92
419.389	93
419.611	83
419.834	88
420.057	84
420.28	78
420.503	81
420.726	85
420.948	71
421.171	83
421.394	74
421.617	89
421.839	88
422.062	76
422.285	72
422.507	85
422.73	89
422.953	74
423.175	78
423.398	91
423.621	76
423.843	75
424.066	65
424.288	67
424.511	84
424.733	68
424.956	75
425.178	77
425.401	79
425.623	83
425.846	82
426.068	77
426.291	76
426.513	82
426.735	89
426.958	86
427.18	84
427.402	84
427.625	72
427.847	70
428.069	90
428.292	92
428.514	70
428.736	89
428.958	75
429.181	75
429.403	81
429.625	77
429.847	88
430.069	83
430.292	83
430.514	67
430.736	78
430.958	85
431.18	80
431.402	97
431.624	82
431.846	91
432.068	78
432.29	73
432.512	64
432.734	82
432.956	87
433.178	88
433.4	77
433.622	83
433.844	79
434.066	84
434.287	70
434.509	70
434.731	87
434.953	81
435.175	71
435.397	72
435.618	96
435.84	79
436.062	87
436.284	81
436.505	76
436.727	72
436.949	67
437.17	79
437.392	86
437.614	90
437.835	84
438.057	77
438.278	70
438.5	64
438.721	76
438.943	82
439.165	80
439.386	89
439.608	92
439.829	63
440.05	64
440.272	90
440.493	77
440.715	73
440.936	87
441.158	72
441.379	74
441.6	62
441.822	89
442.043	66
442.264	75
442.486	89
442.707	86
442.928	72
443.149	80
443.371	69
443.592	71
443.813	91
444.034	84
444.255	92
444.476	71
444.698	93
444.919	75
445.14	149
445.361	109
445.582	93
445.803	87
446.024	86
446.245	78
446.466	63
446.687	75
446.908	49
447.129	85
447.35	81
447.571	75
447.792	68
448.013	80
448.234	83
448.455	91
448.675	74
448.896	80
449.117	72
449.338	80
449.559	79
449.779	84
450	82
450.221	73
450.442	74
450.662	89
450.883	81
451.104	76
451.324	79
451.545	85
451.766	82
451.986	79
452.207	85
452.428	79
452.648	75
452.869	90
453.089	84
453.31	85
453.53	69
453.751	67
453.971	88
454.192	76
454.412	69
454.633	85
454.853	84
455.073	76
455.294	74
455.514	83
455.734	93
455.955	74
456.175	66
456.395	80
456.616	95
456.836	86
457.056	79
457.276	77
457.497	78
457.717	73
457.937	85
458.157	79
458.377	71
458.598	79
458.818	84
459.038	79
459.258	77
459.478	70
459.698	64
459.918	91
460.138	73
460.358	76
460.578	91
460.798	75
461.018	74
461.238	92
461.458	85
461.678	92
461.898	88
462.118	72
462.338	80
462.558	75
462.777	71
462.997	78
463.217	78
463.437	80
463.657	83
463.876	71
464.096	77
464.316	84
464.536	75
464.755	72
464.975	94
465.195	78
465.414	77
465.634	81
465.854	79
466.073	65
466.293	62
466.512	89
466.732	72
466.951	78
467.171	62
467.391	82
467.61	83
467.829	83
468.049	71
468.268	68
468.488	80
468.707	80
468.927	77
469.146	80
469.365	87
469.585	78
469.804	95
470.023	77
470.243	79
470.462	66
470.681	99
470.901	74
471.12	80
471.339	89
471.558	79
471.777	83
471.997	74
472.216	75
472.435	64
472.654	69
472.873	86
473.092	91
473.311	86
473.53	75
473.749	79
473.968	71
474.187	66
474.406	72
474.625	70
474.844	78
475.063	75
475.282	72
475.501	80
475.72	81
475.939	78
476.158	99
476.377	74
476.596	77
476.814	66
477.033	85
477.252	75
477.471	73
477.69	89
477.908	82
478.127	78
478.346	84
478.564	78
478.783	91
479.002	86
479.22	91
479.439	81
479.658	86
479.876	84
480.095	81
480.313	76
480.532	74
480.751	88
480.969	81
481.188	75
481.406	92
481.624	84
481.843	85
482.061	85
482.28	87
482.498	74
482.717	88
482.935	71
483.153	70
483.372	69
483.59	90
483.808	77
484.027	76
484.245	80
484.463	84
484.681	63
484.9	84
485.118	77
485.336	84
485.554	89
485.772	89
485.99	77
486.209	75
486.427	84
486.645	75
486.863	78
487.081	80
487.299	76
487.517	87
487.735	71
487.953	84
488.171	88
488.389	85
488.607	83
488.825	76
489.043	77
489.261	81
489.479	72
489.696	86
489.914	76
490.132	83
490.35	95
490.568	88
490.786	91
491.003	77
491.221	71
491.439	86
491.657	67
491.874	63
492.092	82
492.31	77
492.527	64
492.745	77
492.963	80
493.18	83
493.398	77
493.615	82
493.833	85
494.05	77
494.268	77
494.485	73
494.703	83
494.92	77
495.138	76
495.355	78
495.573	84
495.79	80
496.008	70
496.225	80
496.442	92
496.66	86
496.877	86
497.094	81
497.312	105
497.529	96
497.746	83
497.963	90
498.181	92
498.398	81
498.615	86
498.832	92
499.049	84
499.267	88
499.484	92
499.701	77
499.918	85
500.135	79
500.352	71
500.569	79
500.786	88
501.003	69
501.22	94
501.437	77
501.654	69
501.871	83
502.088	82
502.305	85
502.522	96
502.739	86
502.956	88
503.172	86
503.389	82
503.606	71
503.823	84
504.04	102
504.256	87
504.473	75
504.69	88
504.907	81
505.123	82
505.34	82
505.557	92
505.773	77
505.99	79
506.207	86
506.423	85
506.64	83
506.856	89
507.073	87
507.289	82
507.506	91
507.722	80
507.939	84
508.155	82
508.372	77
508.588	91
508.805	84
509.021	79
509.238	90
509.454	79
509.67	78
509.887	91
510.103	75
510.319	74
510.536	91
510.752	79
510.968	80
511.184	80
511.401	84
511.617	97
511.833	85
512.049	76
512.265	73
512.481	87
512.698	94
512.914	97
513.13	78
513.346	63
513.562	92
513.778	73
513.994	75
514.21	83
514.426	77
514.642	85
514.858	84
515.074	78
515.29	73
515.506	74
515.721	63
515.937	78
516.153	80
516.369	82
516.585	89
516.801	84
517.016	82
517.232	87
517.448	79
517.664	87
517.879	85
518.095	102
518.311	71
518.527	80
518.742	81
518.958	87
519.173	79
519.389	78
519.605	88
519.82	65
520.036	75
520.251	79
520.467	84
520.682	91
520.898	90
521.113	80
521.329	93
521.544	100
521.76	71
521.975	77
522.19	83
522.406	82
522.621	74
522.836	79
523.052	86
523.267	87
523.482	71
523.698	89
523.913	90
524.128	90
524.343	75
524.559	100
524.774	79
524.989	68
525.204	82
525.419	76
525.634	103
525.849	82
526.064	71
526.28	78
526.495	93
526.71	96
526.925	83
527.14	72
527.355	82
527.57	84
527.785	85
527.999	71
528.214	75
528.429	92
528.644	93
528.859	76
529.074	94
529.289	80
529.503	92
529.718	75
529.933	71
530.148	73
530.363	70
530.577	88
530.792	79
531.007	85
531.221	78
531.436	94
531.651	78
531.865	81
532.08	92
532.295	87
532.509	73
532.724	76
532.938	84
533.153	88
533.367	62
533.582	84
533.796	84
534.011	89
534.225	81
534.44	82
534.654	78
534.868	87
535.083	84
535.297	77
535.511	93
535.726	89
535.94	96
536.154	91
536.369	75
536.583	85
536.797	81
537.011	95
537.225	71
537.44	76
537.654	77
537.868	77
538.082	87
538.296	87
538.51	70
538.724	93
538.938	83
539.153	93
539.367	88
539.581	80
539.795	93
540.009	88
540.222	75
540.436	77
540.65	76
540.864	72
541.078	86
541.292	88
541.506	90
541.72	95
541.934	85
542.147	89
542.361	73
542.575	88
542.789	76
543.002	79
543.216	88
543.43	75
543.644	81
543.857	72
544.071	84
544.285	95
544.498	81
544.712	74
544.925	94
545.139	88
545.352	92
545.566	78
545.779	89
545.993	95
546.206	75
546.42	93
546.633	85
546.847	83
547.06	84
547.274	79
547.487	87
547.7	73
547.914	77
548.127	78
548.34	72
548.554	84
548.767	88
548.98	80
549.193	78
549.407	74
549.62	65
549.833	77
550.046	88
550.259	75
550.473	93
550.686	94
550.899	95
551.112	79
551.325	84
551.538	81
551.751	77
551.964	83
552.177	83
552.39	92
552.603	96
552.816	88
553.029	65
553.242	79
553.455	92
553.667	91
553.88	86
554.093	91
554.306	87
554.519	79
554.732	70
554.944	80
555.157	77
555.37	88
555.583	66
555.795	84
556.008	89
556.221	84
556.433	88
556.646	80
556.859	92
557.071	87
557.284	84
557.496	89
557.709	87
557.921	86
558.134	81
558.346	102
558.559	96
558.771	85
558.984	74
559.196	88
559.409	89
559.621	92
559.833	74
560.046	84
560.258	83
560.47	82
560.683	67
560.895	77
561.107	89
561.32	79
561.532	81
561.744	82
561.956	83
562.168	81
562.381	81
562.593	84
562.805	85
563.017	87
563.229	83
563.441	92
563.653	71
563.865	84
564.077	79
564.289	71
564.501	84
564.713	86
564.925	90
565.137	80
565.349	85
565.561	88
565.773	91
565.985	96
566.197	92
566.408	73
566.62	86
566.832	88
567.044	95
567.255	78
567.467	89
567.679	81
567.891	74
568.102	90
568.314	99
568.526	73
568.737	94
568.949	97
569.161	81
569.372	90
569.584	64
569.795	82
570.007	85
570.218	79
570.43	90
570.641	92
570.853	79
571.064	73
571.276	80
571.487	74
571.698	63
571.91	92
572.121	93
572.333	88
572.544	68
572.755	76
572.966	75
573.178	91
573.389	78
573.6	72
573.811	78
574.023	93
574.234	77
574.445	91
574.656	61
574.867	79
575.078	87
575.289	90
575.501	102
575.712	80
575.923	80
576.134	76
576.345	82
576.556	65
576.767	90
576.978	88
577.188	59
577.399	81
577.61	67
577.821	91
578.032	90
578.243	91
578.454	89
578.665	86
578.875	83
579.086	80
579.297	74
579.508	86
579.718	88
579.929	91
580.14	75
580.35	70
580.561	88
580.772	73
580.982	71
581.193	85
581.403	91
581.614	97
581.825	84
582.035	86
582.246	83
582.456	87
582.667	79
582.877	69
583.087	81
583.298	80
583.508	86
583.719	69
583.929	83
584.139	74
584.35	64
584.56	79
584.77	89
584.981	87
585.191	79
585.401	87
585.611	89
585.821	83
586.032	79
586.242	77
586.452	90
586.662	81
586.872	63
587.082	93
587.292	90
587.502	86
587.713	73
587.923	82
588.133	79
588.343	86
588.553	84
588.762	77
588.972	101
589.182	91
589.392	86
589.602	84
589.812	83
590.022	78
590.232	79
590.441	90
590.651	78
