Data from KBr_1_HRD10591_00004.txt Node
Date: Mon Jan 19 13:11:16 EST 2026
User: Yrep
Spectrometer: HR+D1059
Trigger mode: 0
Integration Time (sec): 1.000000E-1
Scans to average: 1
Electric dark correction enabled: true
Nonlinearity correction enabled: false
Boxcar width: 0
XAxis mode: Wavelengths
Number of Pixels in Spectrum: 2048
>>>>>Begin Spectral Data<<<<<
223.165	-22.38
223.4	-22.38
223.635	-22.38
223.869	-22.38
224.104	-12.38
224.338	-15.38
224.573	-12.38
224.808	-37.38
225.042	-10.38
225.277	5.62
225.511	6.62
225.746	10.62
225.98	2.62
226.215	10.62
226.449	22.62
226.683	17.62
226.918	15.62
227.152	40.62
227.387	42.62
227.621	41.62
227.856	43.62
228.09	53.62
228.324	52.62
228.559	45.62
228.793	52.62
229.027	63.62
229.262	53.62
229.496	69.62
229.73	55.62
229.964	67.62
230.199	69.62
230.433	61.62
230.667	69.62
230.901	71.62
231.136	77.62
231.37	71.62
231.604	75.62
231.838	86.62
232.072	85.62
232.306	72.62
232.541	75.62
232.775	81.62
233.009	68.62
233.243	86.62
233.477	77.62
233.711	78.62
233.945	75.62
234.179	69.62
234.413	74.62
234.647	73.62
234.881	72.62
235.115	73.62
235.349	80.62
235.583	74.62
235.817	78.62
236.051	79.62
236.285	57.62
236.519	75.62
236.753	79.62
236.987	70.62
237.221	62.62
237.455	87.62
237.689	79.62
237.922	76.62
238.156	83.62
238.39	83.62
238.624	87.62
238.858	84.62
239.091	79.62
239.325	79.62
239.559	73.62
239.793	81.62
240.027	57.62
240.26	73.62
240.494	70.62
240.728	77.62
240.961	86.62
241.195	65.62
241.429	75.62
241.662	69.62
241.896	62.62
242.13	66.62
242.363	75.62
242.597	75.62
242.83	90.62
243.064	83.62
243.298	71.62
243.531	66.62
243.765	83.62
243.998	89.62
244.232	83.62
244.465	73.62
244.699	91.62
244.932	88.62
245.166	86.62
245.399	77.62
245.633	71.62
245.866	60.62
246.099	77.62
246.333	80.62
246.566	80.62
246.8	61.62
247.033	72.62
247.266	75.62
247.5	79.62
247.733	94.62
247.966	89.62
248.2	72.62
248.433	71.62
248.666	83.62
248.899	81.62
249.133	88.62
249.366	79.62
249.599	80.62
249.832	85.62
250.066	83.62
250.299	83.62
250.532	80.62
250.765	73.62
250.998	71.62
251.231	78.62
251.465	71.62
251.698	77.62
251.931	84.62
252.164	72.62
252.397	60.62
252.63	69.62
252.863	77.62
253.096	82.62
253.329	77.62
253.562	83.62
253.795	71.62
254.028	88.62
254.261	68.62
254.494	70.62
254.727	83.62
254.96	86.62
255.193	84.62
255.426	82.62
255.659	85.62
255.892	87.62
256.124	76.62
256.357	83.62
256.59	67.62
256.823	77.62
257.056	85.62
257.289	78.62
257.521	80.62
257.754	82.62
257.987	71.62
258.22	84.62
258.452	80.62
258.685	82.62
258.918	80.62
259.151	85.62
259.383	73.62
259.616	73.62
259.849	83.62
260.081	79.62
260.314	91.62
260.547	90.62
260.779	85.62
261.012	92.62
261.244	79.62
261.477	81.62
261.71	80.62
261.942	79.62
262.175	62.62
262.407	89.62
262.64	64.62
262.872	78.62
263.105	75.62
263.337	87.62
263.57	80.62
263.802	80.62
264.035	79.62
264.267	89.62
264.499	78.62
264.732	87.62
264.964	68.62
265.197	90.62
265.429	86.62
265.661	71.62
265.894	69.62
266.126	83.62
266.358	92.62
266.591	76.62
266.823	72.62
267.055	81.62
267.287	80.62
267.52	88.62
267.752	87.62
267.984	78.62
268.216	80.62
268.448	85.62
268.681	81.62
268.913	89.62
269.145	67.62
269.377	71.62
269.609	76.62
269.841	102.62
270.073	69.62
270.306	79.62
270.538	63.62
270.77	82.62
271.002	69.62
271.234	72.62
271.466	72.62
271.698	76.62
271.93	83.62
272.162	88.62
272.394	97.62
272.626	77.62
272.858	77.62
273.09	75.62
273.322	73.62
273.553	87.62
273.785	78.62
274.017	75.62
274.249	87.62
274.481	84.62
274.713	83.62
274.945	94.62
275.176	81.62
275.408	78.62
275.64	92.62
275.872	79.62
276.104	89.62
276.335	91.62
276.567	89.62
276.799	78.62
277.031	87.62
277.262	88.62
277.494	78.62
277.726	79.62
277.957	79.62
278.189	76.62
278.421	92.62
278.652	75.62
278.884	76.62
279.115	80.62
279.347	65.62
279.579	80.62
279.81	85.62
280.042	79.62
280.273	71.62
280.505	80.62
280.736	81.62
280.968	89.62
281.199	86.62
281.431	90.62
281.662	81.62
281.894	75.62
282.125	84.62
282.356	84.62
282.588	71.62
282.819	78.62
283.051	84.62
283.282	79.62
283.513	84.62
283.745	81.62
283.976	93.62
284.207	92.62
284.439	94.62
284.67	94.62
284.901	92.62
285.132	69.62
285.364	80.62
285.595	90.62
285.826	84.62
286.057	80.62
286.288	75.62
286.52	72.62
286.751	76.62
286.982	71.62
287.213	69.62
287.444	95.62
287.675	92.62
287.906	92.62
288.138	84.62
288.369	86.62
288.6	80.62
288.831	68.62
289.062	78.62
289.293	73.62
289.524	90.62
289.755	89.62
289.986	71.62
290.217	75.62
290.448	83.62
290.679	83.62
290.91	75.62
291.141	64.62
291.371	78.62
291.602	88.62
291.833	73.62
292.064	73.62
292.295	92.62
292.526	80.62
292.757	80.62
292.987	77.62
293.218	75.62
293.449	85.62
293.68	82.62
293.91	75.62
294.141	80.62
294.372	85.62
294.603	91.62
294.833	76.62
295.064	81.62
295.295	93.62
295.525	91.62
295.756	93.62
295.987	91.62
296.217	76.62
296.448	72.62
296.679	89.62
296.909	81.62
297.14	77.62
297.37	86.62
297.601	92.62
297.831	70.62
298.062	90.62
298.292	78.62
298.523	75.62
298.753	80.62
298.984	97.62
299.214	87.62
299.445	87.62
299.675	88.62
299.905	94.62
300.136	82.62
300.366	65.62
300.597	87.62
300.827	78.62
301.057	69.62
301.288	82.62
301.518	92.62
301.748	94.62
301.979	92.62
302.209	69.62
302.439	81.62
302.669	89.62
302.9	92.62
303.13	79.62
303.36	89.62
303.59	84.62
303.82	80.62
304.051	85.62
304.281	76.62
304.511	92.62
304.741	78.62
304.971	80.62
305.201	86.62
305.431	70.62
305.661	74.62
305.891	70.62
306.121	86.62
306.352	72.62
306.582	87.62
306.812	88.62
307.042	60.62
307.272	84.62
307.502	78.62
307.731	84.62
307.961	83.62
308.191	86.62
308.421	79.62
308.651	78.62
308.881	80.62
309.111	72.62
309.341	79.62
309.571	94.62
309.8	85.62
310.03	83.62
310.26	78.62
310.49	77.62
310.72	83.62
310.949	83.62
311.179	90.62
311.409	79.62
311.639	87.62
311.868	83.62
312.098	92.62
312.328	86.62
312.557	83.62
312.787	88.62
313.017	89.62
313.246	80.62
313.476	73.62
313.706	64.62
313.935	75.62
314.165	83.62
314.394	85.62
314.624	70.62
314.853	84.62
315.083	72.62
315.312	69.62
315.542	86.62
315.771	89.62
316.001	86.62
316.23	84.62
316.46	73.62
316.689	91.62
316.919	79.62
317.148	80.62
317.377	79.62
317.607	76.62
317.836	90.62
318.065	91.62
318.295	94.62
318.524	90.62
318.753	77.62
318.983	65.62
319.212	84.62
319.441	75.62
319.67	76.62
319.9	71.62
320.129	86.62
320.358	77.62
320.587	91.62
320.816	85.62
321.046	85.62
321.275	78.62
321.504	80.62
321.733	90.62
321.962	87.62
322.191	74.62
322.42	71.62
322.649	85.62
322.878	92.62
323.108	56.62
323.337	85.62
323.566	80.62
323.795	72.62
324.024	87.62
324.253	88.62
324.482	81.62
324.71	82.62
324.939	83.62
325.168	86.62
325.397	93.62
325.626	78.62
325.855	85.62
326.084	76.62
326.313	77.62
326.542	79.62
326.77	92.62
326.999	79.62
327.228	97.62
327.457	75.62
327.686	75.62
327.914	97.62
328.143	85.62
328.372	89.62
328.6	90.62
328.829	78.62
329.058	84.62
329.287	91.62
329.515	89.62
329.744	66.62
329.972	85.62
330.201	80.62
330.43	92.62
330.658	85.62
330.887	80.62
331.115	80.62
331.344	71.62
331.572	86.62
331.801	80.62
332.03	76.62
332.258	91.62
332.486	91.62
332.715	82.62
332.943	80.62
333.172	88.62
333.4	88.62
333.629	89.62
333.857	78.62
334.085	79.62
334.314	77.62
334.542	95.62
334.771	87.62
334.999	95.62
335.227	73.62
335.455	79.62
335.684	96.62
335.912	75.62
336.14	72.62
336.369	77.62
336.597	81.62
336.825	83.62
337.053	86.62
337.281	67.62
337.51	87.62
337.738	85.62
337.966	77.62
338.194	76.62
338.422	92.62
338.65	96.62
338.878	64.62
339.106	77.62
339.334	81.62
339.562	85.62
339.79	76.62
340.018	86.62
340.246	75.62
340.474	84.62
340.702	73.62
340.93	88.62
341.158	76.62
341.386	91.62
341.614	80.62
341.842	83.62
342.07	86.62
342.298	87.62
342.526	72.62
342.754	71.62
342.981	73.62
343.209	93.62
343.437	87.62
343.665	96.62
343.893	74.62
344.12	83.62
344.348	76.62
344.576	79.62
344.804	85.62
345.031	80.62
345.259	101.62
345.487	79.62
345.714	80.62
345.942	89.62
346.17	93.62
346.397	81.62
346.625	78.62
346.853	63.62
347.08	76.62
347.308	77.62
347.535	83.62
347.763	78.62
347.99	68.62
348.218	59.62
348.445	79.62
348.673	74.62
348.9	84.62
349.128	90.62
349.355	76.62
349.583	79.62
349.81	81.62
350.037	76.62
350.265	86.62
350.492	75.62
350.72	70.62
350.947	80.62
351.174	83.62
351.402	83.62
351.629	93.62
351.856	93.62
352.083	84.62
352.311	76.62
352.538	79.62
352.765	95.62
352.992	80.62
353.22	73.62
353.447	86.62
353.674	91.62
353.901	67.62
354.128	78.62
354.355	74.62
354.583	77.62
354.81	74.62
355.037	93.62
355.264	76.62
355.491	91.62
355.718	67.62
355.945	92.62
356.172	78.62
356.399	78.62
356.626	71.62
356.853	65.62
357.08	67.62
357.307	95.62
357.534	69.62
357.761	81.62
357.988	93.62
358.215	80.62
358.441	86.62
358.668	89.62
358.895	79.62
359.122	100.62
359.349	96.62
359.576	80.62
359.802	60.62
360.029	70.62
360.256	71.62
360.483	75.62
360.709	70.62
360.936	97.62
361.163	75.62
361.39	92.62
361.616	79.62
361.843	83.62
362.07	89.62
362.296	80.62
362.523	79.62
362.749	71.62
362.976	80.62
363.203	87.62
363.429	77.62
363.656	89.62
363.882	93.62
364.109	88.62
364.335	74.62
364.562	71.62
364.788	79.62
365.015	73.62
365.241	78.62
365.468	84.62
365.694	80.62
365.92	87.62
366.147	87.62
366.373	85.62
366.599	79.62
366.826	92.62
367.052	76.62
367.278	86.62
367.505	83.62
367.731	74.62
367.957	72.62
368.184	82.62
368.41	75.62
368.636	85.62
368.862	91.62
369.089	87.62
369.315	92.62
369.541	77.62
369.767	87.62
369.993	69.62
370.219	72.62
370.445	80.62
370.672	76.62
370.898	72.62
371.124	93.62
371.35	85.62
371.576	62.62
371.802	83.62
372.028	61.62
372.254	88.62
372.48	90.62
372.706	76.62
372.932	84.62
373.158	83.62
373.384	90.62
373.61	77.62
373.835	77.62
374.061	97.62
374.287	80.62
374.513	86.62
374.739	73.62
374.965	77.62
375.191	89.62
375.416	90.62
375.642	92.62
375.868	87.62
376.094	79.62
376.319	84.62
376.545	89.62
376.771	84.62
376.997	90.62
377.222	86.62
377.448	73.62
377.674	84.62
377.899	68.62
378.125	87.62
378.35	66.62
378.576	79.62
378.802	68.62
379.027	63.62
379.253	77.62
379.478	79.62
379.704	91.62
379.929	86.62
380.155	86.62
380.38	79.62
380.606	72.62
380.831	80.62
381.057	80.62
381.282	84.62
381.507	76.62
381.733	69.62
381.958	79.62
382.184	64.62
382.409	82.62
382.634	77.62
382.86	69.62
383.085	81.62
383.31	92.62
383.535	79.62
383.761	80.62
383.986	90.62
384.211	72.62
384.436	73.62
384.662	88.62
384.887	75.62
385.112	83.62
385.337	87.62
385.562	80.62
385.787	95.62
386.013	85.62
386.238	80.62
386.463	83.62
386.688	84.62
386.913	89.62
387.138	85.62
387.363	67.62
387.588	79.62
387.813	91.62
388.038	77.62
388.263	88.62
388.488	89.62
388.713	87.62
388.938	69.62
389.163	89.62
389.387	84.62
389.612	84.62
389.837	77.62
390.062	81.62
390.287	91.62
390.512	83.62
390.736	91.62
390.961	77.62
391.186	78.62
391.411	68.62
391.636	76.62
391.86	85.62
392.085	89.62
392.31	84.62
392.534	83.62
392.759	95.62
392.984	83.62
393.208	87.62
393.433	86.62
393.658	87.62
393.882	88.62
394.107	89.62
394.331	84.62
394.556	83.62
394.78	81.62
395.005	80.62
395.229	84.62
395.454	96.62
395.678	75.62
395.903	81.62
396.127	76.62
396.352	78.62
396.576	74.62
396.801	76.62
397.025	88.62
397.249	87.62
397.474	71.62
397.698	82.62
397.922	80.62
398.147	97.62
398.371	83.62
398.595	79.62
398.82	84.62
399.044	85.62
399.268	75.62
399.492	79.62
399.717	78.62
399.941	84.62
400.165	76.62
400.389	72.62
400.613	72.62
400.837	66.62
401.062	89.62
401.286	72.62
401.51	97.62
401.734	82.62
401.958	79.62
402.182	83.62
402.406	80.62
402.63	76.62
402.854	92.62
403.078	78.62
403.302	62.62
403.526	80.62
403.75	72.62
403.974	70.62
404.198	86.62
404.422	76.62
404.645	90.62
404.869	79.62
405.093	75.62
405.317	69.62
405.541	78.62
405.765	74.62
405.988	78.62
406.212	83.62
406.436	74.62
406.66	73.62
406.883	66.62
407.107	84.62
407.331	85.62
407.555	79.62
407.778	86.62
408.002	78.62
408.226	85.62
408.449	66.62
408.673	74.62
408.896	85.62
409.12	72.62
409.344	96.62
409.567	100.62
409.791	90.62
410.014	83.62
410.238	75.62
410.461	71.62
410.685	83.62
410.908	78.62
411.132	69.62
411.355	79.62
411.578	79.62
411.802	73.62
412.025	89.62
412.249	85.62
412.472	82.62
412.695	84.62
412.919	57.62
413.142	72.62
413.365	73.62
413.589	71.62
413.812	68.62
414.035	82.62
414.258	73.62
414.482	73.62
414.705	64.62
414.928	71.62
415.151	77.62
415.374	83.62
415.597	85.62
415.821	75.62
416.044	79.62
416.267	92.62
416.49	77.62
416.713	87.62
416.936	79.62
417.159	72.62
417.382	80.62
417.605	85.62
417.828	83.62
418.051	83.62
418.274	89.62
418.497	79.62
418.72	77.62
418.943	82.62
419.166	79.62
419.389	71.62
419.611	89.62
419.834	81.62
420.057	85.62
420.28	92.62
420.503	87.62
420.726	77.62
420.948	72.62
421.171	88.62
421.394	79.62
421.617	70.62
421.839	76.62
422.062	86.62
422.285	84.62
422.507	76.62
422.73	77.62
422.953	63.62
423.175	73.62
423.398	79.62
423.621	61.62
423.843	72.62
424.066	69.62
424.288	78.62
424.511	72.62
424.733	71.62
424.956	77.62
425.178	88.62
425.401	87.62
425.623	74.62
425.846	84.62
426.068	83.62
426.291	73.62
426.513	75.62
426.735	74.62
426.958	74.62
427.18	74.62
427.402	89.62
427.625	77.62
427.847	74.62
428.069	90.62
428.292	86.62
428.514	64.62
428.736	72.62
428.958	88.62
429.181	83.62
429.403	70.62
429.625	84.62
429.847	64.62
430.069	61.62
430.292	76.62
430.514	75.62
430.736	71.62
430.958	78.62
431.18	68.62
431.402	85.62
431.624	88.62
431.846	73.62
432.068	91.62
432.29	65.62
432.512	83.62
432.734	81.62
432.956	75.62
433.178	77.62
433.4	87.62
433.622	89.62
433.844	84.62
434.066	72.62
434.287	89.62
434.509	77.62
434.731	69.62
434.953	74.62
435.175	68.62
435.397	88.62
435.618	79.62
435.84	75.62
436.062	75.62
436.284	87.62
436.505	85.62
436.727	84.62
436.949	78.62
437.17	75.62
437.392	67.62
437.614	77.62
437.835	79.62
438.057	81.62
438.278	88.62
438.5	73.62
438.721	78.62
438.943	73.62
439.165	63.62
439.386	86.62
439.608	92.62
439.829	80.62
440.05	76.62
440.272	88.62
440.493	89.62
440.715	79.62
440.936	82.62
441.158	79.62
441.379	89.62
441.6	87.62
441.822	89.62
442.043	95.62
442.264	88.62
442.486	77.62
442.707	77.62
442.928	82.62
443.149	79.62
443.371	65.62
443.592	83.62
443.813	85.62
444.034	76.62
444.255	72.62
444.476	68.62
444.698	77.62
444.919	75.62
445.14	132.62
445.361	88.62
445.582	67.62
445.803	83.62
446.024	83.62
446.245	71.62
446.466	70.62
446.687	69.62
446.908	78.62
447.129	63.62
447.35	82.62
447.571	79.62
447.792	75.62
448.013	68.62
448.234	81.62
448.455	71.62
448.675	94.62
448.896	84.62
449.117	77.62
449.338	71.62
449.559	81.62
449.779	83.62
450	81.62
450.221	67.62
450.442	71.62
450.662	85.62
450.883	76.62
451.104	73.62
451.324	94.62
451.545	85.62
451.766	78.62
451.986	81.62
452.207	88.62
452.428	79.62
452.648	80.62
452.869	79.62
453.089	79.62
453.31	77.62
453.53	81.62
453.751	77.62
453.971	74.62
454.192	85.62
454.412	66.62
454.633	84.62
454.853	84.62
455.073	62.62
455.294	70.62
455.514	85.62
455.734	80.62
455.955	60.62
456.175	81.62
456.395	70.62
456.616	82.62
456.836	87.62
457.056	78.62
457.276	78.62
457.497	77.62
457.717	83.62
457.937	78.62
458.157	67.62
458.377	76.62
458.598	80.62
458.818	95.62
459.038	83.62
459.258	78.62
459.478	83.62
459.698	83.62
459.918	76.62
460.138	80.62
460.358	77.62
460.578	78.62
460.798	83.62
461.018	71.62
461.238	71.62
461.458	79.62
461.678	78.62
461.898	75.62
462.118	99.62
462.338	87.62
462.558	64.62
462.777	82.62
462.997	57.62
463.217	78.62
463.437	84.62
463.657	81.62
463.876	86.62
464.096	85.62
464.316	80.62
464.536	74.62
464.755	91.62
464.975	73.62
465.195	88.62
465.414	99.62
465.634	84.62
465.854	79.62
466.073	83.62
466.293	76.62
466.512	83.62
466.732	73.62
466.951	66.62
467.171	81.62
467.391	92.62
467.61	92.62
467.829	74.62
468.049	95.62
468.268	75.62
468.488	92.62
468.707	93.62
468.927	74.62
469.146	67.62
469.365	87.62
469.585	80.62
469.804	72.62
470.023	81.62
470.243	80.62
470.462	93.62
470.681	78.62
470.901	79.62
471.12	78.62
471.339	71.62
471.558	87.62
471.777	77.62
471.997	81.62
472.216	73.62
472.435	77.62
472.654	75.62
472.873	86.62
473.092	94.62
473.311	76.62
473.53	75.62
473.749	85.62
473.968	92.62
474.187	74.62
474.406	71.62
474.625	84.62
474.844	68.62
475.063	87.62
475.282	91.62
475.501	87.62
475.72	83.62
475.939	65.62
476.158	91.62
476.377	83.62
476.596	84.62
476.814	86.62
477.033	81.62
477.252	83.62
477.471	70.62
477.69	75.62
477.908	85.62
478.127	94.62
478.346	88.62
478.564	79.62
478.783	83.62
479.002	85.62
479.22	72.62
479.439	80.62
479.658	73.62
479.876	86.62
480.095	71.62
480.313	65.62
480.532	68.62
480.751	73.62
480.969	91.62
481.188	80.62
481.406	87.62
481.624	83.62
481.843	71.62
482.061	76.62
482.28	76.62
482.498	99.62
482.717	73.62
482.935	89.62
483.153	88.62
483.372	92.62
483.59	72.62
483.808	72.62
484.027	74.62
484.245	71.62
484.463	81.62
484.681	85.62
484.9	75.62
485.118	78.62
485.336	85.62
485.554	86.62
485.772	82.62
485.99	66.62
486.209	93.62
486.427	81.62
486.645	81.62
486.863	72.62
487.081	75.62
487.299	87.62
487.517	76.62
487.735	83.62
487.953	82.62
488.171	86.62
488.389	85.62
488.607	85.62
488.825	72.62
489.043	74.62
489.261	82.62
489.479	86.62
489.696	75.62
489.914	67.62
490.132	87.62
490.35	78.62
490.568	66.62
490.786	76.62
491.003	82.62
491.221	75.62
491.439	88.62
491.657	84.62
491.874	97.62
492.092	75.62
492.31	79.62
492.527	72.62
492.745	83.62
492.963	80.62
493.18	81.62
493.398	92.62
493.615	86.62
493.833	66.62
494.05	77.62
494.268	79.62
494.485	77.62
494.703	69.62
494.92	80.62
495.138	76.62
495.355	86.62
495.573	82.62
495.79	66.62
496.008	80.62
496.225	90.62
496.442	79.62
496.66	74.62
496.877	83.62
497.094	87.62
497.312	84.62
497.529	79.62
497.746	88.62
497.963	73.62
498.181	82.62
498.398	71.62
498.615	73.62
498.832	66.62
499.049	82.62
499.267	83.62
499.484	81.62
499.701	88.62
499.918	81.62
500.135	86.62
500.352	95.62
500.569	82.62
500.786	80.62
501.003	85.62
501.22	76.62
501.437	81.62
501.654	81.62
501.871	91.62
502.088	74.62
502.305	84.62
502.522	83.62
502.739	83.62
502.956	83.62
503.172	74.62
503.389	78.62
503.606	71.62
503.823	91.62
504.04	93.62
504.256	92.62
504.473	83.62
504.69	82.62
504.907	83.62
505.123	68.62
505.34	76.62
505.557	79.62
505.773	78.62
505.99	54.62
506.207	72.62
506.423	88.62
506.64	79.62
506.856	88.62
507.073	85.62
507.289	80.62
507.506	72.62
507.722	71.62
507.939	100.62
508.155	67.62
508.372	71.62
508.588	72.62
508.805	93.62
509.021	82.62
509.238	88.62
509.454	81.62
509.67	75.62
509.887	72.62
510.103	85.62
510.319	84.62
510.536	84.62
510.752	87.62
510.968	70.62
511.184	96.62
511.401	85.62
511.617	84.62
511.833	73.62
512.049	89.62
512.265	79.62
512.481	92.62
512.698	64.62
512.914	81.62
513.13	91.62
513.346	78.62
513.562	85.62
513.778	99.62
513.994	93.62
514.21	87.62
514.426	76.62
514.642	79.62
514.858	89.62
515.074	85.62
515.29	96.62
515.506	83.62
515.721	94.62
515.937	90.62
516.153	79.62
516.369	70.62
516.585	88.62
516.801	94.62
517.016	76.62
517.232	77.62
517.448	93.62
517.664	95.62
517.879	70.62
518.095	89.62
518.311	86.62
518.527	97.62
518.742	95.62
518.958	80.62
519.173	90.62
519.389	96.62
519.605	85.62
519.82	88.62
520.036	91.62
520.251	77.62
