Data from KBr_1_HRD10591_00039.txt Node
Date: Mon Jan 19 13:11:20 EST 2026
User: Yrep
Spectrometer: HR+D1059
Trigger mode: 0
Integration Time (sec): 1.000000E-1
Scans to average: 1
Electric dark correction enabled: true
Nonlinearity correction enabled: false
Boxcar width: 0
XAxis mode: Wavelengths
Number of Pixels in Spectrum: 2048
>>>>>Begin Spectral Data<<<<<
223.165	-19.75
223.4	-19.75
223.635	-19.75
223.869	-18.75
224.104	-28.75
224.338	-21.75
224.573	-18.75
224.808	-25.75
225.042	-4.75
225.277	1.25
225.511	1.25
225.746	3.25
225.98	9.25
226.215	15.25
226.449	24.25
226.683	27.25
226.918	31.25
227.152	25.25
227.387	24.25
227.621	44.25
227.856	47.25
228.09	50.25
228.324	55.25
228.559	55.25
228.793	64.25
229.027	56.25
229.262	66.25
229.496	69.25
229.73	70.25
229.964	69.25
230.199	71.25
230.433	63.25
230.667	75.25
230.901	76.25
231.136	64.25
231.37	81.25
231.604	89.25
231.838	84.25
232.072	91.25
232.306	77.25
232.541	92.25
232.775	75.25
233.009	83.25
233.243	73.25
233.477	69.25
233.711	71.25
233.945	56.25
234.179	95.25
234.413	75.25
234.647	85.25
234.881	76.25
235.115	80.25
235.349	69.25
235.583	81.25
235.817	70.25
236.051	72.25
236.285	81.25
236.519	67.25
236.753	69.25
236.987	88.25
237.221	79.25
237.455	76.25
237.689	86.25
237.922	75.25
238.156	71.25
238.39	63.25
238.624	70.25
238.858	85.25
239.091	75.25
239.325	79.25
239.559	76.25
239.793	73.25
240.027	92.25
240.26	73.25
240.494	79.25
240.728	74.25
240.961	77.25
241.195	75.25
241.429	62.25
241.662	65.25
241.896	86.25
242.13	80.25
242.363	72.25
242.597	82.25
242.83	89.25
243.064	57.25
243.298	83.25
243.531	76.25
243.765	81.25
243.998	70.25
244.232	79.25
244.465	71.25
244.699	70.25
244.932	73.25
245.166	86.25
245.399	78.25
245.633	78.25
245.866	65.25
246.099	80.25
246.333	74.25
246.566	76.25
246.8	62.25
247.033	68.25
247.266	87.25
247.5	86.25
247.733	80.25
247.966	78.25
248.2	81.25
248.433	82.25
248.666	87.25
248.899	82.25
249.133	74.25
249.366	78.25
249.599	78.25
249.832	83.25
250.066	67.25
250.299	63.25
250.532	66.25
250.765	62.25
250.998	70.25
251.231	79.25
251.465	64.25
251.698	66.25
251.931	75.25
252.164	78.25
252.397	87.25
252.63	78.25
252.863	79.25
253.096	83.25
253.329	81.25
253.562	78.25
253.795	77.25
254.028	79.25
254.261	83.25
254.494	77.25
254.727	84.25
254.96	85.25
255.193	84.25
255.426	71.25
255.659	79.25
255.892	85.25
256.124	87.25
256.357	83.25
256.59	78.25
256.823	76.25
257.056	87.25
257.289	70.25
257.521	87.25
257.754	79.25
257.987	84.25
258.22	80.25
258.452	66.25
258.685	77.25
258.918	75.25
259.151	69.25
259.383	96.25
259.616	77.25
259.849	89.25
260.081	76.25
260.314	81.25
260.547	78.25
260.779	77.25
261.012	90.25
261.244	84.25
261.477	74.25
261.71	88.25
261.942	88.25
262.175	68.25
262.407	72.25
262.64	71.25
262.872	85.25
263.105	77.25
263.337	87.25
263.57	80.25
263.802	88.25
264.035	76.25
264.267	74.25
264.499	71.25
264.732	87.25
264.964	78.25
265.197	85.25
265.429	75.25
265.661	80.25
265.894	95.25
266.126	89.25
266.358	88.25
266.591	74.25
266.823	73.25
267.055	85.25
267.287	69.25
267.52	85.25
267.752	87.25
267.984	80.25
268.216	62.25
268.448	75.25
268.681	79.25
268.913	84.25
269.145	69.25
269.377	69.25
269.609	92.25
269.841	66.25
270.073	80.25
270.306	71.25
270.538	77.25
270.77	81.25
271.002	84.25
271.234	82.25
271.466	94.25
271.698	79.25
271.93	71.25
272.162	73.25
272.394	89.25
272.626	72.25
272.858	93.25
273.09	96.25
273.322	92.25
273.553	86.25
273.785	85.25
274.017	76.25
274.249	72.25
274.481	82.25
274.713	90.25
274.945	76.25
275.176	68.25
275.408	88.25
275.64	81.25
275.872	82.25
276.104	84.25
276.335	82.25
276.567	77.25
276.799	87.25
277.031	83.25
277.262	77.25
277.494	75.25
277.726	87.25
277.957	76.25
278.189	75.25
278.421	71.25
278.652	82.25
278.884	101.25
279.115	91.25
279.347	86.25
279.579	78.25
279.81	79.25
280.042	88.25
280.273	90.25
280.505	84.25
280.736	79.25
280.968	73.25
281.199	78.25
281.431	87.25
281.662	92.25
281.894	77.25
282.125	68.25
282.356	79.25
282.588	75.25
282.819	80.25
283.051	91.25
283.282	88.25
283.513	78.25
283.745	75.25
283.976	74.25
284.207	100.25
284.439	99.25
284.67	76.25
284.901	75.25
285.132	88.25
285.364	80.25
285.595	88.25
285.826	81.25
286.057	95.25
286.288	89.25
286.52	76.25
286.751	86.25
286.982	97.25
287.213	83.25
287.444	100.25
287.675	67.25
287.906	76.25
288.138	67.25
288.369	81.25
288.6	69.25
288.831	84.25
289.062	87.25
289.293	75.25
289.524	97.25
289.755	87.25
289.986	106.25
290.217	90.25
290.448	77.25
290.679	79.25
290.91	81.25
291.141	88.25
291.371	74.25
291.602	78.25
291.833	61.25
292.064	83.25
292.295	90.25
292.526	70.25
292.757	93.25
292.987	93.25
293.218	85.25
293.449	102.25
293.68	85.25
293.91	68.25
294.141	80.25
294.372	81.25
294.603	78.25
294.833	78.25
295.064	79.25
295.295	80.25
295.525	76.25
295.756	77.25
295.987	76.25
296.217	72.25
296.448	98.25
296.679	77.25
296.909	73.25
297.14	87.25
297.37	75.25
297.601	83.25
297.831	73.25
298.062	71.25
298.292	90.25
298.523	90.25
298.753	67.25
298.984	59.25
299.214	80.25
299.445	77.25
299.675	91.25
299.905	86.25
300.136	74.25
300.366	96.25
300.597	76.25
300.827	78.25
301.057	81.25
301.288	70.25
301.518	83.25
301.748	92.25
301.979	103.25
302.209	82.25
302.439	79.25
302.669	82.25
302.9	80.25
303.13	77.25
303.36	85.25
303.59	90.25
303.82	87.25
304.051	79.25
304.281	82.25
304.511	85.25
304.741	80.25
304.971	78.25
305.201	79.25
305.431	79.25
305.661	93.25
305.891	79.25
306.121	101.25
306.352	85.25
306.582	77.25
306.812	79.25
307.042	85.25
307.272	88.25
307.502	80.25
307.731	78.25
307.961	82.25
308.191	71.25
308.421	77.25
308.651	97.25
308.881	92.25
309.111	90.25
309.341	69.25
309.571	85.25
309.8	86.25
310.03	85.25
310.26	99.25
310.49	85.25
310.72	88.25
310.949	92.25
311.179	65.25
311.409	84.25
311.639	78.25
311.868	88.25
312.098	87.25
312.328	97.25
312.557	92.25
312.787	91.25
313.017	84.25
313.246	88.25
313.476	91.25
313.706	84.25
313.935	89.25
314.165	71.25
314.394	92.25
314.624	86.25
314.853	88.25
315.083	102.25
315.312	77.25
315.542	80.25
315.771	83.25
316.001	73.25
316.23	85.25
316.46	75.25
316.689	76.25
316.919	84.25
317.148	84.25
317.377	81.25
317.607	84.25
317.836	87.25
318.065	73.25
318.295	78.25
318.524	94.25
318.753	90.25
318.983	82.25
319.212	85.25
319.441	83.25
319.67	88.25
319.9	78.25
320.129	79.25
320.358	83.25
320.587	87.25
320.816	82.25
321.046	85.25
321.275	81.25
321.504	83.25
321.733	71.25
321.962	87.25
322.191	79.25
322.42	85.25
322.649	89.25
322.878	80.25
323.108	89.25
323.337	85.25
323.566	84.25
323.795	83.25
324.024	93.25
324.253	81.25
324.482	90.25
324.71	72.25
324.939	83.25
325.168	95.25
325.397	72.25
325.626	79.25
325.855	93.25
326.084	84.25
326.313	81.25
326.542	83.25
326.77	86.25
326.999	83.25
327.228	84.25
327.457	95.25
327.686	89.25
327.914	89.25
328.143	86.25
328.372	90.25
328.6	72.25
328.829	107.25
329.058	85.25
329.287	76.25
329.515	63.25
329.744	72.25
329.972	84.25
330.201	89.25
330.43	65.25
330.658	74.25
330.887	81.25
331.115	85.25
331.344	96.25
331.572	86.25
331.801	77.25
332.03	94.25
332.258	100.25
332.486	79.25
332.715	103.25
332.943	84.25
333.172	76.25
333.4	83.25
333.629	82.25
333.857	86.25
334.085	89.25
334.314	81.25
334.542	86.25
334.771	84.25
334.999	77.25
335.227	80.25
335.455	67.25
335.684	95.25
335.912	77.25
336.14	84.25
336.369	80.25
336.597	87.25
336.825	108.25
337.053	93.25
337.281	75.25
337.51	88.25
337.738	88.25
337.966	86.25
338.194	81.25
338.422	77.25
338.65	73.25
338.878	83.25
339.106	82.25
339.334	94.25
339.562	72.25
339.79	80.25
340.018	79.25
340.246	97.25
340.474	90.25
340.702	83.25
340.93	93.25
341.158	88.25
341.386	86.25
341.614	76.25
341.842	70.25
342.07	88.25
342.298	94.25
342.526	75.25
342.754	86.25
342.981	89.25
343.209	88.25
343.437	72.25
343.665	77.25
343.893	89.25
344.12	81.25
344.348	82.25
344.576	80.25
344.804	95.25
345.031	83.25
345.259	80.25
345.487	84.25
345.714	83.25
345.942	77.25
346.17	74.25
346.397	93.25
346.625	94.25
346.853	75.25
347.08	74.25
347.308	77.25
347.535	79.25
347.763	87.25
347.99	84.25
348.218	80.25
348.445	86.25
348.673	87.25
348.9	77.25
349.128	77.25
349.355	86.25
349.583	80.25
349.81	81.25
350.037	84.25
350.265	69.25
350.492	100.25
350.72	83.25
350.947	70.25
351.174	92.25
351.402	78.25
351.629	79.25
351.856	85.25
352.083	81.25
352.311	90.25
352.538	75.25
352.765	90.25
352.992	84.25
353.22	91.25
353.447	84.25
353.674	77.25
353.901	81.25
354.128	89.25
354.355	89.25
354.583	89.25
354.81	92.25
355.037	87.25
355.264	89.25
355.491	91.25
355.718	79.25
355.945	83.25
356.172	84.25
356.399	72.25
356.626	80.25
356.853	101.25
357.08	82.25
357.307	71.25
357.534	73.25
357.761	78.25
357.988	90.25
358.215	93.25
358.441	78.25
358.668	75.25
358.895	86.25
359.122	88.25
359.349	84.25
359.576	90.25
359.802	88.25
360.029	66.25
360.256	76.25
360.483	81.25
360.709	78.25
360.936	88.25
361.163	84.25
361.39	84.25
361.616	86.25
361.843	70.25
362.07	91.25
362.296	85.25
362.523	76.25
362.749	83.25
362.976	91.25
363.203	85.25
363.429	80.25
363.656	79.25
363.882	89.25
364.109	77.25
364.335	83.25
364.562	93.25
364.788	83.25
365.015	66.25
365.241	87.25
365.468	85.25
365.694	83.25
365.92	80.25
366.147	79.25
366.373	79.25
366.599	62.25
366.826	71.25
367.052	89.25
367.278	92.25
367.505	101.25
367.731	87.25
367.957	83.25
368.184	92.25
368.41	94.25
368.636	84.25
368.862	87.25
369.089	83.25
369.315	81.25
369.541	94.25
369.767	79.25
369.993	87.25
370.219	85.25
370.445	90.25
370.672	87.25
370.898	72.25
371.124	86.25
371.35	61.25
371.576	93.25
371.802	83.25
372.028	81.25
372.254	86.25
372.48	77.25
372.706	84.25
372.932	88.25
373.158	87.25
373.384	83.25
373.61	73.25
373.835	88.25
374.061	88.25
374.287	78.25
374.513	80.25
374.739	70.25
374.965	89.25
375.191	88.25
375.416	91.25
375.642	85.25
375.868	91.25
376.094	87.25
376.319	78.25
376.545	78.25
376.771	87.25
376.997	80.25
377.222	89.25
377.448	87.25
377.674	85.25
377.899	91.25
378.125	84.25
378.35	93.25
378.576	88.25
378.802	85.25
379.027	71.25
379.253	85.25
379.478	87.25
379.704	97.25
379.929	96.25
380.155	98.25
380.38	87.25
380.606	72.25
380.831	80.25
381.057	85.25
381.282	68.25
381.507	93.25
381.733	86.25
381.958	89.25
382.184	90.25
382.409	75.25
382.634	75.25
382.86	78.25
383.085	69.25
383.31	89.25
383.535	85.25
383.761	76.25
383.986	77.25
384.211	70.25
384.436	87.25
384.662	75.25
384.887	91.25
385.112	90.25
385.337	92.25
385.562	93.25
385.787	82.25
386.013	65.25
386.238	67.25
386.463	79.25
386.688	83.25
386.913	72.25
387.138	75.25
387.363	71.25
387.588	86.25
387.813	90.25
388.038	71.25
388.263	80.25
388.488	74.25
388.713	93.25
388.938	84.25
389.163	86.25
389.387	85.25
389.612	87.25
389.837	83.25
390.062	94.25
390.287	65.25
390.512	89.25
390.736	78.25
390.961	77.25
391.186	92.25
391.411	83.25
391.636	84.25
391.86	79.25
392.085	55.25
392.31	87.25
392.534	94.25
392.759	79.25
392.984	85.25
393.208	84.25
393.433	83.25
393.658	83.25
393.882	98.25
394.107	95.25
394.331	75.25
394.556	70.25
394.78	83.25
395.005	80.25
395.229	77.25
395.454	79.25
395.678	87.25
395.903	71.25
396.127	80.25
396.352	94.25
396.576	77.25
396.801	77.25
397.025	68.25
397.249	92.25
397.474	85.25
397.698	82.25
397.922	104.25
398.147	81.25
398.371	83.25
398.595	84.25
398.82	59.25
399.044	80.25
399.268	69.25
399.492	75.25
399.717	88.25
399.941	85.25
400.165	75.25
400.389	75.25
400.613	87.25
400.837	80.25
401.062	81.25
401.286	103.25
401.51	76.25
401.734	84.25
401.958	83.25
402.182	68.25
402.406	79.25
402.63	75.25
402.854	83.25
403.078	81.25
403.302	82.25
403.526	77.25
403.75	82.25
403.974	86.25
404.198	76.25
404.422	79.25
404.645	87.25
404.869	89.25
405.093	75.25
405.317	77.25
405.541	89.25
405.765	68.25
405.988	83.25
406.212	93.25
406.436	82.25
406.66	87.25
406.883	81.25
407.107	83.25
407.331	73.25
407.555	83.25
407.778	77.25
408.002	94.25
408.226	75.25
408.449	90.25
408.673	77.25
408.896	61.25
409.12	85.25
409.344	83.25
409.567	88.25
409.791	70.25
410.014	80.25
410.238	72.25
410.461	81.25
410.685	93.25
410.908	82.25
411.132	81.25
411.355	77.25
411.578	88.25
411.802	66.25
412.025	79.25
412.249	85.25
412.472	73.25
412.695	75.25
412.919	90.25
413.142	72.25
413.365	85.25
413.589	77.25
413.812	88.25
414.035	77.25
414.258	87.25
414.482	79.25
414.705	73.25
414.928	84.25
415.151	72.25
415.374	76.25
415.597	87.25
415.821	88.25
416.044	85.25
416.267	74.25
416.49	92.25
416.713	79.25
416.936	80.25
417.159	83.25
417.382	77.25
417.605	88.25
417.828	85.25
418.051	94.25
418.274	83.25
418.497	80.25
418.72	88.25
418.943	71.25
419.166	85.25
419.389	79.25
419.611	77.25
419.834	86.25
420.057	75.25
420.28	73.25
420.503	78.25
420.726	91.25
420.948	90.25
421.171	78.25
421.394	94.25
421.617	76.25
421.839	79.25
422.062	90.25
422.285	87.25
422.507	86.25
422.73	85.25
422.953	74.25
423.175	77.25
423.398	90.25
423.621	75.25
423.843	83.25
424.066	85.25
424.288	83.25
424.511	80.25
424.733	85.25
424.956	76.25
425.178	73.25
425.401	75.25
425.623	79.25
425.846	79.25
426.068	88.25
426.291	73.25
426.513	78.25
426.735	89.25
426.958	79.25
427.18	85.25
427.402	82.25
427.625	79.25
427.847	80.25
428.069	65.25
428.292	67.25
428.514	95.25
428.736	81.25
428.958	76.25
429.181	84.25
429.403	82.25
429.625	67.25
429.847	83.25
430.069	85.25
430.292	62.25
430.514	75.25
430.736	78.25
430.958	84.25
431.18	74.25
431.402	69.25
431.624	77.25
431.846	71.25
432.068	78.25
432.29	76.25
432.512	91.25
432.734	76.25
432.956	66.25
433.178	70.25
433.4	77.25
433.622	96.25
433.844	84.25
434.066	83.25
434.287	77.25
434.509	69.25
434.731	88.25
434.953	71.25
435.175	77.25
435.397	80.25
435.618	91.25
435.84	94.25
436.062	83.25
436.284	84.25
436.505	84.25
436.727	78.25
436.949	69.25
437.17	87.25
437.392	80.25
437.614	81.25
437.835	88.25
438.057	91.25
438.278	95.25
438.5	75.25
438.721	87.25
438.943	80.25
439.165	103.25
439.386	86.25
439.608	80.25
439.829	79.25
440.05	101.25
440.272	96.25
440.493	90.25
440.715	83.25
440.936	97.25
441.158	69.25
441.379	75.25
441.6	78.25
441.822	84.25
442.043	89.25
442.264	80.25
442.486	87.25
442.707	72.25
442.928	93.25
443.149	90.25
443.371	87.25
443.592	71.25
443.813	80.25
444.034	88.25
444.255	87.25
444.476	78.25
444.698	78.25
444.919	88.25
445.14	180.25
445.361	131.25
445.582	93.25
445.803	76.25
446.024	87.25
446.245	95.25
446.466	72.25
446.687	71.25
446.908	83.25
447.129	74.25
447.35	71.25
447.571	69.25
447.792	81.25
448.013	84.25
448.234	75.25
448.455	84.25
448.675	81.25
448.896	81.25
449.117	69.25
449.338	85.25
449.559	88.25
449.779	81.25
450	86.25
450.221	72.25
450.442	75.25
450.662	81.25
450.883	69.25
451.104	77.25
451.324	76.25
451.545	79.25
451.766	82.25
451.986	83.25
452.207	79.25
452.428	89.25
452.648	87.25
452.869	78.25
453.089	84.25
453.31	76.25
453.53	81.25
453.751	76.25
453.971	83.25
454.192	78.25
454.412	87.25
454.633	79.25
454.853	76.25
455.073	79.25
455.294	83.25
455.514	75.25
455.734	71.25
455.955	84.25
456.175	72.25
456.395	75.25
456.616	95.25
456.836	79.25
457.056	87.25
457.276	64.25
457.497	84.25
457.717	91.25
457.937	79.25
458.157	71.25
458.377	79.25
458.598	73.25
458.818	88.25
459.038	81.25
459.258	88.25
459.478	85.25
459.698	81.25
459.918	84.25
460.138	69.25
460.358	79.25
460.578	78.25
460.798	81.25
461.018	89.25
461.238	77.25
461.458	76.25
461.678	79.25
461.898	67.25
462.118	76.25
462.338	91.25
462.558	90.25
462.777	80.25
462.997	81.25
463.217	86.25
463.437	84.25
463.657	69.25
463.876	75.25
464.096	74.25
464.316	74.25
464.536	68.25
464.755	71.25
464.975	71.25
465.195	95.25
465.414	80.25
465.634	67.25
465.854	93.25
466.073	79.25
466.293	96.25
466.512	80.25
466.732	84.25
466.951	88.25
467.171	83.25
467.391	87.25
467.61	77.25
467.829	80.25
468.049	83.25
468.268	72.25
468.488	89.25
468.707	73.25
468.927	68.25
469.146	79.25
469.365	73.25
469.585	72.25
469.804	72.25
470.023	83.25
470.243	84.25
470.462	93.25
470.681	79.25
470.901	81.25
471.12	75.25
471.339	78.25
471.558	84.25
471.777	91.25
471.997	87.25
472.216	77.25
472.435	74.25
472.654	69.25
472.873	77.25
473.092	66.25
473.311	83.25
473.53	79.25
473.749	80.25
473.968	77.25
474.187	94.25
474.406	70.25
474.625	81.25
474.844	83.25
475.063	78.25
475.282	79.25
475.501	76.25
475.72	83.25
475.939	79.25
476.158	85.25
476.377	77.25
476.596	95.25
476.814	97.25
477.033	80.25
477.252	83.25
477.471	75.25
477.69	84.25
477.908	90.25
478.127	92.25
478.346	85.25
478.564	90.25
478.783	71.25
479.002	83.25
479.22	85.25
479.439	82.25
479.658	91.25
479.876	91.25
480.095	69.25
480.313	65.25
480.532	81.25
480.751	74.25
480.969	81.25
481.188	81.25
481.406	89.25
481.624	81.25
481.843	75.25
482.061	74.25
482.28	83.25
482.498	69.25
482.717	80.25
482.935	84.25
483.153	77.25
483.372	73.25
483.59	71.25
483.808	81.25
484.027	78.25
484.245	84.25
484.463	72.25
484.681	75.25
484.9	76.25
485.118	66.25
485.336	68.25
485.554	82.25
485.772	72.25
485.99	68.25
486.209	84.25
486.427	79.25
486.645	83.25
486.863	80.25
487.081	73.25
487.299	83.25
487.517	96.25
487.735	80.25
487.953	78.25
488.171	77.25
488.389	91.25
488.607	80.25
488.825	72.25
489.043	72.25
489.261	86.25
489.479	80.25
489.696	71.25
489.914	88.25
490.132	88.25
490.35	72.25
490.568	67.25
490.786	85.25
491.003	81.25
491.221	82.25
491.439	82.25
491.657	91.25
491.874	81.25
492.092	73.25
492.31	80.25
492.527	73.25
492.745	79.25
492.963	77.25
493.18	80.25
493.398	62.25
493.615	88.25
493.833	77.25
494.05	87.25
494.268	79.25
494.485	83.25
494.703	75.25
494.92	93.25
495.138	84.25
495.355	79.25
495.573	72.25
495.79	82.25
496.008	91.25
496.225	78.25
496.442	84.25
496.66	81.25
496.877	90.25
497.094	83.25
497.312	87.25
497.529	96.25
497.746	86.25
497.963	73.25
498.181	80.25
498.398	75.25
498.615	71.25
498.832	72.25
499.049	85.25
499.267	83.25
499.484	75.25
499.701	86.25
499.918	74.25
500.135	77.25
500.352	73.25
500.569	75.25
500.786	77.25
501.003	76.25
501.22	69.25
501.437	83.25
501.654	89.25
501.871	70.25
502.088	82.25
502.305	92.25
502.522	87.25
502.739	95.25
502.956	96.25
503.172	81.25
503.389	69.25
503.606	81.25
503.823	89.25
504.04	90.25
504.256	75.25
504.473	79.25
504.69	95.25
504.907	90.25
505.123	84.25
505.34	80.25
505.557	86.25
505.773	90.25
505.99	82.25
506.207	77.25
506.423	82.25
506.64	88.25
506.856	78.25
507.073	81.25
507.289	88.25
507.506	70.25
507.722	87.25
507.939	86.25
508.155	89.25
508.372	80.25
508.588	83.25
508.805	87.25
509.021	95.25
509.238	85.25
509.454	82.25
509.67	73.25
509.887	85.25
510.103	75.25
510.319	75.25
510.536	74.25
510.752	80.25
510.968	93.25
511.184	66.25
511.401	71.25
511.617	99.25
511.833	72.25
512.049	76.25
512.265	74.25
512.481	73.25
512.698	87.25
512.914	85.25
513.13	83.25
513.346	76.25
513.562	77.25
513.778	77.25
513.994	101.25
514.21	75.25
514.426	81.25
514.642	78.25
514.858	84.25
515.074	89.25
515.29	83.25
515.506	89.25
515.721	58.25
515.937	72.25
516.153	73.25
516.369	71.25
516.585	93.25
516.801	93.25
517.016	85.25
517.232	75.25
517.448	86.25
517.664	85.25
517.879	79.25
518.095	76.25
518.311	87.25
518.527	83.25
518.742	72.25
518.958	96.25
519.173	69.25
519.389	66.25
519.605	67.25
519.82	66.25
520.036	75.25
