Data from KBr_1_HRD10591_00044.txt Node
Date: Mon Jan 19 13:11:20 EST 2026
User: Yrep
Spectrometer: HR+D1059
Trigger mode: 0
Integration Time (sec): 1.000000E-1
Scans to average: 1
Electric dark correction enabled: true
Nonlinearity correction enabled: false
Boxcar width: 0
XAxis mode: Wavelengths
Number of Pixels in Spectrum: 2048
>>>>>Begin Spectral Data<<<<<
223.165	-26.75
223.4	-26.75
223.635	-26.75
223.869	-20.75
224.104	-19.75
224.338	-4.75
224.573	-8.75
224.808	-11.75
225.042	-5.75
225.277	-2.75
225.511	-8.75
225.746	14.25
225.98	9.25
226.215	17.25
226.449	5.25
226.683	18.25
226.918	24.25
227.152	21.25
227.387	32.25
227.621	43.25
227.856	51.25
228.09	51.25
228.324	48.25
228.559	47.25
228.793	64.25
229.027	61.25
229.262	57.25
229.496	82.25
229.73	76.25
229.964	65.25
230.199	74.25
230.433	74.25
230.667	85.25
230.901	75.25
231.136	71.25
231.37	78.25
231.604	68.25
231.838	77.25
232.072	76.25
232.306	97.25
232.541	83.25
232.775	98.25
233.009	72.25
233.243	83.25
233.477	75.25
233.711	94.25
233.945	89.25
234.179	91.25
234.413	92.25
234.647	73.25
234.881	81.25
235.115	83.25
235.349	69.25
235.583	79.25
235.817	83.25
236.051	67.25
236.285	79.25
236.519	73.25
236.753	72.25
236.987	77.25
237.221	83.25
237.455	72.25
237.689	84.25
237.922	78.25
238.156	90.25
238.39	72.25
238.624	88.25
238.858	87.25
239.091	85.25
239.325	91.25
239.559	78.25
239.793	73.25
240.027	72.25
240.26	71.25
240.494	82.25
240.728	69.25
240.961	65.25
241.195	75.25
241.429	85.25
241.662	75.25
241.896	74.25
242.13	78.25
242.363	84.25
242.597	74.25
242.83	81.25
243.064	69.25
243.298	81.25
243.531	78.25
243.765	90.25
243.998	67.25
244.232	82.25
244.465	76.25
244.699	78.25
244.932	82.25
245.166	88.25
245.399	89.25
245.633	88.25
245.866	77.25
246.099	77.25
246.333	78.25
246.566	70.25
246.8	80.25
247.033	83.25
247.266	65.25
247.5	78.25
247.733	80.25
247.966	91.25
248.2	87.25
248.433	76.25
248.666	102.25
248.899	89.25
249.133	87.25
249.366	82.25
249.599	72.25
249.832	69.25
250.066	76.25
250.299	71.25
250.532	79.25
250.765	75.25
250.998	75.25
251.231	82.25
251.465	77.25
251.698	67.25
251.931	83.25
252.164	76.25
252.397	73.25
252.63	81.25
252.863	79.25
253.096	74.25
253.329	85.25
253.562	82.25
253.795	79.25
254.028	81.25
254.261	85.25
254.494	79.25
254.727	79.25
254.96	85.25
255.193	78.25
255.426	59.25
255.659	80.25
255.892	75.25
256.124	83.25
256.357	67.25
256.59	74.25
256.823	75.25
257.056	89.25
257.289	82.25
257.521	81.25
257.754	78.25
257.987	67.25
258.22	81.25
258.452	77.25
258.685	94.25
258.918	82.25
259.151	75.25
259.383	82.25
259.616	95.25
259.849	76.25
260.081	65.25
260.314	61.25
260.547	66.25
260.779	86.25
261.012	72.25
261.244	77.25
261.477	100.25
261.71	81.25
261.942	90.25
262.175	88.25
262.407	91.25
262.64	90.25
262.872	89.25
263.105	91.25
263.337	79.25
263.57	86.25
263.802	70.25
264.035	82.25
264.267	71.25
264.499	80.25
264.732	82.25
264.964	77.25
265.197	72.25
265.429	94.25
265.661	80.25
265.894	82.25
266.126	84.25
266.358	79.25
266.591	74.25
266.823	83.25
267.055	83.25
267.287	76.25
267.52	73.25
267.752	86.25
267.984	99.25
268.216	81.25
268.448	87.25
268.681	65.25
268.913	85.25
269.145	81.25
269.377	80.25
269.609	75.25
269.841	80.25
270.073	88.25
270.306	77.25
270.538	86.25
270.77	79.25
271.002	74.25
271.234	81.25
271.466	94.25
271.698	85.25
271.93	74.25
272.162	98.25
272.394	80.25
272.626	81.25
272.858	84.25
273.09	96.25
273.322	78.25
273.553	93.25
273.785	97.25
274.017	82.25
274.249	83.25
274.481	77.25
274.713	83.25
274.945	70.25
275.176	77.25
275.408	88.25
275.64	83.25
275.872	94.25
276.104	88.25
276.335	86.25
276.567	83.25
276.799	95.25
277.031	85.25
277.262	96.25
277.494	78.25
277.726	82.25
277.957	87.25
278.189	85.25
278.421	83.25
278.652	80.25
278.884	86.25
279.115	82.25
279.347	72.25
279.579	87.25
279.81	74.25
280.042	90.25
280.273	83.25
280.505	85.25
280.736	77.25
280.968	87.25
281.199	76.25
281.431	93.25
281.662	88.25
281.894	94.25
282.125	95.25
282.356	96.25
282.588	95.25
282.819	91.25
283.051	71.25
283.282	75.25
283.513	101.25
283.745	73.25
283.976	94.25
284.207	94.25
284.439	89.25
284.67	89.25
284.901	80.25
285.132	81.25
285.364	85.25
285.595	78.25
285.826	78.25
286.057	91.25
286.288	75.25
286.52	75.25
286.751	98.25
286.982	74.25
287.213	94.25
287.444	74.25
287.675	83.25
287.906	83.25
288.138	79.25
288.369	81.25
288.6	103.25
288.831	89.25
289.062	90.25
289.293	82.25
289.524	90.25
289.755	75.25
289.986	88.25
290.217	95.25
290.448	82.25
290.679	85.25
290.91	95.25
291.141	88.25
291.371	86.25
291.602	103.25
291.833	99.25
292.064	86.25
292.295	71.25
292.526	109.25
292.757	95.25
292.987	82.25
293.218	89.25
293.449	88.25
293.68	79.25
293.91	87.25
294.141	101.25
294.372	75.25
294.603	88.25
294.833	90.25
295.064	90.25
295.295	92.25
295.525	86.25
295.756	69.25
295.987	82.25
296.217	88.25
296.448	90.25
296.679	92.25
296.909	80.25
297.14	91.25
297.37	90.25
297.601	82.25
297.831	89.25
298.062	79.25
298.292	86.25
298.523	90.25
298.753	82.25
298.984	90.25
299.214	83.25
299.445	84.25
299.675	88.25
299.905	98.25
300.136	75.25
300.366	82.25
300.597	100.25
300.827	88.25
301.057	95.25
301.288	85.25
301.518	86.25
301.748	76.25
301.979	90.25
302.209	79.25
302.439	91.25
302.669	86.25
302.9	74.25
303.13	88.25
303.36	84.25
303.59	91.25
303.82	85.25
304.051	91.25
304.281	85.25
304.511	81.25
304.741	93.25
304.971	97.25
305.201	81.25
305.431	99.25
305.661	95.25
305.891	78.25
306.121	94.25
306.352	91.25
306.582	90.25
306.812	87.25
307.042	89.25
307.272	90.25
307.502	93.25
307.731	95.25
307.961	75.25
308.191	86.25
308.421	95.25
308.651	91.25
308.881	88.25
309.111	87.25
309.341	90.25
309.571	94.25
309.8	86.25
310.03	93.25
310.26	92.25
310.49	79.25
310.72	95.25
310.949	80.25
311.179	81.25
311.409	71.25
311.639	92.25
311.868	89.25
312.098	98.25
312.328	82.25
312.557	83.25
312.787	84.25
313.017	89.25
313.246	94.25
313.476	83.25
313.706	93.25
313.935	77.25
314.165	81.25
314.394	72.25
314.624	97.25
314.853	80.25
315.083	95.25
315.312	92.25
315.542	75.25
315.771	67.25
316.001	79.25
316.23	78.25
316.46	98.25
316.689	82.25
316.919	85.25
317.148	93.25
317.377	89.25
317.607	88.25
317.836	80.25
318.065	72.25
318.295	77.25
318.524	82.25
318.753	97.25
318.983	99.25
319.212	95.25
319.441	92.25
319.67	81.25
319.9	76.25
320.129	95.25
320.358	94.25
320.587	84.25
320.816	76.25
321.046	79.25
321.275	77.25
321.504	92.25
321.733	80.25
321.962	93.25
322.191	87.25
322.42	86.25
322.649	97.25
322.878	83.25
323.108	92.25
323.337	97.25
323.566	79.25
323.795	88.25
324.024	92.25
324.253	103.25
324.482	82.25
324.71	78.25
324.939	91.25
325.168	75.25
325.397	91.25
325.626	82.25
325.855	87.25
326.084	95.25
326.313	83.25
326.542	69.25
326.77	89.25
326.999	86.25
327.228	100.25
327.457	90.25
327.686	93.25
327.914	85.25
328.143	87.25
328.372	85.25
328.6	97.25
328.829	71.25
329.058	70.25
329.287	88.25
329.515	82.25
329.744	85.25
329.972	95.25
330.201	89.25
330.43	77.25
330.658	80.25
330.887	90.25
331.115	76.25
331.344	85.25
331.572	99.25
331.801	97.25
332.03	72.25
332.258	99.25
332.486	96.25
332.715	83.25
332.943	87.25
333.172	75.25
333.4	83.25
333.629	80.25
333.857	73.25
334.085	65.25
334.314	95.25
334.542	83.25
334.771	93.25
334.999	82.25
335.227	80.25
335.455	74.25
335.684	82.25
335.912	93.25
336.14	88.25
336.369	82.25
336.597	72.25
336.825	82.25
337.053	84.25
337.281	88.25
337.51	88.25
337.738	96.25
337.966	82.25
338.194	74.25
338.422	86.25
338.65	83.25
338.878	91.25
339.106	75.25
339.334	86.25
339.562	87.25
339.79	88.25
340.018	72.25
340.246	82.25
340.474	86.25
340.702	82.25
340.93	83.25
341.158	91.25
341.386	74.25
341.614	86.25
341.842	91.25
342.07	74.25
342.298	76.25
342.526	87.25
342.754	73.25
342.981	75.25
343.209	85.25
343.437	99.25
343.665	83.25
343.893	79.25
344.12	86.25
344.348	77.25
344.576	77.25
344.804	77.25
345.031	80.25
345.259	89.25
345.487	89.25
345.714	81.25
345.942	90.25
346.17	86.25
346.397	80.25
346.625	75.25
346.853	74.25
347.08	74.25
347.308	87.25
347.535	87.25
347.763	92.25
347.99	78.25
348.218	90.25
348.445	89.25
348.673	95.25
348.9	87.25
349.128	98.25
349.355	79.25
349.583	91.25
349.81	86.25
350.037	78.25
350.265	82.25
350.492	87.25
350.72	95.25
350.947	80.25
351.174	71.25
351.402	75.25
351.629	86.25
351.856	69.25
352.083	80.25
352.311	95.25
352.538	88.25
352.765	82.25
352.992	86.25
353.22	86.25
353.447	91.25
353.674	77.25
353.901	92.25
354.128	89.25
354.355	84.25
354.583	80.25
354.81	79.25
355.037	82.25
355.264	85.25
355.491	79.25
355.718	80.25
355.945	91.25
356.172	85.25
356.399	74.25
356.626	75.25
356.853	87.25
357.08	85.25
357.307	82.25
357.534	71.25
357.761	81.25
357.988	97.25
358.215	83.25
358.441	80.25
358.668	89.25
358.895	86.25
359.122	92.25
359.349	91.25
359.576	89.25
359.802	78.25
360.029	81.25
360.256	86.25
360.483	94.25
360.709	92.25
360.936	88.25
361.163	85.25
361.39	88.25
361.616	91.25
361.843	79.25
362.07	86.25
362.296	83.25
362.523	81.25
362.749	76.25
362.976	97.25
363.203	88.25
363.429	85.25
363.656	93.25
363.882	78.25
364.109	96.25
364.335	78.25
364.562	87.25
364.788	74.25
365.015	77.25
365.241	92.25
365.468	90.25
365.694	77.25
365.92	78.25
366.147	76.25
366.373	78.25
366.599	90.25
366.826	80.25
367.052	79.25
367.278	87.25
367.505	87.25
367.731	78.25
367.957	98.25
368.184	86.25
368.41	102.25
368.636	75.25
368.862	83.25
369.089	71.25
369.315	83.25
369.541	83.25
369.767	93.25
369.993	63.25
370.219	78.25
370.445	82.25
370.672	85.25
370.898	68.25
371.124	90.25
371.35	78.25
371.576	80.25
371.802	83.25
372.028	84.25
372.254	88.25
372.48	85.25
372.706	76.25
372.932	82.25
373.158	94.25
373.384	81.25
373.61	85.25
373.835	99.25
374.061	73.25
374.287	82.25
374.513	79.25
374.739	78.25
374.965	83.25
375.191	70.25
375.416	76.25
375.642	85.25
375.868	95.25
376.094	97.25
376.319	76.25
376.545	84.25
376.771	78.25
376.997	93.25
377.222	82.25
377.448	88.25
377.674	81.25
377.899	83.25
378.125	81.25
378.35	74.25
378.576	76.25
378.802	71.25
379.027	89.25
379.253	89.25
379.478	79.25
379.704	94.25
379.929	76.25
380.155	85.25
380.38	90.25
380.606	84.25
380.831	81.25
381.057	88.25
381.282	83.25
381.507	80.25
381.733	81.25
381.958	98.25
382.184	81.25
382.409	92.25
382.634	75.25
382.86	77.25
383.085	81.25
383.31	94.25
383.535	64.25
383.761	80.25
383.986	91.25
384.211	80.25
384.436	89.25
384.662	69.25
384.887	75.25
385.112	77.25
385.337	74.25
385.562	94.25
385.787	83.25
386.013	78.25
386.238	66.25
386.463	81.25
386.688	88.25
386.913	77.25
387.138	79.25
387.363	92.25
387.588	87.25
387.813	94.25
388.038	83.25
388.263	88.25
388.488	77.25
388.713	92.25
388.938	83.25
389.163	82.25
389.387	90.25
389.612	90.25
389.837	92.25
390.062	72.25
390.287	75.25
390.512	77.25
390.736	84.25
390.961	93.25
391.186	71.25
391.411	85.25
391.636	87.25
391.86	85.25
392.085	75.25
392.31	81.25
392.534	81.25
392.759	70.25
392.984	93.25
393.208	81.25
393.433	67.25
393.658	77.25
393.882	95.25
394.107	98.25
394.331	83.25
394.556	62.25
394.78	75.25
395.005	73.25
395.229	93.25
395.454	87.25
395.678	73.25
395.903	86.25
396.127	87.25
396.352	78.25
396.576	85.25
396.801	72.25
397.025	78.25
397.249	78.25
397.474	88.25
397.698	75.25
397.922	77.25
398.147	88.25
398.371	75.25
398.595	84.25
398.82	75.25
399.044	86.25
399.268	85.25
399.492	78.25
399.717	88.25
399.941	83.25
400.165	88.25
400.389	86.25
400.613	95.25
400.837	79.25
401.062	80.25
401.286	75.25
401.51	88.25
401.734	77.25
401.958	92.25
402.182	71.25
402.406	94.25
402.63	81.25
402.854	78.25
403.078	86.25
403.302	88.25
403.526	77.25
403.75	90.25
403.974	85.25
404.198	80.25
404.422	82.25
404.645	74.25
404.869	89.25
405.093	68.25
405.317	81.25
405.541	83.25
405.765	75.25
405.988	76.25
406.212	86.25
406.436	83.25
406.66	85.25
406.883	85.25
407.107	93.25
407.331	86.25
407.555	90.25
407.778	81.25
408.002	81.25
408.226	75.25
408.449	82.25
408.673	84.25
408.896	95.25
409.12	76.25
409.344	97.25
409.567	78.25
409.791	88.25
410.014	77.25
410.238	72.25
410.461	66.25
410.685	80.25
410.908	83.25
411.132	82.25
411.355	94.25
411.578	80.25
411.802	79.25
412.025	87.25
412.249	67.25
412.472	81.25
412.695	79.25
412.919	80.25
413.142	80.25
413.365	78.25
413.589	93.25
413.812	93.25
414.035	85.25
414.258	93.25
414.482	80.25
414.705	79.25
414.928	85.25
415.151	80.25
415.374	82.25
415.597	91.25
415.821	89.25
416.044	84.25
416.267	78.25
416.49	81.25
416.713	75.25
416.936	73.25
417.159	81.25
417.382	104.25
417.605	75.25
417.828	88.25
418.051	82.25
418.274	92.25
418.497	80.25
418.72	88.25
418.943	78.25
419.166	86.25
419.389	83.25
419.611	65.25
419.834	77.25
420.057	79.25
420.28	100.25
420.503	76.25
420.726	94.25
420.948	88.25
421.171	79.25
421.394	82.25
421.617	83.25
421.839	87.25
422.062	93.25
422.285	86.25
422.507	67.25
422.73	82.25
422.953	80.25
423.175	86.25
423.398	73.25
423.621	91.25
423.843	85.25
424.066	95.25
424.288	94.25
424.511	65.25
424.733	76.25
424.956	90.25
425.178	79.25
425.401	89.25
425.623	85.25
425.846	77.25
426.068	72.25
426.291	70.25
426.513	96.25
426.735	83.25
426.958	94.25
427.18	84.25
427.402	94.25
427.625	73.25
427.847	73.25
428.069	92.25
428.292	86.25
428.514	80.25
428.736	73.25
428.958	83.25
429.181	74.25
429.403	89.25
429.625	75.25
429.847	79.25
430.069	96.25
430.292	101.25
430.514	79.25
430.736	79.25
430.958	86.25
431.18	88.25
431.402	87.25
431.624	68.25
431.846	82.25
432.068	93.25
432.29	86.25
432.512	85.25
432.734	93.25
432.956	81.25
433.178	94.25
433.4	88.25
433.622	86.25
433.844	63.25
434.066	79.25
434.287	83.25
434.509	85.25
434.731	73.25
434.953	76.25
435.175	78.25
435.397	90.25
435.618	69.25
435.84	85.25
436.062	98.25
436.284	79.25
436.505	86.25
436.727	89.25
436.949	93.25
437.17	81.25
437.392	83.25
437.614	68.25
437.835	87.25
438.057	103.25
438.278	87.25
438.5	77.25
438.721	89.25
438.943	88.25
439.165	79.25
439.386	71.25
439.608	85.25
439.829	78.25
440.05	78.25
440.272	80.25
440.493	89.25
440.715	80.25
440.936	81.25
441.158	78.25
441.379	73.25
441.6	65.25
441.822	93.25
442.043	91.25
442.264	70.25
442.486	76.25
442.707	75.25
442.928	87.25
443.149	79.25
443.371	89.25
443.592	81.25
443.813	62.25
444.034	68.25
444.255	96.25
444.476	84.25
444.698	85.25
444.919	94.25
445.14	165.25
445.361	107.25
445.582	78.25
445.803	94.25
446.024	88.25
446.245	82.25
446.466	75.25
446.687	70.25
446.908	86.25
447.129	72.25
447.35	98.25
447.571	77.25
447.792	86.25
448.013	92.25
448.234	88.25
448.455	67.25
448.675	75.25
448.896	81.25
449.117	73.25
449.338	86.25
449.559	91.25
449.779	78.25
450	84.25
450.221	79.25
450.442	87.25
450.662	79.25
450.883	83.25
451.104	76.25
451.324	85.25
451.545	80.25
451.766	85.25
451.986	74.25
452.207	74.25
452.428	87.25
452.648	78.25
452.869	71.25
453.089	79.25
453.31	76.25
453.53	87.25
453.751	86.25
453.971	80.25
454.192	78.25
454.412	72.25
454.633	79.25
454.853	85.25
455.073	72.25
455.294	73.25
455.514	83.25
455.734	71.25
455.955	66.25
456.175	87.25
456.395	99.25
456.616	93.25
456.836	73.25
457.056	90.25
457.276	77.25
457.497	82.25
457.717	94.25
457.937	81.25
458.157	90.25
458.377	91.25
458.598	75.25
458.818	76.25
459.038	81.25
459.258	83.25
459.478	75.25
459.698	85.25
459.918	85.25
460.138	85.25
460.358	88.25
460.578	82.25
460.798	73.25
461.018	81.25
461.238	86.25
461.458	88.25
461.678	92.25
461.898	88.25
462.118	85.25
462.338	82.25
462.558	80.25
462.777	73.25
462.997	86.25
463.217	75.25
463.437	83.25
463.657	79.25
463.876	97.25
464.096	80.25
464.316	79.25
464.536	84.25
464.755	85.25
464.975	82.25
465.195	78.25
465.414	73.25
465.634	92.25
465.854	73.25
466.073	77.25
466.293	79.25
466.512	77.25
466.732	79.25
466.951	76.25
467.171	73.25
467.391	78.25
467.61	77.25
467.829	92.25
468.049	87.25
468.268	79.25
468.488	79.25
468.707	72.25
468.927	81.25
469.146	81.25
469.365	82.25
469.585	73.25
469.804	83.25
470.023	78.25
470.243	84.25
470.462	91.25
470.681	67.25
470.901	70.25
471.12	87.25
471.339	96.25
471.558	80.25
471.777	83.25
471.997	73.25
472.216	93.25
472.435	73.25
472.654	89.25
472.873	90.25
473.092	85.25
473.311	93.25
473.53	102.25
473.749	90.25
473.968	92.25
474.187	66.25
474.406	80.25
474.625	81.25
474.844	74.25
475.063	69.25
475.282	74.25
475.501	78.25
475.72	94.25
475.939	81.25
476.158	75.25
476.377	82.25
476.596	87.25
476.814	86.25
477.033	82.25
477.252	81.25
477.471	80.25
477.69	82.25
477.908	90.25
478.127	102.25
478.346	78.25
478.564	75.25
478.783	78.25
479.002	83.25
479.22	85.25
479.439	85.25
479.658	82.25
479.876	68.25
480.095	78.25
480.313	82.25
480.532	82.25
480.751	80.25
480.969	89.25
481.188	78.25
481.406	81.25
481.624	92.25
481.843	82.25
482.061	76.25
482.28	88.25
482.498	74.25
482.717	80.25
482.935	100.25
483.153	83.25
483.372	87.25
483.59	89.25
483.808	74.25
484.027	67.25
484.245	76.25
484.463	87.25
484.681	94.25
484.9	96.25
485.118	85.25
485.336	86.25
485.554	96.25
485.772	89.25
485.99	70.25
486.209	77.25
486.427	91.25
486.645	86.25
486.863	87.25
487.081	74.25
487.299	79.25
487.517	96.25
487.735	89.25
487.953	81.25
488.171	87.25
488.389	81.25
488.607	78.25
488.825	81.25
489.043	79.25
489.261	89.25
489.479	85.25
489.696	86.25
489.914	77.25
490.132	91.25
490.35	87.25
490.568	97.25
490.786	78.25
491.003	81.25
491.221	73.25
491.439	90.25
491.657	86.25
491.874	78.25
492.092	82.25
492.31	90.25
492.527	85.25
492.745	81.25
492.963	86.25
493.18	83.25
493.398	86.25
493.615	81.25
493.833	73.25
494.05	92.25
494.268	86.25
494.485	90.25
494.703	86.25
494.92	83.25
495.138	71.25
495.355	87.25
495.573	84.25
495.79	71.25
496.008	85.25
496.225	67.25
496.442	71.25
496.66	93.25
496.877	86.25
497.094	75.25
497.312	82.25
497.529	74.25
497.746	73.25
497.963	87.25
498.181	66.25
498.398	86.25
498.615	77.25
498.832	82.25
499.049	71.25
499.267	75.25
499.484	85.25
499.701	90.25
499.918	90.25
500.135	84.25
500.352	78.25
500.569	73.25
500.786	84.25
501.003	75.25
501.22	85.25
501.437	77.25
501.654	88.25
501.871	86.25
502.088	81.25
502.305	87.25
502.522	73.25
502.739	81.25
502.956	82.25
503.172	80.25
503.389	88.25
503.606	64.25
503.823	79.25
504.04	91.25
504.256	84.25
504.473	85.25
504.69	81.25
504.907	81.25
505.123	84.25
505.34	77.25
505.557	85.25
505.773	93.25
505.99	86.25
506.207	71.25
506.423	88.25
506.64	73.25
506.856	80.25
507.073	83.25
507.289	82.25
507.506	78.25
507.722	73.25
507.939	78.25
508.155	95.25
508.372	75.25
508.588	101.25
508.805	92.25
509.021	94.25
509.238	77.25
509.454	85.25
509.67	95.25
509.887	108.25
510.103	96.25
510.319	88.25
510.536	77.25
510.752	78.25
510.968	84.25
511.184	86.25
511.401	86.25
511.617	77.25
511.833	89.25
512.049	85.25
512.265	84.25
512.481	84.25
512.698	81.25
512.914	99.25
513.13	75.25
513.346	87.25
513.562	89.25
513.778	83.25
513.994	84.25
514.21	102.25
514.426	83.25
514.642	82.25
514.858	83.25
515.074	77.25
515.29	90.25
515.506	77.25
515.721	87.25
515.937	73.25
516.153	77.25
516.369	76.25
516.585	94.25
516.801	86.25
517.016	76.25
517.232	78.25
517.448	74.25
517.664	74.25
517.879	82.25
518.095	102.25
518.311	107.25
518.527	95.25
518.742	95.25
518.958	91.25
519.173	82.25
519.389	78.25
519.605	77.25
519.82	85.25
520.036	88.25
