Data from KBr_1_HRD10591_00026.txt Node
Date: Mon Jan 19 13:11:19 EST 2026
User: Yrep
Spectrometer: HR+D1059
Trigger mode: 0
Integration Time (sec): 1.000000E-1
Scans to average: 1
Electric dark correction enabled: true
Nonlinearity correction enabled: false
Boxcar width: 0
XAxis mode: Wavelengths
Number of Pixels in Spectrum: 2048
>>>>>Begin Spectral Data<<<<<
223.165	-21.75
223.4	-21.75
223.635	-21.75
223.869	-20.75
224.104	-22.75
224.338	-11.75
224.573	-4.75
224.808	-9.75
225.042	-6.75
225.277	-12.75
225.511	-10.75
225.746	-2.75
225.98	8.25
226.215	19.25
226.449	14.25
226.683	29.25
226.918	22.25
227.152	31.25
227.387	46.25
227.621	50.25
227.856	35.25
228.09	42.25
228.324	40.25
228.559	59.25
228.793	58.25
229.027	64.25
229.262	61.25
229.496	58.25
229.73	86.25
229.964	50.25
230.199	74.25
230.433	79.25
230.667	74.25
230.901	90.25
231.136	76.25
231.37	74.25
231.604	73.25
231.838	90.25
232.072	88.25
232.306	85.25
232.541	87.25
232.775	81.25
233.009	81.25
233.243	79.25
233.477	89.25
233.711	72.25
233.945	74.25
234.179	74.25
234.413	93.25
234.647	84.25
234.881	67.25
235.115	83.25
235.349	80.25
235.583	73.25
235.817	78.25
236.051	86.25
236.285	89.25
236.519	69.25
236.753	88.25
236.987	73.25
237.221	64.25
237.455	59.25
237.689	85.25
237.922	70.25
238.156	77.25
238.39	75.25
238.624	89.25
238.858	88.25
239.091	83.25
239.325	74.25
239.559	62.25
239.793	70.25
240.027	73.25
240.26	66.25
240.494	87.25
240.728	79.25
240.961	78.25
241.195	96.25
241.429	83.25
241.662	82.25
241.896	67.25
242.13	79.25
242.363	75.25
242.597	88.25
242.83	77.25
243.064	74.25
243.298	73.25
243.531	77.25
243.765	76.25
243.998	76.25
244.232	84.25
244.465	89.25
244.699	77.25
244.932	72.25
245.166	82.25
245.399	72.25
245.633	77.25
245.866	68.25
246.099	78.25
246.333	82.25
246.566	83.25
246.8	74.25
247.033	89.25
247.266	67.25
247.5	82.25
247.733	71.25
247.966	77.25
248.2	86.25
248.433	67.25
248.666	76.25
248.899	66.25
249.133	63.25
249.366	67.25
249.599	71.25
249.832	92.25
250.066	87.25
250.299	76.25
250.532	81.25
250.765	86.25
250.998	72.25
251.231	83.25
251.465	88.25
251.698	78.25
251.931	80.25
252.164	75.25
252.397	76.25
252.63	82.25
252.863	82.25
253.096	79.25
253.329	72.25
253.562	91.25
253.795	89.25
254.028	94.25
254.261	77.25
254.494	88.25
254.727	64.25
254.96	75.25
255.193	76.25
255.426	88.25
255.659	79.25
255.892	75.25
256.124	77.25
256.357	64.25
256.59	73.25
256.823	74.25
257.056	83.25
257.289	78.25
257.521	84.25
257.754	84.25
257.987	83.25
258.22	84.25
258.452	74.25
258.685	69.25
258.918	81.25
259.151	79.25
259.383	87.25
259.616	84.25
259.849	88.25
260.081	86.25
260.314	79.25
260.547	69.25
260.779	78.25
261.012	74.25
261.244	86.25
261.477	106.25
261.71	93.25
261.942	82.25
262.175	81.25
262.407	81.25
262.64	77.25
262.872	82.25
263.105	93.25
263.337	78.25
263.57	90.25
263.802	95.25
264.035	88.25
264.267	66.25
264.499	82.25
264.732	87.25
264.964	78.25
265.197	71.25
265.429	76.25
265.661	72.25
265.894	98.25
266.126	89.25
266.358	83.25
266.591	65.25
266.823	88.25
267.055	85.25
267.287	83.25
267.52	82.25
267.752	87.25
267.984	84.25
268.216	81.25
268.448	91.25
268.681	86.25
268.913	67.25
269.145	81.25
269.377	90.25
269.609	79.25
269.841	89.25
270.073	82.25
270.306	78.25
270.538	84.25
270.77	77.25
271.002	72.25
271.234	83.25
271.466	88.25
271.698	78.25
271.93	73.25
272.162	91.25
272.394	86.25
272.626	93.25
272.858	88.25
273.09	78.25
273.322	76.25
273.553	72.25
273.785	92.25
274.017	66.25
274.249	84.25
274.481	82.25
274.713	73.25
274.945	82.25
275.176	91.25
275.408	75.25
275.64	84.25
275.872	80.25
276.104	88.25
276.335	93.25
276.567	88.25
276.799	72.25
277.031	83.25
277.262	74.25
277.494	94.25
277.726	80.25
277.957	90.25
278.189	81.25
278.421	90.25
278.652	86.25
278.884	75.25
279.115	96.25
279.347	80.25
279.579	88.25
279.81	75.25
280.042	90.25
280.273	81.25
280.505	83.25
280.736	92.25
280.968	73.25
281.199	69.25
281.431	78.25
281.662	84.25
281.894	92.25
282.125	76.25
282.356	95.25
282.588	88.25
282.819	80.25
283.051	75.25
283.282	87.25
283.513	88.25
283.745	97.25
283.976	83.25
284.207	89.25
284.439	88.25
284.67	76.25
284.901	81.25
285.132	77.25
285.364	88.25
285.595	77.25
285.826	93.25
286.057	82.25
286.288	91.25
286.52	86.25
286.751	86.25
286.982	78.25
287.213	86.25
287.444	95.25
287.675	91.25
287.906	88.25
288.138	82.25
288.369	77.25
288.6	80.25
288.831	78.25
289.062	82.25
289.293	104.25
289.524	87.25
289.755	83.25
289.986	78.25
290.217	91.25
290.448	81.25
290.679	83.25
290.91	88.25
291.141	78.25
291.371	93.25
291.602	85.25
291.833	72.25
292.064	84.25
292.295	96.25
292.526	90.25
292.757	87.25
292.987	102.25
293.218	87.25
293.449	78.25
293.68	93.25
293.91	71.25
294.141	84.25
294.372	88.25
294.603	82.25
294.833	98.25
295.064	78.25
295.295	84.25
295.525	96.25
295.756	78.25
295.987	82.25
296.217	84.25
296.448	83.25
296.679	98.25
296.909	93.25
297.14	72.25
297.37	97.25
297.601	86.25
297.831	92.25
298.062	78.25
298.292	86.25
298.523	87.25
298.753	78.25
298.984	87.25
299.214	80.25
299.445	84.25
299.675	81.25
299.905	90.25
300.136	94.25
300.366	74.25
300.597	89.25
300.827	96.25
301.057	83.25
301.288	83.25
301.518	75.25
301.748	72.25
301.979	102.25
302.209	87.25
302.439	82.25
302.669	82.25
302.9	79.25
303.13	86.25
303.36	93.25
303.59	91.25
303.82	76.25
304.051	84.25
304.281	83.25
304.511	85.25
304.741	87.25
304.971	81.25
305.201	94.25
305.431	89.25
305.661	85.25
305.891	95.25
306.121	94.25
306.352	74.25
306.582	90.25
306.812	83.25
307.042	83.25
307.272	86.25
307.502	92.25
307.731	84.25
307.961	91.25
308.191	87.25
308.421	70.25
308.651	88.25
308.881	95.25
309.111	76.25
309.341	82.25
309.571	92.25
309.8	78.25
310.03	99.25
310.26	78.25
310.49	70.25
310.72	93.25
310.949	82.25
311.179	96.25
311.409	89.25
311.639	86.25
311.868	85.25
312.098	81.25
312.328	91.25
312.557	78.25
312.787	86.25
313.017	75.25
313.246	77.25
313.476	80.25
313.706	82.25
313.935	85.25
314.165	87.25
314.394	88.25
314.624	75.25
314.853	94.25
315.083	90.25
315.312	88.25
315.542	74.25
315.771	74.25
316.001	72.25
316.23	83.25
316.46	97.25
316.689	75.25
316.919	74.25
317.148	100.25
317.377	79.25
317.607	83.25
317.836	78.25
318.065	96.25
318.295	93.25
318.524	76.25
318.753	77.25
318.983	67.25
319.212	90.25
319.441	93.25
319.67	86.25
319.9	80.25
320.129	94.25
320.358	80.25
320.587	86.25
320.816	84.25
321.046	95.25
321.275	84.25
321.504	91.25
321.733	90.25
321.962	85.25
322.191	99.25
322.42	82.25
322.649	80.25
322.878	63.25
323.108	77.25
323.337	72.25
323.566	84.25
323.795	83.25
324.024	86.25
324.253	80.25
324.482	81.25
324.71	75.25
324.939	89.25
325.168	94.25
325.397	77.25
325.626	82.25
325.855	75.25
326.084	88.25
326.313	99.25
326.542	90.25
326.77	85.25
326.999	86.25
327.228	86.25
327.457	79.25
327.686	87.25
327.914	92.25
328.143	84.25
328.372	78.25
328.6	83.25
328.829	83.25
329.058	82.25
329.287	82.25
329.515	85.25
329.744	74.25
329.972	74.25
330.201	96.25
330.43	84.25
330.658	82.25
330.887	79.25
331.115	93.25
331.344	86.25
331.572	95.25
331.801	77.25
332.03	88.25
332.258	97.25
332.486	76.25
332.715	89.25
332.943	95.25
333.172	97.25
333.4	81.25
333.629	91.25
333.857	83.25
334.085	95.25
334.314	109.25
334.542	84.25
334.771	105.25
334.999	84.25
335.227	86.25
335.455	80.25
335.684	90.25
335.912	94.25
336.14	94.25
336.369	95.25
336.597	94.25
336.825	90.25
337.053	82.25
337.281	74.25
337.51	76.25
337.738	87.25
337.966	83.25
338.194	74.25
338.422	94.25
338.65	96.25
338.878	86.25
339.106	85.25
339.334	94.25
339.562	84.25
339.79	94.25
340.018	103.25
340.246	79.25
340.474	84.25
340.702	73.25
340.93	79.25
341.158	81.25
341.386	82.25
341.614	78.25
341.842	78.25
342.07	68.25
342.298	72.25
342.526	80.25
342.754	94.25
342.981	94.25
343.209	84.25
343.437	89.25
343.665	88.25
343.893	82.25
344.12	99.25
344.348	86.25
344.576	86.25
344.804	81.25
345.031	79.25
345.259	95.25
345.487	86.25
345.714	70.25
345.942	79.25
346.17	93.25
346.397	90.25
346.625	74.25
346.853	87.25
347.08	100.25
347.308	75.25
347.535	92.25
347.763	95.25
347.99	80.25
348.218	86.25
348.445	78.25
348.673	109.25
348.9	96.25
349.128	96.25
349.355	74.25
349.583	90.25
349.81	84.25
350.037	83.25
350.265	88.25
350.492	84.25
350.72	98.25
350.947	86.25
351.174	92.25
351.402	78.25
351.629	80.25
351.856	84.25
352.083	100.25
352.311	87.25
352.538	79.25
352.765	96.25
352.992	87.25
353.22	79.25
353.447	80.25
353.674	78.25
353.901	92.25
354.128	90.25
354.355	99.25
354.583	98.25
354.81	83.25
355.037	94.25
355.264	83.25
355.491	86.25
355.718	80.25
355.945	95.25
356.172	90.25
356.399	81.25
356.626	88.25
356.853	74.25
357.08	95.25
357.307	77.25
357.534	90.25
357.761	90.25
357.988	89.25
358.215	98.25
358.441	91.25
358.668	90.25
358.895	82.25
359.122	89.25
359.349	87.25
359.576	95.25
359.802	98.25
360.029	88.25
360.256	91.25
360.483	92.25
360.709	73.25
360.936	96.25
361.163	92.25
361.39	88.25
361.616	87.25
361.843	95.25
362.07	87.25
362.296	82.25
362.523	95.25
362.749	99.25
362.976	99.25
363.203	95.25
363.429	86.25
363.656	84.25
363.882	86.25
364.109	91.25
364.335	81.25
364.562	100.25
364.788	84.25
365.015	87.25
365.241	83.25
365.468	76.25
365.694	96.25
365.92	80.25
366.147	79.25
366.373	75.25
366.599	79.25
366.826	84.25
367.052	82.25
367.278	82.25
367.505	82.25
367.731	92.25
367.957	80.25
368.184	87.25
368.41	99.25
368.636	79.25
368.862	78.25
369.089	73.25
369.315	82.25
369.541	82.25
369.767	81.25
369.993	90.25
370.219	88.25
370.445	89.25
370.672	89.25
370.898	85.25
371.124	100.25
371.35	77.25
371.576	85.25
371.802	78.25
372.028	80.25
372.254	83.25
372.48	80.25
372.706	88.25
372.932	95.25
373.158	91.25
373.384	92.25
373.61	85.25
373.835	86.25
374.061	66.25
374.287	79.25
374.513	95.25
374.739	90.25
374.965	93.25
375.191	80.25
375.416	86.25
375.642	97.25
375.868	92.25
376.094	77.25
376.319	88.25
376.545	83.25
376.771	87.25
376.997	103.25
377.222	93.25
377.448	86.25
377.674	94.25
377.899	72.25
378.125	86.25
378.35	92.25
378.576	76.25
378.802	88.25
379.027	84.25
379.253	81.25
379.478	87.25
379.704	81.25
379.929	78.25
380.155	72.25
380.38	82.25
380.606	79.25
380.831	83.25
381.057	86.25
381.282	87.25
381.507	86.25
381.733	84.25
381.958	84.25
382.184	87.25
382.409	85.25
382.634	96.25
382.86	78.25
383.085	84.25
383.31	91.25
383.535	94.25
383.761	80.25
383.986	97.25
384.211	93.25
384.436	81.25
384.662	82.25
384.887	58.25
385.112	86.25
385.337	78.25
385.562	81.25
385.787	95.25
386.013	102.25
386.238	87.25
386.463	76.25
386.688	90.25
386.913	82.25
387.138	79.25
387.363	90.25
387.588	94.25
387.813	84.25
388.038	78.25
388.263	75.25
388.488	87.25
388.713	75.25
388.938	73.25
389.163	87.25
389.387	86.25
389.612	86.25
389.837	97.25
390.062	83.25
390.287	80.25
390.512	90.25
390.736	82.25
390.961	84.25
391.186	85.25
391.411	77.25
391.636	80.25
391.86	81.25
392.085	64.25
392.31	69.25
392.534	73.25
392.759	90.25
392.984	85.25
393.208	91.25
393.433	76.25
393.658	83.25
393.882	83.25
394.107	84.25
394.331	67.25
394.556	91.25
394.78	87.25
395.005	74.25
395.229	68.25
395.454	91.25
395.678	92.25
395.903	92.25
396.127	87.25
396.352	87.25
396.576	82.25
396.801	82.25
397.025	97.25
397.249	92.25
397.474	92.25
397.698	70.25
397.922	90.25
398.147	84.25
398.371	78.25
398.595	84.25
398.82	85.25
399.044	90.25
399.268	78.25
399.492	86.25
399.717	88.25
399.941	94.25
400.165	80.25
400.389	85.25
400.613	75.25
400.837	93.25
401.062	74.25
401.286	76.25
401.51	76.25
401.734	78.25
401.958	84.25
402.182	89.25
402.406	88.25
402.63	77.25
402.854	86.25
403.078	87.25
403.302	89.25
403.526	81.25
403.75	93.25
403.974	87.25
404.198	87.25
404.422	81.25
404.645	78.25
404.869	82.25
405.093	78.25
405.317	86.25
405.541	86.25
405.765	73.25
405.988	92.25
406.212	88.25
406.436	91.25
406.66	88.25
406.883	88.25
407.107	80.25
407.331	80.25
407.555	82.25
407.778	82.25
408.002	95.25
408.226	90.25
408.449	88.25
408.673	79.25
408.896	94.25
409.12	82.25
409.344	68.25
409.567	94.25
409.791	74.25
410.014	84.25
410.238	82.25
410.461	89.25
410.685	87.25
410.908	82.25
411.132	86.25
411.355	83.25
411.578	78.25
411.802	75.25
412.025	82.25
412.249	73.25
412.472	86.25
412.695	84.25
412.919	80.25
413.142	91.25
413.365	95.25
413.589	93.25
413.812	72.25
414.035	79.25
414.258	88.25
414.482	81.25
414.705	82.25
414.928	98.25
415.151	89.25
415.374	83.25
415.597	85.25
415.821	82.25
416.044	84.25
416.267	82.25
416.49	84.25
416.713	69.25
416.936	82.25
417.159	94.25
417.382	78.25
417.605	82.25
417.828	81.25
418.051	89.25
418.274	88.25
418.497	82.25
418.72	92.25
418.943	77.25
419.166	83.25
419.389	79.25
419.611	73.25
419.834	102.25
420.057	105.25
420.28	80.25
420.503	70.25
420.726	96.25
420.948	87.25
421.171	75.25
421.394	93.25
421.617	80.25
421.839	93.25
422.062	92.25
422.285	97.25
422.507	90.25
422.73	76.25
422.953	82.25
423.175	79.25
423.398	81.25
423.621	84.25
423.843	97.25
424.066	85.25
424.288	81.25
424.511	89.25
424.733	78.25
424.956	91.25
425.178	81.25
425.401	79.25
425.623	81.25
425.846	81.25
426.068	75.25
426.291	90.25
426.513	79.25
426.735	72.25
426.958	75.25
427.18	80.25
427.402	77.25
427.625	81.25
427.847	74.25
428.069	85.25
428.292	81.25
428.514	75.25
428.736	73.25
428.958	84.25
429.181	78.25
429.403	81.25
429.625	78.25
429.847	74.25
430.069	82.25
430.292	77.25
430.514	84.25
430.736	73.25
430.958	83.25
431.18	82.25
431.402	80.25
431.624	86.25
431.846	78.25
432.068	87.25
432.29	96.25
432.512	80.25
432.734	88.25
432.956	78.25
433.178	89.25
433.4	76.25
433.622	72.25
433.844	84.25
434.066	86.25
434.287	81.25
434.509	78.25
434.731	102.25
434.953	79.25
435.175	76.25
435.397	92.25
435.618	84.25
435.84	86.25
436.062	85.25
436.284	75.25
436.505	93.25
436.727	82.25
436.949	75.25
437.17	80.25
437.392	78.25
437.614	88.25
437.835	85.25
438.057	87.25
438.278	97.25
438.5	81.25
438.721	74.25
438.943	82.25
439.165	79.25
439.386	95.25
439.608	72.25
439.829	98.25
440.05	80.25
440.272	90.25
440.493	71.25
440.715	83.25
440.936	82.25
441.158	80.25
441.379	78.25
441.6	83.25
441.822	93.25
442.043	91.25
442.264	87.25
442.486	77.25
442.707	77.25
442.928	82.25
443.149	90.25
443.371	61.25
443.592	81.25
443.813	82.25
444.034	81.25
444.255	89.25
444.476	74.25
444.698	83.25
444.919	88.25
445.14	163.25
445.361	120.25
445.582	90.25
445.803	89.25
446.024	95.25
446.245	80.25
446.466	87.25
446.687	94.25
446.908	82.25
447.129	73.25
447.35	88.25
447.571	80.25
447.792	73.25
448.013	90.25
448.234	80.25
448.455	74.25
448.675	94.25
448.896	77.25
449.117	87.25
449.338	71.25
449.559	84.25
449.779	90.25
450	85.25
450.221	95.25
450.442	91.25
450.662	77.25
450.883	76.25
451.104	76.25
451.324	81.25
451.545	77.25
451.766	87.25
451.986	72.25
452.207	77.25
452.428	80.25
452.648	83.25
452.869	83.25
453.089	90.25
453.31	91.25
453.53	75.25
453.751	87.25
453.971	81.25
454.192	87.25
454.412	74.25
454.633	78.25
454.853	82.25
455.073	77.25
455.294	86.25
455.514	76.25
455.734	96.25
455.955	90.25
456.175	85.25
456.395	78.25
456.616	81.25
456.836	88.25
457.056	78.25
457.276	84.25
457.497	88.25
457.717	75.25
457.937	94.25
458.157	81.25
458.377	83.25
458.598	87.25
458.818	74.25
459.038	88.25
459.258	74.25
459.478	91.25
459.698	82.25
459.918	87.25
460.138	86.25
460.358	88.25
460.578	94.25
460.798	86.25
461.018	97.25
461.238	75.25
461.458	84.25
461.678	71.25
461.898	104.25
462.118	90.25
462.338	88.25
462.558	93.25
462.777	63.25
462.997	76.25
463.217	87.25
463.437	87.25
463.657	93.25
463.876	85.25
464.096	76.25
464.316	88.25
464.536	88.25
464.755	92.25
464.975	82.25
465.195	87.25
465.414	79.25
465.634	67.25
465.854	66.25
466.073	84.25
466.293	76.25
466.512	90.25
466.732	79.25
466.951	80.25
467.171	79.25
467.391	87.25
467.61	86.25
467.829	90.25
468.049	89.25
468.268	75.25
468.488	71.25
468.707	73.25
468.927	74.25
469.146	66.25
469.365	88.25
469.585	89.25
469.804	80.25
470.023	83.25
470.243	76.25
470.462	88.25
470.681	88.25
470.901	80.25
471.12	88.25
471.339	83.25
471.558	85.25
471.777	87.25
471.997	87.25
472.216	90.25
472.435	76.25
472.654	88.25
472.873	84.25
473.092	81.25
473.311	73.25
473.53	76.25
473.749	84.25
473.968	76.25
474.187	96.25
474.406	88.25
474.625	72.25
474.844	82.25
475.063	92.25
475.282	84.25
475.501	64.25
475.72	95.25
475.939	71.25
476.158	81.25
476.377	88.25
476.596	83.25
476.814	85.25
477.033	87.25
477.252	81.25
477.471	63.25
477.69	90.25
477.908	79.25
478.127	88.25
478.346	78.25
478.564	69.25
478.783	90.25
479.002	90.25
479.22	81.25
479.439	99.25
479.658	96.25
479.876	83.25
480.095	92.25
480.313	84.25
480.532	78.25
480.751	95.25
480.969	88.25
481.188	81.25
481.406	94.25
481.624	80.25
481.843	67.25
482.061	92.25
482.28	94.25
482.498	76.25
482.717	82.25
482.935	88.25
483.153	83.25
483.372	88.25
483.59	78.25
483.808	74.25
484.027	91.25
484.245	96.25
484.463	86.25
484.681	85.25
484.9	87.25
485.118	82.25
485.336	88.25
485.554	89.25
485.772	82.25
485.99	92.25
486.209	82.25
486.427	70.25
486.645	95.25
486.863	91.25
487.081	76.25
487.299	84.25
487.517	96.25
487.735	70.25
487.953	83.25
488.171	86.25
488.389	90.25
488.607	80.25
488.825	86.25
489.043	71.25
489.261	89.25
489.479	92.25
489.696	88.25
489.914	86.25
490.132	86.25
490.35	76.25
490.568	96.25
490.786	97.25
491.003	92.25
491.221	81.25
491.439	82.25
491.657	80.25
491.874	66.25
492.092	78.25
492.31	86.25
492.527	77.25
492.745	91.25
492.963	78.25
493.18	95.25
493.398	94.25
493.615	80.25
493.833	83.25
494.05	79.25
494.268	77.25
494.485	89.25
494.703	98.25
494.92	83.25
495.138	84.25
495.355	90.25
495.573	81.25
495.79	82.25
496.008	102.25
496.225	97.25
496.442	80.25
496.66	82.25
496.877	71.25
497.094	92.25
497.312	89.25
497.529	85.25
497.746	81.25
497.963	84.25
498.181	80.25
498.398	91.25
498.615	74.25
498.832	86.25
499.049	89.25
499.267	95.25
499.484	88.25
499.701	76.25
499.918	86.25
500.135	74.25
500.352	76.25
500.569	84.25
500.786	65.25
501.003	78.25
501.22	67.25
501.437	98.25
501.654	89.25
501.871	84.25
502.088	71.25
502.305	88.25
502.522	84.25
502.739	78.25
502.956	60.25
503.172	84.25
503.389	87.25
503.606	86.25
503.823	84.25
504.04	87.25
504.256	91.25
504.473	92.25
504.69	83.25
504.907	93.25
505.123	88.25
505.34	98.25
505.557	86.25
505.773	85.25
505.99	83.25
506.207	78.25
506.423	73.25
506.64	89.25
506.856	94.25
507.073	92.25
507.289	87.25
507.506	81.25
507.722	69.25
507.939	80.25
508.155	95.25
508.372	89.25
508.588	78.25
508.805	80.25
509.021	89.25
509.238	78.25
509.454	83.25
509.67	77.25
509.887	68.25
510.103	96.25
510.319	81.25
510.536	93.25
510.752	87.25
510.968	90.25
511.184	70.25
511.401	79.25
511.617	86.25
511.833	83.25
512.049	86.25
512.265	106.25
512.481	88.25
512.698	80.25
512.914	75.25
513.13	75.25
513.346	88.25
513.562	78.25
513.778	77.25
513.994	79.25
514.21	83.25
514.426	80.25
514.642	78.25
514.858	80.25
515.074	86.25
515.29	89.25
515.506	87.25
515.721	72.25
515.937	98.25
516.153	85.25
516.369	87.25
516.585	98.25
516.801	94.25
517.016	84.25
517.232	81.25
517.448	86.25
517.664	77.25
517.879	88.25
518.095	84.25
518.311	74.25
518.527	99.25
518.742	78.25
518.958	86.25
519.173	85.25
519.389	79.25
519.605	83.25
519.82	87.25
520.036	84.25
