Data from KBr_1_HRD10591_00038.txt Node
Date: Mon Jan 19 13:11:20 EST 2026
User: Yrep
Spectrometer: HR+D1059
Trigger mode: 0
Integration Time (sec): 1.000000E-1
Scans to average: 1
Electric dark correction enabled: true
Nonlinearity correction enabled: false
Boxcar width: 0
XAxis mode: Wavelengths
Number of Pixels in Spectrum: 2048
>>>>>Begin Spectral Data<<<<<
223.165	-16.62
223.4	-16.62
223.635	-16.62
223.869	-15.62
224.104	-34.62
224.338	-24.62
224.573	-17.62
224.808	-17.62
225.042	-5.62
225.277	-16.62
225.511	-9.62
225.746	9.38
225.98	22.38
226.215	15.38
226.449	22.38
226.683	24.38
226.918	39.38
227.152	25.38
227.387	47.38
227.621	54.38
227.856	55.38
228.09	51.38
228.324	51.38
228.559	54.38
228.793	44.38
229.027	78.38
229.262	59.38
229.496	59.38
229.73	75.38
229.964	89.38
230.199	88.38
230.433	93.38
230.667	83.38
230.901	82.38
231.136	85.38
231.37	87.38
231.604	81.38
231.838	80.38
232.072	93.38
232.306	95.38
232.541	94.38
232.775	88.38
233.009	87.38
233.243	89.38
233.477	70.38
233.711	75.38
233.945	79.38
234.179	106.38
234.413	102.38
234.647	79.38
234.881	81.38
235.115	87.38
235.349	78.38
235.583	102.38
235.817	92.38
236.051	93.38
236.285	99.38
236.519	91.38
236.753	72.38
236.987	91.38
237.221	82.38
237.455	80.38
237.689	87.38
237.922	90.38
238.156	104.38
238.39	84.38
238.624	90.38
238.858	84.38
239.091	94.38
239.325	105.38
239.559	99.38
239.793	87.38
240.027	92.38
240.26	91.38
240.494	102.38
240.728	70.38
240.961	70.38
241.195	89.38
241.429	89.38
241.662	82.38
241.896	89.38
242.13	92.38
242.363	104.38
242.597	86.38
242.83	83.38
243.064	104.38
243.298	87.38
243.531	86.38
243.765	79.38
243.998	84.38
244.232	99.38
244.465	96.38
244.699	90.38
244.932	109.38
245.166	96.38
245.399	103.38
245.633	94.38
245.866	98.38
246.099	93.38
246.333	100.38
246.566	101.38
246.8	100.38
247.033	110.38
247.266	103.38
247.5	101.38
247.733	102.38
247.966	107.38
248.2	98.38
248.433	100.38
248.666	105.38
248.899	112.38
249.133	104.38
249.366	107.38
249.599	108.38
249.832	99.38
250.066	116.38
250.299	117.38
250.532	89.38
250.765	99.38
250.998	112.38
251.231	91.38
251.465	112.38
251.698	116.38
251.931	103.38
252.164	118.38
252.397	108.38
252.63	107.38
252.863	115.38
253.096	106.38
253.329	104.38
253.562	95.38
253.795	112.38
254.028	114.38
254.261	120.38
254.494	128.38
254.727	123.38
254.96	125.38
255.193	118.38
255.426	117.38
255.659	111.38
255.892	118.38
256.124	112.38
256.357	109.38
256.59	120.38
256.823	118.38
257.056	119.38
257.289	106.38
257.521	113.38
257.754	117.38
257.987	124.38
258.22	115.38
258.452	119.38
258.685	118.38
258.918	109.38
259.151	132.38
259.383	135.38
259.616	138.38
259.849	134.38
260.081	114.38
260.314	131.38
260.547	121.38
260.779	125.38
261.012	137.38
261.244	136.38
261.477	147.38
261.71	106.38
261.942	121.38
262.175	110.38
262.407	127.38
262.64	120.38
262.872	132.38
263.105	133.38
263.337	137.38
263.57	128.38
263.802	128.38
264.035	127.38
264.267	144.38
264.499	116.38
264.732	125.38
264.964	134.38
265.197	132.38
265.429	123.38
265.661	136.38
265.894	138.38
266.126	135.38
266.358	126.38
266.591	141.38
266.823	146.38
267.055	132.38
267.287	119.38
267.52	151.38
267.752	163.38
267.984	142.38
268.216	148.38
268.448	138.38
268.681	144.38
268.913	153.38
269.145	140.38
269.377	148.38
269.609	122.38
269.841	145.38
270.073	138.38
270.306	134.38
270.538	142.38
270.77	142.38
271.002	125.38
271.234	151.38
271.466	151.38
271.698	154.38
271.93	151.38
272.162	136.38
272.394	147.38
272.626	151.38
272.858	145.38
273.09	142.38
273.322	148.38
273.553	154.38
273.785	149.38
274.017	138.38
274.249	159.38
274.481	143.38
274.713	148.38
274.945	148.38
275.176	139.38
275.408	146.38
275.64	149.38
275.872	152.38
276.104	154.38
276.335	136.38
276.567	161.38
276.799	150.38
277.031	152.38
277.262	159.38
277.494	156.38
277.726	159.38
277.957	162.38
278.189	174.38
278.421	156.38
278.652	142.38
278.884	160.38
279.115	174.38
279.347	180.38
279.579	175.38
279.81	180.38
280.042	184.38
280.273	171.38
280.505	178.38
280.736	182.38
280.968	180.38
281.199	161.38
281.431	175.38
281.662	157.38
281.894	163.38
282.125	155.38
282.356	174.38
282.588	169.38
282.819	171.38
283.051	155.38
283.282	187.38
283.513	173.38
283.745	168.38
283.976	170.38
284.207	182.38
284.439	171.38
284.67	184.38
284.901	167.38
285.132	181.38
285.364	173.38
285.595	203.38
285.826	188.38
286.057	166.38
286.288	190.38
286.52	156.38
286.751	170.38
286.982	206.38
287.213	178.38
287.444	194.38
287.675	186.38
287.906	185.38
288.138	182.38
288.369	183.38
288.6	184.38
288.831	191.38
289.062	201.38
289.293	206.38
289.524	196.38
289.755	191.38
289.986	190.38
290.217	193.38
290.448	182.38
290.679	188.38
290.91	192.38
291.141	175.38
291.371	198.38
291.602	182.38
291.833	194.38
292.064	210.38
292.295	206.38
292.526	190.38
292.757	191.38
292.987	206.38
293.218	196.38
293.449	195.38
293.68	199.38
293.91	190.38
294.141	201.38
294.372	192.38
294.603	192.38
294.833	189.38
295.064	197.38
295.295	203.38
295.525	195.38
295.756	202.38
295.987	212.38
296.217	193.38
296.448	189.38
296.679	202.38
296.909	210.38
297.14	206.38
297.37	207.38
297.601	203.38
297.831	200.38
298.062	216.38
298.292	200.38
298.523	221.38
298.753	220.38
298.984	204.38
299.214	203.38
299.445	221.38
299.675	232.38
299.905	204.38
300.136	218.38
300.366	219.38
300.597	203.38
300.827	204.38
301.057	202.38
301.288	210.38
301.518	235.38
301.748	209.38
301.979	224.38
302.209	219.38
302.439	219.38
302.669	212.38
302.9	226.38
303.13	202.38
303.36	210.38
303.59	230.38
303.82	211.38
304.051	215.38
304.281	215.38
304.511	215.38
304.741	210.38
304.971	217.38
305.201	217.38
305.431	216.38
305.661	215.38
305.891	211.38
306.121	230.38
306.352	224.38
306.582	215.38
306.812	212.38
307.042	209.38
307.272	222.38
307.502	218.38
307.731	228.38
307.961	209.38
308.191	235.38
308.421	231.38
308.651	222.38
308.881	235.38
309.111	223.38
309.341	205.38
309.571	234.38
309.8	222.38
310.03	234.38
310.26	219.38
310.49	213.38
310.72	229.38
310.949	226.38
311.179	227.38
311.409	254.38
311.639	236.38
311.868	226.38
312.098	228.38
312.328	230.38
312.557	236.38
312.787	254.38
313.017	259.38
313.246	234.38
313.476	246.38
313.706	235.38
313.935	234.38
314.165	238.38
314.394	237.38
314.624	234.38
314.853	247.38
315.083	236.38
315.312	234.38
315.542	245.38
315.771	254.38
316.001	243.38
316.23	228.38
316.46	260.38
316.689	248.38
316.919	255.38
317.148	242.38
317.377	253.38
317.607	251.38
317.836	264.38
318.065	241.38
318.295	245.38
318.524	245.38
318.753	248.38
318.983	249.38
319.212	243.38
319.441	243.38
319.67	239.38
319.9	252.38
320.129	264.38
320.358	236.38
320.587	264.38
320.816	271.38
321.046	274.38
321.275	279.38
321.504	262.38
321.733	251.38
321.962	241.38
322.191	265.38
322.42	243.38
322.649	254.38
322.878	253.38
323.108	252.38
323.337	252.38
323.566	257.38
323.795	256.38
324.024	269.38
324.253	268.38
324.482	241.38
324.71	245.38
324.939	247.38
325.168	251.38
325.397	266.38
325.626	270.38
325.855	266.38
326.084	244.38
326.313	251.38
326.542	273.38
326.77	270.38
326.999	264.38
327.228	262.38
327.457	267.38
327.686	278.38
327.914	261.38
328.143	278.38
328.372	266.38
328.6	278.38
328.829	274.38
329.058	275.38
329.287	292.38
329.515	271.38
329.744	274.38
329.972	273.38
330.201	320.38
330.43	343.38
330.658	304.38
330.887	282.38
331.115	271.38
331.344	272.38
331.572	285.38
331.801	286.38
332.03	303.38
332.258	296.38
332.486	296.38
332.715	309.38
332.943	299.38
333.172	314.38
333.4	310.38
333.629	314.38
333.857	298.38
334.085	310.38
334.314	322.38
334.542	324.38
334.771	319.38
334.999	299.38
335.227	308.38
335.455	309.38
335.684	321.38
335.912	313.38
336.14	302.38
336.369	323.38
336.597	320.38
336.825	316.38
337.053	324.38
337.281	312.38
337.51	306.38
337.738	312.38
337.966	315.38
338.194	329.38
338.422	316.38
338.65	309.38
338.878	318.38
339.106	300.38
339.334	302.38
339.562	302.38
339.79	300.38
340.018	303.38
340.246	299.38
340.474	288.38
340.702	306.38
340.93	300.38
341.158	304.38
341.386	309.38
341.614	300.38
341.842	286.38
342.07	308.38
342.298	312.38
342.526	288.38
342.754	288.38
342.981	277.38
343.209	313.38
343.437	302.38
343.665	296.38
343.893	315.38
344.12	327.38
344.348	343.38
344.576	346.38
344.804	354.38
345.031	354.38
345.259	301.38
345.487	303.38
345.714	297.38
345.942	303.38
346.17	300.38
346.397	275.38
346.625	302.38
346.853	292.38
347.08	302.38
347.308	297.38
347.535	284.38
347.763	286.38
347.99	274.38
348.218	292.38
348.445	294.38
348.673	284.38
348.9	277.38
349.128	285.38
349.355	295.38
349.583	277.38
349.81	276.38
350.037	283.38
350.265	270.38
350.492	290.38
350.72	284.38
350.947	282.38
351.174	288.38
351.402	278.38
351.629	287.38
351.856	291.38
352.083	271.38
352.311	273.38
352.538	296.38
352.765	288.38
352.992	294.38
353.22	290.38
353.447	284.38
353.674	269.38
353.901	278.38
354.128	304.38
354.355	282.38
354.583	292.38
354.81	290.38
355.037	278.38
355.264	272.38
355.491	278.38
355.718	299.38
355.945	290.38
356.172	281.38
356.399	294.38
356.626	290.38
356.853	298.38
357.08	297.38
357.307	307.38
357.534	259.38
357.761	268.38
357.988	279.38
358.215	278.38
358.441	283.38
358.668	279.38
358.895	282.38
359.122	282.38
359.349	290.38
359.576	282.38
359.802	294.38
360.029	304.38
360.256	286.38
360.483	298.38
360.709	279.38
360.936	272.38
361.163	284.38
361.39	301.38
361.616	299.38
361.843	280.38
362.07	291.38
362.296	281.38
362.523	294.38
362.749	285.38
362.976	300.38
363.203	296.38
363.429	300.38
363.656	269.38
363.882	284.38
364.109	280.38
364.335	287.38
364.562	300.38
364.788	294.38
365.015	285.38
365.241	287.38
365.468	294.38
365.694	294.38
365.92	270.38
366.147	290.38
366.373	282.38
366.599	292.38
366.826	274.38
367.052	298.38
367.278	310.38
367.505	286.38
367.731	291.38
367.957	292.38
368.184	276.38
368.41	297.38
368.636	317.38
368.862	283.38
369.089	291.38
369.315	282.38
369.541	300.38
369.767	314.38
369.993	297.38
370.219	294.38
370.445	291.38
370.672	296.38
370.898	291.38
371.124	310.38
371.35	293.38
371.576	297.38
371.802	319.38
372.028	286.38
372.254	298.38
372.48	296.38
372.706	310.38
372.932	300.38
373.158	298.38
373.384	324.38
373.61	307.38
373.835	310.38
374.061	301.38
374.287	300.38
374.513	319.38
374.739	309.38
374.965	303.38
375.191	322.38
375.416	314.38
375.642	311.38
375.868	313.38
376.094	298.38
376.319	313.38
376.545	288.38
376.771	305.38
376.997	314.38
377.222	313.38
377.448	310.38
377.674	310.38
377.899	294.38
378.125	315.38
378.35	313.38
378.576	317.38
378.802	306.38
379.027	302.38
379.253	322.38
379.478	317.38
379.704	304.38
379.929	318.38
380.155	298.38
380.38	315.38
380.606	312.38
380.831	313.38
381.057	309.38
381.282	307.38
381.507	308.38
381.733	314.38
381.958	307.38
382.184	329.38
382.409	329.38
382.634	327.38
382.86	332.38
383.085	318.38
383.31	331.38
383.535	343.38
383.761	320.38
383.986	338.38
384.211	339.38
384.436	335.38
384.662	318.38
384.887	344.38
385.112	321.38
385.337	348.38
385.562	343.38
385.787	346.38
386.013	348.38
386.238	360.38
386.463	346.38
386.688	368.38
386.913	345.38
387.138	361.38
387.363	356.38
387.588	328.38
387.813	349.38
388.038	355.38
388.263	357.38
388.488	346.38
388.713	349.38
388.938	358.38
389.163	355.38
389.387	370.38
389.612	352.38
389.837	360.38
390.062	343.38
390.287	362.38
390.512	367.38
390.736	364.38
390.961	350.38
391.186	373.38
391.411	375.38
391.636	382.38
391.86	379.38
392.085	379.38
392.31	365.38
392.534	384.38
392.759	380.38
392.984	395.38
393.208	399.38
393.433	418.38
393.658	406.38
393.882	384.38
394.107	370.38
394.331	398.38
394.556	405.38
394.78	397.38
395.005	396.38
395.229	396.38
395.454	419.38
395.678	397.38
395.903	420.38
396.127	415.38
396.352	391.38
396.576	408.38
396.801	399.38
397.025	414.38
397.249	416.38
397.474	391.38
397.698	387.38
397.922	383.38
398.147	390.38
398.371	407.38
398.595	438.38
398.82	420.38
399.044	447.38
399.268	471.38
399.492	470.38
399.717	507.38
399.941	494.38
400.165	482.38
400.389	449.38
400.613	452.38
400.837	437.38
401.062	425.38
401.286	423.38
401.51	415.38
401.734	422.38
401.958	438.38
402.182	429.38
402.406	422.38
402.63	425.38
402.854	422.38
403.078	444.38
403.302	412.38
403.526	442.38
403.75	482.38
403.974	512.38
404.198	683.38
404.422	1010.38
404.645	1212.38
404.869	1030.38
405.093	751.38
405.317	547.38
405.541	491.38
405.765	453.38
405.988	471.38
406.212	439.38
406.436	451.38
406.66	451.38
406.883	444.38
407.107	456.38
407.331	432.38
407.555	471.38
407.778	474.38
408.002	464.38
408.226	428.38
408.449	445.38
408.673	441.38
408.896	422.38
409.12	417.38
409.344	419.38
409.567	434.38
409.791	420.38
410.014	455.38
410.238	434.38
410.461	414.38
410.685	430.38
410.908	430.38
411.132	420.38
411.355	426.38
411.578	426.38
411.802	414.38
412.025	418.38
412.249	410.38
412.472	427.38
412.695	409.38
412.919	416.38
413.142	412.38
413.365	390.38
413.589	419.38
413.812	405.38
414.035	401.38
414.258	393.38
414.482	409.38
414.705	396.38
414.928	436.38
415.151	420.38
415.374	426.38
415.597	410.38
415.821	403.38
416.044	414.38
416.267	384.38
416.49	391.38
416.713	397.38
416.936	422.38
417.159	387.38
417.382	429.38
417.605	420.38
417.828	411.38
418.051	420.38
418.274	418.38
418.497	415.38
418.72	430.38
418.943	428.38
419.166	401.38
419.389	452.38
419.611	446.38
419.834	435.38
420.057	406.38
420.28	406.38
420.503	394.38
420.726	383.38
420.948	411.38
421.171	407.38
421.394	398.38
421.617	429.38
421.839	405.38
422.062	414.38
422.285	414.38
422.507	436.38
422.73	453.38
422.953	436.38
423.175	398.38
423.398	420.38
423.621	395.38
423.843	408.38
424.066	399.38
424.288	405.38
424.511	428.38
424.733	420.38
424.956	403.38
425.178	399.38
425.401	394.38
425.623	404.38
425.846	384.38
426.068	394.38
426.291	390.38
426.513	386.38
426.735	402.38
426.958	384.38
427.18	394.38
427.402	398.38
427.625	388.38
427.847	392.38
428.069	372.38
428.292	402.38
428.514	362.38
428.736	389.38
428.958	387.38
429.181	381.38
429.403	380.38
429.625	390.38
429.847	391.38
430.069	388.38
430.292	389.38
430.514	369.38
430.736	377.38
430.958	372.38
431.18	375.38
431.402	375.38
431.624	363.38
431.846	362.38
432.068	362.38
432.29	357.38
432.512	381.38
432.734	378.38
432.956	372.38
433.178	388.38
433.4	373.38
433.622	370.38
433.844	380.38
434.066	374.38
434.287	375.38
434.509	367.38
434.731	361.38
434.953	361.38
435.175	392.38
435.397	387.38
435.618	375.38
435.84	370.38
436.062	360.38
436.284	380.38
436.505	392.38
436.727	378.38
436.949	369.38
437.17	358.38
437.392	376.38
437.614	377.38
437.835	348.38
438.057	354.38
438.278	368.38
438.5	360.38
438.721	366.38
438.943	381.38
439.165	374.38
439.386	385.38
439.608	381.38
439.829	393.38
440.05	393.38
440.272	384.38
440.493	381.38
440.715	357.38
440.936	381.38
441.158	412.38
441.379	419.38
441.6	406.38
441.822	403.38
442.043	400.38
442.264	391.38
442.486	371.38
442.707	384.38
442.928	384.38
443.149	400.38
443.371	420.38
443.592	396.38
443.813	408.38
444.034	396.38
444.255	406.38
444.476	409.38
444.698	412.38
444.919	419.38
445.14	489.38
445.361	452.38
445.582	406.38
445.803	392.38
446.024	407.38
446.245	407.38
446.466	382.38
446.687	379.38
446.908	396.38
447.129	394.38
447.35	376.38
447.571	368.38
447.792	374.38
448.013	364.38
448.234	356.38
448.455	358.38
448.675	356.38
448.896	371.38
449.117	350.38
449.338	352.38
449.559	367.38
449.779	366.38
450	333.38
450.221	349.38
450.442	362.38
450.662	352.38
450.883	349.38
451.104	354.38
451.324	334.38
451.545	343.38
451.766	330.38
451.986	327.38
452.207	332.38
452.428	340.38
452.648	346.38
452.869	341.38
453.089	331.38
453.31	338.38
453.53	322.38
453.751	319.38
453.971	329.38
454.192	324.38
454.412	326.38
454.633	312.38
454.853	334.38
455.073	323.38
455.294	326.38
455.514	319.38
455.734	328.38
455.955	314.38
456.175	336.38
456.395	322.38
456.616	329.38
456.836	340.38
457.056	330.38
457.276	317.38
457.497	334.38
457.717	315.38
457.937	326.38
458.157	333.38
458.377	328.38
458.598	308.38
458.818	325.38
459.038	335.38
459.258	327.38
459.478	328.38
459.698	354.38
459.918	356.38
460.138	363.38
460.358	368.38
460.578	373.38
460.798	379.38
461.018	392.38
461.238	383.38
461.458	375.38
461.678	387.38
461.898	376.38
462.118	389.38
462.338	399.38
462.558	389.38
462.777	409.38
462.997	418.38
463.217	426.38
463.437	452.38
463.657	420.38
463.876	404.38
464.096	416.38
464.316	415.38
464.536	399.38
464.755	413.38
464.975	396.38
465.195	391.38
465.414	384.38
465.634	376.38
465.854	383.38
466.073	349.38
466.293	386.38
466.512	370.38
466.732	389.38
466.951	372.38
467.171	361.38
467.391	397.38
467.61	395.38
467.829	413.38
468.049	396.38
468.268	383.38
468.488	382.38
468.707	395.38
468.927	380.38
469.146	377.38
469.365	403.38
469.585	408.38
469.804	429.38
470.023	445.38
470.243	414.38
470.462	440.38
470.681	452.38
470.901	436.38
471.12	430.38
471.339	420.38
471.558	396.38
471.777	390.38
471.997	393.38
472.216	380.38
472.435	383.38
472.654	362.38
472.873	371.38
473.092	380.38
473.311	390.38
473.53	386.38
473.749	406.38
473.968	368.38
474.187	370.38
474.406	372.38
474.625	378.38
474.844	387.38
475.063	383.38
475.282	383.38
475.501	379.38
475.72	403.38
475.939	389.38
476.158	391.38
476.377	396.38
476.596	404.38
476.814	409.38
477.033	393.38
477.252	420.38
477.471	426.38
477.69	419.38
477.908	456.38
478.127	483.38
478.346	462.38
478.564	484.38
478.783	490.38
479.002	467.38
479.22	477.38
479.439	475.38
479.658	444.38
479.876	436.38
480.095	440.38
480.313	453.38
480.532	435.38
480.751	466.38
480.969	448.38
481.188	430.38
481.406	446.38
481.624	438.38
481.843	442.38
482.061	448.38
482.28	422.38
482.498	423.38
482.717	420.38
482.935	445.38
483.153	448.38
483.372	433.38
483.59	430.38
483.808	436.38
484.027	418.38
484.245	411.38
484.463	436.38
484.681	437.38
484.9	426.38
485.118	412.38
485.336	420.38
485.554	434.38
485.772	412.38
485.99	423.38
486.209	432.38
486.427	426.38
486.645	436.38
486.863	459.38
487.081	442.38
487.299	443.38
487.517	422.38
487.735	473.38
487.953	465.38
488.171	475.38
488.389	459.38
488.607	426.38
488.825	405.38
489.043	418.38
489.261	436.38
489.479	420.38
489.696	443.38
489.914	439.38
490.132	440.38
490.35	453.38
490.568	454.38
490.786	450.38
491.003	450.38
491.221	462.38
491.439	498.38
491.657	477.38
491.874	505.38
492.092	514.38
492.31	510.38
492.527	521.38
492.745	511.38
492.963	517.38
493.18	507.38
493.398	485.38
493.615	504.38
493.833	495.38
494.05	481.38
494.268	483.38
494.485	487.38
494.703	473.38
494.92	494.38
495.138	478.38
495.355	494.38
495.573	509.38
495.79	484.38
496.008	488.38
496.225	488.38
496.442	493.38
496.66	512.38
496.877	500.38
497.094	507.38
497.312	500.38
497.529	500.38
497.746	497.38
497.963	501.38
498.181	510.38
498.398	509.38
498.615	562.38
498.832	553.38
499.049	557.38
499.267	590.38
499.484	599.38
499.701	635.38
499.918	670.38
500.135	704.38
500.352	750.38
500.569	756.38
500.786	750.38
501.003	727.38
501.22	683.38
501.437	653.38
501.654	628.38
501.871	569.38
502.088	573.38
502.305	549.38
502.522	525.38
502.739	532.38
502.956	510.38
503.172	504.38
503.389	494.38
503.606	466.38
