Data from KBr_1_HRD10591_00015.txt Node
Date: Mon Jan 19 13:11:17 EST 2026
User: Yrep
Spectrometer: HR+D1059
Trigger mode: 0
Integration Time (sec): 1.000000E-1
Scans to average: 1
Electric dark correction enabled: true
Nonlinearity correction enabled: false
Boxcar width: 0
XAxis mode: Wavelengths
Number of Pixels in Spectrum: 2048
>>>>>Begin Spectral Data<<<<<
223.165	-13.19
223.4	-13.19
223.635	-13.19
223.869	-14.19
224.104	-18.19
224.338	-14.19
224.573	-15.19
224.808	-18.19
225.042	-13.19
225.277	-7.19
225.511	-10.19
225.746	-3.19
225.98	19.81
226.215	22.81
226.449	13.81
226.683	14.81
226.918	30.81
227.152	24.81
227.387	22.81
227.621	38.81
227.856	46.81
228.09	53.81
228.324	57.81
228.559	61.81
228.793	73.81
229.027	58.81
229.262	74.81
229.496	82.81
229.73	72.81
229.964	80.81
230.199	86.81
230.433	59.81
230.667	89.81
230.901	78.81
231.136	84.81
231.37	84.81
231.604	95.81
231.838	81.81
232.072	60.81
232.306	84.81
232.541	80.81
232.775	80.81
233.009	90.81
233.243	81.81
233.477	83.81
233.711	84.81
233.945	73.81
234.179	78.81
234.413	87.81
234.647	87.81
234.881	75.81
235.115	81.81
235.349	84.81
235.583	90.81
235.817	78.81
236.051	73.81
236.285	84.81
236.519	70.81
236.753	67.81
236.987	83.81
237.221	82.81
237.455	82.81
237.689	66.81
237.922	77.81
238.156	73.81
238.39	76.81
238.624	84.81
238.858	80.81
239.091	77.81
239.325	68.81
239.559	62.81
239.793	92.81
240.027	85.81
240.26	86.81
240.494	85.81
240.728	70.81
240.961	67.81
241.195	90.81
241.429	83.81
241.662	82.81
241.896	85.81
242.13	95.81
242.363	82.81
242.597	83.81
242.83	96.81
243.064	75.81
243.298	77.81
243.531	74.81
243.765	90.81
243.998	83.81
244.232	76.81
244.465	86.81
244.699	78.81
244.932	78.81
245.166	71.81
245.399	75.81
245.633	92.81
245.866	72.81
246.099	74.81
246.333	80.81
246.566	86.81
246.8	63.81
247.033	89.81
247.266	82.81
247.5	93.81
247.733	87.81
247.966	74.81
248.2	67.81
248.433	83.81
248.666	86.81
248.899	87.81
249.133	77.81
249.366	87.81
249.599	79.81
249.832	66.81
250.066	87.81
250.299	87.81
250.532	90.81
250.765	86.81
250.998	73.81
251.231	82.81
251.465	72.81
251.698	87.81
251.931	78.81
252.164	81.81
252.397	79.81
252.63	78.81
252.863	93.81
253.096	96.81
253.329	96.81
253.562	79.81
253.795	75.81
254.028	70.81
254.261	81.81
254.494	81.81
254.727	97.81
254.96	79.81
255.193	91.81
255.426	87.81
255.659	91.81
255.892	86.81
256.124	86.81
256.357	82.81
256.59	81.81
256.823	91.81
257.056	90.81
257.289	101.81
257.521	81.81
257.754	63.81
257.987	67.81
258.22	85.81
258.452	85.81
258.685	79.81
258.918	76.81
259.151	85.81
259.383	92.81
259.616	75.81
259.849	81.81
260.081	79.81
260.314	85.81
260.547	83.81
260.779	86.81
261.012	73.81
261.244	78.81
261.477	85.81
261.71	82.81
261.942	71.81
262.175	78.81
262.407	71.81
262.64	81.81
262.872	88.81
263.105	77.81
263.337	91.81
263.57	76.81
263.802	86.81
264.035	93.81
264.267	89.81
264.499	93.81
264.732	81.81
264.964	75.81
265.197	68.81
265.429	69.81
265.661	67.81
265.894	74.81
266.126	86.81
266.358	78.81
266.591	91.81
266.823	93.81
267.055	79.81
267.287	93.81
267.52	81.81
267.752	77.81
267.984	87.81
268.216	90.81
268.448	87.81
268.681	96.81
268.913	89.81
269.145	71.81
269.377	90.81
269.609	96.81
269.841	97.81
270.073	80.81
270.306	86.81
270.538	78.81
270.77	86.81
271.002	79.81
271.234	73.81
271.466	73.81
271.698	90.81
271.93	89.81
272.162	94.81
272.394	96.81
272.626	89.81
272.858	81.81
273.09	79.81
273.322	74.81
273.553	83.81
273.785	94.81
274.017	71.81
274.249	88.81
274.481	73.81
274.713	80.81
274.945	90.81
275.176	88.81
275.408	93.81
275.64	88.81
275.872	90.81
276.104	88.81
276.335	86.81
276.567	93.81
276.799	85.81
277.031	94.81
277.262	77.81
277.494	89.81
277.726	69.81
277.957	93.81
278.189	78.81
278.421	75.81
278.652	86.81
278.884	84.81
279.115	80.81
279.347	88.81
279.579	91.81
279.81	81.81
280.042	83.81
280.273	80.81
280.505	76.81
280.736	85.81
280.968	86.81
281.199	87.81
281.431	76.81
281.662	100.81
281.894	95.81
282.125	87.81
282.356	91.81
282.588	74.81
282.819	85.81
283.051	89.81
283.282	88.81
283.513	87.81
283.745	95.81
283.976	93.81
284.207	80.81
284.439	82.81
284.67	87.81
284.901	86.81
285.132	73.81
285.364	89.81
285.595	85.81
285.826	91.81
286.057	65.81
286.288	68.81
286.52	80.81
286.751	86.81
286.982	78.81
287.213	93.81
287.444	105.81
287.675	95.81
287.906	95.81
288.138	70.81
288.369	82.81
288.6	74.81
288.831	79.81
289.062	93.81
289.293	91.81
289.524	106.81
289.755	72.81
289.986	85.81
290.217	75.81
290.448	86.81
290.679	89.81
290.91	78.81
291.141	68.81
291.371	94.81
291.602	89.81
291.833	95.81
292.064	87.81
292.295	86.81
292.526	82.81
292.757	71.81
292.987	79.81
293.218	87.81
293.449	76.81
293.68	85.81
293.91	72.81
294.141	71.81
294.372	75.81
294.603	89.81
294.833	80.81
295.064	67.81
295.295	86.81
295.525	85.81
295.756	85.81
295.987	77.81
296.217	90.81
296.448	87.81
296.679	77.81
296.909	78.81
297.14	79.81
297.37	86.81
297.601	91.81
297.831	82.81
298.062	85.81
298.292	76.81
298.523	82.81
298.753	75.81
298.984	83.81
299.214	91.81
299.445	88.81
299.675	85.81
299.905	87.81
300.136	93.81
300.366	86.81
300.597	83.81
300.827	92.81
301.057	75.81
301.288	77.81
301.518	78.81
301.748	90.81
301.979	107.81
302.209	79.81
302.439	86.81
302.669	78.81
302.9	91.81
303.13	88.81
303.36	79.81
303.59	96.81
303.82	93.81
304.051	98.81
304.281	85.81
304.511	85.81
304.741	90.81
304.971	92.81
305.201	78.81
305.431	87.81
305.661	83.81
305.891	88.81
306.121	78.81
306.352	91.81
306.582	72.81
306.812	90.81
307.042	84.81
307.272	85.81
307.502	86.81
307.731	79.81
307.961	77.81
308.191	88.81
308.421	85.81
308.651	95.81
308.881	89.81
309.111	81.81
309.341	72.81
309.571	86.81
309.8	78.81
310.03	78.81
310.26	82.81
310.49	82.81
310.72	96.81
310.949	79.81
311.179	90.81
311.409	82.81
311.639	94.81
311.868	77.81
312.098	86.81
312.328	81.81
312.557	89.81
312.787	103.81
313.017	79.81
313.246	81.81
313.476	83.81
313.706	83.81
313.935	94.81
314.165	83.81
314.394	102.81
314.624	79.81
314.853	82.81
315.083	81.81
315.312	80.81
315.542	83.81
315.771	87.81
316.001	94.81
316.23	73.81
316.46	83.81
316.689	85.81
316.919	77.81
317.148	91.81
317.377	90.81
317.607	75.81
317.836	90.81
318.065	86.81
318.295	86.81
318.524	96.81
318.753	86.81
318.983	77.81
319.212	85.81
319.441	78.81
319.67	85.81
319.9	101.81
320.129	79.81
320.358	64.81
320.587	88.81
320.816	92.81
321.046	80.81
321.275	79.81
321.504	89.81
321.733	76.81
321.962	73.81
322.191	79.81
322.42	76.81
322.649	95.81
322.878	86.81
323.108	87.81
323.337	98.81
323.566	81.81
323.795	80.81
324.024	88.81
324.253	89.81
324.482	87.81
324.71	88.81
324.939	78.81
325.168	89.81
325.397	95.81
325.626	79.81
325.855	87.81
326.084	91.81
326.313	90.81
326.542	85.81
326.77	88.81
326.999	85.81
327.228	99.81
327.457	93.81
327.686	74.81
327.914	92.81
328.143	97.81
328.372	93.81
328.6	87.81
328.829	90.81
329.058	85.81
329.287	101.81
329.515	88.81
329.744	85.81
329.972	70.81
330.201	85.81
330.43	81.81
330.658	95.81
330.887	91.81
331.115	76.81
331.344	87.81
331.572	78.81
331.801	77.81
332.03	82.81
332.258	91.81
332.486	95.81
332.715	85.81
332.943	81.81
333.172	90.81
333.4	85.81
333.629	83.81
333.857	82.81
334.085	80.81
334.314	99.81
334.542	74.81
334.771	91.81
334.999	78.81
335.227	63.81
335.455	85.81
335.684	88.81
335.912	87.81
336.14	91.81
336.369	89.81
336.597	82.81
336.825	102.81
337.053	78.81
337.281	74.81
337.51	81.81
337.738	81.81
337.966	77.81
338.194	73.81
338.422	89.81
338.65	82.81
338.878	77.81
339.106	77.81
339.334	82.81
339.562	84.81
339.79	89.81
340.018	77.81
340.246	82.81
340.474	80.81
340.702	90.81
340.93	95.81
341.158	96.81
341.386	89.81
341.614	82.81
341.842	99.81
342.07	83.81
342.298	82.81
342.526	80.81
342.754	103.81
342.981	81.81
343.209	79.81
343.437	86.81
343.665	86.81
343.893	89.81
344.12	89.81
344.348	92.81
344.576	80.81
344.804	79.81
345.031	88.81
345.259	78.81
345.487	81.81
345.714	87.81
345.942	79.81
346.17	77.81
346.397	86.81
346.625	73.81
346.853	77.81
347.08	93.81
347.308	85.81
347.535	80.81
347.763	75.81
347.99	85.81
348.218	102.81
348.445	79.81
348.673	65.81
348.9	82.81
349.128	85.81
349.355	77.81
349.583	90.81
349.81	91.81
350.037	91.81
350.265	76.81
350.492	89.81
350.72	89.81
350.947	88.81
351.174	87.81
351.402	90.81
351.629	68.81
351.856	89.81
352.083	81.81
352.311	76.81
352.538	82.81
352.765	83.81
352.992	97.81
353.22	88.81
353.447	81.81
353.674	85.81
353.901	88.81
354.128	75.81
354.355	90.81
354.583	91.81
354.81	85.81
355.037	70.81
355.264	90.81
355.491	81.81
355.718	65.81
355.945	73.81
356.172	85.81
356.399	87.81
356.626	85.81
356.853	77.81
357.08	70.81
357.307	74.81
357.534	89.81
357.761	86.81
357.988	79.81
358.215	86.81
358.441	75.81
358.668	75.81
358.895	94.81
359.122	88.81
359.349	85.81
359.576	76.81
359.802	65.81
360.029	87.81
360.256	91.81
360.483	87.81
360.709	81.81
360.936	95.81
361.163	90.81
361.39	85.81
361.616	83.81
361.843	72.81
362.07	85.81
362.296	89.81
362.523	80.81
362.749	80.81
362.976	79.81
363.203	86.81
363.429	82.81
363.656	89.81
363.882	88.81
364.109	78.81
364.335	91.81
364.562	92.81
364.788	87.81
365.015	83.81
365.241	81.81
365.468	93.81
365.694	86.81
365.92	89.81
366.147	81.81
366.373	93.81
366.599	72.81
366.826	80.81
367.052	90.81
367.278	84.81
367.505	104.81
367.731	81.81
367.957	76.81
368.184	81.81
368.41	81.81
368.636	85.81
368.862	67.81
369.089	77.81
369.315	78.81
369.541	83.81
369.767	83.81
369.993	84.81
370.219	101.81
370.445	72.81
370.672	83.81
370.898	82.81
371.124	74.81
371.35	98.81
371.576	81.81
371.802	85.81
372.028	63.81
372.254	77.81
372.48	78.81
372.706	77.81
372.932	94.81
373.158	88.81
373.384	82.81
373.61	87.81
373.835	94.81
374.061	80.81
374.287	81.81
374.513	90.81
374.739	88.81
374.965	91.81
375.191	87.81
375.416	91.81
375.642	87.81
375.868	85.81
376.094	83.81
376.319	94.81
376.545	82.81
376.771	94.81
376.997	76.81
377.222	77.81
377.448	91.81
377.674	83.81
377.899	93.81
378.125	93.81
378.35	86.81
378.576	114.81
378.802	85.81
379.027	94.81
379.253	73.81
379.478	82.81
379.704	87.81
379.929	71.81
380.155	80.81
380.38	82.81
380.606	93.81
380.831	75.81
381.057	91.81
381.282	90.81
381.507	80.81
381.733	78.81
381.958	81.81
382.184	82.81
382.409	96.81
382.634	96.81
382.86	94.81
383.085	92.81
383.31	82.81
383.535	98.81
383.761	87.81
383.986	77.81
384.211	77.81
384.436	77.81
384.662	83.81
384.887	71.81
385.112	79.81
385.337	76.81
385.562	81.81
385.787	88.81
386.013	83.81
386.238	82.81
386.463	81.81
386.688	96.81
386.913	76.81
387.138	85.81
387.363	73.81
387.588	78.81
387.813	85.81
388.038	73.81
388.263	86.81
388.488	85.81
388.713	89.81
388.938	82.81
389.163	81.81
389.387	75.81
389.612	82.81
389.837	77.81
390.062	90.81
390.287	88.81
390.512	78.81
390.736	94.81
390.961	89.81
391.186	84.81
391.411	91.81
391.636	89.81
391.86	83.81
392.085	79.81
392.31	87.81
392.534	79.81
392.759	77.81
392.984	83.81
393.208	78.81
393.433	87.81
393.658	66.81
393.882	82.81
394.107	85.81
394.331	77.81
394.556	71.81
394.78	86.81
395.005	80.81
395.229	99.81
395.454	77.81
395.678	75.81
395.903	83.81
396.127	80.81
396.352	83.81
396.576	88.81
396.801	85.81
397.025	80.81
397.249	89.81
397.474	85.81
397.698	70.81
397.922	80.81
398.147	87.81
398.371	94.81
398.595	80.81
398.82	79.81
399.044	91.81
399.268	99.81
399.492	77.81
399.717	88.81
399.941	83.81
400.165	79.81
400.389	82.81
400.613	85.81
400.837	75.81
401.062	77.81
401.286	79.81
401.51	71.81
401.734	77.81
401.958	97.81
402.182	85.81
402.406	75.81
402.63	89.81
402.854	94.81
403.078	82.81
403.302	89.81
403.526	90.81
403.75	83.81
403.974	85.81
404.198	77.81
404.422	76.81
404.645	81.81
404.869	89.81
405.093	77.81
405.317	91.81
405.541	87.81
405.765	84.81
405.988	81.81
406.212	81.81
406.436	86.81
406.66	87.81
406.883	73.81
407.107	77.81
407.331	82.81
407.555	94.81
407.778	90.81
408.002	90.81
408.226	93.81
408.449	73.81
408.673	92.81
408.896	77.81
409.12	74.81
409.344	79.81
409.567	81.81
409.791	77.81
410.014	86.81
410.238	91.81
410.461	79.81
410.685	87.81
410.908	80.81
411.132	94.81
411.355	71.81
411.578	95.81
411.802	81.81
412.025	88.81
412.249	73.81
412.472	83.81
412.695	78.81
412.919	80.81
413.142	73.81
413.365	86.81
413.589	106.81
413.812	82.81
414.035	94.81
414.258	91.81
414.482	79.81
414.705	86.81
414.928	78.81
415.151	85.81
415.374	91.81
415.597	88.81
415.821	90.81
416.044	84.81
416.267	81.81
416.49	83.81
416.713	76.81
416.936	78.81
417.159	80.81
417.382	72.81
417.605	103.81
417.828	85.81
418.051	85.81
418.274	79.81
418.497	76.81
418.72	77.81
418.943	65.81
419.166	87.81
419.389	88.81
419.611	94.81
419.834	90.81
420.057	71.81
420.28	80.81
420.503	79.81
420.726	79.81
420.948	91.81
421.171	98.81
421.394	71.81
421.617	88.81
421.839	92.81
422.062	74.81
422.285	63.81
422.507	88.81
422.73	105.81
422.953	73.81
423.175	82.81
423.398	79.81
423.621	87.81
423.843	81.81
424.066	72.81
424.288	78.81
424.511	61.81
424.733	87.81
424.956	93.81
425.178	84.81
425.401	80.81
425.623	73.81
425.846	80.81
426.068	83.81
426.291	81.81
426.513	76.81
426.735	86.81
426.958	86.81
427.18	85.81
427.402	92.81
427.625	85.81
427.847	83.81
428.069	93.81
428.292	78.81
428.514	77.81
428.736	93.81
428.958	93.81
429.181	83.81
429.403	66.81
429.625	79.81
429.847	95.81
430.069	73.81
430.292	80.81
430.514	86.81
430.736	72.81
430.958	87.81
431.18	73.81
431.402	89.81
431.624	71.81
431.846	70.81
432.068	82.81
432.29	81.81
432.512	76.81
432.734	81.81
432.956	86.81
433.178	91.81
433.4	75.81
433.622	93.81
433.844	73.81
434.066	78.81
434.287	89.81
434.509	77.81
434.731	92.81
434.953	95.81
435.175	85.81
435.397	83.81
435.618	82.81
435.84	87.81
436.062	82.81
436.284	77.81
436.505	82.81
436.727	79.81
436.949	75.81
437.17	79.81
437.392	90.81
437.614	80.81
437.835	83.81
438.057	79.81
438.278	91.81
438.5	82.81
438.721	89.81
438.943	92.81
439.165	79.81
439.386	85.81
439.608	81.81
439.829	82.81
440.05	87.81
440.272	73.81
440.493	80.81
440.715	86.81
440.936	79.81
441.158	92.81
441.379	79.81
441.6	85.81
441.822	85.81
442.043	75.81
442.264	80.81
442.486	81.81
442.707	81.81
442.928	70.81
443.149	81.81
443.371	85.81
443.592	99.81
443.813	84.81
444.034	74.81
444.255	93.81
444.476	81.81
444.698	94.81
444.919	79.81
445.14	160.81
445.361	121.81
445.582	73.81
445.803	74.81
446.024	88.81
446.245	77.81
446.466	82.81
446.687	85.81
446.908	95.81
447.129	84.81
447.35	95.81
447.571	76.81
447.792	71.81
448.013	84.81
448.234	73.81
448.455	77.81
448.675	78.81
448.896	81.81
449.117	61.81
449.338	78.81
449.559	75.81
449.779	88.81
450	73.81
450.221	87.81
450.442	83.81
450.662	68.81
450.883	79.81
451.104	73.81
451.324	74.81
451.545	84.81
451.766	90.81
451.986	88.81
452.207	79.81
452.428	75.81
452.648	88.81
452.869	87.81
453.089	86.81
453.31	85.81
453.53	70.81
453.751	74.81
453.971	93.81
454.192	79.81
454.412	81.81
454.633	86.81
454.853	77.81
455.073	94.81
455.294	83.81
455.514	89.81
455.734	75.81
455.955	90.81
456.175	82.81
456.395	77.81
456.616	77.81
456.836	84.81
457.056	90.81
457.276	78.81
457.497	74.81
457.717	74.81
457.937	73.81
458.157	71.81
458.377	86.81
458.598	79.81
458.818	79.81
459.038	71.81
459.258	76.81
459.478	82.81
459.698	94.81
459.918	91.81
460.138	82.81
460.358	79.81
460.578	85.81
460.798	80.81
461.018	84.81
461.238	92.81
461.458	86.81
461.678	81.81
461.898	91.81
462.118	89.81
462.338	70.81
462.558	79.81
462.777	90.81
462.997	75.81
463.217	74.81
463.437	81.81
463.657	89.81
463.876	82.81
464.096	70.81
464.316	77.81
464.536	87.81
464.755	78.81
464.975	81.81
465.195	73.81
465.414	87.81
465.634	77.81
465.854	73.81
466.073	74.81
466.293	74.81
466.512	83.81
466.732	77.81
466.951	80.81
467.171	70.81
467.391	79.81
467.61	88.81
467.829	65.81
468.049	72.81
468.268	72.81
468.488	85.81
468.707	83.81
468.927	81.81
469.146	88.81
469.365	89.81
469.585	93.81
469.804	85.81
470.023	83.81
470.243	82.81
470.462	70.81
470.681	81.81
470.901	77.81
471.12	65.81
471.339	85.81
471.558	90.81
471.777	74.81
471.997	96.81
472.216	79.81
472.435	78.81
472.654	91.81
472.873	80.81
473.092	83.81
473.311	80.81
473.53	74.81
473.749	79.81
473.968	93.81
474.187	75.81
474.406	77.81
474.625	75.81
474.844	64.81
475.063	75.81
475.282	81.81
475.501	82.81
475.72	91.81
475.939	87.81
476.158	74.81
476.377	97.81
476.596	82.81
476.814	86.81
477.033	82.81
477.252	94.81
477.471	73.81
477.69	89.81
477.908	86.81
478.127	82.81
478.346	76.81
478.564	75.81
478.783	77.81
479.002	78.81
479.22	75.81
479.439	88.81
479.658	79.81
479.876	81.81
480.095	66.81
480.313	71.81
480.532	81.81
480.751	83.81
480.969	87.81
481.188	85.81
481.406	80.81
481.624	88.81
481.843	86.81
482.061	88.81
482.28	97.81
482.498	87.81
482.717	85.81
482.935	92.81
483.153	86.81
483.372	78.81
483.59	90.81
483.808	82.81
484.027	86.81
484.245	91.81
484.463	74.81
484.681	89.81
484.9	89.81
485.118	86.81
485.336	87.81
485.554	80.81
485.772	93.81
485.99	87.81
486.209	78.81
486.427	78.81
486.645	91.81
486.863	78.81
487.081	82.81
487.299	86.81
487.517	86.81
487.735	86.81
487.953	85.81
488.171	78.81
488.389	71.81
488.607	88.81
488.825	89.81
489.043	86.81
489.261	89.81
489.479	78.81
489.696	84.81
489.914	85.81
490.132	86.81
490.35	87.81
490.568	79.81
490.786	92.81
491.003	83.81
491.221	82.81
491.439	94.81
491.657	81.81
491.874	71.81
492.092	78.81
492.31	86.81
492.527	83.81
492.745	79.81
492.963	79.81
493.18	96.81
493.398	92.81
493.615	68.81
493.833	81.81
494.05	77.81
494.268	94.81
494.485	76.81
494.703	78.81
494.92	77.81
495.138	85.81
495.355	94.81
495.573	77.81
495.79	80.81
496.008	76.81
496.225	75.81
496.442	84.81
496.66	82.81
496.877	77.81
497.094	87.81
497.312	81.81
497.529	88.81
497.746	76.81
497.963	90.81
498.181	78.81
498.398	78.81
498.615	91.81
498.832	93.81
499.049	78.81
499.267	101.81
499.484	81.81
499.701	93.81
499.918	89.81
500.135	74.81
500.352	88.81
500.569	98.81
500.786	81.81
501.003	90.81
501.22	85.81
501.437	85.81
501.654	86.81
501.871	78.81
502.088	83.81
502.305	82.81
502.522	86.81
502.739	79.81
502.956	80.81
503.172	73.81
503.389	95.81
503.606	73.81
503.823	74.81
504.04	87.81
504.256	82.81
504.473	88.81
504.69	84.81
504.907	75.81
505.123	93.81
505.34	94.81
505.557	69.81
505.773	79.81
505.99	65.81
506.207	79.81
506.423	74.81
506.64	86.81
506.856	87.81
507.073	93.81
507.289	85.81
507.506	94.81
507.722	78.81
507.939	71.81
508.155	89.81
508.372	89.81
508.588	94.81
508.805	84.81
509.021	73.81
509.238	77.81
509.454	74.81
509.67	90.81
509.887	86.81
510.103	80.81
510.319	99.81
510.536	97.81
510.752	81.81
510.968	99.81
511.184	77.81
511.401	87.81
511.617	71.81
511.833	63.81
512.049	79.81
512.265	89.81
512.481	86.81
512.698	91.81
512.914	96.81
513.13	89.81
513.346	70.81
513.562	85.81
513.778	90.81
513.994	98.81
514.21	88.81
514.426	81.81
514.642	80.81
514.858	95.81
515.074	91.81
515.29	89.81
515.506	96.81
515.721	89.81
515.937	78.81
516.153	78.81
516.369	83.81
516.585	80.81
516.801	75.81
517.016	79.81
517.232	81.81
517.448	81.81
517.664	85.81
517.879	77.81
518.095	96.81
518.311	82.81
518.527	81.81
518.742	96.81
518.958	91.81
519.173	90.81
519.389	83.81
519.605	74.81
519.82	83.81
520.036	80.81
