Data from KBr_1_HRD10591_00002.txt Node
Date: Mon Jan 19 13:11:16 EST 2026
User: Yrep
Spectrometer: HR+D1059
Trigger mode: 0
Integration Time (sec): 1.000000E-1
Scans to average: 1
Electric dark correction enabled: true
Nonlinearity correction enabled: false
Boxcar width: 0
XAxis mode: Wavelengths
Number of Pixels in Spectrum: 2048
>>>>>Begin Spectral Data<<<<<
223.165	-7.75
223.4	-7.75
223.635	-7.75
223.869	-15.75
224.104	-18.75
224.338	-31.75
224.573	-15.75
224.808	-24.75
225.042	-15.75
225.277	-4.75
225.511	-4.75
225.746	3.25
225.98	15.25
226.215	10.25
226.449	11.25
226.683	25.25
226.918	32.25
227.152	42.25
227.387	40.25
227.621	30.25
227.856	42.25
228.09	60.25
228.324	56.25
228.559	59.25
228.793	58.25
229.027	51.25
229.262	64.25
229.496	72.25
229.73	84.25
229.964	75.25
230.199	67.25
230.433	60.25
230.667	78.25
230.901	81.25
231.136	65.25
231.37	76.25
231.604	87.25
231.838	71.25
232.072	79.25
232.306	79.25
232.541	99.25
232.775	91.25
233.009	89.25
233.243	72.25
233.477	81.25
233.711	77.25
233.945	87.25
234.179	84.25
234.413	76.25
234.647	81.25
234.881	67.25
235.115	67.25
235.349	96.25
235.583	74.25
235.817	88.25
236.051	76.25
236.285	79.25
236.519	79.25
236.753	82.25
236.987	74.25
237.221	74.25
237.455	68.25
237.689	70.25
237.922	62.25
238.156	71.25
238.39	74.25
238.624	80.25
238.858	85.25
239.091	69.25
239.325	89.25
239.559	78.25
239.793	83.25
240.027	78.25
240.26	77.25
240.494	79.25
240.728	77.25
240.961	80.25
241.195	69.25
241.429	79.25
241.662	74.25
241.896	79.25
242.13	81.25
242.363	75.25
242.597	83.25
242.83	95.25
243.064	76.25
243.298	74.25
243.531	78.25
243.765	72.25
243.998	67.25
244.232	78.25
244.465	76.25
244.699	75.25
244.932	92.25
245.166	78.25
245.399	76.25
245.633	87.25
245.866	78.25
246.099	76.25
246.333	63.25
246.566	81.25
246.8	92.25
247.033	83.25
247.266	81.25
247.5	84.25
247.733	58.25
247.966	73.25
248.2	85.25
248.433	86.25
248.666	72.25
248.899	69.25
249.133	82.25
249.366	98.25
249.599	85.25
249.832	77.25
250.066	88.25
250.299	85.25
250.532	91.25
250.765	76.25
250.998	86.25
251.231	75.25
251.465	78.25
251.698	75.25
251.931	78.25
252.164	85.25
252.397	85.25
252.63	83.25
252.863	76.25
253.096	74.25
253.329	80.25
253.562	76.25
253.795	80.25
254.028	81.25
254.261	68.25
254.494	80.25
254.727	83.25
254.96	70.25
255.193	78.25
255.426	86.25
255.659	88.25
255.892	79.25
256.124	74.25
256.357	77.25
256.59	88.25
256.823	91.25
257.056	76.25
257.289	77.25
257.521	82.25
257.754	84.25
257.987	82.25
258.22	89.25
258.452	67.25
258.685	67.25
258.918	77.25
259.151	82.25
259.383	94.25
259.616	69.25
259.849	81.25
260.081	102.25
260.314	93.25
260.547	86.25
260.779	84.25
261.012	79.25
261.244	84.25
261.477	79.25
261.71	75.25
261.942	74.25
262.175	73.25
262.407	72.25
262.64	76.25
262.872	77.25
263.105	83.25
263.337	84.25
263.57	96.25
263.802	84.25
264.035	87.25
264.267	85.25
264.499	74.25
264.732	72.25
264.964	75.25
265.197	87.25
265.429	72.25
265.661	81.25
265.894	82.25
266.126	82.25
266.358	82.25
266.591	82.25
266.823	72.25
267.055	81.25
267.287	80.25
267.52	85.25
267.752	73.25
267.984	85.25
268.216	82.25
268.448	100.25
268.681	83.25
268.913	79.25
269.145	84.25
269.377	80.25
269.609	86.25
269.841	78.25
270.073	87.25
270.306	87.25
270.538	89.25
270.77	87.25
271.002	81.25
271.234	75.25
271.466	83.25
271.698	96.25
271.93	82.25
272.162	94.25
272.394	79.25
272.626	76.25
272.858	90.25
273.09	77.25
273.322	95.25
273.553	77.25
273.785	79.25
274.017	71.25
274.249	83.25
274.481	85.25
274.713	84.25
274.945	76.25
275.176	66.25
275.408	96.25
275.64	94.25
275.872	75.25
276.104	79.25
276.335	69.25
276.567	99.25
276.799	86.25
277.031	75.25
277.262	81.25
277.494	75.25
277.726	88.25
277.957	83.25
278.189	68.25
278.421	81.25
278.652	90.25
278.884	74.25
279.115	97.25
279.347	75.25
279.579	75.25
279.81	88.25
280.042	75.25
280.273	83.25
280.505	95.25
280.736	74.25
280.968	80.25
281.199	84.25
281.431	82.25
281.662	86.25
281.894	79.25
282.125	79.25
282.356	89.25
282.588	106.25
282.819	98.25
283.051	91.25
283.282	83.25
283.513	84.25
283.745	78.25
283.976	74.25
284.207	75.25
284.439	89.25
284.67	76.25
284.901	91.25
285.132	81.25
285.364	73.25
285.595	85.25
285.826	91.25
286.057	94.25
286.288	83.25
286.52	72.25
286.751	102.25
286.982	91.25
287.213	74.25
287.444	91.25
287.675	69.25
287.906	78.25
288.138	78.25
288.369	71.25
288.6	91.25
288.831	86.25
289.062	95.25
289.293	79.25
289.524	90.25
289.755	93.25
289.986	85.25
290.217	99.25
290.448	89.25
290.679	84.25
290.91	90.25
291.141	90.25
291.371	82.25
291.602	92.25
291.833	64.25
292.064	86.25
292.295	88.25
292.526	84.25
292.757	79.25
292.987	103.25
293.218	70.25
293.449	92.25
293.68	72.25
293.91	69.25
294.141	96.25
294.372	90.25
294.603	93.25
294.833	107.25
295.064	84.25
295.295	79.25
295.525	84.25
295.756	92.25
295.987	83.25
296.217	86.25
296.448	90.25
296.679	82.25
296.909	74.25
297.14	86.25
297.37	89.25
297.601	88.25
297.831	80.25
298.062	83.25
298.292	89.25
298.523	86.25
298.753	76.25
298.984	100.25
299.214	84.25
299.445	100.25
299.675	80.25
299.905	84.25
300.136	76.25
300.366	97.25
300.597	76.25
300.827	74.25
301.057	87.25
301.288	85.25
301.518	81.25
301.748	88.25
301.979	86.25
302.209	78.25
302.439	89.25
302.669	98.25
302.9	77.25
303.13	96.25
303.36	82.25
303.59	93.25
303.82	82.25
304.051	81.25
304.281	87.25
304.511	95.25
304.741	78.25
304.971	89.25
305.201	94.25
305.431	87.25
305.661	75.25
305.891	74.25
306.121	86.25
306.352	83.25
306.582	85.25
306.812	94.25
307.042	87.25
307.272	75.25
307.502	95.25
307.731	75.25
307.961	87.25
308.191	97.25
308.421	92.25
308.651	84.25
308.881	91.25
309.111	82.25
309.341	92.25
309.571	82.25
309.8	80.25
310.03	87.25
310.26	87.25
310.49	78.25
310.72	95.25
310.949	97.25
311.179	100.25
311.409	76.25
311.639	89.25
311.868	88.25
312.098	95.25
312.328	92.25
312.557	84.25
312.787	82.25
313.017	84.25
313.246	85.25
313.476	80.25
313.706	107.25
313.935	96.25
314.165	83.25
314.394	92.25
314.624	86.25
314.853	86.25
315.083	82.25
315.312	81.25
315.542	87.25
315.771	82.25
316.001	88.25
316.23	79.25
316.46	80.25
316.689	70.25
316.919	90.25
317.148	88.25
317.377	80.25
317.607	86.25
317.836	75.25
318.065	92.25
318.295	92.25
318.524	91.25
318.753	84.25
318.983	91.25
319.212	74.25
319.441	82.25
319.67	91.25
319.9	78.25
320.129	92.25
320.358	82.25
320.587	83.25
320.816	61.25
321.046	90.25
321.275	87.25
321.504	82.25
321.733	104.25
321.962	94.25
322.191	80.25
322.42	87.25
322.649	68.25
322.878	87.25
323.108	88.25
323.337	90.25
323.566	82.25
323.795	76.25
324.024	79.25
324.253	78.25
324.482	79.25
324.71	94.25
324.939	94.25
325.168	94.25
325.397	88.25
325.626	85.25
325.855	92.25
326.084	90.25
326.313	85.25
326.542	89.25
326.77	93.25
326.999	87.25
327.228	91.25
327.457	96.25
327.686	93.25
327.914	90.25
328.143	86.25
328.372	82.25
328.6	97.25
328.829	98.25
329.058	92.25
329.287	77.25
329.515	97.25
329.744	87.25
329.972	92.25
330.201	86.25
330.43	80.25
330.658	96.25
330.887	85.25
331.115	86.25
331.344	84.25
331.572	94.25
331.801	79.25
332.03	85.25
332.258	93.25
332.486	87.25
332.715	89.25
332.943	86.25
333.172	75.25
333.4	74.25
333.629	71.25
333.857	93.25
334.085	88.25
334.314	92.25
334.542	90.25
334.771	72.25
334.999	84.25
335.227	91.25
335.455	84.25
335.684	95.25
335.912	88.25
336.14	77.25
336.369	77.25
336.597	91.25
336.825	88.25
337.053	88.25
337.281	97.25
337.51	90.25
337.738	68.25
337.966	92.25
338.194	84.25
338.422	66.25
338.65	82.25
338.878	88.25
339.106	86.25
339.334	102.25
339.562	96.25
339.79	87.25
340.018	77.25
340.246	89.25
340.474	87.25
340.702	72.25
340.93	94.25
341.158	79.25
341.386	81.25
341.614	84.25
341.842	76.25
342.07	90.25
342.298	79.25
342.526	76.25
342.754	91.25
342.981	86.25
343.209	83.25
343.437	88.25
343.665	96.25
343.893	86.25
344.12	86.25
344.348	93.25
344.576	93.25
344.804	91.25
345.031	94.25
345.259	89.25
345.487	83.25
345.714	80.25
345.942	91.25
346.17	99.25
346.397	86.25
346.625	86.25
346.853	83.25
347.08	80.25
347.308	70.25
347.535	87.25
347.763	83.25
347.99	93.25
348.218	95.25
348.445	94.25
348.673	91.25
348.9	75.25
349.128	78.25
349.355	82.25
349.583	78.25
349.81	83.25
350.037	91.25
350.265	97.25
350.492	97.25
350.72	79.25
350.947	88.25
351.174	97.25
351.402	71.25
351.629	79.25
351.856	81.25
352.083	80.25
352.311	91.25
352.538	93.25
352.765	82.25
352.992	80.25
353.22	83.25
353.447	85.25
353.674	88.25
353.901	98.25
354.128	78.25
354.355	74.25
354.583	96.25
354.81	94.25
355.037	91.25
355.264	93.25
355.491	93.25
355.718	86.25
355.945	99.25
356.172	82.25
356.399	77.25
356.626	99.25
356.853	87.25
357.08	97.25
357.307	97.25
357.534	94.25
357.761	79.25
357.988	91.25
358.215	84.25
358.441	88.25
358.668	75.25
358.895	87.25
359.122	88.25
359.349	90.25
359.576	88.25
359.802	93.25
360.029	88.25
360.256	84.25
360.483	87.25
360.709	88.25
360.936	87.25
361.163	95.25
361.39	79.25
361.616	79.25
361.843	92.25
362.07	87.25
362.296	87.25
362.523	103.25
362.749	77.25
362.976	91.25
363.203	102.25
363.429	83.25
363.656	90.25
363.882	88.25
364.109	67.25
364.335	93.25
364.562	88.25
364.788	79.25
365.015	98.25
365.241	84.25
365.468	78.25
365.694	84.25
365.92	92.25
366.147	79.25
366.373	81.25
366.599	96.25
366.826	82.25
367.052	80.25
367.278	74.25
367.505	95.25
367.731	106.25
367.957	70.25
368.184	77.25
368.41	88.25
368.636	85.25
368.862	79.25
369.089	75.25
369.315	79.25
369.541	94.25
369.767	96.25
369.993	95.25
370.219	86.25
370.445	86.25
370.672	91.25
370.898	83.25
371.124	89.25
371.35	82.25
371.576	92.25
371.802	89.25
372.028	93.25
372.254	98.25
372.48	85.25
372.706	82.25
372.932	90.25
373.158	96.25
373.384	92.25
373.61	86.25
373.835	87.25
374.061	91.25
374.287	92.25
374.513	91.25
374.739	79.25
374.965	72.25
375.191	88.25
375.416	79.25
375.642	88.25
375.868	82.25
376.094	98.25
376.319	92.25
376.545	86.25
376.771	75.25
376.997	90.25
377.222	78.25
377.448	99.25
377.674	94.25
377.899	84.25
378.125	88.25
378.35	79.25
378.576	79.25
378.802	93.25
379.027	85.25
379.253	79.25
379.478	88.25
379.704	90.25
379.929	97.25
380.155	76.25
380.38	87.25
380.606	84.25
380.831	87.25
381.057	83.25
381.282	86.25
381.507	85.25
381.733	105.25
381.958	82.25
382.184	97.25
382.409	90.25
382.634	94.25
382.86	96.25
383.085	82.25
383.31	83.25
383.535	73.25
383.761	91.25
383.986	92.25
384.211	76.25
384.436	87.25
384.662	78.25
384.887	81.25
385.112	83.25
385.337	82.25
385.562	81.25
385.787	87.25
386.013	83.25
386.238	79.25
386.463	92.25
386.688	97.25
386.913	87.25
387.138	72.25
387.363	80.25
387.588	84.25
387.813	99.25
388.038	95.25
388.263	79.25
388.488	87.25
388.713	88.25
388.938	77.25
389.163	86.25
389.387	76.25
389.612	86.25
389.837	88.25
390.062	94.25
390.287	82.25
390.512	84.25
390.736	75.25
390.961	103.25
391.186	79.25
391.411	83.25
391.636	79.25
391.86	88.25
392.085	84.25
392.31	88.25
392.534	74.25
392.759	82.25
392.984	84.25
393.208	89.25
393.433	87.25
393.658	82.25
393.882	97.25
394.107	94.25
394.331	92.25
394.556	85.25
394.78	81.25
395.005	83.25
395.229	97.25
395.454	86.25
395.678	83.25
395.903	95.25
396.127	84.25
396.352	75.25
396.576	92.25
396.801	85.25
397.025	91.25
397.249	94.25
397.474	81.25
397.698	82.25
397.922	87.25
398.147	91.25
398.371	77.25
398.595	92.25
398.82	92.25
399.044	97.25
399.268	91.25
399.492	98.25
399.717	91.25
399.941	72.25
400.165	105.25
400.389	82.25
400.613	81.25
400.837	77.25
401.062	77.25
401.286	91.25
401.51	78.25
401.734	76.25
401.958	79.25
402.182	98.25
402.406	86.25
402.63	73.25
402.854	82.25
403.078	81.25
403.302	90.25
403.526	90.25
403.75	82.25
403.974	86.25
404.198	88.25
404.422	88.25
404.645	88.25
404.869	81.25
405.093	81.25
405.317	93.25
405.541	84.25
405.765	83.25
405.988	90.25
406.212	86.25
406.436	99.25
406.66	89.25
406.883	79.25
407.107	87.25
407.331	78.25
407.555	89.25
407.778	74.25
408.002	90.25
408.226	95.25
408.449	90.25
408.673	80.25
408.896	79.25
409.12	94.25
409.344	81.25
409.567	86.25
409.791	90.25
410.014	82.25
410.238	96.25
410.461	82.25
410.685	82.25
410.908	72.25
411.132	88.25
411.355	92.25
411.578	90.25
411.802	88.25
412.025	88.25
412.249	72.25
412.472	79.25
412.695	80.25
412.919	79.25
413.142	79.25
413.365	77.25
413.589	87.25
413.812	82.25
414.035	89.25
414.258	83.25
414.482	77.25
414.705	86.25
414.928	91.25
415.151	78.25
415.374	70.25
415.597	84.25
415.821	90.25
416.044	68.25
416.267	87.25
416.49	88.25
416.713	86.25
416.936	87.25
417.159	80.25
417.382	94.25
417.605	79.25
417.828	80.25
418.051	75.25
418.274	91.25
418.497	76.25
418.72	82.25
418.943	80.25
419.166	88.25
419.389	93.25
419.611	94.25
419.834	87.25
420.057	91.25
420.28	95.25
420.503	95.25
420.726	87.25
420.948	79.25
421.171	72.25
421.394	82.25
421.617	85.25
421.839	83.25
422.062	85.25
422.285	78.25
422.507	69.25
422.73	78.25
422.953	83.25
423.175	83.25
423.398	86.25
423.621	87.25
423.843	75.25
424.066	91.25
424.288	72.25
424.511	79.25
424.733	66.25
424.956	92.25
425.178	88.25
425.401	79.25
425.623	76.25
425.846	93.25
426.068	84.25
426.291	79.25
426.513	104.25
426.735	85.25
426.958	79.25
427.18	97.25
427.402	68.25
427.625	83.25
427.847	91.25
428.069	77.25
428.292	74.25
428.514	78.25
428.736	73.25
428.958	74.25
429.181	88.25
429.403	84.25
429.625	79.25
429.847	95.25
430.069	87.25
430.292	80.25
430.514	78.25
430.736	81.25
430.958	81.25
431.18	78.25
431.402	75.25
431.624	80.25
431.846	89.25
432.068	94.25
432.29	90.25
432.512	88.25
432.734	91.25
432.956	79.25
433.178	100.25
433.4	93.25
433.622	91.25
433.844	87.25
434.066	79.25
434.287	78.25
434.509	73.25
434.731	82.25
434.953	88.25
435.175	78.25
435.397	88.25
435.618	95.25
435.84	78.25
436.062	86.25
436.284	76.25
436.505	83.25
436.727	75.25
436.949	86.25
437.17	78.25
437.392	89.25
437.614	103.25
437.835	86.25
438.057	85.25
438.278	88.25
438.5	79.25
438.721	86.25
438.943	73.25
439.165	87.25
439.386	97.25
439.608	77.25
439.829	72.25
440.05	79.25
440.272	81.25
440.493	74.25
440.715	87.25
440.936	93.25
441.158	87.25
441.379	88.25
441.6	83.25
441.822	75.25
442.043	83.25
442.264	96.25
442.486	64.25
442.707	93.25
442.928	94.25
443.149	74.25
443.371	76.25
443.592	83.25
443.813	78.25
444.034	84.25
444.255	83.25
444.476	99.25
444.698	99.25
444.919	79.25
445.14	150.25
445.361	100.25
445.582	86.25
445.803	94.25
446.024	91.25
446.245	68.25
446.466	89.25
446.687	70.25
446.908	89.25
447.129	83.25
447.35	92.25
447.571	82.25
447.792	92.25
448.013	83.25
448.234	64.25
448.455	82.25
448.675	78.25
448.896	81.25
449.117	84.25
449.338	82.25
449.559	90.25
449.779	82.25
450	71.25
450.221	80.25
450.442	86.25
450.662	82.25
450.883	69.25
451.104	96.25
451.324	93.25
451.545	91.25
451.766	85.25
451.986	90.25
452.207	100.25
452.428	87.25
452.648	90.25
452.869	79.25
453.089	87.25
453.31	75.25
453.53	97.25
453.751	86.25
453.971	74.25
454.192	78.25
454.412	78.25
454.633	80.25
454.853	86.25
455.073	88.25
455.294	76.25
455.514	81.25
455.734	84.25
455.955	83.25
456.175	84.25
456.395	93.25
456.616	76.25
456.836	83.25
457.056	87.25
457.276	90.25
457.497	94.25
457.717	81.25
457.937	79.25
458.157	66.25
458.377	92.25
458.598	85.25
458.818	91.25
459.038	73.25
459.258	82.25
459.478	79.25
459.698	93.25
459.918	77.25
460.138	85.25
460.358	81.25
460.578	70.25
460.798	78.25
461.018	74.25
461.238	82.25
461.458	98.25
461.678	91.25
461.898	95.25
462.118	84.25
462.338	79.25
462.558	94.25
462.777	67.25
462.997	82.25
463.217	85.25
463.437	65.25
463.657	90.25
463.876	87.25
464.096	74.25
464.316	83.25
464.536	90.25
464.755	74.25
464.975	74.25
465.195	82.25
465.414	72.25
465.634	89.25
465.854	79.25
466.073	80.25
466.293	75.25
466.512	93.25
466.732	79.25
466.951	74.25
467.171	74.25
467.391	79.25
467.61	74.25
467.829	84.25
468.049	86.25
468.268	81.25
468.488	78.25
468.707	80.25
468.927	84.25
469.146	71.25
469.365	83.25
469.585	81.25
469.804	88.25
470.023	86.25
470.243	88.25
470.462	90.25
470.681	74.25
470.901	93.25
471.12	88.25
471.339	81.25
471.558	81.25
471.777	93.25
471.997	90.25
472.216	84.25
472.435	83.25
472.654	87.25
472.873	80.25
473.092	75.25
473.311	81.25
473.53	84.25
473.749	81.25
473.968	67.25
474.187	87.25
474.406	75.25
474.625	80.25
474.844	70.25
475.063	81.25
475.282	84.25
475.501	68.25
475.72	89.25
475.939	91.25
476.158	78.25
476.377	83.25
476.596	70.25
476.814	89.25
477.033	87.25
477.252	92.25
477.471	88.25
477.69	74.25
477.908	96.25
478.127	78.25
478.346	81.25
478.564	84.25
478.783	84.25
479.002	80.25
479.22	80.25
479.439	87.25
479.658	75.25
479.876	103.25
480.095	78.25
480.313	80.25
480.532	91.25
480.751	86.25
480.969	94.25
481.188	93.25
481.406	76.25
481.624	77.25
481.843	86.25
482.061	72.25
482.28	84.25
482.498	78.25
482.717	67.25
482.935	78.25
483.153	86.25
483.372	83.25
483.59	90.25
483.808	84.25
484.027	78.25
484.245	76.25
484.463	84.25
484.681	83.25
484.9	76.25
485.118	78.25
485.336	99.25
485.554	90.25
485.772	91.25
485.99	78.25
486.209	100.25
486.427	88.25
486.645	64.25
486.863	77.25
487.081	85.25
487.299	82.25
487.517	81.25
487.735	75.25
487.953	93.25
488.171	90.25
488.389	80.25
488.607	83.25
488.825	86.25
489.043	92.25
489.261	98.25
489.479	80.25
489.696	79.25
489.914	86.25
490.132	102.25
490.35	91.25
490.568	91.25
490.786	82.25
491.003	78.25
491.221	76.25
491.439	69.25
491.657	74.25
491.874	101.25
492.092	74.25
492.31	92.25
492.527	69.25
492.745	78.25
492.963	80.25
493.18	98.25
493.398	83.25
493.615	86.25
493.833	80.25
494.05	80.25
494.268	83.25
494.485	87.25
494.703	71.25
494.92	88.25
495.138	67.25
495.355	87.25
495.573	90.25
495.79	88.25
496.008	85.25
496.225	77.25
496.442	85.25
496.66	82.25
496.877	93.25
497.094	96.25
497.312	67.25
497.529	89.25
497.746	83.25
497.963	90.25
498.181	78.25
498.398	91.25
498.615	81.25
498.832	88.25
499.049	91.25
499.267	73.25
499.484	91.25
499.701	72.25
499.918	80.25
500.135	78.25
500.352	86.25
500.569	80.25
500.786	91.25
501.003	82.25
501.22	90.25
501.437	87.25
501.654	83.25
501.871	82.25
502.088	94.25
502.305	79.25
502.522	85.25
502.739	98.25
502.956	78.25
503.172	91.25
503.389	90.25
503.606	106.25
503.823	82.25
504.04	89.25
504.256	88.25
504.473	83.25
504.69	86.25
504.907	96.25
505.123	82.25
505.34	84.25
505.557	82.25
505.773	82.25
505.99	84.25
506.207	85.25
506.423	85.25
506.64	83.25
506.856	91.25
507.073	83.25
507.289	89.25
507.506	80.25
507.722	84.25
507.939	86.25
508.155	87.25
508.372	79.25
508.588	83.25
508.805	93.25
509.021	83.25
509.238	62.25
509.454	86.25
509.67	89.25
509.887	86.25
510.103	87.25
510.319	88.25
510.536	88.25
510.752	87.25
510.968	89.25
511.184	71.25
511.401	79.25
511.617	79.25
511.833	85.25
512.049	89.25
512.265	100.25
512.481	95.25
512.698	89.25
512.914	90.25
513.13	79.25
513.346	81.25
513.562	89.25
513.778	79.25
513.994	76.25
514.21	97.25
514.426	99.25
514.642	90.25
514.858	83.25
515.074	75.25
515.29	90.25
515.506	85.25
515.721	66.25
515.937	84.25
516.153	82.25
516.369	77.25
516.585	87.25
516.801	83.25
517.016	72.25
517.232	82.25
517.448	79.25
517.664	89.25
517.879	87.25
518.095	72.25
518.311	74.25
518.527	79.25
518.742	87.25
518.958	91.25
519.173	83.25
519.389	78.25
519.605	76.25
519.82	67.25
