Data from KBr_1_HRD10591_00003.txt Node
Date: Mon Jan 19 13:11:16 EST 2026
User: Yrep
Spectrometer: HR+D1059
Trigger mode: 0
Integration Time (sec): 1.000000E-1
Scans to average: 1
Electric dark correction enabled: true
Nonlinearity correction enabled: false
Boxcar width: 0
XAxis mode: Wavelengths
Number of Pixels in Spectrum: 2048
>>>>>Begin Spectral Data<<<<<
223.165	8.75
223.4	8.75
223.635	8.75
223.869	-31.25
224.104	-33.25
224.338	-24.25
224.573	-19.25
224.808	-1.25
225.042	-1.25
225.277	-6.25
225.511	-3.25
225.746	-1.25
225.98	20.75
226.215	-10.25
226.449	20.75
226.683	12.75
226.918	28.75
227.152	39.75
227.387	34.75
227.621	49.75
227.856	48.75
228.09	54.75
228.324	48.75
228.559	56.75
228.793	62.75
229.027	78.75
229.262	78.75
229.496	72.75
229.73	81.75
229.964	78.75
230.199	71.75
230.433	79.75
230.667	76.75
230.901	102.75
231.136	87.75
231.37	89.75
231.604	98.75
231.838	74.75
232.072	85.75
232.306	91.75
232.541	98.75
232.775	95.75
233.009	94.75
233.243	88.75
233.477	102.75
233.711	92.75
233.945	82.75
234.179	97.75
234.413	100.75
234.647	104.75
234.881	91.75
235.115	90.75
235.349	86.75
235.583	85.75
235.817	87.75
236.051	92.75
236.285	92.75
236.519	84.75
236.753	93.75
236.987	86.75
237.221	91.75
237.455	95.75
237.689	82.75
237.922	96.75
238.156	90.75
238.39	98.75
238.624	112.75
238.858	94.75
239.091	109.75
239.325	108.75
239.559	104.75
239.793	109.75
240.027	108.75
240.26	110.75
240.494	83.75
240.728	66.75
240.961	89.75
241.195	95.75
241.429	94.75
241.662	86.75
241.896	81.75
242.13	105.75
242.363	100.75
242.597	107.75
242.83	108.75
243.064	100.75
243.298	92.75
243.531	86.75
243.765	97.75
243.998	100.75
244.232	112.75
244.465	111.75
244.699	111.75
244.932	100.75
245.166	83.75
245.399	97.75
245.633	106.75
245.866	107.75
246.099	100.75
246.333	100.75
246.566	100.75
246.8	91.75
247.033	100.75
247.266	112.75
247.5	110.75
247.733	96.75
247.966	107.75
248.2	100.75
248.433	103.75
248.666	107.75
248.899	109.75
249.133	108.75
249.366	105.75
249.599	118.75
249.832	108.75
250.066	109.75
250.299	100.75
250.532	104.75
250.765	86.75
250.998	108.75
251.231	114.75
251.465	105.75
251.698	115.75
251.931	110.75
252.164	105.75
252.397	111.75
252.63	116.75
252.863	106.75
253.096	132.75
253.329	114.75
253.562	116.75
253.795	120.75
254.028	123.75
254.261	128.75
254.494	104.75
254.727	132.75
254.96	114.75
255.193	116.75
255.426	102.75
255.659	120.75
255.892	128.75
256.124	117.75
256.357	121.75
256.59	116.75
256.823	124.75
257.056	126.75
257.289	140.75
257.521	124.75
257.754	123.75
257.987	110.75
258.22	121.75
258.452	129.75
258.685	123.75
258.918	125.75
259.151	118.75
259.383	138.75
259.616	120.75
259.849	120.75
260.081	119.75
260.314	132.75
260.547	121.75
260.779	134.75
261.012	140.75
261.244	137.75
261.477	145.75
261.71	135.75
261.942	120.75
262.175	134.75
262.407	135.75
262.64	134.75
262.872	134.75
263.105	124.75
263.337	119.75
263.57	149.75
263.802	136.75
264.035	136.75
264.267	149.75
264.499	122.75
264.732	136.75
264.964	134.75
265.197	129.75
265.429	131.75
265.661	127.75
265.894	146.75
266.126	133.75
266.358	151.75
266.591	149.75
266.823	153.75
267.055	129.75
267.287	133.75
267.52	139.75
267.752	130.75
267.984	168.75
268.216	143.75
268.448	157.75
268.681	161.75
268.913	150.75
269.145	144.75
269.377	153.75
269.609	140.75
269.841	137.75
270.073	134.75
270.306	142.75
270.538	150.75
270.77	151.75
271.002	141.75
271.234	147.75
271.466	148.75
271.698	132.75
271.93	130.75
272.162	154.75
272.394	151.75
272.626	171.75
272.858	154.75
273.09	152.75
273.322	148.75
273.553	157.75
273.785	164.75
274.017	174.75
274.249	165.75
274.481	156.75
274.713	156.75
274.945	160.75
275.176	148.75
275.408	161.75
275.64	185.75
275.872	148.75
276.104	162.75
276.335	161.75
276.567	155.75
276.799	155.75
277.031	166.75
277.262	159.75
277.494	145.75
277.726	150.75
277.957	153.75
278.189	158.75
278.421	170.75
278.652	179.75
278.884	166.75
279.115	168.75
279.347	184.75
279.579	186.75
279.81	194.75
280.042	177.75
280.273	185.75
280.505	164.75
280.736	172.75
280.968	157.75
281.199	166.75
281.431	172.75
281.662	182.75
281.894	191.75
282.125	176.75
282.356	141.75
282.588	162.75
282.819	165.75
283.051	181.75
283.282	204.75
283.513	180.75
283.745	161.75
283.976	179.75
284.207	182.75
284.439	183.75
284.67	176.75
284.901	190.75
285.132	183.75
285.364	188.75
285.595	193.75
285.826	170.75
286.057	184.75
286.288	176.75
286.52	189.75
286.751	190.75
286.982	187.75
287.213	188.75
287.444	181.75
287.675	196.75
287.906	185.75
288.138	188.75
288.369	195.75
288.6	174.75
288.831	174.75
289.062	187.75
289.293	216.75
289.524	210.75
289.755	193.75
289.986	198.75
290.217	208.75
290.448	199.75
290.679	201.75
290.91	213.75
291.141	206.75
291.371	190.75
291.602	188.75
291.833	199.75
292.064	191.75
292.295	196.75
292.526	189.75
292.757	174.75
292.987	206.75
293.218	208.75
293.449	212.75
293.68	205.75
293.91	187.75
294.141	209.75
294.372	198.75
294.603	196.75
294.833	203.75
295.064	197.75
295.295	200.75
295.525	176.75
295.756	194.75
295.987	201.75
296.217	216.75
296.448	216.75
296.679	219.75
296.909	201.75
297.14	205.75
297.37	219.75
297.601	206.75
297.831	213.75
298.062	208.75
298.292	214.75
298.523	211.75
298.753	222.75
298.984	224.75
299.214	212.75
299.445	210.75
299.675	221.75
299.905	222.75
300.136	212.75
300.366	206.75
300.597	212.75
300.827	186.75
301.057	222.75
301.288	222.75
301.518	231.75
301.748	224.75
301.979	234.75
302.209	210.75
302.439	213.75
302.669	231.75
302.9	213.75
303.13	215.75
303.36	224.75
303.59	233.75
303.82	215.75
304.051	220.75
304.281	228.75
304.511	213.75
304.741	228.75
304.971	212.75
305.201	226.75
305.431	243.75
305.661	237.75
305.891	229.75
306.121	226.75
306.352	223.75
306.582	214.75
306.812	215.75
307.042	214.75
307.272	221.75
307.502	223.75
307.731	236.75
307.961	230.75
308.191	231.75
308.421	229.75
308.651	223.75
308.881	222.75
309.111	225.75
309.341	213.75
309.571	227.75
309.8	214.75
310.03	224.75
310.26	232.75
310.49	230.75
310.72	229.75
310.949	226.75
311.179	232.75
311.409	220.75
311.639	238.75
311.868	233.75
312.098	232.75
312.328	230.75
312.557	231.75
312.787	242.75
313.017	244.75
313.246	222.75
313.476	246.75
313.706	245.75
313.935	240.75
314.165	235.75
314.394	237.75
314.624	253.75
314.853	252.75
315.083	251.75
315.312	247.75
315.542	230.75
315.771	263.75
316.001	247.75
316.23	265.75
316.46	269.75
316.689	242.75
316.919	267.75
317.148	259.75
317.377	252.75
317.607	255.75
317.836	247.75
318.065	261.75
318.295	263.75
318.524	264.75
318.753	241.75
318.983	245.75
319.212	255.75
319.441	249.75
319.67	250.75
319.9	238.75
320.129	255.75
320.358	260.75
320.587	262.75
320.816	248.75
321.046	260.75
321.275	247.75
321.504	253.75
321.733	269.75
321.962	265.75
322.191	259.75
322.42	274.75
322.649	265.75
322.878	248.75
323.108	261.75
323.337	260.75
323.566	266.75
323.795	261.75
324.024	261.75
324.253	268.75
324.482	264.75
324.71	252.75
324.939	263.75
325.168	262.75
325.397	251.75
325.626	254.75
325.855	274.75
326.084	258.75
326.313	253.75
326.542	251.75
326.77	255.75
326.999	269.75
327.228	274.75
327.457	268.75
327.686	268.75
327.914	279.75
328.143	272.75
328.372	272.75
328.6	249.75
328.829	262.75
329.058	249.75
329.287	284.75
329.515	278.75
329.744	278.75
329.972	289.75
330.201	344.75
330.43	336.75
330.658	301.75
330.887	296.75
331.115	278.75
331.344	287.75
331.572	279.75
331.801	279.75
332.03	272.75
332.258	295.75
332.486	301.75
332.715	288.75
332.943	302.75
333.172	297.75
333.4	312.75
333.629	301.75
333.857	312.75
334.085	301.75
334.314	310.75
334.542	323.75
334.771	318.75
334.999	313.75
335.227	314.75
335.455	320.75
335.684	330.75
335.912	312.75
336.14	314.75
336.369	313.75
336.597	318.75
336.825	321.75
337.053	326.75
337.281	335.75
337.51	330.75
337.738	330.75
337.966	317.75
338.194	315.75
338.422	303.75
338.65	294.75
338.878	295.75
339.106	316.75
339.334	305.75
339.562	322.75
339.79	312.75
340.018	307.75
340.246	309.75
340.474	313.75
340.702	309.75
340.93	302.75
341.158	317.75
341.386	289.75
341.614	294.75
341.842	309.75
342.07	300.75
342.298	305.75
342.526	299.75
342.754	293.75
342.981	308.75
343.209	304.75
343.437	320.75
343.665	311.75
343.893	336.75
344.12	326.75
344.348	334.75
344.576	378.75
344.804	381.75
345.031	364.75
345.259	325.75
345.487	319.75
345.714	323.75
345.942	294.75
346.17	301.75
346.397	296.75
346.625	300.75
346.853	279.75
347.08	277.75
347.308	277.75
347.535	277.75
347.763	279.75
347.99	313.75
348.218	300.75
348.445	284.75
348.673	286.75
348.9	292.75
349.128	294.75
349.355	287.75
349.583	287.75
349.81	278.75
350.037	283.75
350.265	308.75
350.492	281.75
350.72	294.75
350.947	295.75
351.174	300.75
351.402	287.75
351.629	279.75
351.856	287.75
352.083	286.75
352.311	285.75
352.538	289.75
352.765	281.75
352.992	299.75
353.22	299.75
353.447	293.75
353.674	289.75
353.901	291.75
354.128	285.75
354.355	290.75
354.583	278.75
354.81	302.75
355.037	287.75
355.264	304.75
355.491	302.75
355.718	282.75
355.945	286.75
356.172	285.75
356.399	295.75
356.626	289.75
356.853	292.75
357.08	290.75
357.307	300.75
357.534	282.75
357.761	294.75
357.988	280.75
358.215	292.75
358.441	292.75
358.668	276.75
358.895	297.75
359.122	307.75
359.349	296.75
359.576	299.75
359.802	266.75
360.029	296.75
360.256	287.75
360.483	283.75
360.709	281.75
360.936	309.75
361.163	284.75
361.39	296.75
361.616	294.75
361.843	298.75
362.07	291.75
362.296	300.75
362.523	303.75
362.749	285.75
362.976	303.75
363.203	293.75
363.429	286.75
363.656	305.75
363.882	302.75
364.109	286.75
364.335	308.75
364.562	308.75
364.788	286.75
365.015	293.75
365.241	290.75
365.468	299.75
365.694	287.75
365.92	290.75
366.147	287.75
366.373	301.75
366.599	292.75
366.826	310.75
367.052	286.75
367.278	297.75
367.505	298.75
367.731	311.75
367.957	292.75
368.184	305.75
368.41	291.75
368.636	292.75
368.862	292.75
369.089	290.75
369.315	300.75
369.541	300.75
369.767	299.75
369.993	320.75
370.219	302.75
370.445	308.75
370.672	294.75
370.898	303.75
371.124	298.75
371.35	287.75
371.576	293.75
371.802	305.75
372.028	313.75
372.254	308.75
372.48	319.75
372.706	304.75
372.932	289.75
373.158	317.75
373.384	322.75
373.61	319.75
373.835	324.75
374.061	319.75
374.287	330.75
374.513	281.75
374.739	300.75
374.965	324.75
375.191	309.75
375.416	299.75
375.642	322.75
375.868	312.75
376.094	310.75
376.319	305.75
376.545	304.75
376.771	311.75
376.997	313.75
377.222	305.75
377.448	319.75
377.674	333.75
377.899	312.75
378.125	299.75
378.35	310.75
378.576	312.75
378.802	311.75
379.027	311.75
379.253	309.75
379.478	304.75
379.704	311.75
379.929	308.75
380.155	298.75
380.38	312.75
380.606	296.75
380.831	313.75
381.057	329.75
381.282	338.75
381.507	314.75
381.733	327.75
381.958	322.75
382.184	317.75
382.409	318.75
382.634	329.75
382.86	299.75
383.085	328.75
383.31	321.75
383.535	304.75
383.761	318.75
383.986	334.75
384.211	346.75
384.436	359.75
384.662	340.75
384.887	323.75
385.112	333.75
385.337	339.75
385.562	331.75
385.787	366.75
386.013	354.75
386.238	364.75
386.463	371.75
386.688	375.75
386.913	338.75
387.138	359.75
387.363	343.75
387.588	362.75
387.813	364.75
388.038	374.75
388.263	388.75
388.488	352.75
388.713	362.75
388.938	358.75
389.163	380.75
389.387	390.75
389.612	374.75
389.837	375.75
390.062	349.75
390.287	371.75
390.512	376.75
390.736	370.75
390.961	380.75
391.186	373.75
391.411	389.75
391.636	367.75
391.86	376.75
392.085	405.75
392.31	380.75
392.534	397.75
392.759	392.75
392.984	400.75
393.208	442.75
393.433	429.75
393.658	428.75
393.882	385.75
394.107	386.75
394.331	382.75
394.556	389.75
394.78	397.75
395.005	393.75
395.229	391.75
395.454	404.75
395.678	390.75
395.903	415.75
396.127	400.75
396.352	398.75
396.576	406.75
396.801	428.75
397.025	436.75
397.249	413.75
397.474	390.75
397.698	382.75
397.922	412.75
398.147	417.75
398.371	450.75
398.595	425.75
398.82	443.75
399.044	432.75
399.268	476.75
399.492	473.75
399.717	491.75
399.941	480.75
400.165	504.75
400.389	468.75
400.613	448.75
400.837	444.75
401.062	436.75
401.286	433.75
401.51	438.75
401.734	426.75
401.958	435.75
402.182	426.75
402.406	435.75
402.63	444.75
402.854	445.75
403.078	444.75
403.302	430.75
403.526	468.75
403.75	495.75
403.974	548.75
404.198	710.75
404.422	1047.75
404.645	1254.75
404.869	1067.75
405.093	783.75
405.317	553.75
405.541	519.75
405.765	472.75
405.988	456.75
406.212	476.75
406.436	453.75
406.66	454.75
406.883	432.75
407.107	460.75
407.331	477.75
407.555	460.75
407.778	441.75
408.002	440.75
408.226	440.75
408.449	445.75
408.673	426.75
408.896	422.75
409.12	410.75
409.344	416.75
409.567	402.75
409.791	423.75
410.014	420.75
410.238	412.75
410.461	409.75
410.685	409.75
410.908	410.75
411.132	421.75
411.355	401.75
411.578	407.75
411.802	409.75
412.025	408.75
412.249	413.75
412.472	402.75
412.695	413.75
412.919	401.75
413.142	396.75
413.365	395.75
413.589	425.75
413.812	415.75
414.035	431.75
414.258	410.75
414.482	404.75
414.705	427.75
414.928	422.75
415.151	404.75
415.374	421.75
415.597	403.75
415.821	408.75
416.044	413.75
416.267	384.75
416.49	402.75
416.713	390.75
416.936	405.75
417.159	409.75
417.382	403.75
417.605	401.75
417.828	408.75
418.051	409.75
418.274	422.75
418.497	422.75
418.72	425.75
418.943	414.75
419.166	425.75
419.389	449.75
419.611	429.75
419.834	417.75
420.057	404.75
420.28	407.75
420.503	374.75
420.726	408.75
420.948	375.75
421.171	385.75
421.394	400.75
421.617	394.75
421.839	420.75
422.062	408.75
422.285	427.75
422.507	435.75
422.73	472.75
422.953	464.75
423.175	396.75
423.398	402.75
423.621	401.75
423.843	404.75
424.066	394.75
424.288	382.75
424.511	407.75
424.733	404.75
424.956	408.75
425.178	416.75
425.401	397.75
425.623	390.75
425.846	391.75
426.068	409.75
426.291	410.75
426.513	406.75
426.735	388.75
426.958	383.75
427.18	376.75
427.402	386.75
427.625	393.75
427.847	385.75
428.069	374.75
428.292	375.75
428.514	375.75
428.736	376.75
428.958	402.75
429.181	375.75
429.403	369.75
429.625	367.75
429.847	362.75
430.069	375.75
430.292	386.75
430.514	396.75
430.736	378.75
430.958	390.75
431.18	374.75
431.402	380.75
431.624	360.75
431.846	353.75
432.068	361.75
432.29	360.75
432.512	383.75
432.734	352.75
432.956	358.75
433.178	380.75
433.4	378.75
433.622	378.75
433.844	365.75
434.066	372.75
434.287	367.75
434.509	358.75
434.731	372.75
434.953	379.75
435.175	378.75
435.397	397.75
435.618	351.75
435.84	347.75
436.062	351.75
436.284	382.75
436.505	377.75
436.727	397.75
436.949	377.75
437.17	372.75
437.392	368.75
437.614	358.75
437.835	347.75
438.057	342.75
438.278	353.75
438.5	351.75
438.721	353.75
438.943	377.75
439.165	353.75
439.386	380.75
439.608	391.75
439.829	364.75
440.05	386.75
440.272	382.75
440.493	382.75
440.715	386.75
440.936	381.75
441.158	379.75
441.379	401.75
441.6	394.75
441.822	408.75
442.043	383.75
442.264	384.75
442.486	389.75
442.707	382.75
442.928	389.75
443.149	376.75
443.371	392.75
443.592	388.75
443.813	389.75
444.034	368.75
444.255	406.75
444.476	395.75
444.698	401.75
444.919	408.75
445.14	442.75
445.361	420.75
445.582	397.75
445.803	389.75
446.024	386.75
446.245	399.75
446.466	393.75
446.687	397.75
446.908	382.75
447.129	372.75
447.35	366.75
447.571	362.75
447.792	349.75
448.013	357.75
448.234	366.75
448.455	367.75
448.675	366.75
448.896	343.75
449.117	340.75
449.338	358.75
449.559	356.75
449.779	365.75
450	342.75
450.221	350.75
450.442	337.75
450.662	345.75
450.883	348.75
451.104	343.75
451.324	339.75
451.545	337.75
451.766	354.75
451.986	343.75
452.207	316.75
452.428	329.75
452.648	332.75
452.869	341.75
453.089	328.75
453.31	317.75
453.53	318.75
453.751	319.75
453.971	329.75
454.192	328.75
454.412	314.75
454.633	323.75
454.853	314.75
455.073	350.75
455.294	345.75
455.514	348.75
455.734	343.75
455.955	317.75
456.175	338.75
456.395	312.75
456.616	321.75
456.836	326.75
457.056	332.75
457.276	322.75
457.497	316.75
457.717	323.75
457.937	336.75
458.157	320.75
458.377	334.75
458.598	341.75
458.818	325.75
459.038	335.75
459.258	344.75
459.478	343.75
459.698	331.75
459.918	362.75
460.138	357.75
460.358	375.75
460.578	399.75
460.798	388.75
461.018	392.75
461.238	382.75
461.458	385.75
461.678	379.75
461.898	372.75
462.118	401.75
462.338	406.75
462.558	412.75
462.777	434.75
462.997	406.75
463.217	425.75
463.437	430.75
463.657	407.75
463.876	412.75
464.096	402.75
464.316	389.75
464.536	412.75
464.755	397.75
464.975	393.75
465.195	380.75
465.414	361.75
465.634	378.75
465.854	366.75
466.073	365.75
466.293	375.75
466.512	382.75
466.732	382.75
466.951	374.75
467.171	385.75
467.391	383.75
467.61	393.75
467.829	398.75
468.049	405.75
468.268	399.75
468.488	397.75
468.707	396.75
468.927	390.75
469.146	401.75
469.365	394.75
469.585	386.75
469.804	398.75
470.023	412.75
470.243	446.75
470.462	478.75
470.681	465.75
470.901	460.75
471.12	409.75
471.339	404.75
471.558	398.75
471.777	410.75
471.997	397.75
472.216	389.75
472.435	391.75
472.654	380.75
472.873	358.75
473.092	385.75
473.311	377.75
473.53	386.75
473.749	382.75
473.968	386.75
474.187	389.75
474.406	375.75
474.625	385.75
474.844	397.75
475.063	387.75
475.282	369.75
475.501	373.75
475.72	402.75
475.939	388.75
476.158	390.75
476.377	404.75
476.596	405.75
476.814	412.75
477.033	425.75
477.252	423.75
477.471	445.75
477.69	442.75
477.908	473.75
478.127	487.75
478.346	495.75
478.564	492.75
478.783	473.75
479.002	486.75
479.22	470.75
479.439	461.75
479.658	430.75
479.876	428.75
480.095	441.75
480.313	457.75
480.532	444.75
480.751	450.75
480.969	428.75
481.188	449.75
481.406	456.75
481.624	456.75
481.843	457.75
482.061	457.75
482.28	459.75
482.498	433.75
482.717	416.75
482.935	441.75
483.153	466.75
483.372	429.75
483.59	446.75
483.808	429.75
484.027	406.75
484.245	435.75
484.463	442.75
484.681	420.75
484.9	406.75
485.118	431.75
485.336	410.75
485.554	401.75
485.772	413.75
485.99	416.75
486.209	414.75
486.427	429.75
486.645	412.75
486.863	417.75
487.081	422.75
487.299	425.75
487.517	422.75
487.735	481.75
487.953	464.75
488.171	464.75
488.389	442.75
488.607	441.75
488.825	407.75
489.043	429.75
489.261	431.75
489.479	447.75
489.696	438.75
489.914	427.75
490.132	422.75
490.35	450.75
490.568	449.75
490.786	462.75
491.003	474.75
491.221	489.75
491.439	500.75
491.657	500.75
491.874	504.75
492.092	516.75
492.31	529.75
492.527	513.75
492.745	542.75
492.963	512.75
493.18	532.75
493.398	513.75
493.615	482.75
493.833	501.75
494.05	506.75
494.268	470.75
494.485	496.75
494.703	489.75
494.92	502.75
495.138	490.75
495.355	478.75
495.573	501.75
495.79	485.75
496.008	503.75
496.225	518.75
496.442	505.75
496.66	497.75
496.877	492.75
497.094	508.75
497.312	509.75
497.529	506.75
497.746	501.75
497.963	499.75
498.181	524.75
498.398	538.75
498.615	554.75
498.832	565.75
499.049	570.75
499.267	561.75
499.484	613.75
499.701	625.75
499.918	652.75
500.135	688.75
500.352	721.75
500.569	725.75
500.786	728.75
501.003	698.75
501.22	663.75
501.437	647.75
501.654	597.75
501.871	588.75
502.088	569.75
502.305	549.75
502.522	540.75
502.739	515.75
502.956	490.75
503.172	500.75
503.389	497.75
