Data from KBr_1_HRD10591_00008.txt Node
Date: Mon Jan 19 13:11:17 EST 2026
User: Yrep
Spectrometer: HR+D1059
Trigger mode: 0
Integration Time (sec): 1.000000E-1
Scans to average: 1
Electric dark correction enabled: true
Nonlinearity correction enabled: false
Boxcar width: 0
XAxis mode: Wavelengths
Number of Pixels in Spectrum: 2048
>>>>>Begin Spectral Data<<<<<
223.165	-23.81
223.4	-23.81
223.635	-23.81
223.869	-25.81
224.104	-11.81
224.338	-13.81
224.573	-14.81
224.808	9.19
225.042	-12.81
225.277	-10.81
225.511	-3.81
225.746	8.19
225.98	5.19
226.215	6.19
226.449	15.19
226.683	20.19
226.918	12.19
227.152	41.19
227.387	36.19
227.621	51.19
227.856	39.19
228.09	38.19
228.324	40.19
228.559	49.19
228.793	65.19
229.027	68.19
229.262	68.19
229.496	66.19
229.73	51.19
229.964	67.19
230.199	69.19
230.433	69.19
230.667	76.19
230.901	73.19
231.136	90.19
231.37	73.19
231.604	77.19
231.838	75.19
232.072	83.19
232.306	80.19
232.541	93.19
232.775	92.19
233.009	86.19
233.243	83.19
233.477	74.19
233.711	84.19
233.945	86.19
234.179	93.19
234.413	85.19
234.647	83.19
234.881	87.19
235.115	85.19
235.349	88.19
235.583	68.19
235.817	84.19
236.051	92.19
236.285	80.19
236.519	73.19
236.753	83.19
236.987	87.19
237.221	88.19
237.455	79.19
237.689	72.19
237.922	83.19
238.156	88.19
238.39	79.19
238.624	88.19
238.858	85.19
239.091	91.19
239.325	85.19
239.559	93.19
239.793	77.19
240.027	84.19
240.26	83.19
240.494	86.19
240.728	95.19
240.961	70.19
241.195	84.19
241.429	74.19
241.662	82.19
241.896	90.19
242.13	75.19
242.363	88.19
242.597	108.19
242.83	107.19
243.064	89.19
243.298	99.19
243.531	86.19
243.765	107.19
243.998	77.19
244.232	95.19
244.465	90.19
244.699	87.19
244.932	92.19
245.166	100.19
245.399	93.19
245.633	95.19
245.866	106.19
246.099	101.19
246.333	91.19
246.566	92.19
246.8	99.19
247.033	107.19
247.266	99.19
247.5	98.19
247.733	101.19
247.966	103.19
248.2	107.19
248.433	104.19
248.666	114.19
248.899	83.19
249.133	87.19
249.366	105.19
249.599	92.19
249.832	97.19
250.066	105.19
250.299	108.19
250.532	105.19
250.765	99.19
250.998	95.19
251.231	103.19
251.465	101.19
251.698	109.19
251.931	110.19
252.164	103.19
252.397	96.19
252.63	108.19
252.863	107.19
253.096	113.19
253.329	97.19
253.562	105.19
253.795	92.19
254.028	114.19
254.261	111.19
254.494	118.19
254.727	118.19
254.96	119.19
255.193	117.19
255.426	98.19
255.659	97.19
255.892	111.19
256.124	128.19
256.357	111.19
256.59	111.19
256.823	108.19
257.056	115.19
257.289	117.19
257.521	115.19
257.754	95.19
257.987	113.19
258.22	128.19
258.452	116.19
258.685	119.19
258.918	129.19
259.151	140.19
259.383	126.19
259.616	115.19
259.849	127.19
260.081	123.19
260.314	111.19
260.547	133.19
260.779	125.19
261.012	131.19
261.244	118.19
261.477	129.19
261.71	116.19
261.942	117.19
262.175	117.19
262.407	133.19
262.64	129.19
262.872	127.19
263.105	117.19
263.337	139.19
263.57	127.19
263.802	129.19
264.035	119.19
264.267	135.19
264.499	131.19
264.732	130.19
264.964	136.19
265.197	126.19
265.429	125.19
265.661	139.19
265.894	120.19
266.126	131.19
266.358	131.19
266.591	141.19
266.823	132.19
267.055	125.19
267.287	128.19
267.52	141.19
267.752	129.19
267.984	144.19
268.216	134.19
268.448	151.19
268.681	135.19
268.913	140.19
269.145	146.19
269.377	136.19
269.609	145.19
269.841	127.19
270.073	130.19
270.306	124.19
270.538	144.19
270.77	135.19
271.002	133.19
271.234	128.19
271.466	133.19
271.698	147.19
271.93	148.19
272.162	154.19
272.394	149.19
272.626	135.19
272.858	137.19
273.09	165.19
273.322	148.19
273.553	146.19
273.785	141.19
274.017	150.19
274.249	153.19
274.481	141.19
274.713	141.19
274.945	153.19
275.176	136.19
275.408	152.19
275.64	155.19
275.872	153.19
276.104	160.19
276.335	149.19
276.567	148.19
276.799	145.19
277.031	144.19
277.262	150.19
277.494	144.19
277.726	156.19
277.957	172.19
278.189	157.19
278.421	140.19
278.652	143.19
278.884	160.19
279.115	155.19
279.347	169.19
279.579	180.19
279.81	166.19
280.042	161.19
280.273	165.19
280.505	155.19
280.736	163.19
280.968	166.19
281.199	163.19
281.431	162.19
281.662	171.19
281.894	168.19
282.125	188.19
282.356	161.19
282.588	151.19
282.819	163.19
283.051	159.19
283.282	177.19
283.513	159.19
283.745	168.19
283.976	165.19
284.207	176.19
284.439	168.19
284.67	167.19
284.901	183.19
285.132	178.19
285.364	196.19
285.595	182.19
285.826	195.19
286.057	163.19
286.288	183.19
286.52	177.19
286.751	177.19
286.982	172.19
287.213	186.19
287.444	165.19
287.675	182.19
287.906	189.19
288.138	200.19
288.369	193.19
288.6	179.19
288.831	184.19
289.062	180.19
289.293	195.19
289.524	175.19
289.755	182.19
289.986	175.19
290.217	162.19
290.448	187.19
290.679	188.19
290.91	182.19
291.141	192.19
291.371	193.19
291.602	182.19
291.833	195.19
292.064	183.19
292.295	192.19
292.526	193.19
292.757	186.19
292.987	183.19
293.218	200.19
293.449	193.19
293.68	189.19
293.91	201.19
294.141	193.19
294.372	176.19
294.603	198.19
294.833	195.19
295.064	189.19
295.295	188.19
295.525	176.19
295.756	199.19
295.987	213.19
296.217	203.19
296.448	183.19
296.679	203.19
296.909	202.19
297.14	194.19
297.37	206.19
297.601	192.19
297.831	199.19
298.062	209.19
298.292	201.19
298.523	224.19
298.753	216.19
298.984	198.19
299.214	206.19
299.445	203.19
299.675	204.19
299.905	194.19
300.136	204.19
300.366	225.19
300.597	201.19
300.827	200.19
301.057	213.19
301.288	208.19
301.518	198.19
301.748	211.19
301.979	208.19
302.209	209.19
302.439	225.19
302.669	212.19
302.9	211.19
303.13	199.19
303.36	207.19
303.59	221.19
303.82	210.19
304.051	229.19
304.281	231.19
304.511	212.19
304.741	223.19
304.971	224.19
305.201	219.19
305.431	203.19
305.661	213.19
305.891	223.19
306.121	221.19
306.352	220.19
306.582	205.19
306.812	224.19
307.042	212.19
307.272	195.19
307.502	210.19
307.731	231.19
307.961	224.19
308.191	215.19
308.421	216.19
308.651	225.19
308.881	216.19
309.111	208.19
309.341	218.19
309.571	201.19
309.8	232.19
310.03	210.19
310.26	211.19
310.49	228.19
310.72	241.19
310.949	218.19
311.179	233.19
311.409	221.19
311.639	227.19
311.868	228.19
312.098	232.19
312.328	234.19
312.557	228.19
312.787	228.19
313.017	220.19
313.246	244.19
313.476	237.19
313.706	220.19
313.935	241.19
314.165	234.19
314.394	239.19
314.624	247.19
314.853	219.19
315.083	237.19
315.312	252.19
315.542	244.19
315.771	239.19
316.001	252.19
316.23	254.19
316.46	238.19
316.689	259.19
316.919	250.19
317.148	251.19
317.377	250.19
317.607	227.19
317.836	243.19
318.065	234.19
318.295	261.19
318.524	246.19
318.753	248.19
318.983	247.19
319.212	243.19
319.441	273.19
319.67	251.19
319.9	237.19
320.129	239.19
320.358	237.19
320.587	234.19
320.816	252.19
321.046	241.19
321.275	259.19
321.504	257.19
321.733	272.19
321.962	261.19
322.191	251.19
322.42	236.19
322.649	260.19
322.878	244.19
323.108	249.19
323.337	257.19
323.566	261.19
323.795	279.19
324.024	276.19
324.253	271.19
324.482	255.19
324.71	260.19
324.939	261.19
325.168	254.19
325.397	267.19
325.626	261.19
325.855	257.19
326.084	253.19
326.313	277.19
326.542	253.19
326.77	277.19
326.999	264.19
327.228	259.19
327.457	260.19
327.686	269.19
327.914	256.19
328.143	272.19
328.372	273.19
328.6	266.19
328.829	269.19
329.058	258.19
329.287	269.19
329.515	274.19
329.744	307.19
329.972	295.19
330.201	327.19
330.43	336.19
330.658	290.19
330.887	275.19
331.115	281.19
331.344	278.19
331.572	265.19
331.801	287.19
332.03	272.19
332.258	282.19
332.486	263.19
332.715	290.19
332.943	306.19
333.172	315.19
333.4	297.19
333.629	294.19
333.857	297.19
334.085	304.19
334.314	300.19
334.542	312.19
334.771	289.19
334.999	305.19
335.227	315.19
335.455	301.19
335.684	327.19
335.912	303.19
336.14	298.19
336.369	310.19
336.597	317.19
336.825	319.19
337.053	321.19
337.281	314.19
337.51	317.19
337.738	303.19
337.966	311.19
338.194	306.19
338.422	316.19
338.65	320.19
338.878	307.19
339.106	290.19
339.334	300.19
339.562	321.19
339.79	304.19
340.018	291.19
340.246	301.19
340.474	308.19
340.702	267.19
340.93	312.19
341.158	297.19
341.386	289.19
341.614	308.19
341.842	298.19
342.07	299.19
342.298	283.19
342.526	289.19
342.754	307.19
342.981	294.19
343.209	285.19
343.437	303.19
343.665	294.19
343.893	320.19
344.12	331.19
344.348	338.19
344.576	371.19
344.804	360.19
345.031	355.19
345.259	323.19
345.487	297.19
345.714	275.19
345.942	289.19
346.17	295.19
346.397	297.19
346.625	302.19
346.853	287.19
347.08	288.19
347.308	271.19
347.535	271.19
347.763	293.19
347.99	304.19
348.218	288.19
348.445	277.19
348.673	295.19
348.9	303.19
349.128	284.19
349.355	290.19
349.583	284.19
349.81	277.19
350.037	263.19
350.265	264.19
350.492	275.19
350.72	296.19
350.947	287.19
351.174	282.19
351.402	296.19
351.629	291.19
351.856	274.19
352.083	294.19
352.311	282.19
352.538	271.19
352.765	284.19
352.992	280.19
353.22	277.19
353.447	273.19
353.674	304.19
353.901	283.19
354.128	284.19
354.355	278.19
354.583	290.19
354.81	293.19
355.037	280.19
355.264	278.19
355.491	268.19
355.718	290.19
355.945	279.19
356.172	293.19
356.399	295.19
356.626	277.19
356.853	273.19
357.08	297.19
357.307	283.19
357.534	288.19
357.761	303.19
357.988	297.19
358.215	298.19
358.441	280.19
358.668	268.19
358.895	298.19
359.122	267.19
359.349	288.19
359.576	271.19
359.802	280.19
360.029	263.19
360.256	282.19
360.483	290.19
360.709	280.19
360.936	283.19
361.163	282.19
361.39	292.19
361.616	289.19
361.843	277.19
362.07	276.19
362.296	288.19
362.523	287.19
362.749	289.19
362.976	282.19
363.203	291.19
363.429	272.19
363.656	295.19
363.882	297.19
364.109	304.19
364.335	290.19
364.562	273.19
364.788	269.19
365.015	299.19
365.241	297.19
365.468	277.19
365.694	291.19
365.92	298.19
366.147	279.19
366.373	295.19
366.599	287.19
366.826	298.19
367.052	292.19
367.278	292.19
367.505	287.19
367.731	293.19
367.957	300.19
368.184	275.19
368.41	280.19
368.636	287.19
368.862	299.19
369.089	279.19
369.315	309.19
369.541	305.19
369.767	294.19
369.993	287.19
370.219	269.19
370.445	295.19
370.672	303.19
370.898	304.19
371.124	304.19
371.35	289.19
371.576	279.19
371.802	305.19
372.028	300.19
372.254	288.19
372.48	298.19
372.706	308.19
372.932	309.19
373.158	292.19
373.384	293.19
373.61	293.19
373.835	303.19
374.061	312.19
374.287	317.19
374.513	306.19
374.739	309.19
374.965	300.19
375.191	330.19
375.416	342.19
375.642	294.19
375.868	320.19
376.094	306.19
376.319	312.19
376.545	303.19
376.771	297.19
376.997	312.19
377.222	291.19
377.448	297.19
377.674	282.19
377.899	299.19
378.125	311.19
378.35	305.19
378.576	320.19
378.802	303.19
379.027	306.19
379.253	304.19
379.478	299.19
379.704	315.19
379.929	312.19
380.155	298.19
380.38	297.19
380.606	295.19
380.831	320.19
381.057	297.19
381.282	303.19
381.507	300.19
381.733	301.19
381.958	330.19
382.184	325.19
382.409	323.19
382.634	316.19
382.86	318.19
383.085	322.19
383.31	330.19
383.535	325.19
383.761	324.19
383.986	339.19
384.211	341.19
384.436	329.19
384.662	348.19
384.887	356.19
385.112	325.19
385.337	332.19
385.562	332.19
385.787	332.19
386.013	353.19
386.238	372.19
386.463	360.19
386.688	347.19
386.913	355.19
387.138	355.19
387.363	351.19
387.588	358.19
387.813	346.19
388.038	362.19
388.263	359.19
388.488	353.19
388.713	375.19
388.938	367.19
389.163	361.19
389.387	365.19
389.612	345.19
389.837	356.19
390.062	351.19
390.287	366.19
390.512	350.19
390.736	359.19
390.961	358.19
391.186	379.19
391.411	373.19
391.636	369.19
391.86	374.19
392.085	382.19
392.31	381.19
392.534	381.19
392.759	391.19
392.984	388.19
393.208	397.19
393.433	419.19
393.658	421.19
393.882	377.19
394.107	358.19
394.331	372.19
394.556	355.19
394.78	370.19
395.005	378.19
395.229	381.19
395.454	401.19
395.678	400.19
395.903	393.19
396.127	399.19
396.352	397.19
396.576	399.19
396.801	397.19
397.025	425.19
397.249	395.19
397.474	396.19
397.698	410.19
397.922	402.19
398.147	379.19
398.371	416.19
398.595	411.19
398.82	410.19
399.044	436.19
399.268	429.19
399.492	472.19
399.717	479.19
399.941	462.19
400.165	458.19
400.389	423.19
400.613	453.19
400.837	435.19
401.062	426.19
401.286	403.19
401.51	427.19
401.734	398.19
401.958	418.19
402.182	419.19
402.406	401.19
402.63	422.19
402.854	427.19
403.078	423.19
403.302	442.19
403.526	460.19
403.75	464.19
403.974	545.19
404.198	715.19
404.422	1073.19
404.645	1320.19
404.869	1167.19
405.093	808.19
405.317	532.19
405.541	477.19
405.765	471.19
405.988	444.19
406.212	449.19
406.436	441.19
406.66	447.19
406.883	443.19
407.107	450.19
407.331	431.19
407.555	452.19
407.778	468.19
408.002	439.19
408.226	417.19
408.449	433.19
408.673	432.19
408.896	412.19
409.12	422.19
409.344	434.19
409.567	412.19
409.791	404.19
410.014	408.19
410.238	406.19
410.461	404.19
410.685	410.19
410.908	409.19
411.132	398.19
411.355	384.19
411.578	425.19
411.802	405.19
412.025	412.19
412.249	411.19
412.472	421.19
412.695	384.19
412.919	399.19
413.142	417.19
413.365	415.19
413.589	402.19
413.812	394.19
414.035	390.19
414.258	393.19
414.482	410.19
414.705	395.19
414.928	403.19
415.151	381.19
415.374	407.19
415.597	411.19
415.821	388.19
416.044	393.19
416.267	385.19
416.49	411.19
416.713	385.19
416.936	388.19
417.159	393.19
417.382	409.19
417.605	397.19
417.828	395.19
418.051	418.19
418.274	424.19
418.497	430.19
418.72	413.19
418.943	419.19
419.166	425.19
419.389	432.19
419.611	431.19
419.834	424.19
420.057	418.19
420.28	403.19
420.503	390.19
420.726	398.19
420.948	380.19
421.171	406.19
421.394	402.19
421.617	393.19
421.839	396.19
422.062	401.19
422.285	415.19
422.507	425.19
422.73	446.19
422.953	448.19
423.175	389.19
423.398	388.19
423.621	372.19
423.843	377.19
424.066	393.19
424.288	388.19
424.511	387.19
424.733	388.19
424.956	415.19
425.178	398.19
425.401	380.19
425.623	395.19
425.846	398.19
426.068	388.19
426.291	395.19
426.513	412.19
426.735	394.19
426.958	360.19
427.18	381.19
427.402	379.19
427.625	389.19
427.847	373.19
428.069	368.19
428.292	364.19
428.514	363.19
428.736	367.19
428.958	384.19
429.181	386.19
429.403	393.19
429.625	351.19
429.847	357.19
430.069	365.19
430.292	390.19
430.514	369.19
430.736	390.19
430.958	373.19
431.18	385.19
431.402	384.19
431.624	353.19
431.846	353.19
432.068	335.19
432.29	355.19
432.512	341.19
432.734	364.19
432.956	366.19
433.178	372.19
433.4	365.19
433.622	387.19
433.844	379.19
434.066	371.19
434.287	361.19
434.509	349.19
434.731	343.19
434.953	377.19
435.175	374.19
435.397	375.19
435.618	365.19
435.84	352.19
436.062	356.19
436.284	375.19
436.505	372.19
436.727	374.19
436.949	387.19
437.17	369.19
437.392	363.19
437.614	338.19
437.835	364.19
438.057	335.19
438.278	335.19
438.5	367.19
438.721	358.19
438.943	351.19
439.165	343.19
439.386	366.19
439.608	367.19
439.829	358.19
440.05	357.19
440.272	372.19
440.493	372.19
440.715	355.19
440.936	386.19
441.158	365.19
441.379	370.19
441.6	393.19
441.822	390.19
442.043	366.19
442.264	390.19
442.486	397.19
442.707	368.19
442.928	377.19
443.149	389.19
443.371	387.19
443.592	390.19
443.813	370.19
444.034	378.19
444.255	375.19
444.476	386.19
444.698	387.19
444.919	394.19
445.14	456.19
445.361	418.19
445.582	399.19
445.803	367.19
446.024	383.19
446.245	377.19
446.466	386.19
446.687	372.19
446.908	390.19
447.129	401.19
447.35	376.19
447.571	373.19
447.792	361.19
448.013	354.19
448.234	367.19
448.455	370.19
448.675	372.19
448.896	363.19
449.117	367.19
449.338	329.19
449.559	361.19
449.779	343.19
450	340.19
450.221	362.19
450.442	352.19
450.662	358.19
450.883	334.19
451.104	350.19
451.324	330.19
451.545	344.19
451.766	356.19
451.986	333.19
452.207	326.19
452.428	346.19
452.648	351.19
452.869	327.19
453.089	346.19
453.31	340.19
453.53	306.19
453.751	321.19
453.971	327.19
454.192	337.19
454.412	335.19
454.633	321.19
454.853	333.19
455.073	320.19
455.294	342.19
455.514	340.19
455.734	309.19
455.955	310.19
456.175	329.19
456.395	320.19
456.616	318.19
456.836	303.19
457.056	319.19
457.276	318.19
457.497	320.19
457.717	328.19
457.937	331.19
458.157	323.19
458.377	313.19
458.598	329.19
458.818	314.19
459.038	315.19
459.258	328.19
459.478	332.19
459.698	358.19
459.918	362.19
460.138	335.19
460.358	359.19
460.578	378.19
460.798	380.19
461.018	368.19
461.238	363.19
461.458	387.19
461.678	375.19
461.898	395.19
462.118	382.19
462.338	395.19
462.558	384.19
462.777	399.19
462.997	410.19
463.217	404.19
463.437	410.19
463.657	386.19
463.876	375.19
464.096	414.19
464.316	409.19
464.536	388.19
464.755	387.19
464.975	392.19
465.195	375.19
465.414	392.19
465.634	386.19
465.854	377.19
466.073	358.19
466.293	365.19
466.512	374.19
466.732	379.19
466.951	380.19
467.171	375.19
467.391	395.19
467.61	396.19
467.829	378.19
468.049	386.19
468.268	375.19
468.488	373.19
468.707	359.19
468.927	394.19
469.146	383.19
469.365	403.19
469.585	404.19
469.804	403.19
470.023	413.19
470.243	433.19
470.462	457.19
470.681	473.19
470.901	428.19
471.12	405.19
471.339	390.19
471.558	382.19
471.777	419.19
471.997	394.19
472.216	388.19
472.435	378.19
472.654	394.19
472.873	374.19
473.092	379.19
473.311	373.19
473.53	377.19
473.749	385.19
473.968	371.19
474.187	379.19
474.406	368.19
474.625	385.19
474.844	385.19
475.063	374.19
475.282	387.19
475.501	379.19
475.72	400.19
475.939	399.19
476.158	373.19
476.377	412.19
476.596	421.19
476.814	405.19
477.033	387.19
477.252	421.19
477.471	429.19
477.69	423.19
477.908	432.19
478.127	452.19
478.346	462.19
478.564	506.19
478.783	506.19
479.002	469.19
479.22	454.19
479.439	437.19
479.658	451.19
479.876	426.19
480.095	444.19
480.313	427.19
480.532	440.19
480.751	422.19
480.969	423.19
481.188	431.19
481.406	426.19
481.624	455.19
481.843	442.19
482.061	463.19
482.28	423.19
482.498	436.19
482.717	433.19
482.935	440.19
483.153	429.19
483.372	452.19
483.59	435.19
483.808	421.19
484.027	421.19
484.245	412.19
484.463	449.19
484.681	426.19
484.9	423.19
485.118	419.19
485.336	416.19
485.554	397.19
485.772	415.19
485.99	419.19
486.209	432.19
486.427	442.19
486.645	420.19
486.863	443.19
487.081	441.19
487.299	429.19
487.517	443.19
487.735	441.19
487.953	450.19
488.171	458.19
488.389	450.19
488.607	453.19
488.825	424.19
489.043	417.19
489.261	404.19
489.479	427.19
489.696	436.19
489.914	443.19
490.132	422.19
490.35	454.19
490.568	455.19
490.786	475.19
491.003	483.19
491.221	497.19
491.439	493.19
491.657	497.19
491.874	501.19
492.092	510.19
492.31	543.19
492.527	525.19
492.745	499.19
492.963	516.19
493.18	520.19
493.398	511.19
493.615	505.19
493.833	489.19
494.05	485.19
494.268	496.19
494.485	491.19
494.703	504.19
494.92	483.19
495.138	469.19
495.355	474.19
495.573	503.19
495.79	482.19
496.008	487.19
496.225	491.19
496.442	484.19
496.66	499.19
496.877	475.19
497.094	495.19
497.312	505.19
497.529	524.19
497.746	507.19
497.963	517.19
498.181	503.19
498.398	516.19
498.615	535.19
498.832	522.19
499.049	547.19
499.267	547.19
499.484	579.19
499.701	621.19
499.918	659.19
500.135	668.19
500.352	678.19
500.569	695.19
500.786	689.19
501.003	660.19
501.22	653.19
501.437	635.19
501.654	588.19
501.871	574.19
502.088	547.19
502.305	545.19
502.522	516.19
502.739	519.19
502.956	503.19
503.172	503.19
503.389	470.19
503.606	470.19
503.823	488.19
