Data from KBr_1_HRD10591_00016.txt Node
Date: Mon Jan 19 13:11:18 EST 2026
User: Yrep
Spectrometer: HR+D1059
Trigger mode: 0
Integration Time (sec): 1.000000E-1
Scans to average: 1
Electric dark correction enabled: true
Nonlinearity correction enabled: false
Boxcar width: 0
XAxis mode: Wavelengths
Number of Pixels in Spectrum: 2048
>>>>>Begin Spectral Data<<<<<
223.165	-18.75
223.4	-18.75
223.635	-18.75
223.869	-23.75
224.104	-17.75
224.338	-9.75
224.573	-30.75
224.808	-12.75
225.042	-17.75
225.277	-0.75
225.511	15.25
225.746	5.25
225.98	-8.75
226.215	13.25
226.449	32.25
226.683	25.25
226.918	29.25
227.152	20.25
227.387	36.25
227.621	40.25
227.856	42.25
228.09	31.25
228.324	44.25
228.559	50.25
228.793	62.25
229.027	73.25
229.262	73.25
229.496	58.25
229.73	61.25
229.964	72.25
230.199	70.25
230.433	84.25
230.667	71.25
230.901	86.25
231.136	79.25
231.37	84.25
231.604	82.25
231.838	86.25
232.072	71.25
232.306	78.25
232.541	76.25
232.775	95.25
233.009	82.25
233.243	92.25
233.477	74.25
233.711	91.25
233.945	89.25
234.179	61.25
234.413	78.25
234.647	85.25
234.881	81.25
235.115	100.25
235.349	68.25
235.583	84.25
235.817	70.25
236.051	87.25
236.285	78.25
236.519	74.25
236.753	76.25
236.987	83.25
237.221	69.25
237.455	79.25
237.689	88.25
237.922	77.25
238.156	65.25
238.39	76.25
238.624	60.25
238.858	75.25
239.091	74.25
239.325	82.25
239.559	69.25
239.793	87.25
240.027	91.25
240.26	76.25
240.494	77.25
240.728	70.25
240.961	75.25
241.195	72.25
241.429	68.25
241.662	85.25
241.896	74.25
242.13	81.25
242.363	75.25
242.597	71.25
242.83	79.25
243.064	80.25
243.298	83.25
243.531	71.25
243.765	80.25
243.998	79.25
244.232	82.25
244.465	78.25
244.699	75.25
244.932	88.25
245.166	86.25
245.399	76.25
245.633	73.25
245.866	96.25
246.099	100.25
246.333	78.25
246.566	78.25
246.8	84.25
247.033	77.25
247.266	78.25
247.5	94.25
247.733	85.25
247.966	80.25
248.2	82.25
248.433	92.25
248.666	79.25
248.899	96.25
249.133	67.25
249.366	77.25
249.599	74.25
249.832	87.25
250.066	88.25
250.299	85.25
250.532	80.25
250.765	87.25
250.998	70.25
251.231	72.25
251.465	69.25
251.698	85.25
251.931	68.25
252.164	87.25
252.397	80.25
252.63	87.25
252.863	82.25
253.096	74.25
253.329	72.25
253.562	85.25
253.795	82.25
254.028	82.25
254.261	73.25
254.494	88.25
254.727	63.25
254.96	64.25
255.193	67.25
255.426	74.25
255.659	85.25
255.892	83.25
256.124	94.25
256.357	69.25
256.59	81.25
256.823	102.25
257.056	84.25
257.289	83.25
257.521	76.25
257.754	64.25
257.987	77.25
258.22	92.25
258.452	72.25
258.685	69.25
258.918	66.25
259.151	78.25
259.383	84.25
259.616	89.25
259.849	77.25
260.081	85.25
260.314	75.25
260.547	90.25
260.779	82.25
261.012	75.25
261.244	82.25
261.477	85.25
261.71	71.25
261.942	77.25
262.175	68.25
262.407	82.25
262.64	80.25
262.872	87.25
263.105	94.25
263.337	81.25
263.57	70.25
263.802	94.25
264.035	89.25
264.267	90.25
264.499	84.25
264.732	83.25
264.964	98.25
265.197	98.25
265.429	86.25
265.661	77.25
265.894	75.25
266.126	88.25
266.358	70.25
266.591	75.25
266.823	91.25
267.055	72.25
267.287	86.25
267.52	86.25
267.752	85.25
267.984	72.25
268.216	79.25
268.448	84.25
268.681	86.25
268.913	73.25
269.145	72.25
269.377	76.25
269.609	77.25
269.841	85.25
270.073	77.25
270.306	86.25
270.538	77.25
270.77	72.25
271.002	77.25
271.234	76.25
271.466	77.25
271.698	80.25
271.93	69.25
272.162	85.25
272.394	88.25
272.626	87.25
272.858	84.25
273.09	77.25
273.322	80.25
273.553	82.25
273.785	82.25
274.017	79.25
274.249	78.25
274.481	78.25
274.713	76.25
274.945	97.25
275.176	88.25
275.408	81.25
275.64	79.25
275.872	92.25
276.104	77.25
276.335	80.25
276.567	78.25
276.799	72.25
277.031	77.25
277.262	78.25
277.494	89.25
277.726	85.25
277.957	79.25
278.189	86.25
278.421	86.25
278.652	97.25
278.884	79.25
279.115	87.25
279.347	92.25
279.579	96.25
279.81	77.25
280.042	85.25
280.273	91.25
280.505	79.25
280.736	86.25
280.968	79.25
281.199	83.25
281.431	95.25
281.662	86.25
281.894	82.25
282.125	76.25
282.356	95.25
282.588	71.25
282.819	88.25
283.051	72.25
283.282	87.25
283.513	88.25
283.745	90.25
283.976	76.25
284.207	88.25
284.439	70.25
284.67	88.25
284.901	81.25
285.132	81.25
285.364	67.25
285.595	79.25
285.826	82.25
286.057	85.25
286.288	81.25
286.52	82.25
286.751	61.25
286.982	84.25
287.213	84.25
287.444	80.25
287.675	84.25
287.906	89.25
288.138	86.25
288.369	93.25
288.6	86.25
288.831	84.25
289.062	95.25
289.293	84.25
289.524	85.25
289.755	88.25
289.986	92.25
290.217	86.25
290.448	96.25
290.679	85.25
290.91	79.25
291.141	89.25
291.371	85.25
291.602	94.25
291.833	84.25
292.064	77.25
292.295	76.25
292.526	72.25
292.757	86.25
292.987	102.25
293.218	94.25
293.449	77.25
293.68	83.25
293.91	77.25
294.141	86.25
294.372	73.25
294.603	92.25
294.833	71.25
295.064	68.25
295.295	82.25
295.525	89.25
295.756	86.25
295.987	90.25
296.217	88.25
296.448	86.25
296.679	89.25
296.909	94.25
297.14	75.25
297.37	70.25
297.601	77.25
297.831	59.25
298.062	87.25
298.292	88.25
298.523	73.25
298.753	68.25
298.984	84.25
299.214	89.25
299.445	80.25
299.675	74.25
299.905	88.25
300.136	88.25
300.366	97.25
300.597	83.25
300.827	92.25
301.057	77.25
301.288	88.25
301.518	88.25
301.748	93.25
301.979	101.25
302.209	85.25
302.439	81.25
302.669	80.25
302.9	82.25
303.13	85.25
303.36	100.25
303.59	80.25
303.82	90.25
304.051	76.25
304.281	89.25
304.511	91.25
304.741	94.25
304.971	81.25
305.201	75.25
305.431	71.25
305.661	87.25
305.891	93.25
306.121	88.25
306.352	75.25
306.582	80.25
306.812	84.25
307.042	76.25
307.272	72.25
307.502	67.25
307.731	75.25
307.961	79.25
308.191	87.25
308.421	83.25
308.651	93.25
308.881	78.25
309.111	89.25
309.341	79.25
309.571	80.25
309.8	82.25
310.03	78.25
310.26	84.25
310.49	82.25
310.72	79.25
310.949	85.25
311.179	95.25
311.409	87.25
311.639	84.25
311.868	74.25
312.098	89.25
312.328	80.25
312.557	91.25
312.787	94.25
313.017	84.25
313.246	89.25
313.476	87.25
313.706	86.25
313.935	88.25
314.165	84.25
314.394	77.25
314.624	86.25
314.853	92.25
315.083	82.25
315.312	87.25
315.542	77.25
315.771	82.25
316.001	89.25
316.23	84.25
316.46	84.25
316.689	77.25
316.919	82.25
317.148	80.25
317.377	95.25
317.607	94.25
317.836	79.25
318.065	80.25
318.295	88.25
318.524	91.25
318.753	70.25
318.983	84.25
319.212	87.25
319.441	88.25
319.67	73.25
319.9	70.25
320.129	78.25
320.358	81.25
320.587	87.25
320.816	86.25
321.046	92.25
321.275	74.25
321.504	89.25
321.733	88.25
321.962	81.25
322.191	75.25
322.42	85.25
322.649	95.25
322.878	90.25
323.108	93.25
323.337	90.25
323.566	96.25
323.795	82.25
324.024	70.25
324.253	74.25
324.482	80.25
324.71	86.25
324.939	89.25
325.168	87.25
325.397	73.25
325.626	86.25
325.855	89.25
326.084	88.25
326.313	92.25
326.542	66.25
326.77	90.25
326.999	85.25
327.228	92.25
327.457	74.25
327.686	68.25
327.914	84.25
328.143	64.25
328.372	71.25
328.6	80.25
328.829	79.25
329.058	80.25
329.287	93.25
329.515	81.25
329.744	94.25
329.972	86.25
330.201	86.25
330.43	91.25
330.658	81.25
330.887	108.25
331.115	84.25
331.344	100.25
331.572	100.25
331.801	93.25
332.03	94.25
332.258	72.25
332.486	86.25
332.715	87.25
332.943	98.25
333.172	94.25
333.4	87.25
333.629	86.25
333.857	81.25
334.085	97.25
334.314	77.25
334.542	73.25
334.771	86.25
334.999	85.25
335.227	80.25
335.455	88.25
335.684	84.25
335.912	87.25
336.14	89.25
336.369	61.25
336.597	70.25
336.825	79.25
337.053	87.25
337.281	86.25
337.51	74.25
337.738	76.25
337.966	90.25
338.194	81.25
338.422	83.25
338.65	78.25
338.878	92.25
339.106	83.25
339.334	85.25
339.562	83.25
339.79	82.25
340.018	94.25
340.246	83.25
340.474	72.25
340.702	100.25
340.93	82.25
341.158	88.25
341.386	104.25
341.614	86.25
341.842	78.25
342.07	81.25
342.298	85.25
342.526	89.25
342.754	87.25
342.981	80.25
343.209	89.25
343.437	102.25
343.665	96.25
343.893	94.25
344.12	87.25
344.348	94.25
344.576	80.25
344.804	84.25
345.031	86.25
345.259	101.25
345.487	81.25
345.714	81.25
345.942	82.25
346.17	66.25
346.397	86.25
346.625	89.25
346.853	93.25
347.08	86.25
347.308	86.25
347.535	87.25
347.763	87.25
347.99	78.25
348.218	94.25
348.445	71.25
348.673	59.25
348.9	83.25
349.128	88.25
349.355	91.25
349.583	80.25
349.81	87.25
350.037	85.25
350.265	81.25
350.492	89.25
350.72	80.25
350.947	86.25
351.174	88.25
351.402	86.25
351.629	79.25
351.856	89.25
352.083	70.25
352.311	88.25
352.538	73.25
352.765	83.25
352.992	79.25
353.22	95.25
353.447	80.25
353.674	81.25
353.901	72.25
354.128	75.25
354.355	80.25
354.583	72.25
354.81	95.25
355.037	96.25
355.264	79.25
355.491	90.25
355.718	95.25
355.945	83.25
356.172	91.25
356.399	98.25
356.626	75.25
356.853	69.25
357.08	81.25
357.307	86.25
357.534	94.25
357.761	93.25
357.988	101.25
358.215	93.25
358.441	77.25
358.668	75.25
358.895	93.25
359.122	88.25
359.349	101.25
359.576	74.25
359.802	87.25
360.029	97.25
360.256	86.25
360.483	88.25
360.709	82.25
360.936	70.25
361.163	88.25
361.39	78.25
361.616	66.25
361.843	84.25
362.07	86.25
362.296	88.25
362.523	90.25
362.749	86.25
362.976	84.25
363.203	101.25
363.429	92.25
363.656	72.25
363.882	69.25
364.109	84.25
364.335	81.25
364.562	80.25
364.788	90.25
365.015	82.25
365.241	78.25
365.468	88.25
365.694	74.25
365.92	69.25
366.147	85.25
366.373	82.25
366.599	78.25
366.826	86.25
367.052	85.25
367.278	89.25
367.505	77.25
367.731	100.25
367.957	86.25
368.184	85.25
368.41	98.25
368.636	67.25
368.862	80.25
369.089	63.25
369.315	68.25
369.541	86.25
369.767	76.25
369.993	89.25
370.219	93.25
370.445	80.25
370.672	79.25
370.898	81.25
371.124	90.25
371.35	90.25
371.576	75.25
371.802	92.25
372.028	78.25
372.254	104.25
372.48	85.25
372.706	93.25
372.932	78.25
373.158	82.25
373.384	94.25
373.61	85.25
373.835	79.25
374.061	76.25
374.287	80.25
374.513	90.25
374.739	87.25
374.965	79.25
375.191	81.25
375.416	76.25
375.642	72.25
375.868	75.25
376.094	85.25
376.319	84.25
376.545	79.25
376.771	74.25
376.997	82.25
377.222	82.25
377.448	81.25
377.674	84.25
377.899	81.25
378.125	72.25
378.35	86.25
378.576	88.25
378.802	75.25
379.027	83.25
379.253	78.25
379.478	88.25
379.704	85.25
379.929	76.25
380.155	88.25
380.38	86.25
380.606	81.25
380.831	87.25
381.057	106.25
381.282	105.25
381.507	97.25
381.733	79.25
381.958	84.25
382.184	89.25
382.409	89.25
382.634	79.25
382.86	88.25
383.085	76.25
383.31	77.25
383.535	93.25
383.761	88.25
383.986	87.25
384.211	79.25
384.436	83.25
384.662	87.25
384.887	89.25
385.112	93.25
385.337	91.25
385.562	74.25
385.787	74.25
386.013	79.25
386.238	82.25
386.463	81.25
386.688	85.25
386.913	79.25
387.138	80.25
387.363	86.25
387.588	83.25
387.813	80.25
388.038	83.25
388.263	91.25
388.488	78.25
388.713	86.25
388.938	88.25
389.163	82.25
389.387	83.25
389.612	84.25
389.837	70.25
390.062	84.25
390.287	87.25
390.512	94.25
390.736	74.25
390.961	84.25
391.186	81.25
391.411	86.25
391.636	88.25
391.86	72.25
392.085	86.25
392.31	86.25
392.534	82.25
392.759	91.25
392.984	100.25
393.208	74.25
393.433	76.25
393.658	83.25
393.882	72.25
394.107	71.25
394.331	97.25
394.556	78.25
394.78	79.25
395.005	86.25
395.229	86.25
395.454	93.25
395.678	77.25
395.903	75.25
396.127	92.25
396.352	80.25
396.576	80.25
396.801	76.25
397.025	77.25
397.249	110.25
397.474	75.25
397.698	80.25
397.922	86.25
398.147	90.25
398.371	84.25
398.595	88.25
398.82	78.25
399.044	82.25
399.268	87.25
399.492	84.25
399.717	79.25
399.941	72.25
400.165	78.25
400.389	94.25
400.613	81.25
400.837	85.25
401.062	78.25
401.286	78.25
401.51	84.25
401.734	100.25
401.958	91.25
402.182	80.25
402.406	80.25
402.63	82.25
402.854	85.25
403.078	76.25
403.302	92.25
403.526	92.25
403.75	83.25
403.974	67.25
404.198	83.25
404.422	81.25
404.645	96.25
404.869	80.25
405.093	69.25
405.317	78.25
405.541	80.25
405.765	71.25
405.988	75.25
406.212	78.25
406.436	83.25
406.66	81.25
406.883	76.25
407.107	82.25
407.331	70.25
407.555	90.25
407.778	92.25
408.002	90.25
408.226	91.25
408.449	83.25
408.673	76.25
408.896	83.25
409.12	71.25
409.344	85.25
409.567	92.25
409.791	103.25
410.014	87.25
410.238	86.25
410.461	85.25
410.685	88.25
410.908	81.25
411.132	84.25
411.355	75.25
411.578	86.25
411.802	83.25
412.025	81.25
412.249	66.25
412.472	81.25
412.695	77.25
412.919	84.25
413.142	78.25
413.365	70.25
413.589	85.25
413.812	84.25
414.035	76.25
414.258	90.25
414.482	74.25
414.705	77.25
414.928	76.25
415.151	88.25
415.374	84.25
415.597	79.25
415.821	81.25
416.044	80.25
416.267	85.25
416.49	64.25
416.713	74.25
416.936	75.25
417.159	79.25
417.382	85.25
417.605	83.25
417.828	85.25
418.051	77.25
418.274	91.25
418.497	98.25
418.72	81.25
418.943	69.25
419.166	90.25
419.389	79.25
419.611	78.25
419.834	76.25
420.057	92.25
420.28	69.25
420.503	72.25
420.726	68.25
420.948	76.25
421.171	80.25
421.394	73.25
421.617	64.25
421.839	74.25
422.062	71.25
422.285	85.25
422.507	85.25
422.73	85.25
422.953	77.25
423.175	93.25
423.398	78.25
423.621	66.25
423.843	69.25
424.066	85.25
424.288	81.25
424.511	88.25
424.733	82.25
424.956	79.25
425.178	76.25
425.401	90.25
425.623	82.25
425.846	78.25
426.068	92.25
426.291	83.25
426.513	80.25
426.735	76.25
426.958	79.25
427.18	71.25
427.402	79.25
427.625	81.25
427.847	73.25
428.069	92.25
428.292	76.25
428.514	93.25
428.736	94.25
428.958	81.25
429.181	81.25
429.403	91.25
429.625	77.25
429.847	79.25
430.069	88.25
430.292	86.25
430.514	73.25
430.736	85.25
430.958	81.25
431.18	86.25
431.402	72.25
431.624	84.25
431.846	80.25
432.068	76.25
432.29	93.25
432.512	90.25
432.734	82.25
432.956	76.25
433.178	88.25
433.4	96.25
433.622	71.25
433.844	94.25
434.066	79.25
434.287	71.25
434.509	78.25
434.731	77.25
434.953	90.25
435.175	74.25
435.397	78.25
435.618	84.25
435.84	93.25
436.062	70.25
436.284	75.25
436.505	84.25
436.727	92.25
436.949	82.25
437.17	86.25
437.392	84.25
437.614	81.25
437.835	77.25
438.057	62.25
438.278	64.25
438.5	92.25
438.721	88.25
438.943	79.25
439.165	90.25
439.386	84.25
439.608	72.25
439.829	93.25
440.05	76.25
440.272	85.25
440.493	100.25
440.715	79.25
440.936	83.25
441.158	70.25
441.379	82.25
441.6	79.25
441.822	81.25
442.043	93.25
442.264	88.25
442.486	82.25
442.707	85.25
442.928	76.25
443.149	75.25
443.371	88.25
443.592	91.25
443.813	80.25
444.034	70.25
444.255	72.25
444.476	80.25
444.698	75.25
444.919	88.25
445.14	174.25
445.361	123.25
445.582	76.25
445.803	74.25
446.024	72.25
446.245	83.25
446.466	74.25
446.687	90.25
446.908	77.25
447.129	89.25
447.35	79.25
447.571	79.25
447.792	97.25
448.013	85.25
448.234	72.25
448.455	88.25
448.675	76.25
448.896	101.25
449.117	74.25
449.338	80.25
449.559	81.25
449.779	78.25
450	84.25
450.221	80.25
450.442	90.25
450.662	76.25
450.883	79.25
451.104	88.25
451.324	86.25
451.545	78.25
451.766	94.25
451.986	87.25
452.207	84.25
452.428	80.25
452.648	84.25
452.869	102.25
453.089	93.25
453.31	92.25
453.53	92.25
453.751	80.25
453.971	78.25
454.192	62.25
454.412	83.25
454.633	75.25
454.853	81.25
455.073	82.25
455.294	75.25
455.514	73.25
455.734	81.25
455.955	72.25
456.175	97.25
456.395	90.25
456.616	84.25
456.836	79.25
457.056	87.25
457.276	65.25
457.497	71.25
457.717	76.25
457.937	74.25
458.157	82.25
458.377	85.25
458.598	81.25
458.818	70.25
459.038	79.25
459.258	84.25
459.478	86.25
459.698	77.25
459.918	84.25
460.138	52.25
460.358	76.25
460.578	80.25
460.798	71.25
461.018	87.25
461.238	76.25
461.458	88.25
461.678	81.25
461.898	78.25
462.118	92.25
462.338	85.25
462.558	95.25
462.777	91.25
462.997	86.25
463.217	94.25
463.437	80.25
463.657	69.25
463.876	75.25
464.096	94.25
464.316	80.25
464.536	86.25
464.755	74.25
464.975	72.25
465.195	95.25
465.414	77.25
465.634	81.25
465.854	87.25
466.073	77.25
466.293	81.25
466.512	89.25
466.732	62.25
466.951	84.25
467.171	93.25
467.391	73.25
467.61	83.25
467.829	75.25
468.049	84.25
468.268	88.25
468.488	95.25
468.707	81.25
468.927	75.25
469.146	84.25
469.365	93.25
469.585	73.25
469.804	69.25
470.023	91.25
470.243	82.25
470.462	79.25
470.681	77.25
470.901	79.25
471.12	83.25
471.339	86.25
471.558	86.25
471.777	88.25
471.997	72.25
472.216	92.25
472.435	82.25
472.654	88.25
472.873	82.25
473.092	72.25
473.311	84.25
473.53	82.25
473.749	79.25
473.968	69.25
474.187	84.25
474.406	82.25
474.625	83.25
474.844	87.25
475.063	77.25
475.282	88.25
475.501	87.25
475.72	93.25
475.939	84.25
476.158	76.25
476.377	85.25
476.596	76.25
476.814	99.25
477.033	87.25
477.252	77.25
477.471	89.25
477.69	90.25
477.908	97.25
478.127	84.25
478.346	70.25
478.564	78.25
478.783	82.25
479.002	87.25
479.22	70.25
479.439	73.25
479.658	76.25
479.876	72.25
480.095	92.25
480.313	87.25
480.532	73.25
480.751	86.25
480.969	87.25
481.188	76.25
481.406	86.25
481.624	89.25
481.843	83.25
482.061	78.25
482.28	78.25
482.498	71.25
482.717	94.25
482.935	90.25
483.153	75.25
483.372	77.25
483.59	74.25
483.808	82.25
484.027	73.25
484.245	82.25
484.463	84.25
484.681	80.25
484.9	86.25
485.118	76.25
485.336	84.25
485.554	77.25
485.772	71.25
485.99	79.25
486.209	101.25
486.427	89.25
486.645	86.25
486.863	87.25
487.081	74.25
487.299	76.25
487.517	73.25
487.735	74.25
487.953	92.25
488.171	72.25
488.389	81.25
488.607	77.25
488.825	86.25
489.043	85.25
489.261	92.25
489.479	95.25
489.696	88.25
489.914	98.25
490.132	78.25
490.35	85.25
490.568	87.25
490.786	76.25
491.003	82.25
491.221	89.25
491.439	90.25
491.657	84.25
491.874	83.25
492.092	81.25
492.31	93.25
492.527	86.25
492.745	89.25
492.963	92.25
493.18	84.25
493.398	86.25
493.615	76.25
493.833	78.25
494.05	76.25
494.268	79.25
494.485	81.25
494.703	89.25
494.92	85.25
495.138	83.25
495.355	94.25
495.573	80.25
495.79	77.25
496.008	83.25
496.225	79.25
496.442	73.25
496.66	71.25
496.877	81.25
497.094	86.25
497.312	84.25
497.529	81.25
497.746	64.25
497.963	75.25
498.181	73.25
498.398	89.25
498.615	85.25
498.832	78.25
499.049	73.25
499.267	72.25
499.484	77.25
499.701	81.25
499.918	90.25
500.135	87.25
500.352	84.25
500.569	94.25
500.786	80.25
501.003	74.25
501.22	68.25
501.437	77.25
501.654	68.25
501.871	87.25
502.088	91.25
502.305	90.25
502.522	79.25
502.739	87.25
502.956	92.25
503.172	79.25
503.389	80.25
503.606	87.25
503.823	97.25
504.04	91.25
504.256	93.25
504.473	88.25
504.69	79.25
504.907	73.25
505.123	67.25
505.34	82.25
505.557	80.25
505.773	78.25
505.99	66.25
506.207	92.25
506.423	91.25
506.64	86.25
506.856	85.25
507.073	81.25
507.289	72.25
507.506	95.25
507.722	89.25
507.939	77.25
508.155	92.25
508.372	82.25
508.588	79.25
508.805	93.25
509.021	81.25
509.238	78.25
509.454	84.25
509.67	83.25
509.887	93.25
510.103	88.25
510.319	72.25
510.536	88.25
510.752	81.25
510.968	85.25
511.184	84.25
511.401	80.25
511.617	94.25
511.833	88.25
512.049	87.25
512.265	95.25
512.481	89.25
512.698	93.25
512.914	79.25
513.13	82.25
513.346	74.25
513.562	91.25
513.778	88.25
513.994	92.25
514.21	77.25
514.426	93.25
514.642	97.25
514.858	96.25
515.074	77.25
515.29	79.25
515.506	94.25
515.721	86.25
515.937	84.25
516.153	92.25
516.369	87.25
516.585	102.25
516.801	76.25
517.016	81.25
517.232	79.25
517.448	66.25
517.664	82.25
517.879	81.25
518.095	77.25
518.311	75.25
518.527	79.25
518.742	84.25
518.958	88.25
519.173	94.25
519.389	85.25
519.605	84.25
519.82	71.25
