Data from KBr_1_HRD10591_00001.txt Node
Date: Mon Jan 19 13:11:16 EST 2026
User: Yrep
Spectrometer: HR+D1059
Trigger mode: 0
Integration Time (sec): 1.000000E-1
Scans to average: 1
Electric dark correction enabled: true
Nonlinearity correction enabled: false
Boxcar width: 0
XAxis mode: Wavelengths
Number of Pixels in Spectrum: 2048
>>>>>Begin Spectral Data<<<<<
223.165	-12.88
223.4	-12.88
223.635	-12.88
223.869	-23.88
224.104	-14.88
224.338	-18.88
224.573	-7.88
224.808	-18.88
225.042	-4.88
225.277	-8.88
225.511	10.12
225.746	4.12
225.98	11.12
226.215	15.12
226.449	2.12
226.683	20.12
226.918	25.12
227.152	23.12
227.387	35.12
227.621	49.12
227.856	47.12
228.09	39.12
228.324	59.12
228.559	62.12
228.793	68.12
229.027	60.12
229.262	59.12
229.496	80.12
229.73	68.12
229.964	88.12
230.199	87.12
230.433	79.12
230.667	72.12
230.901	87.12
231.136	86.12
231.37	82.12
231.604	89.12
231.838	90.12
232.072	78.12
232.306	84.12
232.541	82.12
232.775	90.12
233.009	70.12
233.243	83.12
233.477	77.12
233.711	77.12
233.945	90.12
234.179	82.12
234.413	68.12
234.647	71.12
234.881	77.12
235.115	76.12
235.349	81.12
235.583	80.12
235.817	99.12
236.051	87.12
236.285	81.12
236.519	76.12
236.753	79.12
236.987	84.12
237.221	81.12
237.455	66.12
237.689	81.12
237.922	80.12
238.156	76.12
238.39	80.12
238.624	77.12
238.858	80.12
239.091	66.12
239.325	66.12
239.559	59.12
239.793	65.12
240.027	76.12
240.26	82.12
240.494	73.12
240.728	75.12
240.961	75.12
241.195	66.12
241.429	71.12
241.662	91.12
241.896	79.12
242.13	74.12
242.363	89.12
242.597	87.12
242.83	79.12
243.064	76.12
243.298	81.12
243.531	84.12
243.765	73.12
243.998	72.12
244.232	84.12
244.465	79.12
244.699	81.12
244.932	82.12
245.166	91.12
245.399	91.12
245.633	98.12
245.866	69.12
246.099	92.12
246.333	91.12
246.566	83.12
246.8	84.12
247.033	81.12
247.266	87.12
247.5	81.12
247.733	61.12
247.966	96.12
248.2	87.12
248.433	88.12
248.666	82.12
248.899	76.12
249.133	81.12
249.366	87.12
249.599	91.12
249.832	81.12
250.066	76.12
250.299	81.12
250.532	74.12
250.765	85.12
250.998	88.12
251.231	75.12
251.465	75.12
251.698	79.12
251.931	73.12
252.164	81.12
252.397	91.12
252.63	79.12
252.863	76.12
253.096	79.12
253.329	81.12
253.562	76.12
253.795	97.12
254.028	81.12
254.261	81.12
254.494	68.12
254.727	73.12
254.96	63.12
255.193	81.12
255.426	86.12
255.659	89.12
255.892	82.12
256.124	80.12
256.357	92.12
256.59	65.12
256.823	76.12
257.056	66.12
257.289	85.12
257.521	82.12
257.754	81.12
257.987	78.12
258.22	89.12
258.452	79.12
258.685	90.12
258.918	94.12
259.151	95.12
259.383	87.12
259.616	101.12
259.849	73.12
260.081	78.12
260.314	78.12
260.547	84.12
260.779	79.12
261.012	86.12
261.244	75.12
261.477	80.12
261.71	76.12
261.942	79.12
262.175	84.12
262.407	82.12
262.64	76.12
262.872	88.12
263.105	80.12
263.337	90.12
263.57	97.12
263.802	83.12
264.035	84.12
264.267	78.12
264.499	91.12
264.732	89.12
264.964	87.12
265.197	77.12
265.429	81.12
265.661	107.12
265.894	88.12
266.126	87.12
266.358	78.12
266.591	81.12
266.823	81.12
267.055	76.12
267.287	89.12
267.52	84.12
267.752	92.12
267.984	84.12
268.216	84.12
268.448	81.12
268.681	99.12
268.913	90.12
269.145	90.12
269.377	85.12
269.609	98.12
269.841	76.12
270.073	88.12
270.306	92.12
270.538	87.12
270.77	80.12
271.002	83.12
271.234	85.12
271.466	92.12
271.698	93.12
271.93	96.12
272.162	95.12
272.394	95.12
272.626	76.12
272.858	91.12
273.09	89.12
273.322	91.12
273.553	90.12
273.785	87.12
274.017	82.12
274.249	87.12
274.481	76.12
274.713	77.12
274.945	83.12
275.176	82.12
275.408	88.12
275.64	93.12
275.872	71.12
276.104	76.12
276.335	72.12
276.567	89.12
276.799	78.12
277.031	78.12
277.262	74.12
277.494	94.12
277.726	85.12
277.957	79.12
278.189	87.12
278.421	82.12
278.652	89.12
278.884	96.12
279.115	77.12
279.347	94.12
279.579	87.12
279.81	81.12
280.042	72.12
280.273	77.12
280.505	99.12
280.736	87.12
280.968	88.12
281.199	72.12
281.431	90.12
281.662	87.12
281.894	80.12
282.125	91.12
282.356	79.12
282.588	81.12
282.819	87.12
283.051	95.12
283.282	77.12
283.513	85.12
283.745	88.12
283.976	68.12
284.207	88.12
284.439	79.12
284.67	94.12
284.901	74.12
285.132	83.12
285.364	95.12
285.595	84.12
285.826	90.12
286.057	82.12
286.288	103.12
286.52	97.12
286.751	95.12
286.982	90.12
287.213	91.12
287.444	87.12
287.675	90.12
287.906	97.12
288.138	74.12
288.369	89.12
288.6	93.12
288.831	93.12
289.062	90.12
289.293	90.12
289.524	95.12
289.755	86.12
289.986	83.12
290.217	95.12
290.448	95.12
290.679	91.12
290.91	104.12
291.141	83.12
291.371	92.12
291.602	92.12
291.833	94.12
292.064	83.12
292.295	95.12
292.526	89.12
292.757	96.12
292.987	84.12
293.218	89.12
293.449	89.12
293.68	85.12
293.91	78.12
294.141	89.12
294.372	88.12
294.603	78.12
294.833	81.12
295.064	90.12
295.295	82.12
295.525	86.12
295.756	91.12
295.987	90.12
296.217	76.12
296.448	98.12
296.679	94.12
296.909	69.12
297.14	88.12
297.37	96.12
297.601	88.12
297.831	91.12
298.062	86.12
298.292	77.12
298.523	74.12
298.753	93.12
298.984	83.12
299.214	78.12
299.445	74.12
299.675	99.12
299.905	83.12
300.136	68.12
300.366	85.12
300.597	83.12
300.827	89.12
301.057	82.12
301.288	87.12
301.518	92.12
301.748	75.12
301.979	89.12
302.209	86.12
302.439	79.12
302.669	93.12
302.9	106.12
303.13	88.12
303.36	77.12
303.59	81.12
303.82	83.12
304.051	93.12
304.281	87.12
304.511	74.12
304.741	89.12
304.971	81.12
305.201	91.12
305.431	98.12
305.661	78.12
305.891	83.12
306.121	85.12
306.352	89.12
306.582	83.12
306.812	83.12
307.042	93.12
307.272	79.12
307.502	85.12
307.731	92.12
307.961	88.12
308.191	92.12
308.421	80.12
308.651	82.12
308.881	84.12
309.111	93.12
309.341	84.12
309.571	87.12
309.8	88.12
310.03	88.12
310.26	79.12
310.49	84.12
310.72	92.12
310.949	81.12
311.179	77.12
311.409	84.12
311.639	78.12
311.868	79.12
312.098	86.12
312.328	88.12
312.557	82.12
312.787	92.12
313.017	97.12
313.246	79.12
313.476	82.12
313.706	105.12
313.935	91.12
314.165	82.12
314.394	97.12
314.624	94.12
314.853	93.12
315.083	103.12
315.312	91.12
315.542	80.12
315.771	85.12
316.001	91.12
316.23	95.12
316.46	84.12
316.689	87.12
316.919	90.12
317.148	84.12
317.377	83.12
317.607	81.12
317.836	95.12
318.065	93.12
318.295	90.12
318.524	88.12
318.753	100.12
318.983	87.12
319.212	79.12
319.441	95.12
319.67	83.12
319.9	80.12
320.129	77.12
320.358	84.12
320.587	87.12
320.816	84.12
321.046	79.12
321.275	91.12
321.504	101.12
321.733	93.12
321.962	97.12
322.191	72.12
322.42	93.12
322.649	79.12
322.878	87.12
323.108	108.12
323.337	78.12
323.566	93.12
323.795	87.12
324.024	99.12
324.253	106.12
324.482	87.12
324.71	89.12
324.939	81.12
325.168	87.12
325.397	85.12
325.626	99.12
325.855	103.12
326.084	76.12
326.313	96.12
326.542	101.12
326.77	88.12
326.999	81.12
327.228	83.12
327.457	98.12
327.686	88.12
327.914	80.12
328.143	91.12
328.372	84.12
328.6	78.12
328.829	93.12
329.058	84.12
329.287	91.12
329.515	88.12
329.744	83.12
329.972	88.12
330.201	87.12
330.43	100.12
330.658	71.12
330.887	91.12
331.115	87.12
331.344	85.12
331.572	69.12
331.801	89.12
332.03	75.12
332.258	83.12
332.486	97.12
332.715	94.12
332.943	77.12
333.172	85.12
333.4	70.12
333.629	97.12
333.857	87.12
334.085	89.12
334.314	89.12
334.542	81.12
334.771	85.12
334.999	85.12
335.227	92.12
335.455	98.12
335.684	83.12
335.912	95.12
336.14	82.12
336.369	96.12
336.597	89.12
336.825	86.12
337.053	89.12
337.281	87.12
337.51	92.12
337.738	85.12
337.966	79.12
338.194	90.12
338.422	91.12
338.65	85.12
338.878	76.12
339.106	94.12
339.334	99.12
339.562	83.12
339.79	96.12
340.018	101.12
340.246	78.12
340.474	95.12
340.702	85.12
340.93	87.12
341.158	84.12
341.386	90.12
341.614	85.12
341.842	103.12
342.07	95.12
342.298	92.12
342.526	97.12
342.754	84.12
342.981	95.12
343.209	83.12
343.437	107.12
343.665	83.12
343.893	93.12
344.12	83.12
344.348	80.12
344.576	87.12
344.804	74.12
345.031	89.12
345.259	100.12
345.487	86.12
345.714	78.12
345.942	88.12
346.17	88.12
346.397	94.12
346.625	96.12
346.853	87.12
347.08	93.12
347.308	88.12
347.535	80.12
347.763	94.12
347.99	94.12
348.218	86.12
348.445	83.12
348.673	85.12
348.9	106.12
349.128	83.12
349.355	79.12
349.583	97.12
349.81	83.12
350.037	80.12
350.265	88.12
350.492	92.12
350.72	85.12
350.947	87.12
351.174	82.12
351.402	83.12
351.629	91.12
351.856	95.12
352.083	96.12
352.311	89.12
352.538	87.12
352.765	88.12
352.992	75.12
353.22	93.12
353.447	100.12
353.674	101.12
353.901	92.12
354.128	72.12
354.355	93.12
354.583	97.12
354.81	92.12
355.037	88.12
355.264	88.12
355.491	83.12
355.718	73.12
355.945	82.12
356.172	106.12
356.399	85.12
356.626	91.12
356.853	107.12
357.08	81.12
357.307	86.12
357.534	79.12
357.761	85.12
357.988	85.12
358.215	100.12
358.441	84.12
358.668	87.12
358.895	81.12
359.122	95.12
359.349	91.12
359.576	73.12
359.802	80.12
360.029	67.12
360.256	84.12
360.483	87.12
360.709	83.12
360.936	107.12
361.163	84.12
361.39	91.12
361.616	76.12
361.843	85.12
362.07	85.12
362.296	84.12
362.523	94.12
362.749	87.12
362.976	78.12
363.203	85.12
363.429	81.12
363.656	87.12
363.882	84.12
364.109	87.12
364.335	91.12
364.562	93.12
364.788	89.12
365.015	98.12
365.241	82.12
365.468	84.12
365.694	92.12
365.92	89.12
366.147	96.12
366.373	93.12
366.599	81.12
366.826	88.12
367.052	105.12
367.278	94.12
367.505	91.12
367.731	102.12
367.957	98.12
368.184	71.12
368.41	86.12
368.636	86.12
368.862	83.12
369.089	87.12
369.315	81.12
369.541	95.12
369.767	92.12
369.993	62.12
370.219	80.12
370.445	90.12
370.672	77.12
370.898	78.12
371.124	94.12
371.35	83.12
371.576	91.12
371.802	74.12
372.028	87.12
372.254	91.12
372.48	89.12
372.706	93.12
372.932	81.12
373.158	76.12
373.384	79.12
373.61	98.12
373.835	79.12
374.061	95.12
374.287	85.12
374.513	79.12
374.739	85.12
374.965	89.12
375.191	88.12
375.416	85.12
375.642	94.12
375.868	89.12
376.094	92.12
376.319	91.12
376.545	89.12
376.771	80.12
376.997	85.12
377.222	84.12
377.448	88.12
377.674	94.12
377.899	74.12
378.125	76.12
378.35	79.12
378.576	84.12
378.802	87.12
379.027	75.12
379.253	80.12
379.478	89.12
379.704	78.12
379.929	84.12
380.155	79.12
380.38	99.12
380.606	75.12
380.831	77.12
381.057	93.12
381.282	93.12
381.507	81.12
381.733	77.12
381.958	79.12
382.184	67.12
382.409	79.12
382.634	77.12
382.86	89.12
383.085	91.12
383.31	83.12
383.535	86.12
383.761	67.12
383.986	77.12
384.211	77.12
384.436	86.12
384.662	86.12
384.887	97.12
385.112	99.12
385.337	87.12
385.562	90.12
385.787	79.12
386.013	83.12
386.238	72.12
386.463	79.12
386.688	89.12
386.913	74.12
387.138	91.12
387.363	85.12
387.588	84.12
387.813	110.12
388.038	92.12
388.263	82.12
388.488	79.12
388.713	92.12
388.938	81.12
389.163	79.12
389.387	77.12
389.612	99.12
389.837	73.12
390.062	83.12
390.287	77.12
390.512	73.12
390.736	78.12
390.961	84.12
391.186	76.12
391.411	85.12
391.636	84.12
391.86	81.12
392.085	93.12
392.31	77.12
392.534	83.12
392.759	101.12
392.984	80.12
393.208	83.12
393.433	83.12
393.658	80.12
393.882	83.12
394.107	87.12
394.331	77.12
394.556	81.12
394.78	79.12
395.005	99.12
395.229	81.12
395.454	64.12
395.678	60.12
395.903	84.12
396.127	88.12
396.352	84.12
396.576	92.12
396.801	101.12
397.025	88.12
397.249	78.12
397.474	80.12
397.698	97.12
397.922	92.12
398.147	90.12
398.371	81.12
398.595	91.12
398.82	80.12
399.044	81.12
399.268	77.12
399.492	87.12
399.717	73.12
399.941	89.12
400.165	89.12
400.389	85.12
400.613	82.12
400.837	84.12
401.062	80.12
401.286	91.12
401.51	78.12
401.734	84.12
401.958	89.12
402.182	73.12
402.406	67.12
402.63	90.12
402.854	83.12
403.078	89.12
403.302	93.12
403.526	78.12
403.75	82.12
403.974	83.12
404.198	78.12
404.422	97.12
404.645	77.12
404.869	83.12
405.093	80.12
405.317	95.12
405.541	82.12
405.765	92.12
405.988	91.12
406.212	97.12
406.436	77.12
406.66	86.12
406.883	76.12
407.107	72.12
407.331	83.12
407.555	89.12
407.778	87.12
408.002	74.12
408.226	91.12
408.449	85.12
408.673	79.12
408.896	83.12
409.12	82.12
409.344	75.12
409.567	92.12
409.791	91.12
410.014	89.12
410.238	83.12
410.461	64.12
410.685	91.12
410.908	82.12
411.132	91.12
411.355	81.12
411.578	83.12
411.802	94.12
412.025	76.12
412.249	84.12
412.472	96.12
412.695	93.12
412.919	89.12
413.142	67.12
413.365	60.12
413.589	76.12
413.812	89.12
414.035	87.12
414.258	83.12
414.482	75.12
414.705	79.12
414.928	83.12
415.151	72.12
415.374	81.12
415.597	92.12
415.821	83.12
416.044	75.12
416.267	87.12
416.49	87.12
416.713	91.12
416.936	79.12
417.159	75.12
417.382	83.12
417.605	70.12
417.828	83.12
418.051	76.12
418.274	79.12
418.497	84.12
418.72	84.12
418.943	76.12
419.166	65.12
419.389	83.12
419.611	90.12
419.834	75.12
420.057	88.12
420.28	80.12
420.503	90.12
420.726	88.12
420.948	100.12
421.171	88.12
421.394	80.12
421.617	83.12
421.839	85.12
422.062	78.12
422.285	75.12
422.507	74.12
422.73	74.12
422.953	90.12
423.175	86.12
423.398	80.12
423.621	89.12
423.843	79.12
424.066	78.12
424.288	84.12
424.511	79.12
424.733	82.12
424.956	88.12
425.178	68.12
425.401	75.12
425.623	92.12
425.846	81.12
426.068	80.12
426.291	90.12
426.513	78.12
426.735	86.12
426.958	78.12
427.18	77.12
427.402	79.12
427.625	78.12
427.847	80.12
428.069	79.12
428.292	101.12
428.514	91.12
428.736	72.12
428.958	90.12
429.181	89.12
429.403	80.12
429.625	75.12
429.847	79.12
430.069	82.12
430.292	91.12
430.514	75.12
430.736	69.12
430.958	80.12
431.18	89.12
431.402	99.12
431.624	80.12
431.846	85.12
432.068	99.12
432.29	81.12
432.512	88.12
432.734	97.12
432.956	81.12
433.178	82.12
433.4	79.12
433.622	78.12
433.844	72.12
434.066	75.12
434.287	85.12
434.509	76.12
434.731	79.12
434.953	92.12
435.175	83.12
435.397	88.12
435.618	85.12
435.84	76.12
436.062	69.12
436.284	84.12
436.505	91.12
436.727	85.12
436.949	94.12
437.17	96.12
437.392	91.12
437.614	83.12
437.835	95.12
438.057	80.12
438.278	77.12
438.5	77.12
438.721	75.12
438.943	87.12
439.165	78.12
439.386	67.12
439.608	95.12
439.829	73.12
440.05	89.12
440.272	80.12
440.493	75.12
440.715	86.12
440.936	80.12
441.158	75.12
441.379	94.12
441.6	80.12
441.822	79.12
442.043	87.12
442.264	76.12
442.486	87.12
442.707	79.12
442.928	89.12
443.149	80.12
443.371	88.12
443.592	81.12
443.813	83.12
444.034	87.12
444.255	87.12
444.476	89.12
444.698	87.12
444.919	75.12
445.14	136.12
445.361	109.12
445.582	90.12
445.803	88.12
446.024	75.12
446.245	69.12
446.466	81.12
446.687	78.12
446.908	85.12
447.129	88.12
447.35	77.12
447.571	81.12
447.792	92.12
448.013	91.12
448.234	81.12
448.455	74.12
448.675	76.12
448.896	87.12
449.117	79.12
449.338	96.12
449.559	88.12
449.779	68.12
450	92.12
450.221	84.12
450.442	74.12
450.662	85.12
450.883	79.12
451.104	93.12
451.324	91.12
451.545	83.12
451.766	86.12
451.986	85.12
452.207	96.12
452.428	78.12
452.648	83.12
452.869	77.12
453.089	91.12
453.31	76.12
453.53	95.12
453.751	95.12
453.971	89.12
454.192	79.12
454.412	98.12
454.633	76.12
454.853	82.12
455.073	81.12
455.294	79.12
455.514	84.12
455.734	78.12
455.955	105.12
456.175	93.12
456.395	80.12
456.616	90.12
456.836	79.12
457.056	77.12
457.276	81.12
457.497	98.12
457.717	94.12
457.937	89.12
458.157	82.12
458.377	81.12
458.598	91.12
458.818	66.12
459.038	75.12
459.258	81.12
459.478	92.12
459.698	77.12
459.918	81.12
460.138	78.12
460.358	92.12
460.578	78.12
460.798	80.12
461.018	92.12
461.238	89.12
461.458	84.12
461.678	98.12
461.898	79.12
462.118	87.12
462.338	87.12
462.558	76.12
462.777	69.12
462.997	105.12
463.217	83.12
463.437	82.12
463.657	81.12
463.876	80.12
464.096	84.12
464.316	76.12
464.536	84.12
464.755	101.12
464.975	97.12
465.195	71.12
465.414	81.12
465.634	88.12
465.854	82.12
466.073	71.12
466.293	76.12
466.512	81.12
466.732	77.12
466.951	66.12
467.171	76.12
467.391	83.12
467.61	69.12
467.829	84.12
468.049	73.12
468.268	74.12
468.488	80.12
468.707	81.12
468.927	85.12
469.146	96.12
469.365	88.12
469.585	85.12
469.804	91.12
470.023	80.12
470.243	75.12
470.462	89.12
470.681	84.12
470.901	79.12
471.12	88.12
471.339	94.12
471.558	72.12
471.777	88.12
471.997	91.12
472.216	97.12
472.435	76.12
472.654	87.12
472.873	80.12
473.092	78.12
473.311	81.12
473.53	81.12
473.749	92.12
473.968	90.12
474.187	77.12
474.406	85.12
474.625	89.12
474.844	111.12
475.063	91.12
475.282	83.12
475.501	95.12
475.72	92.12
475.939	87.12
476.158	79.12
476.377	88.12
476.596	85.12
476.814	75.12
477.033	97.12
477.252	91.12
477.471	93.12
477.69	92.12
477.908	87.12
478.127	100.12
478.346	79.12
478.564	81.12
478.783	82.12
479.002	77.12
479.22	82.12
479.439	83.12
479.658	77.12
479.876	84.12
480.095	104.12
480.313	95.12
480.532	79.12
480.751	73.12
480.969	93.12
481.188	81.12
481.406	96.12
481.624	92.12
481.843	87.12
482.061	72.12
482.28	82.12
482.498	82.12
482.717	81.12
482.935	79.12
483.153	95.12
483.372	85.12
483.59	87.12
483.808	94.12
484.027	86.12
484.245	101.12
484.463	95.12
484.681	85.12
484.9	81.12
485.118	90.12
485.336	93.12
485.554	79.12
485.772	77.12
485.99	79.12
486.209	83.12
486.427	76.12
486.645	98.12
486.863	95.12
487.081	84.12
487.299	83.12
487.517	91.12
487.735	83.12
487.953	94.12
488.171	97.12
488.389	97.12
488.607	82.12
488.825	89.12
489.043	81.12
489.261	82.12
489.479	99.12
489.696	86.12
489.914	88.12
490.132	88.12
490.35	69.12
490.568	79.12
490.786	81.12
491.003	97.12
491.221	78.12
491.439	85.12
491.657	88.12
491.874	84.12
492.092	79.12
492.31	96.12
492.527	84.12
492.745	79.12
492.963	85.12
493.18	81.12
493.398	86.12
493.615	88.12
493.833	81.12
494.05	82.12
494.268	82.12
494.485	73.12
494.703	83.12
494.92	73.12
495.138	78.12
495.355	69.12
495.573	80.12
495.79	86.12
496.008	79.12
496.225	73.12
496.442	83.12
496.66	94.12
496.877	91.12
497.094	90.12
497.312	98.12
497.529	92.12
497.746	86.12
497.963	75.12
498.181	82.12
498.398	98.12
498.615	92.12
498.832	84.12
499.049	93.12
499.267	86.12
499.484	86.12
499.701	76.12
499.918	93.12
500.135	92.12
500.352	84.12
500.569	67.12
500.786	81.12
501.003	83.12
501.22	85.12
501.437	84.12
501.654	91.12
501.871	86.12
502.088	78.12
502.305	90.12
502.522	90.12
502.739	79.12
502.956	87.12
503.172	94.12
503.389	79.12
503.606	72.12
503.823	87.12
504.04	99.12
504.256	77.12
504.473	83.12
504.69	74.12
504.907	81.12
505.123	81.12
505.34	95.12
505.557	80.12
505.773	75.12
505.99	87.12
506.207	82.12
506.423	86.12
506.64	79.12
506.856	79.12
507.073	96.12
507.289	84.12
507.506	83.12
507.722	94.12
507.939	70.12
508.155	83.12
508.372	87.12
508.588	74.12
508.805	96.12
509.021	79.12
509.238	85.12
509.454	88.12
509.67	91.12
509.887	86.12
510.103	81.12
510.319	88.12
510.536	91.12
510.752	105.12
510.968	84.12
511.184	92.12
511.401	83.12
511.617	91.12
511.833	76.12
512.049	99.12
512.265	85.12
512.481	81.12
512.698	93.12
512.914	87.12
513.13	79.12
513.346	73.12
513.562	92.12
513.778	90.12
513.994	84.12
514.21	87.12
514.426	98.12
514.642	75.12
514.858	91.12
515.074	81.12
515.29	86.12
515.506	103.12
515.721	89.12
515.937	90.12
516.153	88.12
516.369	87.12
516.585	77.12
516.801	89.12
517.016	76.12
517.232	83.12
517.448	89.12
517.664	76.12
517.879	89.12
518.095	90.12
518.311	88.12
518.527	69.12
518.742	88.12
518.958	96.12
519.173	92.12
519.389	86.12
519.605	89.12
519.82	70.12
