Data from KBr_1_HRD10591_00014.txt Node
Date: Mon Jan 19 13:11:17 EST 2026
User: Yrep
Spectrometer: HR+D1059
Trigger mode: 0
Integration Time (sec): 1.000000E-1
Scans to average: 1
Electric dark correction enabled: true
Nonlinearity correction enabled: false
Boxcar width: 0
XAxis mode: Wavelengths
Number of Pixels in Spectrum: 2048
>>>>>Begin Spectral Data<<<<<
223.165	-12.56
223.4	-12.56
223.635	-12.56
223.869	-17.56
224.104	-33.56
224.338	-23.56
224.573	-12.56
224.808	-11.56
225.042	-10.56
225.277	-8.56
225.511	-12.56
225.746	7.44
225.98	0.44
226.215	8.44
226.449	19.44
226.683	36.44
226.918	52.44
227.152	18.44
227.387	41.44
227.621	30.44
227.856	39.44
228.09	47.44
228.324	46.44
228.559	54.44
228.793	54.44
229.027	72.44
229.262	59.44
229.496	55.44
229.73	66.44
229.964	58.44
230.199	76.44
230.433	71.44
230.667	70.44
230.901	81.44
231.136	90.44
231.37	72.44
231.604	77.44
231.838	79.44
232.072	72.44
232.306	90.44
232.541	63.44
232.775	74.44
233.009	82.44
233.243	95.44
233.477	92.44
233.711	88.44
233.945	79.44
234.179	86.44
234.413	65.44
234.647	73.44
234.881	75.44
235.115	86.44
235.349	76.44
235.583	78.44
235.817	83.44
236.051	75.44
236.285	79.44
236.519	62.44
236.753	62.44
236.987	78.44
237.221	69.44
237.455	75.44
237.689	78.44
237.922	90.44
238.156	85.44
238.39	67.44
238.624	89.44
238.858	76.44
239.091	76.44
239.325	63.44
239.559	61.44
239.793	90.44
240.027	77.44
240.26	83.44
240.494	82.44
240.728	68.44
240.961	71.44
241.195	65.44
241.429	68.44
241.662	62.44
241.896	87.44
242.13	77.44
242.363	58.44
242.597	74.44
242.83	84.44
243.064	71.44
243.298	72.44
243.531	75.44
243.765	68.44
243.998	82.44
244.232	74.44
244.465	68.44
244.699	80.44
244.932	80.44
245.166	62.44
245.399	78.44
245.633	75.44
245.866	77.44
246.099	76.44
246.333	83.44
246.566	74.44
246.8	74.44
247.033	80.44
247.266	91.44
247.5	78.44
247.733	82.44
247.966	87.44
248.2	73.44
248.433	90.44
248.666	85.44
248.899	74.44
249.133	79.44
249.366	78.44
249.599	76.44
249.832	72.44
250.066	80.44
250.299	88.44
250.532	86.44
250.765	78.44
250.998	88.44
251.231	75.44
251.465	81.44
251.698	72.44
251.931	73.44
252.164	72.44
252.397	72.44
252.63	65.44
252.863	80.44
253.096	81.44
253.329	67.44
253.562	74.44
253.795	67.44
254.028	71.44
254.261	87.44
254.494	84.44
254.727	83.44
254.96	74.44
255.193	89.44
255.426	88.44
255.659	75.44
255.892	67.44
256.124	73.44
256.357	103.44
256.59	90.44
256.823	82.44
257.056	58.44
257.289	77.44
257.521	79.44
257.754	77.44
257.987	73.44
258.22	82.44
258.452	84.44
258.685	76.44
258.918	88.44
259.151	68.44
259.383	77.44
259.616	94.44
259.849	82.44
260.081	78.44
260.314	70.44
260.547	69.44
260.779	63.44
261.012	75.44
261.244	68.44
261.477	88.44
261.71	83.44
261.942	90.44
262.175	76.44
262.407	83.44
262.64	72.44
262.872	83.44
263.105	67.44
263.337	72.44
263.57	95.44
263.802	78.44
264.035	100.44
264.267	85.44
264.499	82.44
264.732	85.44
264.964	83.44
265.197	76.44
265.429	86.44
265.661	87.44
265.894	72.44
266.126	85.44
266.358	89.44
266.591	63.44
266.823	86.44
267.055	87.44
267.287	79.44
267.52	90.44
267.752	72.44
267.984	74.44
268.216	82.44
268.448	89.44
268.681	77.44
268.913	78.44
269.145	92.44
269.377	80.44
269.609	87.44
269.841	80.44
270.073	70.44
270.306	77.44
270.538	77.44
270.77	79.44
271.002	90.44
271.234	84.44
271.466	78.44
271.698	78.44
271.93	87.44
272.162	84.44
272.394	74.44
272.626	68.44
272.858	69.44
273.09	90.44
273.322	79.44
273.553	88.44
273.785	93.44
274.017	87.44
274.249	84.44
274.481	76.44
274.713	77.44
274.945	77.44
275.176	78.44
275.408	80.44
275.64	83.44
275.872	82.44
276.104	89.44
276.335	70.44
276.567	78.44
276.799	75.44
277.031	87.44
277.262	72.44
277.494	75.44
277.726	67.44
277.957	82.44
278.189	74.44
278.421	77.44
278.652	74.44
278.884	78.44
279.115	85.44
279.347	87.44
279.579	80.44
279.81	73.44
280.042	84.44
280.273	80.44
280.505	69.44
280.736	73.44
280.968	76.44
281.199	96.44
281.431	79.44
281.662	87.44
281.894	90.44
282.125	74.44
282.356	76.44
282.588	85.44
282.819	70.44
283.051	95.44
283.282	94.44
283.513	90.44
283.745	85.44
283.976	84.44
284.207	83.44
284.439	81.44
284.67	66.44
284.901	88.44
285.132	86.44
285.364	84.44
285.595	87.44
285.826	86.44
286.057	76.44
286.288	86.44
286.52	88.44
286.751	69.44
286.982	92.44
287.213	88.44
287.444	79.44
287.675	89.44
287.906	87.44
288.138	90.44
288.369	84.44
288.6	80.44
288.831	85.44
289.062	77.44
289.293	92.44
289.524	73.44
289.755	80.44
289.986	94.44
290.217	78.44
290.448	86.44
290.679	91.44
290.91	79.44
291.141	69.44
291.371	87.44
291.602	78.44
291.833	76.44
292.064	87.44
292.295	63.44
292.526	87.44
292.757	86.44
292.987	93.44
293.218	79.44
293.449	87.44
293.68	65.44
293.91	81.44
294.141	88.44
294.372	74.44
294.603	98.44
294.833	100.44
295.064	79.44
295.295	68.44
295.525	78.44
295.756	68.44
295.987	71.44
296.217	86.44
296.448	79.44
296.679	92.44
296.909	84.44
297.14	88.44
297.37	88.44
297.601	74.44
297.831	82.44
298.062	86.44
298.292	83.44
298.523	93.44
298.753	84.44
298.984	79.44
299.214	84.44
299.445	91.44
299.675	87.44
299.905	86.44
300.136	78.44
300.366	80.44
300.597	68.44
300.827	78.44
301.057	99.44
301.288	89.44
301.518	86.44
301.748	76.44
301.979	100.44
302.209	80.44
302.439	78.44
302.669	75.44
302.9	85.44
303.13	89.44
303.36	70.44
303.59	84.44
303.82	82.44
304.051	84.44
304.281	83.44
304.511	87.44
304.741	87.44
304.971	84.44
305.201	83.44
305.431	85.44
305.661	92.44
305.891	81.44
306.121	94.44
306.352	90.44
306.582	86.44
306.812	77.44
307.042	77.44
307.272	81.44
307.502	87.44
307.731	82.44
307.961	82.44
308.191	77.44
308.421	86.44
308.651	88.44
308.881	91.44
309.111	85.44
309.341	105.44
309.571	77.44
309.8	80.44
310.03	75.44
310.26	77.44
310.49	80.44
310.72	72.44
310.949	84.44
311.179	88.44
311.409	99.44
311.639	75.44
311.868	72.44
312.098	70.44
312.328	63.44
312.557	86.44
312.787	74.44
313.017	95.44
313.246	79.44
313.476	86.44
313.706	93.44
313.935	82.44
314.165	93.44
314.394	78.44
314.624	74.44
314.853	75.44
315.083	79.44
315.312	88.44
315.542	84.44
315.771	79.44
316.001	84.44
316.23	88.44
316.46	70.44
316.689	92.44
316.919	79.44
317.148	67.44
317.377	72.44
317.607	90.44
317.836	102.44
318.065	78.44
318.295	93.44
318.524	86.44
318.753	65.44
318.983	79.44
319.212	95.44
319.441	83.44
319.67	78.44
319.9	84.44
320.129	76.44
320.358	80.44
320.587	83.44
320.816	65.44
321.046	81.44
321.275	87.44
321.504	76.44
321.733	89.44
321.962	79.44
322.191	86.44
322.42	81.44
322.649	90.44
322.878	87.44
323.108	71.44
323.337	78.44
323.566	80.44
323.795	86.44
324.024	68.44
324.253	78.44
324.482	83.44
324.71	78.44
324.939	75.44
325.168	85.44
325.397	86.44
325.626	89.44
325.855	81.44
326.084	77.44
326.313	86.44
326.542	86.44
326.77	71.44
326.999	94.44
327.228	87.44
327.457	76.44
327.686	96.44
327.914	85.44
328.143	90.44
328.372	80.44
328.6	89.44
328.829	92.44
329.058	90.44
329.287	77.44
329.515	77.44
329.744	90.44
329.972	82.44
330.201	74.44
330.43	86.44
330.658	83.44
330.887	85.44
331.115	91.44
331.344	93.44
331.572	98.44
331.801	81.44
332.03	77.44
332.258	78.44
332.486	83.44
332.715	75.44
332.943	76.44
333.172	87.44
333.4	82.44
333.629	84.44
333.857	77.44
334.085	78.44
334.314	73.44
334.542	85.44
334.771	72.44
334.999	78.44
335.227	69.44
335.455	72.44
335.684	85.44
335.912	72.44
336.14	89.44
336.369	78.44
336.597	73.44
336.825	94.44
337.053	79.44
337.281	83.44
337.51	76.44
337.738	92.44
337.966	74.44
338.194	85.44
338.422	74.44
338.65	90.44
338.878	99.44
339.106	92.44
339.334	71.44
339.562	75.44
339.79	83.44
340.018	63.44
340.246	89.44
340.474	82.44
340.702	76.44
340.93	94.44
341.158	82.44
341.386	80.44
341.614	74.44
341.842	70.44
342.07	82.44
342.298	71.44
342.526	80.44
342.754	81.44
342.981	73.44
343.209	82.44
343.437	84.44
343.665	91.44
343.893	82.44
344.12	94.44
344.348	78.44
344.576	74.44
344.804	92.44
345.031	84.44
345.259	79.44
345.487	81.44
345.714	68.44
345.942	80.44
346.17	70.44
346.397	87.44
346.625	79.44
346.853	76.44
347.08	73.44
347.308	74.44
347.535	94.44
347.763	82.44
347.99	77.44
348.218	85.44
348.445	73.44
348.673	84.44
348.9	83.44
349.128	91.44
349.355	102.44
349.583	72.44
349.81	88.44
350.037	73.44
350.265	84.44
350.492	78.44
350.72	79.44
350.947	84.44
351.174	79.44
351.402	73.44
351.629	85.44
351.856	84.44
352.083	91.44
352.311	90.44
352.538	82.44
352.765	80.44
352.992	86.44
353.22	71.44
353.447	92.44
353.674	83.44
353.901	82.44
354.128	86.44
354.355	78.44
354.583	88.44
354.81	86.44
355.037	70.44
355.264	69.44
355.491	90.44
355.718	78.44
355.945	84.44
356.172	82.44
356.399	72.44
356.626	75.44
356.853	74.44
357.08	78.44
357.307	89.44
357.534	90.44
357.761	82.44
357.988	82.44
358.215	90.44
358.441	73.44
358.668	79.44
358.895	86.44
359.122	71.44
359.349	86.44
359.576	79.44
359.802	85.44
360.029	88.44
360.256	82.44
360.483	92.44
360.709	87.44
360.936	100.44
361.163	86.44
361.39	85.44
361.616	75.44
361.843	80.44
362.07	82.44
362.296	80.44
362.523	83.44
362.749	91.44
362.976	92.44
363.203	84.44
363.429	88.44
363.656	85.44
363.882	84.44
364.109	79.44
364.335	70.44
364.562	76.44
364.788	84.44
365.015	64.44
365.241	79.44
365.468	77.44
365.694	96.44
365.92	89.44
366.147	80.44
366.373	74.44
366.599	74.44
366.826	86.44
367.052	68.44
367.278	76.44
367.505	61.44
367.731	81.44
367.957	88.44
368.184	86.44
368.41	90.44
368.636	89.44
368.862	88.44
369.089	73.44
369.315	81.44
369.541	84.44
369.767	79.44
369.993	88.44
370.219	63.44
370.445	82.44
370.672	83.44
370.898	84.44
371.124	79.44
371.35	104.44
371.576	85.44
371.802	87.44
372.028	78.44
372.254	77.44
372.48	89.44
372.706	71.44
372.932	81.44
373.158	72.44
373.384	79.44
373.61	77.44
373.835	68.44
374.061	80.44
374.287	80.44
374.513	81.44
374.739	81.44
374.965	82.44
375.191	76.44
375.416	72.44
375.642	78.44
375.868	78.44
376.094	67.44
376.319	82.44
376.545	84.44
376.771	90.44
376.997	80.44
377.222	86.44
377.448	88.44
377.674	83.44
377.899	75.44
378.125	88.44
378.35	84.44
378.576	87.44
378.802	82.44
379.027	85.44
379.253	93.44
379.478	95.44
379.704	82.44
379.929	88.44
380.155	75.44
380.38	100.44
380.606	82.44
380.831	87.44
381.057	94.44
381.282	80.44
381.507	96.44
381.733	78.44
381.958	77.44
382.184	77.44
382.409	90.44
382.634	68.44
382.86	79.44
383.085	78.44
383.31	69.44
383.535	85.44
383.761	85.44
383.986	57.44
384.211	69.44
384.436	79.44
384.662	75.44
384.887	82.44
385.112	69.44
385.337	84.44
385.562	81.44
385.787	98.44
386.013	79.44
386.238	84.44
386.463	81.44
386.688	85.44
386.913	75.44
387.138	83.44
387.363	84.44
387.588	78.44
387.813	91.44
388.038	93.44
388.263	64.44
388.488	74.44
388.713	86.44
388.938	68.44
389.163	78.44
389.387	95.44
389.612	76.44
389.837	76.44
390.062	75.44
390.287	79.44
390.512	90.44
390.736	90.44
390.961	88.44
391.186	89.44
391.411	100.44
391.636	76.44
391.86	80.44
392.085	84.44
392.31	80.44
392.534	82.44
392.759	79.44
392.984	84.44
393.208	82.44
393.433	77.44
393.658	70.44
393.882	87.44
394.107	79.44
394.331	85.44
394.556	78.44
394.78	64.44
395.005	69.44
395.229	71.44
395.454	85.44
395.678	81.44
395.903	77.44
396.127	70.44
396.352	76.44
396.576	75.44
396.801	72.44
397.025	82.44
397.249	74.44
397.474	86.44
397.698	95.44
397.922	81.44
398.147	78.44
398.371	77.44
398.595	87.44
398.82	75.44
399.044	71.44
399.268	77.44
399.492	78.44
399.717	64.44
399.941	84.44
400.165	79.44
400.389	87.44
400.613	86.44
400.837	78.44
401.062	74.44
401.286	78.44
401.51	78.44
401.734	79.44
401.958	84.44
402.182	76.44
402.406	84.44
402.63	87.44
402.854	82.44
403.078	80.44
403.302	85.44
403.526	88.44
403.75	84.44
403.974	70.44
404.198	64.44
404.422	79.44
404.645	87.44
404.869	74.44
405.093	74.44
405.317	83.44
405.541	76.44
405.765	84.44
405.988	70.44
406.212	74.44
406.436	79.44
406.66	90.44
406.883	88.44
407.107	75.44
407.331	81.44
407.555	74.44
407.778	70.44
408.002	76.44
408.226	86.44
408.449	65.44
408.673	79.44
408.896	82.44
409.12	74.44
409.344	78.44
409.567	73.44
409.791	78.44
410.014	85.44
410.238	68.44
410.461	83.44
410.685	77.44
410.908	78.44
411.132	66.44
411.355	86.44
411.578	78.44
411.802	85.44
412.025	81.44
412.249	69.44
412.472	70.44
412.695	85.44
412.919	83.44
413.142	85.44
413.365	87.44
413.589	81.44
413.812	83.44
414.035	65.44
414.258	75.44
414.482	76.44
414.705	69.44
414.928	80.44
415.151	83.44
415.374	79.44
415.597	77.44
415.821	82.44
416.044	78.44
416.267	54.44
416.49	79.44
416.713	81.44
416.936	77.44
417.159	82.44
417.382	94.44
417.605	68.44
417.828	86.44
418.051	77.44
418.274	74.44
418.497	73.44
418.72	90.44
418.943	74.44
419.166	86.44
419.389	78.44
419.611	71.44
419.834	69.44
420.057	89.44
420.28	76.44
420.503	89.44
420.726	73.44
420.948	95.44
421.171	89.44
421.394	76.44
421.617	81.44
421.839	83.44
422.062	73.44
422.285	77.44
422.507	83.44
422.73	73.44
422.953	78.44
423.175	69.44
423.398	75.44
423.621	79.44
423.843	78.44
424.066	77.44
424.288	75.44
424.511	73.44
424.733	75.44
424.956	73.44
425.178	78.44
425.401	74.44
425.623	61.44
425.846	84.44
426.068	73.44
426.291	69.44
426.513	88.44
426.735	76.44
426.958	67.44
427.18	78.44
427.402	78.44
427.625	71.44
427.847	75.44
428.069	85.44
428.292	76.44
428.514	78.44
428.736	87.44
428.958	89.44
429.181	73.44
429.403	83.44
429.625	89.44
429.847	96.44
430.069	83.44
430.292	78.44
430.514	76.44
430.736	90.44
430.958	84.44
431.18	80.44
431.402	83.44
431.624	86.44
431.846	70.44
432.068	77.44
432.29	82.44
432.512	85.44
432.734	82.44
432.956	80.44
433.178	80.44
433.4	73.44
433.622	82.44
433.844	79.44
434.066	83.44
434.287	72.44
434.509	74.44
434.731	83.44
434.953	84.44
435.175	91.44
435.397	86.44
435.618	82.44
435.84	91.44
436.062	85.44
436.284	75.44
436.505	82.44
436.727	84.44
436.949	71.44
437.17	77.44
437.392	75.44
437.614	90.44
437.835	77.44
438.057	77.44
438.278	61.44
438.5	79.44
438.721	82.44
438.943	65.44
439.165	74.44
439.386	73.44
439.608	74.44
439.829	85.44
440.05	83.44
440.272	76.44
440.493	78.44
440.715	77.44
440.936	77.44
441.158	69.44
441.379	75.44
441.6	86.44
441.822	85.44
442.043	78.44
442.264	78.44
442.486	77.44
442.707	84.44
442.928	73.44
443.149	76.44
443.371	72.44
443.592	73.44
443.813	74.44
444.034	87.44
444.255	70.44
444.476	89.44
444.698	79.44
444.919	83.44
445.14	164.44
445.361	125.44
445.582	73.44
445.803	84.44
446.024	89.44
446.245	81.44
446.466	83.44
446.687	84.44
446.908	77.44
447.129	76.44
447.35	81.44
447.571	85.44
447.792	62.44
448.013	76.44
448.234	65.44
448.455	72.44
448.675	76.44
448.896	86.44
449.117	80.44
449.338	65.44
449.559	70.44
449.779	68.44
450	73.44
450.221	74.44
450.442	79.44
450.662	78.44
450.883	75.44
451.104	79.44
451.324	86.44
451.545	78.44
451.766	86.44
451.986	74.44
452.207	76.44
452.428	88.44
452.648	87.44
452.869	77.44
453.089	73.44
453.31	80.44
453.53	79.44
453.751	85.44
453.971	83.44
454.192	71.44
454.412	73.44
454.633	74.44
454.853	87.44
455.073	76.44
455.294	95.44
455.514	76.44
455.734	71.44
455.955	81.44
456.175	72.44
456.395	76.44
456.616	88.44
456.836	78.44
457.056	84.44
457.276	79.44
457.497	83.44
457.717	78.44
457.937	75.44
458.157	82.44
458.377	85.44
458.598	93.44
458.818	75.44
459.038	81.44
459.258	93.44
459.478	71.44
459.698	77.44
459.918	84.44
460.138	76.44
460.358	87.44
460.578	90.44
460.798	74.44
461.018	91.44
461.238	82.44
461.458	87.44
461.678	75.44
461.898	62.44
462.118	84.44
462.338	65.44
462.558	65.44
462.777	74.44
462.997	75.44
463.217	85.44
463.437	95.44
463.657	79.44
463.876	74.44
464.096	75.44
464.316	82.44
464.536	79.44
464.755	81.44
464.975	78.44
465.195	90.44
465.414	93.44
465.634	71.44
465.854	71.44
466.073	76.44
466.293	80.44
466.512	84.44
466.732	79.44
466.951	72.44
467.171	74.44
467.391	79.44
467.61	91.44
467.829	86.44
468.049	91.44
468.268	78.44
468.488	71.44
468.707	87.44
468.927	70.44
469.146	87.44
469.365	74.44
469.585	84.44
469.804	88.44
470.023	64.44
470.243	80.44
470.462	91.44
470.681	84.44
470.901	96.44
471.12	79.44
471.339	78.44
471.558	71.44
471.777	77.44
471.997	79.44
472.216	85.44
472.435	78.44
472.654	58.44
472.873	89.44
473.092	78.44
473.311	83.44
473.53	78.44
473.749	72.44
473.968	81.44
474.187	84.44
474.406	75.44
474.625	82.44
474.844	78.44
475.063	94.44
475.282	84.44
475.501	82.44
475.72	71.44
475.939	75.44
476.158	74.44
476.377	82.44
476.596	64.44
476.814	89.44
477.033	77.44
477.252	78.44
477.471	70.44
477.69	79.44
477.908	78.44
478.127	65.44
478.346	78.44
478.564	81.44
478.783	85.44
479.002	83.44
479.22	87.44
479.439	65.44
479.658	87.44
479.876	84.44
480.095	78.44
480.313	85.44
480.532	85.44
480.751	82.44
480.969	79.44
481.188	67.44
481.406	71.44
481.624	77.44
481.843	74.44
482.061	80.44
482.28	79.44
482.498	78.44
482.717	64.44
482.935	72.44
483.153	78.44
483.372	86.44
483.59	70.44
483.808	67.44
484.027	82.44
484.245	90.44
484.463	66.44
484.681	82.44
484.9	85.44
485.118	86.44
485.336	71.44
485.554	70.44
485.772	68.44
485.99	76.44
486.209	72.44
486.427	73.44
486.645	89.44
486.863	82.44
487.081	75.44
487.299	77.44
487.517	83.44
487.735	74.44
487.953	82.44
488.171	86.44
488.389	83.44
488.607	80.44
488.825	91.44
489.043	80.44
489.261	88.44
489.479	85.44
489.696	87.44
489.914	90.44
490.132	88.44
490.35	86.44
490.568	88.44
490.786	92.44
491.003	77.44
491.221	89.44
491.439	80.44
491.657	71.44
491.874	73.44
492.092	93.44
492.31	88.44
492.527	91.44
492.745	76.44
492.963	78.44
493.18	94.44
493.398	79.44
493.615	86.44
493.833	79.44
494.05	82.44
494.268	82.44
494.485	79.44
494.703	90.44
494.92	79.44
495.138	84.44
495.355	89.44
495.573	79.44
495.79	93.44
496.008	80.44
496.225	76.44
496.442	85.44
496.66	88.44
496.877	74.44
497.094	78.44
497.312	88.44
497.529	95.44
497.746	72.44
497.963	76.44
498.181	78.44
498.398	74.44
498.615	90.44
498.832	86.44
499.049	77.44
499.267	84.44
499.484	74.44
499.701	91.44
499.918	87.44
500.135	72.44
500.352	82.44
500.569	78.44
500.786	74.44
501.003	78.44
501.22	77.44
501.437	78.44
501.654	73.44
501.871	84.44
502.088	77.44
502.305	88.44
502.522	98.44
502.739	84.44
502.956	74.44
503.172	79.44
503.389	95.44
503.606	75.44
503.823	83.44
504.04	99.44
504.256	90.44
504.473	80.44
504.69	70.44
504.907	79.44
505.123	80.44
505.34	72.44
505.557	71.44
505.773	72.44
505.99	78.44
506.207	81.44
506.423	80.44
506.64	102.44
506.856	91.44
507.073	85.44
507.289	85.44
507.506	78.44
507.722	79.44
507.939	80.44
508.155	73.44
508.372	76.44
508.588	78.44
508.805	71.44
509.021	89.44
509.238	83.44
509.454	88.44
509.67	87.44
509.887	86.44
510.103	76.44
510.319	92.44
510.536	75.44
510.752	93.44
510.968	81.44
511.184	57.44
511.401	74.44
511.617	71.44
511.833	78.44
512.049	78.44
512.265	77.44
512.481	80.44
512.698	76.44
512.914	83.44
513.13	80.44
513.346	87.44
513.562	87.44
513.778	73.44
513.994	84.44
514.21	69.44
514.426	77.44
514.642	88.44
514.858	76.44
515.074	65.44
515.29	77.44
515.506	91.44
515.721	84.44
515.937	91.44
516.153	77.44
516.369	86.44
516.585	88.44
516.801	78.44
517.016	77.44
517.232	88.44
517.448	96.44
517.664	82.44
517.879	86.44
518.095	82.44
518.311	80.44
518.527	64.44
518.742	94.44
518.958	82.44
519.173	87.44
519.389	74.44
519.605	84.44
519.82	98.44
520.036	77.44
