Data from KBr_1_HRD10591_00011.txt Node
Date: Mon Jan 19 13:11:17 EST 2026
User: Yrep
Spectrometer: HR+D1059
Trigger mode: 0
Integration Time (sec): 1.000000E-1
Scans to average: 1
Electric dark correction enabled: true
Nonlinearity correction enabled: false
Boxcar width: 0
XAxis mode: Wavelengths
Number of Pixels in Spectrum: 2048
>>>>>Begin Spectral Data<<<<<
223.165	-16.94
223.4	-16.94
223.635	-16.94
223.869	-12.94
224.104	-26.94
224.338	-26.94
224.573	-13.94
224.808	-14.94
225.042	-8.94
225.277	5.06
225.511	-0.94
225.746	-1.94
225.98	9.06
226.215	11.06
226.449	20.06
226.683	27.06
226.918	28.06
227.152	24.06
227.387	45.06
227.621	41.06
227.856	60.06
228.09	55.06
228.324	48.06
228.559	49.06
228.793	65.06
229.027	75.06
229.262	58.06
229.496	46.06
229.73	70.06
229.964	60.06
230.199	73.06
230.433	52.06
230.667	69.06
230.901	83.06
231.136	68.06
231.37	77.06
231.604	85.06
231.838	86.06
232.072	79.06
232.306	67.06
232.541	68.06
232.775	72.06
233.009	77.06
233.243	74.06
233.477	81.06
233.711	85.06
233.945	79.06
234.179	72.06
234.413	72.06
234.647	67.06
234.881	62.06
235.115	68.06
235.349	75.06
235.583	79.06
235.817	78.06
236.051	61.06
236.285	63.06
236.519	66.06
236.753	60.06
236.987	79.06
237.221	80.06
237.455	71.06
237.689	71.06
237.922	78.06
238.156	73.06
238.39	83.06
238.624	72.06
238.858	71.06
239.091	89.06
239.325	81.06
239.559	73.06
239.793	69.06
240.027	86.06
240.26	74.06
240.494	69.06
240.728	68.06
240.961	69.06
241.195	77.06
241.429	83.06
241.662	84.06
241.896	74.06
242.13	77.06
242.363	80.06
242.597	79.06
242.83	71.06
243.064	72.06
243.298	69.06
243.531	87.06
243.765	82.06
243.998	81.06
244.232	81.06
244.465	81.06
244.699	53.06
244.932	85.06
245.166	82.06
245.399	78.06
245.633	68.06
245.866	72.06
246.099	67.06
246.333	73.06
246.566	86.06
246.8	89.06
247.033	82.06
247.266	56.06
247.5	74.06
247.733	69.06
247.966	71.06
248.2	74.06
248.433	79.06
248.666	69.06
248.899	72.06
249.133	75.06
249.366	75.06
249.599	70.06
249.832	78.06
250.066	77.06
250.299	83.06
250.532	98.06
250.765	74.06
250.998	69.06
251.231	70.06
251.465	67.06
251.698	81.06
251.931	80.06
252.164	67.06
252.397	84.06
252.63	75.06
252.863	81.06
253.096	65.06
253.329	77.06
253.562	67.06
253.795	86.06
254.028	68.06
254.261	66.06
254.494	77.06
254.727	77.06
254.96	80.06
255.193	67.06
255.426	71.06
255.659	70.06
255.892	74.06
256.124	71.06
256.357	83.06
256.59	82.06
256.823	85.06
257.056	83.06
257.289	84.06
257.521	84.06
257.754	86.06
257.987	77.06
258.22	73.06
258.452	72.06
258.685	80.06
258.918	92.06
259.151	61.06
259.383	61.06
259.616	72.06
259.849	64.06
260.081	71.06
260.314	84.06
260.547	68.06
260.779	73.06
261.012	68.06
261.244	77.06
261.477	93.06
261.71	85.06
261.942	85.06
262.175	79.06
262.407	78.06
262.64	73.06
262.872	70.06
263.105	90.06
263.337	81.06
263.57	79.06
263.802	78.06
264.035	73.06
264.267	81.06
264.499	82.06
264.732	86.06
264.964	89.06
265.197	83.06
265.429	77.06
265.661	67.06
265.894	79.06
266.126	94.06
266.358	86.06
266.591	84.06
266.823	78.06
267.055	92.06
267.287	85.06
267.52	81.06
267.752	91.06
267.984	79.06
268.216	76.06
268.448	92.06
268.681	85.06
268.913	79.06
269.145	81.06
269.377	77.06
269.609	79.06
269.841	86.06
270.073	70.06
270.306	83.06
270.538	84.06
270.77	71.06
271.002	64.06
271.234	80.06
271.466	71.06
271.698	81.06
271.93	82.06
272.162	93.06
272.394	76.06
272.626	60.06
272.858	73.06
273.09	100.06
273.322	88.06
273.553	84.06
273.785	74.06
274.017	75.06
274.249	79.06
274.481	75.06
274.713	79.06
274.945	83.06
275.176	74.06
275.408	72.06
275.64	67.06
275.872	78.06
276.104	90.06
276.335	94.06
276.567	82.06
276.799	85.06
277.031	78.06
277.262	82.06
277.494	74.06
277.726	87.06
277.957	83.06
278.189	80.06
278.421	81.06
278.652	95.06
278.884	102.06
279.115	88.06
279.347	69.06
279.579	85.06
279.81	81.06
280.042	74.06
280.273	79.06
280.505	76.06
280.736	65.06
280.968	78.06
281.199	84.06
281.431	80.06
281.662	79.06
281.894	86.06
282.125	74.06
282.356	70.06
282.588	88.06
282.819	75.06
283.051	75.06
283.282	83.06
283.513	81.06
283.745	90.06
283.976	81.06
284.207	77.06
284.439	85.06
284.67	67.06
284.901	82.06
285.132	82.06
285.364	74.06
285.595	77.06
285.826	73.06
286.057	81.06
286.288	77.06
286.52	76.06
286.751	85.06
286.982	72.06
287.213	88.06
287.444	67.06
287.675	67.06
287.906	72.06
288.138	76.06
288.369	79.06
288.6	70.06
288.831	79.06
289.062	73.06
289.293	82.06
289.524	81.06
289.755	77.06
289.986	87.06
290.217	81.06
290.448	66.06
290.679	77.06
290.91	85.06
291.141	77.06
291.371	82.06
291.602	76.06
291.833	73.06
292.064	90.06
292.295	91.06
292.526	86.06
292.757	87.06
292.987	81.06
293.218	81.06
293.449	83.06
293.68	77.06
293.91	80.06
294.141	79.06
294.372	75.06
294.603	78.06
294.833	78.06
295.064	87.06
295.295	69.06
295.525	80.06
295.756	84.06
295.987	82.06
296.217	81.06
296.448	75.06
296.679	77.06
296.909	70.06
297.14	82.06
297.37	80.06
297.601	93.06
297.831	80.06
298.062	79.06
298.292	83.06
298.523	87.06
298.753	88.06
298.984	98.06
299.214	90.06
299.445	81.06
299.675	82.06
299.905	81.06
300.136	74.06
300.366	81.06
300.597	90.06
300.827	92.06
301.057	99.06
301.288	82.06
301.518	72.06
301.748	87.06
301.979	79.06
302.209	87.06
302.439	83.06
302.669	73.06
302.9	76.06
303.13	81.06
303.36	88.06
303.59	93.06
303.82	70.06
304.051	73.06
304.281	87.06
304.511	89.06
304.741	72.06
304.971	89.06
305.201	78.06
305.431	73.06
305.661	75.06
305.891	72.06
306.121	78.06
306.352	62.06
306.582	70.06
306.812	75.06
307.042	77.06
307.272	81.06
307.502	82.06
307.731	91.06
307.961	80.06
308.191	66.06
308.421	78.06
308.651	82.06
308.881	73.06
309.111	69.06
309.341	73.06
309.571	83.06
309.8	85.06
310.03	106.06
310.26	75.06
310.49	80.06
310.72	79.06
310.949	84.06
311.179	94.06
311.409	85.06
311.639	81.06
311.868	75.06
312.098	88.06
312.328	92.06
312.557	80.06
312.787	74.06
313.017	78.06
313.246	74.06
313.476	85.06
313.706	81.06
313.935	78.06
314.165	86.06
314.394	84.06
314.624	85.06
314.853	80.06
315.083	82.06
315.312	76.06
315.542	82.06
315.771	79.06
316.001	70.06
316.23	73.06
316.46	78.06
316.689	86.06
316.919	83.06
317.148	87.06
317.377	76.06
317.607	83.06
317.836	77.06
318.065	72.06
318.295	76.06
318.524	70.06
318.753	74.06
318.983	89.06
319.212	87.06
319.441	79.06
319.67	84.06
319.9	83.06
320.129	73.06
320.358	86.06
320.587	77.06
320.816	84.06
321.046	78.06
321.275	99.06
321.504	82.06
321.733	87.06
321.962	84.06
322.191	65.06
322.42	87.06
322.649	82.06
322.878	79.06
323.108	87.06
323.337	81.06
323.566	76.06
323.795	98.06
324.024	87.06
324.253	81.06
324.482	92.06
324.71	78.06
324.939	79.06
325.168	74.06
325.397	63.06
325.626	80.06
325.855	91.06
326.084	66.06
326.313	71.06
326.542	84.06
326.77	92.06
326.999	82.06
327.228	90.06
327.457	89.06
327.686	75.06
327.914	89.06
328.143	70.06
328.372	81.06
328.6	75.06
328.829	88.06
329.058	77.06
329.287	83.06
329.515	85.06
329.744	78.06
329.972	84.06
330.201	76.06
330.43	74.06
330.658	74.06
330.887	73.06
331.115	90.06
331.344	79.06
331.572	81.06
331.801	81.06
332.03	89.06
332.258	82.06
332.486	64.06
332.715	80.06
332.943	79.06
333.172	75.06
333.4	84.06
333.629	91.06
333.857	75.06
334.085	86.06
334.314	92.06
334.542	83.06
334.771	81.06
334.999	72.06
335.227	85.06
335.455	89.06
335.684	69.06
335.912	94.06
336.14	83.06
336.369	85.06
336.597	77.06
336.825	79.06
337.053	89.06
337.281	72.06
337.51	64.06
337.738	76.06
337.966	79.06
338.194	88.06
338.422	90.06
338.65	80.06
338.878	64.06
339.106	84.06
339.334	82.06
339.562	89.06
339.79	79.06
340.018	84.06
340.246	79.06
340.474	76.06
340.702	71.06
340.93	86.06
341.158	74.06
341.386	79.06
341.614	85.06
341.842	84.06
342.07	73.06
342.298	74.06
342.526	81.06
342.754	85.06
342.981	78.06
343.209	75.06
343.437	83.06
343.665	91.06
343.893	80.06
344.12	86.06
344.348	91.06
344.576	88.06
344.804	62.06
345.031	82.06
345.259	81.06
345.487	82.06
345.714	81.06
345.942	83.06
346.17	81.06
346.397	87.06
346.625	90.06
346.853	87.06
347.08	67.06
347.308	86.06
347.535	85.06
347.763	74.06
347.99	75.06
348.218	79.06
348.445	91.06
348.673	84.06
348.9	84.06
349.128	82.06
349.355	86.06
349.583	78.06
349.81	73.06
350.037	89.06
350.265	88.06
350.492	74.06
350.72	82.06
350.947	68.06
351.174	76.06
351.402	87.06
351.629	93.06
351.856	84.06
352.083	81.06
352.311	73.06
352.538	86.06
352.765	71.06
352.992	84.06
353.22	76.06
353.447	86.06
353.674	77.06
353.901	73.06
354.128	62.06
354.355	79.06
354.583	81.06
354.81	85.06
355.037	86.06
355.264	81.06
355.491	81.06
355.718	76.06
355.945	85.06
356.172	77.06
356.399	82.06
356.626	90.06
356.853	79.06
357.08	84.06
357.307	80.06
357.534	89.06
357.761	75.06
357.988	75.06
358.215	63.06
358.441	84.06
358.668	83.06
358.895	72.06
359.122	74.06
359.349	74.06
359.576	78.06
359.802	78.06
360.029	78.06
360.256	78.06
360.483	89.06
360.709	91.06
360.936	81.06
361.163	75.06
361.39	83.06
361.616	77.06
361.843	83.06
362.07	75.06
362.296	83.06
362.523	77.06
362.749	88.06
362.976	83.06
363.203	81.06
363.429	84.06
363.656	75.06
363.882	63.06
364.109	66.06
364.335	77.06
364.562	84.06
364.788	102.06
365.015	77.06
365.241	82.06
365.468	89.06
365.694	100.06
365.92	65.06
366.147	66.06
366.373	81.06
366.599	83.06
366.826	70.06
367.052	78.06
367.278	75.06
367.505	87.06
367.731	84.06
367.957	72.06
368.184	81.06
368.41	74.06
368.636	79.06
368.862	88.06
369.089	71.06
369.315	78.06
369.541	82.06
369.767	83.06
369.993	72.06
370.219	78.06
370.445	78.06
370.672	76.06
370.898	77.06
371.124	85.06
371.35	75.06
371.576	87.06
371.802	73.06
372.028	71.06
372.254	85.06
372.48	94.06
372.706	84.06
372.932	76.06
373.158	84.06
373.384	71.06
373.61	73.06
373.835	86.06
374.061	63.06
374.287	83.06
374.513	71.06
374.739	78.06
374.965	83.06
375.191	81.06
375.416	78.06
375.642	80.06
375.868	72.06
376.094	71.06
376.319	83.06
376.545	77.06
376.771	82.06
376.997	86.06
377.222	95.06
377.448	81.06
377.674	77.06
377.899	90.06
378.125	76.06
378.35	90.06
378.576	86.06
378.802	79.06
379.027	81.06
379.253	77.06
379.478	85.06
379.704	94.06
379.929	77.06
380.155	80.06
380.38	85.06
380.606	90.06
380.831	78.06
381.057	91.06
381.282	79.06
381.507	83.06
381.733	89.06
381.958	89.06
382.184	89.06
382.409	77.06
382.634	82.06
382.86	75.06
383.085	97.06
383.31	80.06
383.535	71.06
383.761	75.06
383.986	89.06
384.211	76.06
384.436	84.06
384.662	66.06
384.887	85.06
385.112	90.06
385.337	88.06
385.562	76.06
385.787	74.06
386.013	74.06
386.238	83.06
386.463	82.06
386.688	88.06
386.913	68.06
387.138	69.06
387.363	79.06
387.588	78.06
387.813	58.06
388.038	71.06
388.263	76.06
388.488	82.06
388.713	84.06
388.938	81.06
389.163	89.06
389.387	90.06
389.612	75.06
389.837	75.06
390.062	70.06
390.287	73.06
390.512	64.06
390.736	90.06
390.961	72.06
391.186	67.06
391.411	87.06
391.636	82.06
391.86	78.06
392.085	78.06
392.31	82.06
392.534	65.06
392.759	84.06
392.984	76.06
393.208	77.06
393.433	63.06
393.658	88.06
393.882	66.06
394.107	63.06
394.331	82.06
394.556	76.06
394.78	75.06
395.005	89.06
395.229	88.06
395.454	89.06
395.678	81.06
395.903	81.06
396.127	69.06
396.352	74.06
396.576	63.06
396.801	82.06
397.025	87.06
397.249	78.06
397.474	84.06
397.698	85.06
397.922	75.06
398.147	68.06
398.371	81.06
398.595	91.06
398.82	77.06
399.044	81.06
399.268	71.06
399.492	88.06
399.717	79.06
399.941	79.06
400.165	81.06
400.389	90.06
400.613	77.06
400.837	75.06
401.062	86.06
401.286	73.06
401.51	79.06
401.734	78.06
401.958	71.06
402.182	90.06
402.406	61.06
402.63	80.06
402.854	83.06
403.078	87.06
403.302	74.06
403.526	59.06
403.75	83.06
403.974	81.06
404.198	68.06
404.422	72.06
404.645	89.06
404.869	78.06
405.093	65.06
405.317	71.06
405.541	69.06
405.765	89.06
405.988	73.06
406.212	70.06
406.436	78.06
406.66	72.06
406.883	73.06
407.107	81.06
407.331	81.06
407.555	84.06
407.778	93.06
408.002	85.06
408.226	94.06
408.449	90.06
408.673	78.06
408.896	70.06
409.12	81.06
409.344	86.06
409.567	91.06
409.791	74.06
410.014	86.06
410.238	85.06
410.461	66.06
410.685	58.06
410.908	97.06
411.132	63.06
411.355	69.06
411.578	76.06
411.802	82.06
412.025	79.06
412.249	70.06
412.472	81.06
412.695	83.06
412.919	75.06
413.142	85.06
413.365	69.06
413.589	82.06
413.812	82.06
414.035	85.06
414.258	86.06
414.482	72.06
414.705	73.06
414.928	80.06
415.151	78.06
415.374	75.06
415.597	65.06
415.821	77.06
416.044	78.06
416.267	86.06
416.49	84.06
416.713	78.06
416.936	81.06
417.159	66.06
417.382	88.06
417.605	91.06
417.828	72.06
418.051	55.06
418.274	78.06
418.497	83.06
418.72	78.06
418.943	90.06
419.166	81.06
419.389	73.06
419.611	74.06
419.834	72.06
420.057	94.06
420.28	78.06
420.503	81.06
420.726	61.06
420.948	72.06
421.171	90.06
421.394	69.06
421.617	79.06
421.839	83.06
422.062	81.06
422.285	88.06
422.507	83.06
422.73	81.06
422.953	73.06
423.175	81.06
423.398	97.06
423.621	85.06
423.843	77.06
424.066	87.06
424.288	76.06
424.511	66.06
424.733	89.06
424.956	82.06
425.178	76.06
425.401	91.06
425.623	94.06
425.846	66.06
426.068	71.06
426.291	86.06
426.513	83.06
426.735	70.06
426.958	75.06
427.18	81.06
427.402	79.06
427.625	82.06
427.847	79.06
428.069	77.06
428.292	68.06
428.514	83.06
428.736	89.06
428.958	77.06
429.181	74.06
429.403	75.06
429.625	63.06
429.847	84.06
430.069	89.06
430.292	83.06
430.514	67.06
430.736	76.06
430.958	63.06
431.18	93.06
431.402	77.06
431.624	70.06
431.846	80.06
432.068	76.06
432.29	70.06
432.512	70.06
432.734	82.06
432.956	81.06
433.178	88.06
433.4	77.06
433.622	86.06
433.844	83.06
434.066	72.06
434.287	73.06
434.509	72.06
434.731	59.06
434.953	79.06
435.175	74.06
435.397	83.06
435.618	82.06
435.84	89.06
436.062	81.06
436.284	69.06
436.505	89.06
436.727	86.06
436.949	69.06
437.17	63.06
437.392	70.06
437.614	79.06
437.835	72.06
438.057	89.06
438.278	81.06
438.5	61.06
438.721	65.06
438.943	87.06
439.165	73.06
439.386	78.06
439.608	54.06
439.829	63.06
440.05	65.06
440.272	82.06
440.493	72.06
440.715	76.06
440.936	80.06
441.158	79.06
441.379	83.06
441.6	79.06
441.822	90.06
442.043	66.06
442.264	83.06
442.486	82.06
442.707	84.06
442.928	77.06
443.149	83.06
443.371	84.06
443.592	76.06
443.813	95.06
444.034	75.06
444.255	86.06
444.476	89.06
444.698	74.06
444.919	80.06
445.14	151.06
445.361	113.06
445.582	71.06
445.803	74.06
446.024	78.06
446.245	77.06
446.466	73.06
446.687	85.06
446.908	97.06
447.129	88.06
447.35	75.06
447.571	93.06
447.792	76.06
448.013	87.06
448.234	82.06
448.455	75.06
448.675	84.06
448.896	80.06
449.117	64.06
449.338	70.06
449.559	79.06
449.779	78.06
450	81.06
450.221	75.06
450.442	83.06
450.662	85.06
450.883	76.06
451.104	81.06
451.324	81.06
451.545	77.06
451.766	93.06
451.986	77.06
452.207	81.06
452.428	77.06
452.648	77.06
452.869	87.06
453.089	73.06
453.31	74.06
453.53	75.06
453.751	88.06
453.971	78.06
454.192	79.06
454.412	84.06
454.633	83.06
454.853	94.06
455.073	96.06
455.294	73.06
455.514	73.06
455.734	74.06
455.955	84.06
456.175	72.06
456.395	75.06
456.616	86.06
456.836	69.06
457.056	85.06
457.276	90.06
457.497	74.06
457.717	87.06
457.937	89.06
458.157	78.06
458.377	85.06
458.598	77.06
458.818	76.06
459.038	85.06
459.258	99.06
459.478	69.06
459.698	91.06
459.918	74.06
460.138	86.06
460.358	88.06
460.578	71.06
460.798	86.06
461.018	80.06
461.238	69.06
461.458	89.06
461.678	78.06
461.898	73.06
462.118	77.06
462.338	79.06
462.558	86.06
462.777	77.06
462.997	84.06
463.217	72.06
463.437	82.06
463.657	69.06
463.876	93.06
464.096	74.06
464.316	85.06
464.536	85.06
464.755	76.06
464.975	90.06
465.195	78.06
465.414	82.06
465.634	77.06
465.854	73.06
466.073	71.06
466.293	61.06
466.512	69.06
466.732	77.06
466.951	78.06
467.171	71.06
467.391	76.06
467.61	81.06
467.829	82.06
468.049	76.06
468.268	81.06
468.488	75.06
468.707	74.06
468.927	80.06
469.146	87.06
469.365	75.06
469.585	77.06
469.804	78.06
470.023	75.06
470.243	82.06
470.462	80.06
470.681	64.06
470.901	75.06
471.12	89.06
471.339	90.06
471.558	84.06
471.777	85.06
471.997	76.06
472.216	70.06
472.435	75.06
472.654	72.06
472.873	79.06
473.092	83.06
473.311	61.06
473.53	78.06
473.749	78.06
473.968	75.06
474.187	78.06
474.406	82.06
474.625	81.06
474.844	89.06
475.063	70.06
475.282	63.06
475.501	85.06
475.72	90.06
475.939	90.06
476.158	75.06
476.377	64.06
476.596	69.06
476.814	67.06
477.033	79.06
477.252	94.06
477.471	79.06
477.69	73.06
477.908	71.06
478.127	77.06
478.346	77.06
478.564	85.06
478.783	81.06
479.002	79.06
479.22	75.06
479.439	92.06
479.658	78.06
479.876	65.06
480.095	78.06
480.313	81.06
480.532	85.06
480.751	74.06
480.969	86.06
481.188	94.06
481.406	77.06
481.624	74.06
481.843	76.06
482.061	74.06
482.28	70.06
482.498	77.06
482.717	77.06
482.935	72.06
483.153	83.06
483.372	79.06
483.59	92.06
483.808	78.06
484.027	88.06
484.245	87.06
484.463	80.06
484.681	85.06
484.9	73.06
485.118	85.06
485.336	74.06
485.554	73.06
485.772	82.06
485.99	87.06
486.209	76.06
486.427	92.06
486.645	75.06
486.863	82.06
487.081	80.06
487.299	59.06
487.517	88.06
487.735	97.06
487.953	86.06
488.171	86.06
488.389	86.06
488.607	80.06
488.825	79.06
489.043	80.06
489.261	84.06
489.479	79.06
489.696	74.06
489.914	86.06
490.132	73.06
490.35	87.06
490.568	84.06
490.786	85.06
491.003	70.06
491.221	72.06
491.439	74.06
491.657	78.06
491.874	68.06
492.092	87.06
492.31	74.06
492.527	86.06
492.745	69.06
492.963	76.06
493.18	62.06
493.398	77.06
493.615	77.06
493.833	88.06
494.05	83.06
494.268	83.06
494.485	84.06
494.703	77.06
494.92	80.06
495.138	83.06
495.355	89.06
495.573	77.06
495.79	91.06
496.008	79.06
496.225	82.06
496.442	82.06
496.66	84.06
496.877	66.06
497.094	91.06
497.312	72.06
497.529	62.06
497.746	85.06
497.963	81.06
498.181	78.06
498.398	77.06
498.615	78.06
498.832	77.06
499.049	82.06
499.267	67.06
499.484	67.06
499.701	74.06
499.918	91.06
500.135	76.06
500.352	71.06
500.569	76.06
500.786	92.06
501.003	69.06
501.22	86.06
501.437	87.06
501.654	78.06
501.871	73.06
502.088	83.06
502.305	72.06
502.522	105.06
502.739	85.06
502.956	80.06
503.172	89.06
503.389	78.06
503.606	79.06
503.823	94.06
504.04	90.06
504.256	78.06
504.473	70.06
504.69	81.06
504.907	73.06
505.123	77.06
505.34	73.06
505.557	86.06
505.773	88.06
505.99	87.06
506.207	71.06
506.423	92.06
506.64	75.06
506.856	83.06
507.073	63.06
507.289	83.06
507.506	85.06
507.722	72.06
507.939	84.06
508.155	92.06
508.372	76.06
508.588	88.06
508.805	78.06
509.021	81.06
509.238	79.06
509.454	75.06
509.67	77.06
509.887	70.06
510.103	81.06
510.319	69.06
510.536	66.06
510.752	75.06
510.968	75.06
511.184	83.06
511.401	78.06
511.617	81.06
511.833	79.06
512.049	70.06
512.265	81.06
512.481	97.06
512.698	63.06
512.914	66.06
513.13	84.06
513.346	77.06
513.562	85.06
513.778	86.06
513.994	84.06
514.21	70.06
514.426	65.06
514.642	70.06
514.858	69.06
515.074	80.06
515.29	94.06
515.506	79.06
515.721	79.06
515.937	97.06
516.153	77.06
516.369	81.06
516.585	86.06
516.801	75.06
517.016	78.06
517.232	87.06
517.448	75.06
517.664	91.06
517.879	90.06
518.095	83.06
518.311	90.06
518.527	89.06
518.742	75.06
518.958	81.06
519.173	74.06
519.389	86.06
519.605	72.06
519.82	89.06
520.036	84.06
520.251	94.06
