Data from KBr_1_HRD10591_00028.txt Node
Date: Mon Jan 19 13:11:19 EST 2026
User: Yrep
Spectrometer: HR+D1059
Trigger mode: 0
Integration Time (sec): 1.000000E-1
Scans to average: 1
Electric dark correction enabled: true
Nonlinearity correction enabled: false
Boxcar width: 0
XAxis mode: Wavelengths
Number of Pixels in Spectrum: 2048
>>>>>Begin Spectral Data<<<<<
223.165	-17.19
223.4	-17.19
223.635	-17.19
223.869	-13.19
224.104	-26.19
224.338	-17.19
224.573	-13.19
224.808	-19.19
225.042	-5.19
225.277	-9.19
225.511	0.81
225.746	-3.19
225.98	9.81
226.215	19.81
226.449	7.81
226.683	20.81
226.918	28.81
227.152	35.81
227.387	41.81
227.621	35.81
227.856	46.81
228.09	49.81
228.324	54.81
228.559	65.81
228.793	67.81
229.027	63.81
229.262	74.81
229.496	78.81
229.73	78.81
229.964	81.81
230.199	80.81
230.433	61.81
230.667	81.81
230.901	84.81
231.136	78.81
231.37	83.81
231.604	78.81
231.838	85.81
232.072	96.81
232.306	91.81
232.541	79.81
232.775	86.81
233.009	90.81
233.243	100.81
233.477	86.81
233.711	86.81
233.945	78.81
234.179	86.81
234.413	101.81
234.647	79.81
234.881	92.81
235.115	86.81
235.349	78.81
235.583	101.81
235.817	95.81
236.051	95.81
236.285	86.81
236.519	85.81
236.753	77.81
236.987	93.81
237.221	77.81
237.455	92.81
237.689	94.81
237.922	93.81
238.156	88.81
238.39	97.81
238.624	87.81
238.858	89.81
239.091	99.81
239.325	87.81
239.559	95.81
239.793	93.81
240.027	88.81
240.26	89.81
240.494	84.81
240.728	87.81
240.961	97.81
241.195	82.81
241.429	85.81
241.662	81.81
241.896	78.81
242.13	81.81
242.363	84.81
242.597	82.81
242.83	101.81
243.064	99.81
243.298	91.81
243.531	87.81
243.765	81.81
243.998	98.81
244.232	103.81
244.465	99.81
244.699	97.81
244.932	82.81
245.166	85.81
245.399	80.81
245.633	85.81
245.866	101.81
246.099	77.81
246.333	116.81
246.566	89.81
246.8	76.81
247.033	98.81
247.266	105.81
247.5	85.81
247.733	93.81
247.966	78.81
248.2	94.81
248.433	89.81
248.666	91.81
248.899	101.81
249.133	88.81
249.366	97.81
249.599	103.81
249.832	103.81
250.066	88.81
250.299	101.81
250.532	95.81
250.765	101.81
250.998	105.81
251.231	107.81
251.465	92.81
251.698	99.81
251.931	95.81
252.164	104.81
252.397	106.81
252.63	92.81
252.863	99.81
253.096	112.81
253.329	123.81
253.562	98.81
253.795	111.81
254.028	101.81
254.261	112.81
254.494	110.81
254.727	97.81
254.96	106.81
255.193	106.81
255.426	107.81
255.659	99.81
255.892	106.81
256.124	107.81
256.357	132.81
256.59	112.81
256.823	101.81
257.056	110.81
257.289	107.81
257.521	118.81
257.754	112.81
257.987	123.81
258.22	120.81
258.452	105.81
258.685	108.81
258.918	114.81
259.151	117.81
259.383	117.81
259.616	116.81
259.849	103.81
260.081	118.81
260.314	128.81
260.547	127.81
260.779	127.81
261.012	101.81
261.244	126.81
261.477	124.81
261.71	115.81
261.942	115.81
262.175	111.81
262.407	117.81
262.64	123.81
262.872	120.81
263.105	112.81
263.337	117.81
263.57	117.81
263.802	132.81
264.035	122.81
264.267	106.81
264.499	118.81
264.732	122.81
264.964	124.81
265.197	111.81
265.429	110.81
265.661	131.81
265.894	127.81
266.126	115.81
266.358	123.81
266.591	133.81
266.823	112.81
267.055	122.81
267.287	123.81
267.52	110.81
267.752	126.81
267.984	127.81
268.216	133.81
268.448	140.81
268.681	131.81
268.913	127.81
269.145	129.81
269.377	127.81
269.609	138.81
269.841	123.81
270.073	122.81
270.306	117.81
270.538	124.81
270.77	127.81
271.002	130.81
271.234	147.81
271.466	136.81
271.698	132.81
271.93	131.81
272.162	131.81
272.394	126.81
272.626	137.81
272.858	136.81
273.09	132.81
273.322	126.81
273.553	144.81
273.785	121.81
274.017	131.81
274.249	147.81
274.481	134.81
274.713	140.81
274.945	141.81
275.176	138.81
275.408	135.81
275.64	140.81
275.872	138.81
276.104	142.81
276.335	135.81
276.567	132.81
276.799	138.81
277.031	139.81
277.262	164.81
277.494	151.81
277.726	143.81
277.957	145.81
278.189	130.81
278.421	150.81
278.652	146.81
278.884	130.81
279.115	123.81
279.347	147.81
279.579	139.81
279.81	162.81
280.042	145.81
280.273	157.81
280.505	154.81
280.736	140.81
280.968	140.81
281.199	155.81
281.431	147.81
281.662	154.81
281.894	152.81
282.125	166.81
282.356	148.81
282.588	147.81
282.819	152.81
283.051	150.81
283.282	148.81
283.513	147.81
283.745	151.81
283.976	144.81
284.207	155.81
284.439	145.81
284.67	156.81
284.901	152.81
285.132	146.81
285.364	180.81
285.595	153.81
285.826	143.81
286.057	153.81
286.288	153.81
286.52	145.81
286.751	172.81
286.982	151.81
287.213	149.81
287.444	162.81
287.675	158.81
287.906	172.81
288.138	163.81
288.369	169.81
288.6	172.81
288.831	154.81
289.062	170.81
289.293	164.81
289.524	161.81
289.755	151.81
289.986	152.81
290.217	156.81
290.448	171.81
290.679	178.81
290.91	182.81
291.141	182.81
291.371	162.81
291.602	184.81
291.833	148.81
292.064	177.81
292.295	186.81
292.526	173.81
292.757	175.81
292.987	165.81
293.218	173.81
293.449	165.81
293.68	177.81
293.91	180.81
294.141	164.81
294.372	158.81
294.603	165.81
294.833	163.81
295.064	174.81
295.295	157.81
295.525	167.81
295.756	175.81
295.987	167.81
296.217	169.81
296.448	169.81
296.679	170.81
296.909	169.81
297.14	178.81
297.37	174.81
297.601	173.81
297.831	186.81
298.062	165.81
298.292	179.81
298.523	177.81
298.753	170.81
298.984	180.81
299.214	186.81
299.445	188.81
299.675	185.81
299.905	178.81
300.136	172.81
300.366	180.81
300.597	171.81
300.827	186.81
301.057	182.81
301.288	187.81
301.518	187.81
301.748	196.81
301.979	203.81
302.209	189.81
302.439	186.81
302.669	192.81
302.9	181.81
303.13	188.81
303.36	205.81
303.59	179.81
303.82	198.81
304.051	208.81
304.281	194.81
304.511	207.81
304.741	181.81
304.971	186.81
305.201	186.81
305.431	177.81
305.661	179.81
305.891	181.81
306.121	186.81
306.352	196.81
306.582	195.81
306.812	201.81
307.042	191.81
307.272	182.81
307.502	210.81
307.731	192.81
307.961	201.81
308.191	191.81
308.421	201.81
308.651	199.81
308.881	202.81
309.111	201.81
309.341	201.81
309.571	201.81
309.8	197.81
310.03	191.81
310.26	209.81
310.49	186.81
310.72	205.81
310.949	203.81
311.179	215.81
311.409	199.81
311.639	214.81
311.868	194.81
312.098	186.81
312.328	185.81
312.557	204.81
312.787	195.81
313.017	211.81
313.246	196.81
313.476	203.81
313.706	201.81
313.935	214.81
314.165	211.81
314.394	204.81
314.624	199.81
314.853	220.81
315.083	208.81
315.312	208.81
315.542	213.81
315.771	213.81
316.001	201.81
316.23	212.81
316.46	217.81
316.689	205.81
316.919	196.81
317.148	204.81
317.377	204.81
317.607	229.81
317.836	216.81
318.065	204.81
318.295	204.81
318.524	216.81
318.753	206.81
318.983	218.81
319.212	206.81
319.441	207.81
319.67	224.81
319.9	221.81
320.129	222.81
320.358	229.81
320.587	212.81
320.816	213.81
321.046	208.81
321.275	231.81
321.504	201.81
321.733	210.81
321.962	214.81
322.191	209.81
322.42	214.81
322.649	219.81
322.878	220.81
323.108	222.81
323.337	219.81
323.566	217.81
323.795	217.81
324.024	221.81
324.253	211.81
324.482	219.81
324.71	229.81
324.939	210.81
325.168	228.81
325.397	212.81
325.626	197.81
325.855	222.81
326.084	221.81
326.313	228.81
326.542	226.81
326.77	233.81
326.999	231.81
327.228	209.81
327.457	211.81
327.686	236.81
327.914	234.81
328.143	242.81
328.372	224.81
328.6	215.81
328.829	234.81
329.058	256.81
329.287	247.81
329.515	232.81
329.744	245.81
329.972	260.81
330.201	249.81
330.43	260.81
330.658	255.81
330.887	247.81
331.115	225.81
331.344	241.81
331.572	240.81
331.801	244.81
332.03	263.81
332.258	256.81
332.486	244.81
332.715	251.81
332.943	245.81
333.172	266.81
333.4	259.81
333.629	273.81
333.857	278.81
334.085	266.81
334.314	284.81
334.542	263.81
334.771	281.81
334.999	266.81
335.227	247.81
335.455	281.81
335.684	264.81
335.912	271.81
336.14	265.81
336.369	283.81
336.597	283.81
336.825	277.81
337.053	262.81
337.281	270.81
337.51	283.81
337.738	283.81
337.966	267.81
338.194	260.81
338.422	251.81
338.65	269.81
338.878	259.81
339.106	270.81
339.334	250.81
339.562	281.81
339.79	281.81
340.018	269.81
340.246	261.81
340.474	276.81
340.702	259.81
340.93	252.81
341.158	249.81
341.386	255.81
341.614	246.81
341.842	261.81
342.07	252.81
342.298	251.81
342.526	267.81
342.754	260.81
342.981	263.81
343.209	253.81
343.437	273.81
343.665	257.81
343.893	265.81
344.12	283.81
344.348	296.81
344.576	289.81
344.804	283.81
345.031	275.81
345.259	246.81
345.487	259.81
345.714	253.81
345.942	242.81
346.17	240.81
346.397	246.81
346.625	255.81
346.853	248.81
347.08	246.81
347.308	256.81
347.535	235.81
347.763	231.81
347.99	244.81
348.218	245.81
348.445	251.81
348.673	223.81
348.9	235.81
349.128	260.81
349.355	239.81
349.583	234.81
349.81	244.81
350.037	231.81
350.265	241.81
350.492	241.81
350.72	246.81
350.947	249.81
351.174	237.81
351.402	229.81
351.629	241.81
351.856	243.81
352.083	243.81
352.311	242.81
352.538	249.81
352.765	242.81
352.992	253.81
353.22	225.81
353.447	242.81
353.674	250.81
353.901	231.81
354.128	243.81
354.355	246.81
354.583	230.81
354.81	246.81
355.037	239.81
355.264	250.81
355.491	247.81
355.718	233.81
355.945	237.81
356.172	238.81
356.399	243.81
356.626	250.81
356.853	237.81
357.08	240.81
357.307	248.81
357.534	245.81
357.761	237.81
357.988	245.81
358.215	253.81
358.441	254.81
358.668	236.81
358.895	261.81
359.122	253.81
359.349	243.81
359.576	252.81
359.802	249.81
360.029	242.81
360.256	242.81
360.483	254.81
360.709	236.81
360.936	257.81
361.163	235.81
361.39	235.81
361.616	235.81
361.843	247.81
362.07	243.81
362.296	248.81
362.523	272.81
362.749	238.81
362.976	243.81
363.203	245.81
363.429	255.81
363.656	254.81
363.882	259.81
364.109	231.81
364.335	244.81
364.562	252.81
364.788	250.81
365.015	259.81
365.241	244.81
365.468	237.81
365.694	232.81
365.92	252.81
366.147	238.81
366.373	237.81
366.599	249.81
366.826	235.81
367.052	252.81
367.278	255.81
367.505	245.81
367.731	255.81
367.957	257.81
368.184	235.81
368.41	247.81
368.636	250.81
368.862	262.81
369.089	248.81
369.315	244.81
369.541	237.81
369.767	250.81
369.993	268.81
370.219	250.81
370.445	254.81
370.672	253.81
370.898	253.81
371.124	270.81
371.35	262.81
371.576	247.81
371.802	266.81
372.028	271.81
372.254	249.81
372.48	262.81
372.706	253.81
372.932	278.81
373.158	258.81
373.384	263.81
373.61	275.81
373.835	262.81
374.061	268.81
374.287	257.81
374.513	267.81
374.739	272.81
374.965	274.81
375.191	278.81
375.416	271.81
375.642	257.81
375.868	258.81
376.094	254.81
376.319	289.81
376.545	284.81
376.771	260.81
376.997	273.81
377.222	255.81
377.448	261.81
377.674	267.81
377.899	268.81
378.125	247.81
378.35	261.81
378.576	259.81
378.802	271.81
379.027	262.81
379.253	265.81
379.478	253.81
379.704	261.81
379.929	261.81
380.155	275.81
380.38	274.81
380.606	261.81
380.831	267.81
381.057	262.81
381.282	272.81
381.507	281.81
381.733	268.81
381.958	275.81
382.184	268.81
382.409	264.81
382.634	260.81
382.86	277.81
383.085	280.81
383.31	277.81
383.535	275.81
383.761	279.81
383.986	297.81
384.211	278.81
384.436	280.81
384.662	290.81
384.887	275.81
385.112	293.81
385.337	291.81
385.562	301.81
385.787	310.81
386.013	313.81
386.238	326.81
386.463	290.81
386.688	301.81
386.913	306.81
387.138	286.81
387.363	308.81
387.588	303.81
387.813	299.81
388.038	304.81
388.263	304.81
388.488	308.81
388.713	314.81
388.938	293.81
389.163	290.81
389.387	325.81
389.612	312.81
389.837	323.81
390.062	327.81
390.287	314.81
390.512	299.81
390.736	317.81
390.961	319.81
391.186	308.81
391.411	323.81
391.636	327.81
391.86	329.81
392.085	316.81
392.31	303.81
392.534	320.81
392.759	328.81
392.984	313.81
393.208	312.81
393.433	338.81
393.658	342.81
393.882	334.81
394.107	329.81
394.331	325.81
394.556	333.81
394.78	338.81
395.005	339.81
395.229	318.81
395.454	336.81
395.678	344.81
395.903	338.81
396.127	351.81
396.352	330.81
396.576	326.81
396.801	342.81
397.025	342.81
397.249	351.81
397.474	340.81
397.698	335.81
397.922	350.81
398.147	348.81
398.371	358.81
398.595	371.81
398.82	356.81
399.044	364.81
399.268	382.81
399.492	399.81
399.717	414.81
399.941	419.81
400.165	406.81
400.389	410.81
400.613	385.81
400.837	390.81
401.062	371.81
401.286	375.81
401.51	369.81
401.734	362.81
401.958	346.81
402.182	353.81
402.406	374.81
402.63	375.81
402.854	372.81
403.078	385.81
403.302	370.81
403.526	381.81
403.75	397.81
403.974	451.81
404.198	545.81
404.422	778.81
404.645	963.81
404.869	809.81
405.093	606.81
405.317	459.81
405.541	408.81
405.765	411.81
405.988	400.81
406.212	402.81
406.436	385.81
406.66	392.81
406.883	382.81
407.107	380.81
407.331	382.81
407.555	381.81
407.778	388.81
408.002	384.81
408.226	371.81
408.449	385.81
408.673	392.81
408.896	360.81
409.12	355.81
409.344	382.81
409.567	348.81
409.791	372.81
410.014	369.81
410.238	366.81
410.461	380.81
410.685	368.81
410.908	373.81
411.132	373.81
411.355	383.81
411.578	371.81
411.802	367.81
412.025	368.81
412.249	371.81
412.472	351.81
412.695	365.81
412.919	359.81
413.142	349.81
413.365	381.81
413.589	339.81
413.812	361.81
414.035	354.81
414.258	361.81
414.482	345.81
414.705	362.81
414.928	358.81
415.151	351.81
415.374	343.81
415.597	360.81
415.821	357.81
416.044	329.81
416.267	358.81
416.49	354.81
416.713	337.81
416.936	347.81
417.159	343.81
417.382	352.81
417.605	353.81
417.828	364.81
418.051	360.81
418.274	356.81
418.497	370.81
418.72	374.81
418.943	365.81
419.166	387.81
419.389	388.81
419.611	388.81
419.834	374.81
420.057	363.81
420.28	321.81
420.503	328.81
420.726	345.81
420.948	347.81
421.171	335.81
421.394	367.81
421.617	370.81
421.839	365.81
422.062	367.81
422.285	346.81
422.507	361.81
422.73	372.81
422.953	382.81
423.175	357.81
423.398	357.81
423.621	342.81
423.843	354.81
424.066	344.81
424.288	363.81
424.511	350.81
424.733	349.81
424.956	346.81
425.178	360.81
425.401	353.81
425.623	347.81
425.846	346.81
426.068	343.81
426.291	346.81
426.513	317.81
426.735	353.81
426.958	346.81
427.18	325.81
427.402	325.81
427.625	335.81
427.847	339.81
428.069	327.81
428.292	330.81
428.514	314.81
428.736	340.81
428.958	329.81
429.181	318.81
429.403	331.81
429.625	324.81
429.847	323.81
430.069	339.81
430.292	341.81
430.514	313.81
430.736	335.81
430.958	337.81
431.18	323.81
431.402	342.81
431.624	338.81
431.846	316.81
432.068	312.81
432.29	319.81
432.512	323.81
432.734	311.81
432.956	313.81
433.178	337.81
433.4	346.81
433.622	346.81
433.844	316.81
434.066	338.81
434.287	305.81
434.509	295.81
434.731	311.81
434.953	330.81
435.175	335.81
435.397	341.81
435.618	322.81
435.84	328.81
436.062	317.81
436.284	332.81
436.505	329.81
436.727	339.81
436.949	327.81
437.17	318.81
437.392	321.81
437.614	322.81
437.835	298.81
438.057	314.81
438.278	304.81
438.5	326.81
438.721	321.81
438.943	333.81
439.165	338.81
439.386	316.81
439.608	356.81
439.829	325.81
440.05	315.81
440.272	341.81
440.493	335.81
440.715	335.81
440.936	348.81
441.158	334.81
441.379	326.81
441.6	345.81
441.822	346.81
442.043	365.81
442.264	363.81
442.486	318.81
442.707	353.81
442.928	327.81
443.149	333.81
443.371	331.81
443.592	344.81
443.813	332.81
444.034	364.81
444.255	361.81
444.476	341.81
444.698	359.81
444.919	342.81
445.14	459.81
445.361	394.81
445.582	348.81
445.803	346.81
446.024	331.81
446.245	342.81
446.466	343.81
446.687	318.81
446.908	348.81
447.129	344.81
447.35	309.81
447.571	342.81
447.792	316.81
448.013	327.81
448.234	294.81
448.455	312.81
448.675	309.81
448.896	298.81
449.117	312.81
449.338	331.81
449.559	327.81
449.779	314.81
450	314.81
450.221	306.81
450.442	309.81
450.662	293.81
450.883	307.81
451.104	320.81
451.324	302.81
451.545	311.81
451.766	304.81
451.986	286.81
452.207	303.81
452.428	290.81
452.648	295.81
452.869	276.81
453.089	289.81
453.31	291.81
453.53	255.81
453.751	281.81
453.971	281.81
454.192	273.81
454.412	261.81
454.633	269.81
454.853	292.81
455.073	293.81
455.294	301.81
455.514	282.81
455.734	285.81
455.955	285.81
456.175	284.81
456.395	265.81
456.616	262.81
456.836	290.81
457.056	295.81
457.276	275.81
457.497	275.81
457.717	277.81
457.937	281.81
458.157	271.81
458.377	255.81
458.598	285.81
458.818	281.81
459.038	302.81
459.258	297.81
459.478	313.81
459.698	305.81
459.918	312.81
460.138	310.81
460.358	316.81
460.578	353.81
460.798	337.81
461.018	330.81
461.238	325.81
461.458	329.81
461.678	328.81
461.898	355.81
462.118	336.81
462.338	353.81
462.558	369.81
462.777	359.81
462.997	391.81
463.217	366.81
463.437	373.81
463.657	353.81
463.876	361.81
464.096	348.81
464.316	337.81
464.536	350.81
464.755	333.81
464.975	351.81
465.195	337.81
465.414	334.81
465.634	318.81
465.854	323.81
466.073	332.81
466.293	335.81
466.512	341.81
466.732	321.81
466.951	346.81
467.171	353.81
467.391	346.81
467.61	358.81
467.829	359.81
468.049	349.81
468.268	336.81
468.488	322.81
468.707	333.81
468.927	335.81
469.146	339.81
469.365	354.81
469.585	349.81
469.804	362.81
470.023	374.81
470.243	376.81
470.462	399.81
470.681	383.81
470.901	378.81
471.12	359.81
471.339	357.81
471.558	358.81
471.777	360.81
471.997	354.81
472.216	338.81
472.435	342.81
472.654	312.81
472.873	339.81
473.092	322.81
473.311	319.81
473.53	321.81
473.749	355.81
473.968	334.81
474.187	312.81
474.406	327.81
474.625	339.81
474.844	345.81
475.063	347.81
475.282	325.81
475.501	330.81
475.72	337.81
475.939	353.81
476.158	343.81
476.377	364.81
476.596	355.81
476.814	353.81
477.033	345.81
477.252	340.81
477.471	372.81
477.69	357.81
477.908	398.81
478.127	414.81
478.346	391.81
478.564	403.81
478.783	404.81
479.002	407.81
479.22	397.81
479.439	376.81
479.658	383.81
479.876	371.81
480.095	374.81
480.313	380.81
480.532	363.81
480.751	374.81
480.969	359.81
481.188	354.81
481.406	368.81
481.624	389.81
481.843	382.81
482.061	361.81
482.28	361.81
482.498	352.81
482.717	359.81
482.935	385.81
483.153	369.81
483.372	384.81
483.59	377.81
483.808	357.81
484.027	371.81
484.245	347.81
484.463	366.81
484.681	373.81
484.9	343.81
485.118	358.81
485.336	360.81
485.554	359.81
485.772	350.81
485.99	337.81
486.209	355.81
486.427	365.81
486.645	378.81
486.863	382.81
487.081	365.81
487.299	365.81
487.517	375.81
487.735	387.81
487.953	395.81
488.171	417.81
488.389	391.81
488.607	397.81
488.825	370.81
489.043	393.81
489.261	377.81
489.479	365.81
489.696	381.81
489.914	378.81
490.132	375.81
490.35	383.81
490.568	390.81
490.786	397.81
491.003	420.81
491.221	410.81
491.439	439.81
491.657	423.81
491.874	438.81
492.092	465.81
492.31	471.81
492.527	454.81
492.745	446.81
492.963	448.81
493.18	447.81
493.398	429.81
493.615	398.81
493.833	412.81
494.05	416.81
494.268	423.81
494.485	431.81
494.703	433.81
494.92	402.81
495.138	421.81
495.355	429.81
495.573	419.81
495.79	424.81
496.008	435.81
496.225	440.81
496.442	436.81
496.66	439.81
496.877	428.81
497.094	447.81
497.312	447.81
497.529	439.81
497.746	425.81
497.963	448.81
498.181	447.81
498.398	466.81
498.615	482.81
498.832	474.81
499.049	495.81
499.267	515.81
499.484	518.81
499.701	531.81
499.918	562.81
500.135	603.81
500.352	603.81
500.569	631.81
500.786	604.81
501.003	617.81
501.22	604.81
501.437	574.81
501.654	538.81
501.871	517.81
502.088	485.81
502.305	466.81
502.522	479.81
502.739	467.81
502.956	433.81
503.172	424.81
503.389	414.81
503.606	409.81
503.823	410.81
504.04	410.81
