Data from KBr_1_HRD10591_00045.txt Node
Date: Mon Jan 19 13:11:20 EST 2026
User: Yrep
Spectrometer: HR+D1059
Trigger mode: 0
Integration Time (sec): 1.000000E-1
Scans to average: 1
Electric dark correction enabled: true
Nonlinearity correction enabled: false
Boxcar width: 0
XAxis mode: Wavelengths
Number of Pixels in Spectrum: 2048
>>>>>Begin Spectral Data<<<<<
223.165	-32.44
223.4	-32.44
223.635	-32.44
223.869	-16.44
224.104	-18.44
224.338	1.56
224.573	-20.44
224.808	-11.44
225.042	-14.44
225.277	-17.44
225.511	5.56
225.746	-1.44
225.98	-1.44
226.215	10.56
226.449	9.56
226.683	30.56
226.918	44.56
227.152	31.56
227.387	33.56
227.621	44.56
227.856	45.56
228.09	43.56
228.324	51.56
228.559	66.56
228.793	73.56
229.027	64.56
229.262	66.56
229.496	57.56
229.73	69.56
229.964	65.56
230.199	64.56
230.433	76.56
230.667	77.56
230.901	78.56
231.136	88.56
231.37	88.56
231.604	78.56
231.838	85.56
232.072	81.56
232.306	82.56
232.541	76.56
232.775	87.56
233.009	81.56
233.243	81.56
233.477	79.56
233.711	80.56
233.945	87.56
234.179	86.56
234.413	68.56
234.647	76.56
234.881	83.56
235.115	81.56
235.349	83.56
235.583	81.56
235.817	81.56
236.051	77.56
236.285	75.56
236.519	95.56
236.753	84.56
236.987	77.56
237.221	88.56
237.455	75.56
237.689	80.56
237.922	75.56
238.156	80.56
238.39	75.56
238.624	92.56
238.858	73.56
239.091	79.56
239.325	71.56
239.559	56.56
239.793	60.56
240.027	65.56
240.26	74.56
240.494	74.56
240.728	77.56
240.961	72.56
241.195	85.56
241.429	84.56
241.662	69.56
241.896	73.56
242.13	76.56
242.363	80.56
242.597	73.56
242.83	76.56
243.064	84.56
243.298	88.56
243.531	81.56
243.765	81.56
243.998	70.56
244.232	88.56
244.465	83.56
244.699	76.56
244.932	84.56
245.166	73.56
245.399	71.56
245.633	90.56
245.866	73.56
246.099	79.56
246.333	60.56
246.566	84.56
246.8	76.56
247.033	77.56
247.266	87.56
247.5	84.56
247.733	76.56
247.966	82.56
248.2	64.56
248.433	67.56
248.666	88.56
248.899	77.56
249.133	81.56
249.366	77.56
249.599	76.56
249.832	79.56
250.066	98.56
250.299	83.56
250.532	72.56
250.765	79.56
250.998	70.56
251.231	81.56
251.465	82.56
251.698	85.56
251.931	76.56
252.164	68.56
252.397	82.56
252.63	73.56
252.863	84.56
253.096	81.56
253.329	80.56
253.562	84.56
253.795	72.56
254.028	86.56
254.261	64.56
254.494	66.56
254.727	85.56
254.96	81.56
255.193	73.56
255.426	79.56
255.659	90.56
255.892	78.56
256.124	75.56
256.357	78.56
256.59	81.56
256.823	66.56
257.056	79.56
257.289	84.56
257.521	91.56
257.754	74.56
257.987	86.56
258.22	100.56
258.452	93.56
258.685	81.56
258.918	78.56
259.151	63.56
259.383	82.56
259.616	81.56
259.849	74.56
260.081	74.56
260.314	79.56
260.547	86.56
260.779	88.56
261.012	78.56
261.244	62.56
261.477	85.56
261.71	79.56
261.942	84.56
262.175	93.56
262.407	73.56
262.64	91.56
262.872	84.56
263.105	77.56
263.337	82.56
263.57	94.56
263.802	81.56
264.035	82.56
264.267	69.56
264.499	80.56
264.732	79.56
264.964	83.56
265.197	70.56
265.429	82.56
265.661	74.56
265.894	92.56
266.126	86.56
266.358	79.56
266.591	76.56
266.823	81.56
267.055	74.56
267.287	79.56
267.52	72.56
267.752	90.56
267.984	95.56
268.216	92.56
268.448	90.56
268.681	78.56
268.913	81.56
269.145	88.56
269.377	72.56
269.609	78.56
269.841	86.56
270.073	78.56
270.306	77.56
270.538	80.56
270.77	93.56
271.002	89.56
271.234	87.56
271.466	96.56
271.698	88.56
271.93	79.56
272.162	84.56
272.394	102.56
272.626	88.56
272.858	76.56
273.09	80.56
273.322	88.56
273.553	84.56
273.785	66.56
274.017	78.56
274.249	92.56
274.481	90.56
274.713	85.56
274.945	87.56
275.176	80.56
275.408	76.56
275.64	79.56
275.872	88.56
276.104	73.56
276.335	88.56
276.567	85.56
276.799	66.56
277.031	81.56
277.262	83.56
277.494	88.56
277.726	63.56
277.957	84.56
278.189	67.56
278.421	74.56
278.652	75.56
278.884	73.56
279.115	94.56
279.347	78.56
279.579	86.56
279.81	97.56
280.042	82.56
280.273	82.56
280.505	80.56
280.736	76.56
280.968	69.56
281.199	91.56
281.431	81.56
281.662	80.56
281.894	88.56
282.125	87.56
282.356	71.56
282.588	90.56
282.819	79.56
283.051	79.56
283.282	83.56
283.513	93.56
283.745	92.56
283.976	88.56
284.207	89.56
284.439	82.56
284.67	106.56
284.901	86.56
285.132	73.56
285.364	84.56
285.595	94.56
285.826	84.56
286.057	87.56
286.288	81.56
286.52	74.56
286.751	81.56
286.982	80.56
287.213	89.56
287.444	76.56
287.675	98.56
287.906	92.56
288.138	88.56
288.369	75.56
288.6	96.56
288.831	93.56
289.062	92.56
289.293	90.56
289.524	67.56
289.755	85.56
289.986	73.56
290.217	78.56
290.448	77.56
290.679	73.56
290.91	89.56
291.141	73.56
291.371	74.56
291.602	74.56
291.833	93.56
292.064	74.56
292.295	89.56
292.526	89.56
292.757	85.56
292.987	74.56
293.218	82.56
293.449	93.56
293.68	81.56
293.91	78.56
294.141	88.56
294.372	71.56
294.603	81.56
294.833	65.56
295.064	73.56
295.295	84.56
295.525	84.56
295.756	100.56
295.987	86.56
296.217	99.56
296.448	90.56
296.679	94.56
296.909	84.56
297.14	85.56
297.37	89.56
297.601	88.56
297.831	76.56
298.062	80.56
298.292	89.56
298.523	85.56
298.753	80.56
298.984	68.56
299.214	73.56
299.445	88.56
299.675	89.56
299.905	85.56
300.136	82.56
300.366	84.56
300.597	65.56
300.827	75.56
301.057	87.56
301.288	86.56
301.518	91.56
301.748	81.56
301.979	102.56
302.209	76.56
302.439	70.56
302.669	92.56
302.9	85.56
303.13	78.56
303.36	95.56
303.59	77.56
303.82	79.56
304.051	94.56
304.281	93.56
304.511	82.56
304.741	89.56
304.971	83.56
305.201	82.56
305.431	102.56
305.661	96.56
305.891	83.56
306.121	85.56
306.352	90.56
306.582	82.56
306.812	95.56
307.042	79.56
307.272	75.56
307.502	79.56
307.731	88.56
307.961	85.56
308.191	97.56
308.421	72.56
308.651	78.56
308.881	88.56
309.111	76.56
309.341	94.56
309.571	72.56
309.8	76.56
310.03	96.56
310.26	89.56
310.49	94.56
310.72	88.56
310.949	78.56
311.179	70.56
311.409	84.56
311.639	91.56
311.868	81.56
312.098	89.56
312.328	94.56
312.557	76.56
312.787	84.56
313.017	81.56
313.246	73.56
313.476	84.56
313.706	89.56
313.935	85.56
314.165	77.56
314.394	77.56
314.624	82.56
314.853	87.56
315.083	86.56
315.312	73.56
315.542	90.56
315.771	78.56
316.001	91.56
316.23	85.56
316.46	93.56
316.689	79.56
316.919	78.56
317.148	80.56
317.377	101.56
317.607	89.56
317.836	91.56
318.065	88.56
318.295	93.56
318.524	87.56
318.753	94.56
318.983	85.56
319.212	82.56
319.441	83.56
319.67	70.56
319.9	92.56
320.129	90.56
320.358	80.56
320.587	79.56
320.816	69.56
321.046	91.56
321.275	84.56
321.504	80.56
321.733	84.56
321.962	84.56
322.191	93.56
322.42	102.56
322.649	103.56
322.878	85.56
323.108	81.56
323.337	88.56
323.566	100.56
323.795	82.56
324.024	82.56
324.253	93.56
324.482	95.56
324.71	93.56
324.939	93.56
325.168	84.56
325.397	87.56
325.626	78.56
325.855	100.56
326.084	81.56
326.313	89.56
326.542	88.56
326.77	95.56
326.999	87.56
327.228	92.56
327.457	97.56
327.686	80.56
327.914	78.56
328.143	97.56
328.372	82.56
328.6	97.56
328.829	88.56
329.058	93.56
329.287	82.56
329.515	98.56
329.744	90.56
329.972	78.56
330.201	93.56
330.43	72.56
330.658	88.56
330.887	81.56
331.115	86.56
331.344	88.56
331.572	89.56
331.801	92.56
332.03	76.56
332.258	72.56
332.486	76.56
332.715	90.56
332.943	81.56
333.172	78.56
333.4	85.56
333.629	101.56
333.857	92.56
334.085	84.56
334.314	79.56
334.542	77.56
334.771	86.56
334.999	89.56
335.227	95.56
335.455	85.56
335.684	80.56
335.912	80.56
336.14	78.56
336.369	73.56
336.597	80.56
336.825	84.56
337.053	85.56
337.281	81.56
337.51	77.56
337.738	77.56
337.966	81.56
338.194	72.56
338.422	92.56
338.65	87.56
338.878	85.56
339.106	98.56
339.334	86.56
339.562	78.56
339.79	76.56
340.018	96.56
340.246	82.56
340.474	75.56
340.702	88.56
340.93	91.56
341.158	93.56
341.386	88.56
341.614	80.56
341.842	92.56
342.07	86.56
342.298	95.56
342.526	79.56
342.754	87.56
342.981	79.56
343.209	93.56
343.437	92.56
343.665	73.56
343.893	72.56
344.12	80.56
344.348	78.56
344.576	80.56
344.804	76.56
345.031	103.56
345.259	86.56
345.487	77.56
345.714	90.56
345.942	72.56
346.17	85.56
346.397	81.56
346.625	86.56
346.853	93.56
347.08	75.56
347.308	102.56
347.535	86.56
347.763	94.56
347.99	76.56
348.218	85.56
348.445	86.56
348.673	67.56
348.9	97.56
349.128	100.56
349.355	97.56
349.583	78.56
349.81	91.56
350.037	94.56
350.265	83.56
350.492	88.56
350.72	89.56
350.947	84.56
351.174	93.56
351.402	81.56
351.629	81.56
351.856	79.56
352.083	85.56
352.311	93.56
352.538	92.56
352.765	101.56
352.992	82.56
353.22	92.56
353.447	93.56
353.674	89.56
353.901	85.56
354.128	68.56
354.355	78.56
354.583	88.56
354.81	99.56
355.037	93.56
355.264	84.56
355.491	97.56
355.718	88.56
355.945	85.56
356.172	96.56
356.399	74.56
356.626	86.56
356.853	84.56
357.08	91.56
357.307	89.56
357.534	96.56
357.761	88.56
357.988	88.56
358.215	92.56
358.441	80.56
358.668	75.56
358.895	88.56
359.122	80.56
359.349	89.56
359.576	90.56
359.802	86.56
360.029	73.56
360.256	92.56
360.483	84.56
360.709	75.56
360.936	100.56
361.163	84.56
361.39	101.56
361.616	103.56
361.843	85.56
362.07	93.56
362.296	88.56
362.523	75.56
362.749	82.56
362.976	81.56
363.203	96.56
363.429	86.56
363.656	102.56
363.882	88.56
364.109	96.56
364.335	97.56
364.562	82.56
364.788	84.56
365.015	89.56
365.241	94.56
365.468	94.56
365.694	92.56
365.92	89.56
366.147	76.56
366.373	88.56
366.599	85.56
366.826	83.56
367.052	76.56
367.278	81.56
367.505	92.56
367.731	107.56
367.957	89.56
368.184	80.56
368.41	66.56
368.636	92.56
368.862	80.56
369.089	90.56
369.315	93.56
369.541	98.56
369.767	100.56
369.993	81.56
370.219	80.56
370.445	68.56
370.672	76.56
370.898	76.56
371.124	85.56
371.35	78.56
371.576	80.56
371.802	92.56
372.028	79.56
372.254	84.56
372.48	81.56
372.706	102.56
372.932	76.56
373.158	96.56
373.384	88.56
373.61	70.56
373.835	81.56
374.061	82.56
374.287	71.56
374.513	75.56
374.739	68.56
374.965	82.56
375.191	91.56
375.416	90.56
375.642	83.56
375.868	81.56
376.094	90.56
376.319	89.56
376.545	86.56
376.771	84.56
376.997	80.56
377.222	82.56
377.448	78.56
377.674	77.56
377.899	87.56
378.125	79.56
378.35	87.56
378.576	93.56
378.802	83.56
379.027	85.56
379.253	110.56
379.478	82.56
379.704	89.56
379.929	93.56
380.155	79.56
380.38	100.56
380.606	96.56
380.831	82.56
381.057	85.56
381.282	107.56
381.507	90.56
381.733	68.56
381.958	88.56
382.184	90.56
382.409	92.56
382.634	85.56
382.86	80.56
383.085	90.56
383.31	92.56
383.535	96.56
383.761	79.56
383.986	95.56
384.211	82.56
384.436	81.56
384.662	79.56
384.887	75.56
385.112	99.56
385.337	87.56
385.562	74.56
385.787	68.56
386.013	99.56
386.238	80.56
386.463	90.56
386.688	98.56
386.913	71.56
387.138	88.56
387.363	82.56
387.588	73.56
387.813	93.56
388.038	92.56
388.263	93.56
388.488	84.56
388.713	93.56
388.938	71.56
389.163	74.56
389.387	74.56
389.612	90.56
389.837	89.56
390.062	93.56
390.287	74.56
390.512	74.56
390.736	84.56
390.961	89.56
391.186	81.56
391.411	84.56
391.636	81.56
391.86	84.56
392.085	80.56
392.31	78.56
392.534	80.56
392.759	93.56
392.984	73.56
393.208	94.56
393.433	88.56
393.658	83.56
393.882	79.56
394.107	77.56
394.331	75.56
394.556	87.56
394.78	88.56
395.005	92.56
395.229	68.56
395.454	82.56
395.678	76.56
395.903	74.56
396.127	81.56
396.352	81.56
396.576	77.56
396.801	73.56
397.025	74.56
397.249	70.56
397.474	100.56
397.698	67.56
397.922	84.56
398.147	73.56
398.371	80.56
398.595	92.56
398.82	71.56
399.044	84.56
399.268	69.56
399.492	85.56
399.717	78.56
399.941	73.56
400.165	88.56
400.389	87.56
400.613	84.56
400.837	82.56
401.062	86.56
401.286	81.56
401.51	97.56
401.734	64.56
401.958	73.56
402.182	77.56
402.406	94.56
402.63	105.56
402.854	88.56
403.078	82.56
403.302	76.56
403.526	76.56
403.75	69.56
403.974	74.56
404.198	90.56
404.422	78.56
404.645	88.56
404.869	76.56
405.093	80.56
405.317	84.56
405.541	100.56
405.765	83.56
405.988	90.56
406.212	92.56
406.436	77.56
406.66	77.56
406.883	86.56
407.107	81.56
407.331	87.56
407.555	90.56
407.778	80.56
408.002	85.56
408.226	91.56
408.449	97.56
408.673	78.56
408.896	84.56
409.12	86.56
409.344	78.56
409.567	70.56
409.791	71.56
410.014	76.56
410.238	93.56
410.461	90.56
410.685	85.56
410.908	82.56
411.132	87.56
411.355	91.56
411.578	84.56
411.802	89.56
412.025	76.56
412.249	79.56
412.472	81.56
412.695	88.56
412.919	86.56
413.142	77.56
413.365	71.56
413.589	86.56
413.812	79.56
414.035	94.56
414.258	98.56
414.482	78.56
414.705	81.56
414.928	88.56
415.151	86.56
415.374	92.56
415.597	72.56
415.821	70.56
416.044	81.56
416.267	93.56
416.49	76.56
416.713	78.56
416.936	82.56
417.159	77.56
417.382	79.56
417.605	80.56
417.828	79.56
418.051	66.56
418.274	88.56
418.497	70.56
418.72	83.56
418.943	85.56
419.166	85.56
419.389	75.56
419.611	85.56
419.834	75.56
420.057	100.56
420.28	88.56
420.503	76.56
420.726	97.56
420.948	90.56
421.171	71.56
421.394	76.56
421.617	80.56
421.839	88.56
422.062	86.56
422.285	71.56
422.507	72.56
422.73	73.56
422.953	73.56
423.175	80.56
423.398	66.56
423.621	78.56
423.843	69.56
424.066	82.56
424.288	81.56
424.511	69.56
424.733	77.56
424.956	82.56
425.178	80.56
425.401	78.56
425.623	71.56
425.846	70.56
426.068	81.56
426.291	77.56
426.513	81.56
426.735	88.56
426.958	72.56
427.18	74.56
427.402	86.56
427.625	81.56
427.847	88.56
428.069	100.56
428.292	86.56
428.514	97.56
428.736	92.56
428.958	76.56
429.181	81.56
429.403	80.56
429.625	73.56
429.847	92.56
430.069	82.56
430.292	75.56
430.514	86.56
430.736	92.56
430.958	88.56
431.18	85.56
431.402	88.56
431.624	82.56
431.846	82.56
432.068	79.56
432.29	86.56
432.512	93.56
432.734	83.56
432.956	75.56
433.178	82.56
433.4	78.56
433.622	95.56
433.844	79.56
434.066	83.56
434.287	96.56
434.509	87.56
434.731	84.56
434.953	74.56
435.175	96.56
435.397	74.56
435.618	87.56
435.84	71.56
436.062	85.56
436.284	79.56
436.505	85.56
436.727	81.56
436.949	82.56
437.17	87.56
437.392	74.56
437.614	72.56
437.835	57.56
438.057	73.56
438.278	85.56
438.5	90.56
438.721	63.56
438.943	87.56
439.165	85.56
439.386	86.56
439.608	71.56
439.829	70.56
440.05	69.56
440.272	85.56
440.493	79.56
440.715	77.56
440.936	86.56
441.158	69.56
441.379	89.56
441.6	87.56
441.822	86.56
442.043	86.56
442.264	69.56
442.486	89.56
442.707	70.56
442.928	82.56
443.149	86.56
443.371	87.56
443.592	80.56
443.813	81.56
444.034	77.56
444.255	91.56
444.476	82.56
444.698	80.56
444.919	79.56
445.14	157.56
445.361	113.56
445.582	85.56
445.803	88.56
446.024	92.56
446.245	89.56
446.466	79.56
446.687	76.56
446.908	89.56
447.129	92.56
447.35	79.56
447.571	84.56
447.792	82.56
448.013	76.56
448.234	92.56
448.455	69.56
448.675	82.56
448.896	73.56
449.117	82.56
449.338	90.56
449.559	91.56
449.779	64.56
450	81.56
450.221	76.56
450.442	82.56
450.662	83.56
450.883	72.56
451.104	74.56
451.324	77.56
451.545	69.56
451.766	62.56
451.986	80.56
452.207	90.56
452.428	77.56
452.648	66.56
452.869	80.56
453.089	83.56
453.31	63.56
453.53	88.56
453.751	88.56
453.971	89.56
454.192	77.56
454.412	84.56
454.633	94.56
454.853	75.56
455.073	86.56
455.294	79.56
455.514	88.56
455.734	76.56
455.955	74.56
456.175	80.56
456.395	84.56
456.616	86.56
456.836	80.56
457.056	88.56
457.276	74.56
457.497	82.56
457.717	85.56
457.937	74.56
458.157	84.56
458.377	80.56
458.598	81.56
458.818	78.56
459.038	91.56
459.258	85.56
459.478	85.56
459.698	78.56
459.918	79.56
460.138	92.56
460.358	95.56
460.578	82.56
460.798	73.56
461.018	66.56
461.238	76.56
461.458	77.56
461.678	78.56
461.898	84.56
462.118	81.56
462.338	93.56
462.558	80.56
462.777	92.56
462.997	85.56
463.217	85.56
463.437	87.56
463.657	84.56
463.876	88.56
464.096	62.56
464.316	86.56
464.536	77.56
464.755	79.56
464.975	75.56
465.195	70.56
465.414	76.56
465.634	82.56
465.854	89.56
466.073	76.56
466.293	80.56
466.512	77.56
466.732	76.56
466.951	81.56
467.171	85.56
467.391	83.56
467.61	74.56
467.829	88.56
468.049	91.56
468.268	78.56
468.488	69.56
468.707	72.56
468.927	76.56
469.146	65.56
469.365	90.56
469.585	78.56
469.804	89.56
470.023	93.56
470.243	80.56
470.462	68.56
470.681	87.56
470.901	77.56
471.12	73.56
471.339	87.56
471.558	83.56
471.777	80.56
471.997	81.56
472.216	98.56
472.435	88.56
472.654	77.56
472.873	88.56
473.092	68.56
473.311	89.56
473.53	68.56
473.749	77.56
473.968	87.56
474.187	72.56
474.406	69.56
474.625	74.56
474.844	74.56
475.063	89.56
475.282	85.56
475.501	84.56
475.72	66.56
475.939	84.56
476.158	104.56
476.377	77.56
476.596	98.56
476.814	78.56
477.033	65.56
477.252	74.56
477.471	80.56
477.69	87.56
477.908	73.56
478.127	98.56
478.346	82.56
478.564	81.56
478.783	71.56
479.002	81.56
479.22	82.56
479.439	81.56
479.658	79.56
479.876	76.56
480.095	77.56
480.313	76.56
480.532	77.56
480.751	80.56
480.969	74.56
481.188	75.56
481.406	73.56
481.624	84.56
481.843	87.56
482.061	81.56
482.28	87.56
482.498	92.56
482.717	84.56
482.935	74.56
483.153	86.56
483.372	77.56
483.59	82.56
483.808	77.56
484.027	84.56
484.245	82.56
484.463	88.56
484.681	92.56
484.9	76.56
485.118	92.56
485.336	65.56
485.554	67.56
485.772	85.56
485.99	77.56
486.209	78.56
486.427	72.56
486.645	85.56
486.863	85.56
487.081	78.56
487.299	87.56
487.517	80.56
487.735	80.56
487.953	68.56
488.171	93.56
488.389	95.56
488.607	75.56
488.825	68.56
489.043	73.56
489.261	86.56
489.479	72.56
489.696	85.56
489.914	76.56
490.132	71.56
490.35	81.56
490.568	87.56
490.786	76.56
491.003	87.56
491.221	93.56
491.439	95.56
491.657	82.56
491.874	88.56
492.092	94.56
492.31	73.56
492.527	76.56
492.745	85.56
492.963	88.56
493.18	76.56
493.398	73.56
493.615	72.56
493.833	68.56
494.05	82.56
494.268	91.56
494.485	77.56
494.703	67.56
494.92	76.56
495.138	82.56
495.355	84.56
495.573	72.56
495.79	92.56
496.008	91.56
496.225	90.56
496.442	70.56
496.66	77.56
496.877	89.56
497.094	87.56
497.312	76.56
497.529	84.56
497.746	66.56
497.963	62.56
498.181	79.56
498.398	79.56
498.615	90.56
498.832	74.56
499.049	71.56
499.267	93.56
499.484	78.56
499.701	77.56
499.918	71.56
500.135	80.56
500.352	90.56
500.569	76.56
500.786	78.56
501.003	77.56
501.22	80.56
501.437	88.56
501.654	71.56
501.871	96.56
502.088	71.56
502.305	83.56
502.522	80.56
502.739	77.56
502.956	73.56
503.172	91.56
503.389	66.56
503.606	74.56
503.823	74.56
504.04	86.56
504.256	76.56
504.473	78.56
504.69	84.56
504.907	76.56
505.123	82.56
505.34	77.56
505.557	92.56
505.773	84.56
505.99	93.56
506.207	80.56
506.423	82.56
506.64	92.56
506.856	78.56
507.073	76.56
507.289	84.56
507.506	71.56
507.722	82.56
507.939	88.56
508.155	84.56
508.372	70.56
508.588	82.56
508.805	79.56
509.021	79.56
509.238	88.56
509.454	82.56
509.67	81.56
509.887	75.56
510.103	82.56
510.319	79.56
510.536	85.56
510.752	81.56
510.968	90.56
511.184	81.56
511.401	72.56
511.617	87.56
511.833	97.56
512.049	85.56
512.265	93.56
512.481	74.56
512.698	74.56
512.914	75.56
513.13	84.56
513.346	82.56
513.562	81.56
513.778	93.56
513.994	82.56
514.21	83.56
514.426	75.56
514.642	94.56
514.858	87.56
515.074	88.56
515.29	86.56
515.506	89.56
515.721	86.56
515.937	82.56
516.153	81.56
516.369	65.56
516.585	81.56
516.801	93.56
517.016	88.56
517.232	76.56
517.448	75.56
517.664	74.56
517.879	76.56
518.095	75.56
518.311	93.56
518.527	89.56
518.742	87.56
518.958	79.56
519.173	77.56
519.389	92.56
519.605	86.56
519.82	89.56
