Data from KBr_1_HRD10591_00048.txt Node
Date: Mon Jan 19 13:11:21 EST 2026
User: Yrep
Spectrometer: HR+D1059
Trigger mode: 0
Integration Time (sec): 1.000000E-1
Scans to average: 1
Electric dark correction enabled: true
Nonlinearity correction enabled: false
Boxcar width: 0
XAxis mode: Wavelengths
Number of Pixels in Spectrum: 2048
>>>>>Begin Spectral Data<<<<<
223.165	-18.44
223.4	-18.44
223.635	-18.44
223.869	-8.44
224.104	-33.44
224.338	-13.44
224.573	-9.44
224.808	-26.44
225.042	-5.44
225.277	-0.44
225.511	4.56
225.746	11.56
225.98	6.56
226.215	14.56
226.449	5.56
226.683	24.56
226.918	19.56
227.152	28.56
227.387	23.56
227.621	42.56
227.856	45.56
228.09	69.56
228.324	43.56
228.559	49.56
228.793	57.56
229.027	62.56
229.262	62.56
229.496	78.56
229.73	81.56
229.964	84.56
230.199	83.56
230.433	89.56
230.667	81.56
230.901	81.56
231.136	81.56
231.37	86.56
231.604	84.56
231.838	88.56
232.072	84.56
232.306	89.56
232.541	88.56
232.775	88.56
233.009	87.56
233.243	90.56
233.477	87.56
233.711	103.56
233.945	82.56
234.179	72.56
234.413	91.56
234.647	92.56
234.881	93.56
235.115	86.56
235.349	103.56
235.583	83.56
235.817	96.56
236.051	85.56
236.285	103.56
236.519	84.56
236.753	77.56
236.987	87.56
237.221	84.56
237.455	86.56
237.689	86.56
237.922	86.56
238.156	98.56
238.39	99.56
238.624	86.56
238.858	85.56
239.091	105.56
239.325	91.56
239.559	92.56
239.793	89.56
240.027	91.56
240.26	107.56
240.494	97.56
240.728	93.56
240.961	111.56
241.195	96.56
241.429	98.56
241.662	82.56
241.896	102.56
242.13	91.56
242.363	99.56
242.597	93.56
242.83	88.56
243.064	96.56
243.298	81.56
243.531	107.56
243.765	108.56
243.998	99.56
244.232	99.56
244.465	104.56
244.699	103.56
244.932	99.56
245.166	90.56
245.399	101.56
245.633	90.56
245.866	107.56
246.099	105.56
246.333	104.56
246.566	106.56
246.8	86.56
247.033	94.56
247.266	111.56
247.5	114.56
247.733	107.56
247.966	98.56
248.2	101.56
248.433	116.56
248.666	112.56
248.899	101.56
249.133	101.56
249.366	101.56
249.599	108.56
249.832	104.56
250.066	103.56
250.299	116.56
250.532	119.56
250.765	118.56
250.998	112.56
251.231	120.56
251.465	124.56
251.698	130.56
251.931	117.56
252.164	112.56
252.397	119.56
252.63	126.56
252.863	126.56
253.096	114.56
253.329	107.56
253.562	119.56
253.795	121.56
254.028	131.56
254.261	106.56
254.494	124.56
254.727	133.56
254.96	127.56
255.193	120.56
255.426	126.56
255.659	125.56
255.892	121.56
256.124	114.56
256.357	136.56
256.59	136.56
256.823	116.56
257.056	139.56
257.289	126.56
257.521	129.56
257.754	118.56
257.987	132.56
258.22	127.56
258.452	124.56
258.685	124.56
258.918	123.56
259.151	131.56
259.383	145.56
259.616	126.56
259.849	138.56
260.081	142.56
260.314	135.56
260.547	130.56
260.779	142.56
261.012	121.56
261.244	135.56
261.477	145.56
261.71	140.56
261.942	132.56
262.175	137.56
262.407	141.56
262.64	123.56
262.872	128.56
263.105	120.56
263.337	140.56
263.57	152.56
263.802	145.56
264.035	133.56
264.267	142.56
264.499	143.56
264.732	140.56
264.964	150.56
265.197	147.56
265.429	141.56
265.661	131.56
265.894	133.56
266.126	143.56
266.358	139.56
266.591	140.56
266.823	147.56
267.055	161.56
267.287	147.56
267.52	140.56
267.752	157.56
267.984	133.56
268.216	145.56
268.448	136.56
268.681	148.56
268.913	151.56
269.145	151.56
269.377	145.56
269.609	159.56
269.841	145.56
270.073	155.56
270.306	142.56
270.538	149.56
270.77	141.56
271.002	150.56
271.234	160.56
271.466	153.56
271.698	159.56
271.93	150.56
272.162	155.56
272.394	163.56
272.626	154.56
272.858	148.56
273.09	171.56
273.322	153.56
273.553	151.56
273.785	174.56
274.017	168.56
274.249	158.56
274.481	141.56
274.713	166.56
274.945	156.56
275.176	163.56
275.408	183.56
275.64	164.56
275.872	163.56
276.104	181.56
276.335	159.56
276.567	145.56
276.799	165.56
277.031	177.56
277.262	163.56
277.494	163.56
277.726	179.56
277.957	182.56
278.189	173.56
278.421	168.56
278.652	177.56
278.884	175.56
279.115	185.56
279.347	172.56
279.579	197.56
279.81	198.56
280.042	186.56
280.273	189.56
280.505	186.56
280.736	200.56
280.968	183.56
281.199	169.56
281.431	165.56
281.662	194.56
281.894	185.56
282.125	182.56
282.356	186.56
282.588	185.56
282.819	179.56
283.051	188.56
283.282	193.56
283.513	189.56
283.745	191.56
283.976	188.56
284.207	172.56
284.439	198.56
284.67	190.56
284.901	174.56
285.132	183.56
285.364	195.56
285.595	198.56
285.826	184.56
286.057	186.56
286.288	186.56
286.52	202.56
286.751	187.56
286.982	194.56
287.213	206.56
287.444	219.56
287.675	202.56
287.906	182.56
288.138	197.56
288.369	202.56
288.6	195.56
288.831	205.56
289.062	201.56
289.293	201.56
289.524	203.56
289.755	207.56
289.986	218.56
290.217	212.56
290.448	203.56
290.679	203.56
290.91	203.56
291.141	212.56
291.371	190.56
291.602	205.56
291.833	203.56
292.064	212.56
292.295	209.56
292.526	211.56
292.757	196.56
292.987	206.56
293.218	221.56
293.449	213.56
293.68	214.56
293.91	199.56
294.141	213.56
294.372	206.56
294.603	207.56
294.833	194.56
295.064	207.56
295.295	209.56
295.525	206.56
295.756	220.56
295.987	211.56
296.217	233.56
296.448	213.56
296.679	230.56
296.909	236.56
297.14	254.56
297.37	227.56
297.601	245.56
297.831	204.56
298.062	226.56
298.292	226.56
298.523	223.56
298.753	225.56
298.984	234.56
299.214	217.56
299.445	227.56
299.675	232.56
299.905	234.56
300.136	237.56
300.366	248.56
300.597	219.56
300.827	225.56
301.057	235.56
301.288	239.56
301.518	237.56
301.748	218.56
301.979	239.56
302.209	218.56
302.439	235.56
302.669	235.56
302.9	245.56
303.13	246.56
303.36	231.56
303.59	226.56
303.82	235.56
304.051	245.56
304.281	261.56
304.511	238.56
304.741	239.56
304.971	253.56
305.201	245.56
305.431	230.56
305.661	222.56
305.891	235.56
306.121	238.56
306.352	236.56
306.582	244.56
306.812	238.56
307.042	220.56
307.272	230.56
307.502	253.56
307.731	238.56
307.961	243.56
308.191	250.56
308.421	250.56
308.651	244.56
308.881	250.56
309.111	246.56
309.341	262.56
309.571	253.56
309.8	239.56
310.03	236.56
310.26	231.56
310.49	243.56
310.72	253.56
310.949	245.56
311.179	253.56
311.409	245.56
311.639	230.56
311.868	252.56
312.098	260.56
312.328	264.56
312.557	247.56
312.787	269.56
313.017	250.56
313.246	260.56
313.476	261.56
313.706	258.56
313.935	259.56
314.165	257.56
314.394	246.56
314.624	279.56
314.853	265.56
315.083	274.56
315.312	270.56
315.542	270.56
315.771	270.56
316.001	246.56
316.23	276.56
316.46	260.56
316.689	284.56
316.919	281.56
317.148	266.56
317.377	272.56
317.607	261.56
317.836	281.56
318.065	271.56
318.295	276.56
318.524	268.56
318.753	270.56
318.983	274.56
319.212	271.56
319.441	261.56
319.67	294.56
319.9	266.56
320.129	280.56
320.358	262.56
320.587	253.56
320.816	289.56
321.046	279.56
321.275	284.56
321.504	286.56
321.733	281.56
321.962	292.56
322.191	269.56
322.42	273.56
322.649	287.56
322.878	266.56
323.108	293.56
323.337	281.56
323.566	289.56
323.795	289.56
324.024	289.56
324.253	286.56
324.482	277.56
324.71	295.56
324.939	303.56
325.168	284.56
325.397	266.56
325.626	284.56
325.855	259.56
326.084	296.56
326.313	262.56
326.542	277.56
326.77	286.56
326.999	289.56
327.228	293.56
327.457	300.56
327.686	298.56
327.914	309.56
328.143	285.56
328.372	287.56
328.6	281.56
328.829	299.56
329.058	285.56
329.287	307.56
329.515	307.56
329.744	314.56
329.972	327.56
330.201	344.56
330.43	366.56
330.658	330.56
330.887	305.56
331.115	308.56
331.344	297.56
331.572	319.56
331.801	308.56
332.03	325.56
332.258	331.56
332.486	315.56
332.715	325.56
332.943	337.56
333.172	341.56
333.4	330.56
333.629	328.56
333.857	330.56
334.085	355.56
334.314	370.56
334.542	352.56
334.771	351.56
334.999	347.56
335.227	333.56
335.455	338.56
335.684	337.56
335.912	350.56
336.14	354.56
336.369	330.56
336.597	356.56
336.825	341.56
337.053	354.56
337.281	341.56
337.51	340.56
337.738	363.56
337.966	346.56
338.194	355.56
338.422	329.56
338.65	332.56
338.878	349.56
339.106	354.56
339.334	342.56
339.562	347.56
339.79	344.56
340.018	341.56
340.246	335.56
340.474	357.56
340.702	331.56
340.93	332.56
341.158	323.56
341.386	339.56
341.614	328.56
341.842	338.56
342.07	337.56
342.298	331.56
342.526	329.56
342.754	335.56
342.981	318.56
343.209	322.56
343.437	337.56
343.665	339.56
343.893	367.56
344.12	350.56
344.348	366.56
344.576	363.56
344.804	372.56
345.031	366.56
345.259	347.56
345.487	333.56
345.714	310.56
345.942	317.56
346.17	307.56
346.397	321.56
346.625	306.56
346.853	306.56
347.08	317.56
347.308	318.56
347.535	310.56
347.763	316.56
347.99	326.56
348.218	314.56
348.445	298.56
348.673	310.56
348.9	308.56
349.128	310.56
349.355	308.56
349.583	318.56
349.81	308.56
350.037	324.56
350.265	317.56
350.492	309.56
350.72	338.56
350.947	314.56
351.174	309.56
351.402	301.56
351.629	321.56
351.856	312.56
352.083	318.56
352.311	306.56
352.538	327.56
352.765	309.56
352.992	315.56
353.22	321.56
353.447	306.56
353.674	330.56
353.901	331.56
354.128	317.56
354.355	327.56
354.583	302.56
354.81	316.56
355.037	313.56
355.264	319.56
355.491	322.56
355.718	321.56
355.945	305.56
356.172	326.56
356.399	314.56
356.626	295.56
356.853	317.56
357.08	315.56
357.307	310.56
357.534	295.56
357.761	300.56
357.988	325.56
358.215	311.56
358.441	313.56
358.668	298.56
358.895	307.56
359.122	314.56
359.349	330.56
359.576	311.56
359.802	315.56
360.029	310.56
360.256	326.56
360.483	313.56
360.709	311.56
360.936	306.56
361.163	303.56
361.39	302.56
361.616	323.56
361.843	322.56
362.07	314.56
362.296	320.56
362.523	326.56
362.749	318.56
362.976	307.56
363.203	319.56
363.429	320.56
363.656	332.56
363.882	322.56
364.109	298.56
364.335	308.56
364.562	299.56
364.788	321.56
365.015	320.56
365.241	310.56
365.468	331.56
365.694	323.56
365.92	340.56
366.147	307.56
366.373	314.56
366.599	328.56
366.826	315.56
367.052	320.56
367.278	327.56
367.505	315.56
367.731	322.56
367.957	337.56
368.184	325.56
368.41	324.56
368.636	337.56
368.862	330.56
369.089	363.56
369.315	316.56
369.541	312.56
369.767	317.56
369.993	325.56
370.219	329.56
370.445	324.56
370.672	329.56
370.898	321.56
371.124	316.56
371.35	326.56
371.576	327.56
371.802	337.56
372.028	327.56
372.254	354.56
372.48	322.56
372.706	337.56
372.932	335.56
373.158	319.56
373.384	337.56
373.61	338.56
373.835	322.56
374.061	315.56
374.287	350.56
374.513	345.56
374.739	352.56
374.965	349.56
375.191	340.56
375.416	341.56
375.642	327.56
375.868	339.56
376.094	341.56
376.319	342.56
376.545	349.56
376.771	343.56
376.997	335.56
377.222	345.56
377.448	355.56
377.674	335.56
377.899	337.56
378.125	329.56
378.35	335.56
378.576	330.56
378.802	322.56
379.027	345.56
379.253	343.56
379.478	332.56
379.704	328.56
379.929	336.56
380.155	329.56
380.38	335.56
380.606	346.56
380.831	349.56
381.057	358.56
381.282	330.56
381.507	341.56
381.733	345.56
381.958	349.56
382.184	343.56
382.409	361.56
382.634	375.56
382.86	365.56
383.085	369.56
383.31	360.56
383.535	364.56
383.761	357.56
383.986	364.56
384.211	364.56
384.436	379.56
384.662	390.56
384.887	374.56
385.112	385.56
385.337	380.56
385.562	380.56
385.787	388.56
386.013	383.56
386.238	390.56
386.463	383.56
386.688	394.56
386.913	409.56
387.138	379.56
387.363	411.56
387.588	395.56
387.813	394.56
388.038	392.56
388.263	411.56
388.488	398.56
388.713	399.56
388.938	410.56
389.163	381.56
389.387	405.56
389.612	404.56
389.837	403.56
390.062	395.56
390.287	401.56
390.512	404.56
390.736	392.56
390.961	402.56
391.186	396.56
391.411	422.56
391.636	427.56
391.86	418.56
392.085	426.56
392.31	421.56
392.534	427.56
392.759	436.56
392.984	413.56
393.208	426.56
393.433	455.56
393.658	444.56
393.882	445.56
394.107	459.56
394.331	451.56
394.556	444.56
394.78	439.56
395.005	441.56
395.229	449.56
395.454	420.56
395.678	432.56
395.903	435.56
396.127	484.56
396.352	492.56
396.576	458.56
396.801	458.56
397.025	469.56
397.249	435.56
397.474	448.56
397.698	441.56
397.922	463.56
398.147	454.56
398.371	457.56
398.595	446.56
398.82	455.56
399.044	484.56
399.268	502.56
399.492	498.56
399.717	520.56
399.941	507.56
400.165	527.56
400.389	509.56
400.613	485.56
400.837	490.56
401.062	465.56
401.286	459.56
401.51	468.56
401.734	479.56
401.958	475.56
402.182	450.56
402.406	468.56
402.63	459.56
402.854	473.56
403.078	466.56
403.302	493.56
403.526	483.56
403.75	515.56
403.974	542.56
404.198	644.56
404.422	953.56
404.645	1125.56
404.869	953.56
405.093	723.56
405.317	551.56
405.541	525.56
405.765	499.56
405.988	490.56
406.212	486.56
406.436	477.56
406.66	479.56
406.883	464.56
407.107	499.56
407.331	489.56
407.555	486.56
407.778	475.56
408.002	474.56
408.226	481.56
408.449	483.56
408.673	471.56
408.896	461.56
409.12	481.56
409.344	465.56
409.567	441.56
409.791	453.56
410.014	474.56
410.238	462.56
410.461	465.56
410.685	445.56
410.908	446.56
411.132	465.56
411.355	437.56
411.578	455.56
411.802	449.56
412.025	457.56
412.249	430.56
412.472	438.56
412.695	435.56
412.919	457.56
413.142	465.56
413.365	456.56
413.589	464.56
413.812	437.56
414.035	452.56
414.258	441.56
414.482	449.56
414.705	434.56
414.928	452.56
415.151	453.56
415.374	455.56
415.597	452.56
415.821	435.56
416.044	422.56
416.267	435.56
416.49	437.56
416.713	432.56
416.936	452.56
417.159	442.56
417.382	423.56
417.605	423.56
417.828	445.56
418.051	464.56
418.274	445.56
418.497	468.56
418.72	460.56
418.943	453.56
419.166	469.56
419.389	492.56
419.611	490.56
419.834	462.56
420.057	446.56
420.28	420.56
420.503	456.56
420.726	409.56
420.948	432.56
421.171	421.56
421.394	457.56
421.617	446.56
421.839	447.56
422.062	433.56
422.285	455.56
422.507	450.56
422.73	466.56
422.953	462.56
423.175	440.56
423.398	429.56
423.621	430.56
423.843	435.56
424.066	434.56
424.288	436.56
424.511	431.56
424.733	437.56
424.956	419.56
425.178	427.56
425.401	437.56
425.623	436.56
425.846	430.56
426.068	426.56
426.291	413.56
426.513	439.56
426.735	449.56
426.958	436.56
427.18	405.56
427.402	419.56
427.625	417.56
427.847	410.56
428.069	417.56
428.292	411.56
428.514	414.56
428.736	402.56
428.958	418.56
429.181	416.56
429.403	408.56
429.625	396.56
429.847	410.56
430.069	412.56
430.292	421.56
430.514	412.56
430.736	412.56
430.958	439.56
431.18	433.56
431.402	429.56
431.624	398.56
431.846	403.56
432.068	395.56
432.29	376.56
432.512	387.56
432.734	393.56
432.956	402.56
433.178	423.56
433.4	422.56
433.622	404.56
433.844	435.56
434.066	386.56
434.287	379.56
434.509	385.56
434.731	384.56
434.953	393.56
435.175	406.56
435.397	401.56
435.618	403.56
435.84	409.56
436.062	387.56
436.284	408.56
436.505	415.56
436.727	425.56
436.949	414.56
437.17	401.56
437.392	408.56
437.614	396.56
437.835	375.56
438.057	389.56
438.278	359.56
438.5	393.56
438.721	414.56
438.943	418.56
439.165	401.56
439.386	396.56
439.608	401.56
439.829	407.56
440.05	391.56
440.272	419.56
440.493	396.56
440.715	430.56
440.936	401.56
441.158	396.56
441.379	402.56
441.6	431.56
441.822	427.56
442.043	415.56
442.264	399.56
442.486	401.56
442.707	407.56
442.928	407.56
443.149	412.56
443.371	413.56
443.592	420.56
443.813	442.56
444.034	396.56
444.255	412.56
444.476	446.56
444.698	426.56
444.919	463.56
445.14	496.56
445.361	473.56
445.582	440.56
445.803	426.56
446.024	414.56
446.245	436.56
446.466	398.56
446.687	421.56
446.908	410.56
447.129	397.56
447.35	409.56
447.571	408.56
447.792	387.56
448.013	405.56
448.234	382.56
448.455	395.56
448.675	384.56
448.896	391.56
449.117	398.56
449.338	383.56
449.559	387.56
449.779	363.56
450	365.56
450.221	374.56
450.442	387.56
450.662	369.56
450.883	375.56
451.104	393.56
451.324	389.56
451.545	378.56
451.766	379.56
451.986	340.56
452.207	360.56
452.428	361.56
452.648	358.56
452.869	376.56
453.089	342.56
453.31	341.56
453.53	379.56
453.751	345.56
453.971	345.56
454.192	351.56
454.412	341.56
454.633	350.56
454.853	358.56
455.073	355.56
455.294	359.56
455.514	360.56
455.734	361.56
455.955	338.56
456.175	336.56
456.395	342.56
456.616	367.56
456.836	357.56
457.056	348.56
457.276	352.56
457.497	349.56
457.717	355.56
457.937	346.56
458.157	325.56
458.377	342.56
458.598	363.56
458.818	342.56
459.038	354.56
459.258	373.56
459.478	375.56
459.698	381.56
459.918	371.56
460.138	397.56
460.358	403.56
460.578	408.56
460.798	412.56
461.018	410.56
461.238	414.56
461.458	438.56
461.678	408.56
461.898	425.56
462.118	420.56
462.338	428.56
462.558	436.56
462.777	423.56
462.997	459.56
463.217	469.56
463.437	451.56
463.657	437.56
463.876	429.56
464.096	450.56
464.316	419.56
464.536	444.56
464.755	451.56
464.975	435.56
465.195	422.56
465.414	407.56
465.634	414.56
465.854	401.56
466.073	397.56
466.293	419.56
466.512	410.56
466.732	422.56
466.951	405.56
467.171	438.56
467.391	421.56
467.61	438.56
467.829	453.56
468.049	436.56
468.268	433.56
468.488	429.56
468.707	427.56
468.927	428.56
469.146	433.56
469.365	451.56
469.585	476.56
469.804	462.56
470.023	460.56
470.243	499.56
470.462	510.56
470.681	514.56
470.901	491.56
471.12	468.56
471.339	481.56
471.558	429.56
471.777	451.56
471.997	410.56
472.216	412.56
472.435	415.56
472.654	403.56
472.873	406.56
473.092	410.56
473.311	418.56
473.53	425.56
473.749	429.56
473.968	417.56
474.187	398.56
474.406	411.56
474.625	414.56
474.844	434.56
475.063	443.56
475.282	415.56
475.501	407.56
475.72	440.56
475.939	428.56
476.158	434.56
476.377	434.56
476.596	446.56
476.814	445.56
477.033	462.56
477.252	464.56
477.471	495.56
477.69	504.56
477.908	487.56
478.127	505.56
478.346	547.56
478.564	557.56
478.783	543.56
479.002	509.56
479.22	507.56
479.439	541.56
479.658	486.56
479.876	489.56
480.095	475.56
480.313	493.56
480.532	493.56
480.751	497.56
480.969	486.56
481.188	497.56
481.406	473.56
481.624	491.56
481.843	487.56
482.061	494.56
482.28	476.56
482.498	482.56
482.717	461.56
482.935	476.56
483.153	469.56
483.372	493.56
483.59	477.56
483.808	457.56
484.027	459.56
484.245	462.56
484.463	469.56
484.681	480.56
484.9	476.56
485.118	476.56
485.336	462.56
485.554	455.56
485.772	443.56
485.99	442.56
486.209	473.56
486.427	471.56
486.645	458.56
486.863	465.56
487.081	460.56
487.299	437.56
487.517	495.56
487.735	490.56
487.953	497.56
488.171	507.56
488.389	486.56
488.607	468.56
488.825	461.56
489.043	451.56
489.261	467.56
489.479	465.56
489.696	465.56
489.914	464.56
490.132	476.56
490.35	487.56
490.568	516.56
490.786	516.56
491.003	507.56
491.221	531.56
491.439	513.56
491.657	542.56
491.874	535.56
492.092	549.56
492.31	574.56
492.527	567.56
492.745	561.56
492.963	581.56
493.18	559.56
493.398	551.56
493.615	553.56
493.833	551.56
494.05	528.56
494.268	542.56
494.485	535.56
494.703	548.56
494.92	529.56
495.138	540.56
495.355	541.56
495.573	562.56
495.79	561.56
496.008	543.56
496.225	558.56
496.442	553.56
496.66	558.56
496.877	543.56
497.094	563.56
497.312	553.56
497.529	551.56
497.746	541.56
497.963	571.56
498.181	558.56
498.398	570.56
498.615	587.56
498.832	565.56
499.049	619.56
499.267	648.56
499.484	638.56
499.701	700.56
499.918	714.56
500.135	724.56
500.352	762.56
500.569	753.56
500.786	760.56
501.003	764.56
501.22	722.56
501.437	681.56
501.654	643.56
501.871	643.56
502.088	617.56
502.305	581.56
502.522	561.56
502.739	587.56
502.956	552.56
503.172	539.56
503.389	536.56
503.606	541.56
