Data from KBr_1_HRD10591_00030.txt Node
Date: Mon Jan 19 13:11:19 EST 2026
User: Yrep
Spectrometer: HR+D1059
Trigger mode: 0
Integration Time (sec): 1.000000E-1
Scans to average: 1
Electric dark correction enabled: true
Nonlinearity correction enabled: false
Boxcar width: 0
XAxis mode: Wavelengths
Number of Pixels in Spectrum: 2048
>>>>>Begin Spectral Data<<<<<
223.165	-10.94
223.4	-10.94
223.635	-10.94
223.869	-17.94
224.104	-27.94
224.338	-4.94
224.573	-3.94
224.808	-10.94
225.042	-15.94
225.277	-2.94
225.511	-2.94
225.746	-1.94
225.98	7.06
226.215	6.06
226.449	22.06
226.683	25.06
226.918	8.06
227.152	32.06
227.387	37.06
227.621	41.06
227.856	39.06
228.09	44.06
228.324	45.06
228.559	61.06
228.793	65.06
229.027	57.06
229.262	66.06
229.496	50.06
229.73	74.06
229.964	58.06
230.199	88.06
230.433	73.06
230.667	84.06
230.901	74.06
231.136	83.06
231.37	92.06
231.604	86.06
231.838	86.06
232.072	85.06
232.306	85.06
232.541	75.06
232.775	77.06
233.009	99.06
233.243	79.06
233.477	83.06
233.711	84.06
233.945	80.06
234.179	82.06
234.413	81.06
234.647	76.06
234.881	72.06
235.115	84.06
235.349	79.06
235.583	76.06
235.817	77.06
236.051	71.06
236.285	87.06
236.519	77.06
236.753	72.06
236.987	82.06
237.221	74.06
237.455	88.06
237.689	84.06
237.922	69.06
238.156	80.06
238.39	85.06
238.624	77.06
238.858	80.06
239.091	75.06
239.325	79.06
239.559	77.06
239.793	66.06
240.027	91.06
240.26	80.06
240.494	69.06
240.728	83.06
240.961	71.06
241.195	85.06
241.429	65.06
241.662	75.06
241.896	73.06
242.13	79.06
242.363	63.06
242.597	69.06
242.83	80.06
243.064	86.06
243.298	73.06
243.531	86.06
243.765	83.06
243.998	86.06
244.232	83.06
244.465	80.06
244.699	78.06
244.932	63.06
245.166	70.06
245.399	82.06
245.633	67.06
245.866	81.06
246.099	70.06
246.333	73.06
246.566	83.06
246.8	80.06
247.033	65.06
247.266	62.06
247.5	75.06
247.733	80.06
247.966	83.06
248.2	86.06
248.433	73.06
248.666	77.06
248.899	76.06
249.133	70.06
249.366	64.06
249.599	83.06
249.832	62.06
250.066	81.06
250.299	65.06
250.532	86.06
250.765	59.06
250.998	69.06
251.231	73.06
251.465	78.06
251.698	67.06
251.931	72.06
252.164	78.06
252.397	83.06
252.63	78.06
252.863	78.06
253.096	60.06
253.329	72.06
253.562	62.06
253.795	91.06
254.028	84.06
254.261	68.06
254.494	88.06
254.727	88.06
254.96	77.06
255.193	75.06
255.426	71.06
255.659	87.06
255.892	77.06
256.124	78.06
256.357	87.06
256.59	94.06
256.823	81.06
257.056	89.06
257.289	75.06
257.521	85.06
257.754	75.06
257.987	86.06
258.22	72.06
258.452	77.06
258.685	77.06
258.918	86.06
259.151	76.06
259.383	75.06
259.616	81.06
259.849	91.06
260.081	96.06
260.314	80.06
260.547	87.06
260.779	75.06
261.012	76.06
261.244	78.06
261.477	89.06
261.71	74.06
261.942	77.06
262.175	77.06
262.407	83.06
262.64	64.06
262.872	86.06
263.105	68.06
263.337	74.06
263.57	74.06
263.802	75.06
264.035	74.06
264.267	71.06
264.499	71.06
264.732	87.06
264.964	68.06
265.197	65.06
265.429	88.06
265.661	91.06
265.894	81.06
266.126	74.06
266.358	80.06
266.591	102.06
266.823	97.06
267.055	86.06
267.287	77.06
267.52	71.06
267.752	75.06
267.984	81.06
268.216	77.06
268.448	70.06
268.681	75.06
268.913	75.06
269.145	88.06
269.377	71.06
269.609	80.06
269.841	91.06
270.073	89.06
270.306	85.06
270.538	79.06
270.77	88.06
271.002	81.06
271.234	75.06
271.466	76.06
271.698	75.06
271.93	85.06
272.162	91.06
272.394	95.06
272.626	86.06
272.858	71.06
273.09	68.06
273.322	71.06
273.553	80.06
273.785	82.06
274.017	71.06
274.249	86.06
274.481	89.06
274.713	80.06
274.945	94.06
275.176	71.06
275.408	84.06
275.64	80.06
275.872	75.06
276.104	70.06
276.335	89.06
276.567	84.06
276.799	82.06
277.031	81.06
277.262	73.06
277.494	94.06
277.726	78.06
277.957	85.06
278.189	87.06
278.421	69.06
278.652	78.06
278.884	84.06
279.115	75.06
279.347	69.06
279.579	84.06
279.81	66.06
280.042	69.06
280.273	97.06
280.505	78.06
280.736	86.06
280.968	85.06
281.199	72.06
281.431	83.06
281.662	87.06
281.894	66.06
282.125	73.06
282.356	84.06
282.588	73.06
282.819	79.06
283.051	93.06
283.282	99.06
283.513	83.06
283.745	80.06
283.976	60.06
284.207	83.06
284.439	79.06
284.67	77.06
284.901	81.06
285.132	90.06
285.364	88.06
285.595	76.06
285.826	74.06
286.057	84.06
286.288	85.06
286.52	72.06
286.751	84.06
286.982	89.06
287.213	84.06
287.444	81.06
287.675	76.06
287.906	89.06
288.138	66.06
288.369	82.06
288.6	96.06
288.831	77.06
289.062	78.06
289.293	88.06
289.524	76.06
289.755	78.06
289.986	69.06
290.217	89.06
290.448	69.06
290.679	85.06
290.91	87.06
291.141	81.06
291.371	77.06
291.602	87.06
291.833	87.06
292.064	80.06
292.295	75.06
292.526	76.06
292.757	84.06
292.987	72.06
293.218	80.06
293.449	84.06
293.68	80.06
293.91	85.06
294.141	85.06
294.372	90.06
294.603	77.06
294.833	81.06
295.064	70.06
295.295	81.06
295.525	76.06
295.756	87.06
295.987	83.06
296.217	81.06
296.448	79.06
296.679	84.06
296.909	89.06
297.14	98.06
297.37	91.06
297.601	95.06
297.831	64.06
298.062	83.06
298.292	77.06
298.523	71.06
298.753	79.06
298.984	87.06
299.214	78.06
299.445	73.06
299.675	77.06
299.905	93.06
300.136	88.06
300.366	72.06
300.597	71.06
300.827	77.06
301.057	69.06
301.288	69.06
301.518	81.06
301.748	84.06
301.979	91.06
302.209	89.06
302.439	83.06
302.669	77.06
302.9	90.06
303.13	70.06
303.36	75.06
303.59	74.06
303.82	88.06
304.051	89.06
304.281	103.06
304.511	86.06
304.741	78.06
304.971	91.06
305.201	84.06
305.431	101.06
305.661	89.06
305.891	79.06
306.121	81.06
306.352	81.06
306.582	88.06
306.812	88.06
307.042	80.06
307.272	80.06
307.502	83.06
307.731	84.06
307.961	76.06
308.191	72.06
308.421	89.06
308.651	91.06
308.881	58.06
309.111	93.06
309.341	81.06
309.571	76.06
309.8	93.06
310.03	82.06
310.26	81.06
310.49	80.06
310.72	69.06
310.949	71.06
311.179	67.06
311.409	88.06
311.639	76.06
311.868	82.06
312.098	91.06
312.328	93.06
312.557	86.06
312.787	88.06
313.017	69.06
313.246	73.06
313.476	64.06
313.706	83.06
313.935	97.06
314.165	79.06
314.394	84.06
314.624	88.06
314.853	78.06
315.083	68.06
315.312	89.06
315.542	82.06
315.771	87.06
316.001	77.06
316.23	76.06
316.46	80.06
316.689	91.06
316.919	91.06
317.148	79.06
317.377	89.06
317.607	84.06
317.836	73.06
318.065	84.06
318.295	73.06
318.524	77.06
318.753	96.06
318.983	87.06
319.212	86.06
319.441	83.06
319.67	81.06
319.9	83.06
320.129	97.06
320.358	84.06
320.587	84.06
320.816	93.06
321.046	94.06
321.275	75.06
321.504	84.06
321.733	87.06
321.962	97.06
322.191	75.06
322.42	79.06
322.649	87.06
322.878	85.06
323.108	92.06
323.337	77.06
323.566	95.06
323.795	73.06
324.024	90.06
324.253	78.06
324.482	95.06
324.71	82.06
324.939	100.06
325.168	75.06
325.397	84.06
325.626	89.06
325.855	79.06
326.084	77.06
326.313	84.06
326.542	86.06
326.77	74.06
326.999	82.06
327.228	74.06
327.457	73.06
327.686	79.06
327.914	87.06
328.143	91.06
328.372	87.06
328.6	79.06
328.829	79.06
329.058	83.06
329.287	91.06
329.515	91.06
329.744	89.06
329.972	91.06
330.201	87.06
330.43	88.06
330.658	73.06
330.887	85.06
331.115	90.06
331.344	84.06
331.572	83.06
331.801	73.06
332.03	82.06
332.258	93.06
332.486	91.06
332.715	83.06
332.943	88.06
333.172	84.06
333.4	92.06
333.629	87.06
333.857	83.06
334.085	89.06
334.314	81.06
334.542	91.06
334.771	91.06
334.999	72.06
335.227	84.06
335.455	78.06
335.684	84.06
335.912	81.06
336.14	81.06
336.369	82.06
336.597	72.06
336.825	91.06
337.053	97.06
337.281	86.06
337.51	87.06
337.738	75.06
337.966	87.06
338.194	79.06
338.422	83.06
338.65	80.06
338.878	85.06
339.106	76.06
339.334	85.06
339.562	101.06
339.79	92.06
340.018	85.06
340.246	84.06
340.474	84.06
340.702	80.06
340.93	77.06
341.158	87.06
341.386	89.06
341.614	84.06
341.842	73.06
342.07	86.06
342.298	90.06
342.526	86.06
342.754	73.06
342.981	64.06
343.209	72.06
343.437	103.06
343.665	92.06
343.893	73.06
344.12	83.06
344.348	88.06
344.576	86.06
344.804	86.06
345.031	84.06
345.259	87.06
345.487	84.06
345.714	80.06
345.942	73.06
346.17	78.06
346.397	71.06
346.625	84.06
346.853	77.06
347.08	84.06
347.308	79.06
347.535	83.06
347.763	85.06
347.99	86.06
348.218	96.06
348.445	76.06
348.673	90.06
348.9	100.06
349.128	86.06
349.355	78.06
349.583	77.06
349.81	79.06
350.037	76.06
350.265	98.06
350.492	90.06
350.72	86.06
350.947	93.06
351.174	82.06
351.402	104.06
351.629	86.06
351.856	82.06
352.083	88.06
352.311	88.06
352.538	75.06
352.765	81.06
352.992	89.06
353.22	83.06
353.447	71.06
353.674	89.06
353.901	96.06
354.128	90.06
354.355	72.06
354.583	74.06
354.81	75.06
355.037	86.06
355.264	93.06
355.491	77.06
355.718	88.06
355.945	93.06
356.172	89.06
356.399	72.06
356.626	78.06
356.853	72.06
357.08	81.06
357.307	87.06
357.534	79.06
357.761	81.06
357.988	93.06
358.215	85.06
358.441	86.06
358.668	93.06
358.895	91.06
359.122	83.06
359.349	90.06
359.576	86.06
359.802	83.06
360.029	88.06
360.256	84.06
360.483	80.06
360.709	91.06
360.936	74.06
361.163	81.06
361.39	84.06
361.616	90.06
361.843	77.06
362.07	96.06
362.296	91.06
362.523	81.06
362.749	85.06
362.976	85.06
363.203	94.06
363.429	105.06
363.656	83.06
363.882	85.06
364.109	79.06
364.335	83.06
364.562	81.06
364.788	80.06
365.015	76.06
365.241	97.06
365.468	91.06
365.694	84.06
365.92	94.06
366.147	87.06
366.373	75.06
366.599	87.06
366.826	82.06
367.052	87.06
367.278	84.06
367.505	94.06
367.731	85.06
367.957	82.06
368.184	92.06
368.41	85.06
368.636	84.06
368.862	77.06
369.089	83.06
369.315	80.06
369.541	77.06
369.767	110.06
369.993	100.06
370.219	87.06
370.445	64.06
370.672	84.06
370.898	79.06
371.124	71.06
371.35	76.06
371.576	73.06
371.802	81.06
372.028	79.06
372.254	87.06
372.48	71.06
372.706	83.06
372.932	81.06
373.158	75.06
373.384	77.06
373.61	90.06
373.835	92.06
374.061	89.06
374.287	75.06
374.513	84.06
374.739	91.06
374.965	76.06
375.191	79.06
375.416	79.06
375.642	83.06
375.868	82.06
376.094	82.06
376.319	86.06
376.545	91.06
376.771	93.06
376.997	87.06
377.222	88.06
377.448	89.06
377.674	97.06
377.899	68.06
378.125	89.06
378.35	71.06
378.576	91.06
378.802	72.06
379.027	73.06
379.253	89.06
379.478	72.06
379.704	86.06
379.929	79.06
380.155	78.06
380.38	85.06
380.606	84.06
380.831	93.06
381.057	92.06
381.282	81.06
381.507	73.06
381.733	88.06
381.958	101.06
382.184	88.06
382.409	81.06
382.634	83.06
382.86	82.06
383.085	76.06
383.31	86.06
383.535	77.06
383.761	88.06
383.986	83.06
384.211	67.06
384.436	79.06
384.662	72.06
384.887	74.06
385.112	76.06
385.337	78.06
385.562	103.06
385.787	82.06
386.013	89.06
386.238	79.06
386.463	94.06
386.688	82.06
386.913	76.06
387.138	88.06
387.363	90.06
387.588	81.06
387.813	87.06
388.038	88.06
388.263	83.06
388.488	91.06
388.713	72.06
388.938	90.06
389.163	87.06
389.387	80.06
389.612	84.06
389.837	87.06
390.062	71.06
390.287	77.06
390.512	81.06
390.736	61.06
390.961	72.06
391.186	76.06
391.411	78.06
391.636	78.06
391.86	74.06
392.085	93.06
392.31	79.06
392.534	77.06
392.759	72.06
392.984	87.06
393.208	97.06
393.433	86.06
393.658	87.06
393.882	80.06
394.107	88.06
394.331	78.06
394.556	89.06
394.78	79.06
395.005	68.06
395.229	66.06
395.454	75.06
395.678	69.06
395.903	74.06
396.127	77.06
396.352	80.06
396.576	76.06
396.801	88.06
397.025	88.06
397.249	94.06
397.474	75.06
397.698	87.06
397.922	87.06
398.147	78.06
398.371	82.06
398.595	84.06
398.82	79.06
399.044	78.06
399.268	74.06
399.492	99.06
399.717	83.06
399.941	78.06
400.165	82.06
400.389	87.06
400.613	72.06
400.837	88.06
401.062	93.06
401.286	81.06
401.51	87.06
401.734	76.06
401.958	83.06
402.182	87.06
402.406	73.06
402.63	79.06
402.854	73.06
403.078	81.06
403.302	78.06
403.526	61.06
403.75	72.06
403.974	76.06
404.198	78.06
404.422	82.06
404.645	69.06
404.869	78.06
405.093	81.06
405.317	92.06
405.541	91.06
405.765	89.06
405.988	69.06
406.212	77.06
406.436	78.06
406.66	86.06
406.883	83.06
407.107	81.06
407.331	86.06
407.555	93.06
407.778	72.06
408.002	76.06
408.226	73.06
408.449	71.06
408.673	91.06
408.896	81.06
409.12	78.06
409.344	92.06
409.567	84.06
409.791	100.06
410.014	76.06
410.238	72.06
410.461	83.06
410.685	86.06
410.908	83.06
411.132	83.06
411.355	60.06
411.578	63.06
411.802	83.06
412.025	90.06
412.249	78.06
412.472	83.06
412.695	80.06
412.919	80.06
413.142	91.06
413.365	66.06
413.589	83.06
413.812	96.06
414.035	81.06
414.258	84.06
414.482	76.06
414.705	76.06
414.928	77.06
415.151	75.06
415.374	76.06
415.597	89.06
415.821	81.06
416.044	88.06
416.267	84.06
416.49	78.06
416.713	89.06
416.936	87.06
417.159	87.06
417.382	87.06
417.605	79.06
417.828	88.06
418.051	86.06
418.274	87.06
418.497	79.06
418.72	80.06
418.943	79.06
419.166	75.06
419.389	74.06
419.611	89.06
419.834	84.06
420.057	78.06
420.28	87.06
420.503	81.06
420.726	82.06
420.948	83.06
421.171	88.06
421.394	84.06
421.617	90.06
421.839	91.06
422.062	85.06
422.285	78.06
422.507	85.06
422.73	77.06
422.953	79.06
423.175	99.06
423.398	85.06
423.621	78.06
423.843	83.06
424.066	95.06
424.288	77.06
424.511	87.06
424.733	97.06
424.956	79.06
425.178	68.06
425.401	79.06
425.623	81.06
425.846	75.06
426.068	78.06
426.291	77.06
426.513	88.06
426.735	83.06
426.958	60.06
427.18	68.06
427.402	67.06
427.625	93.06
427.847	72.06
428.069	76.06
428.292	84.06
428.514	89.06
428.736	78.06
428.958	73.06
429.181	83.06
429.403	78.06
429.625	80.06
429.847	78.06
430.069	88.06
430.292	92.06
430.514	96.06
430.736	76.06
430.958	83.06
431.18	63.06
431.402	102.06
431.624	82.06
431.846	86.06
432.068	87.06
432.29	88.06
432.512	81.06
432.734	79.06
432.956	91.06
433.178	101.06
433.4	72.06
433.622	82.06
433.844	83.06
434.066	94.06
434.287	71.06
434.509	94.06
434.731	69.06
434.953	81.06
435.175	82.06
435.397	92.06
435.618	85.06
435.84	93.06
436.062	80.06
436.284	86.06
436.505	84.06
436.727	76.06
436.949	79.06
437.17	73.06
437.392	78.06
437.614	90.06
437.835	75.06
438.057	82.06
438.278	83.06
438.5	96.06
438.721	91.06
438.943	76.06
439.165	88.06
439.386	71.06
439.608	79.06
439.829	84.06
440.05	82.06
440.272	85.06
440.493	96.06
440.715	88.06
440.936	79.06
441.158	73.06
441.379	80.06
441.6	71.06
441.822	85.06
442.043	76.06
442.264	68.06
442.486	87.06
442.707	70.06
442.928	80.06
443.149	68.06
443.371	71.06
443.592	93.06
443.813	83.06
444.034	81.06
444.255	76.06
444.476	83.06
444.698	71.06
444.919	88.06
445.14	155.06
445.361	105.06
445.582	73.06
445.803	77.06
446.024	74.06
446.245	69.06
446.466	76.06
446.687	77.06
446.908	76.06
447.129	73.06
447.35	75.06
447.571	62.06
447.792	79.06
448.013	68.06
448.234	76.06
448.455	75.06
448.675	84.06
448.896	86.06
449.117	60.06
449.338	79.06
449.559	80.06
449.779	75.06
450	76.06
450.221	77.06
450.442	79.06
450.662	89.06
450.883	75.06
451.104	83.06
451.324	73.06
451.545	76.06
451.766	82.06
451.986	80.06
452.207	79.06
452.428	77.06
452.648	83.06
452.869	79.06
453.089	63.06
453.31	85.06
453.53	85.06
453.751	88.06
453.971	79.06
454.192	73.06
454.412	69.06
454.633	55.06
454.853	68.06
455.073	85.06
455.294	71.06
455.514	76.06
455.734	80.06
455.955	73.06
456.175	76.06
456.395	69.06
456.616	80.06
456.836	90.06
457.056	83.06
457.276	78.06
457.497	91.06
457.717	76.06
457.937	84.06
458.157	81.06
458.377	67.06
458.598	86.06
458.818	73.06
459.038	64.06
459.258	71.06
459.478	77.06
459.698	83.06
459.918	77.06
460.138	73.06
460.358	85.06
460.578	91.06
460.798	76.06
461.018	76.06
461.238	73.06
461.458	95.06
461.678	88.06
461.898	77.06
462.118	80.06
462.338	83.06
462.558	75.06
462.777	83.06
462.997	79.06
463.217	86.06
463.437	82.06
463.657	71.06
463.876	77.06
464.096	63.06
464.316	69.06
464.536	82.06
464.755	72.06
464.975	81.06
465.195	67.06
465.414	82.06
465.634	81.06
465.854	73.06
466.073	71.06
466.293	74.06
466.512	70.06
466.732	74.06
466.951	89.06
467.171	76.06
467.391	74.06
467.61	99.06
467.829	94.06
468.049	83.06
468.268	78.06
468.488	72.06
468.707	76.06
468.927	66.06
469.146	57.06
469.365	89.06
469.585	91.06
469.804	68.06
470.023	73.06
470.243	93.06
470.462	82.06
470.681	74.06
470.901	86.06
471.12	73.06
471.339	71.06
471.558	70.06
471.777	77.06
471.997	84.06
472.216	75.06
472.435	75.06
472.654	71.06
472.873	88.06
473.092	87.06
473.311	74.06
473.53	71.06
473.749	87.06
473.968	90.06
474.187	77.06
474.406	84.06
474.625	75.06
474.844	88.06
475.063	71.06
475.282	76.06
475.501	80.06
475.72	76.06
475.939	78.06
476.158	82.06
476.377	81.06
476.596	84.06
476.814	88.06
477.033	79.06
477.252	79.06
477.471	77.06
477.69	78.06
477.908	92.06
478.127	87.06
478.346	69.06
478.564	87.06
478.783	78.06
479.002	83.06
479.22	91.06
479.439	79.06
479.658	85.06
479.876	76.06
480.095	86.06
480.313	77.06
480.532	83.06
480.751	80.06
480.969	94.06
481.188	77.06
481.406	84.06
481.624	76.06
481.843	79.06
482.061	86.06
482.28	77.06
482.498	71.06
482.717	86.06
482.935	75.06
483.153	74.06
483.372	76.06
483.59	80.06
483.808	88.06
484.027	79.06
484.245	80.06
484.463	70.06
484.681	91.06
484.9	93.06
485.118	87.06
485.336	74.06
485.554	83.06
485.772	70.06
485.99	85.06
486.209	92.06
486.427	85.06
486.645	93.06
486.863	83.06
487.081	65.06
487.299	90.06
487.517	87.06
487.735	77.06
487.953	79.06
488.171	83.06
488.389	87.06
488.607	88.06
488.825	85.06
489.043	73.06
489.261	78.06
489.479	82.06
489.696	84.06
489.914	90.06
490.132	74.06
490.35	84.06
490.568	81.06
490.786	77.06
491.003	89.06
491.221	71.06
491.439	81.06
491.657	78.06
491.874	80.06
492.092	84.06
492.31	81.06
492.527	71.06
492.745	74.06
492.963	91.06
493.18	94.06
493.398	85.06
493.615	69.06
493.833	88.06
494.05	73.06
494.268	70.06
494.485	73.06
494.703	77.06
494.92	87.06
495.138	78.06
495.355	75.06
495.573	76.06
495.79	88.06
496.008	91.06
496.225	86.06
496.442	73.06
496.66	88.06
496.877	80.06
497.094	86.06
497.312	88.06
497.529	79.06
497.746	83.06
497.963	83.06
498.181	91.06
498.398	83.06
498.615	73.06
498.832	76.06
499.049	75.06
499.267	78.06
499.484	81.06
499.701	90.06
499.918	94.06
500.135	87.06
500.352	76.06
500.569	69.06
500.786	86.06
501.003	83.06
501.22	75.06
501.437	72.06
501.654	82.06
501.871	74.06
502.088	83.06
502.305	86.06
502.522	83.06
502.739	75.06
502.956	82.06
503.172	89.06
503.389	80.06
503.606	86.06
503.823	99.06
504.04	72.06
504.256	92.06
504.473	60.06
504.69	83.06
504.907	79.06
505.123	88.06
505.34	75.06
505.557	92.06
505.773	74.06
505.99	65.06
506.207	74.06
506.423	93.06
506.64	92.06
506.856	88.06
507.073	80.06
507.289	101.06
507.506	88.06
507.722	75.06
507.939	85.06
508.155	101.06
508.372	92.06
508.588	95.06
508.805	87.06
509.021	87.06
509.238	75.06
509.454	75.06
509.67	87.06
509.887	78.06
510.103	77.06
510.319	75.06
510.536	81.06
510.752	84.06
510.968	79.06
511.184	92.06
511.401	81.06
511.617	79.06
511.833	91.06
512.049	90.06
512.265	88.06
512.481	73.06
512.698	84.06
512.914	83.06
513.13	87.06
513.346	93.06
513.562	86.06
513.778	75.06
513.994	99.06
514.21	83.06
514.426	75.06
514.642	83.06
514.858	78.06
515.074	80.06
515.29	101.06
515.506	69.06
515.721	72.06
515.937	100.06
516.153	81.06
516.369	75.06
516.585	72.06
516.801	81.06
517.016	89.06
517.232	91.06
517.448	73.06
517.664	71.06
517.879	85.06
518.095	75.06
518.311	88.06
518.527	84.06
518.742	81.06
518.958	79.06
519.173	88.06
519.389	109.06
519.605	101.06
519.82	93.06
520.036	84.06
