Data from KBr_1_HRD10591_00035.txt Node
Date: Mon Jan 19 13:11:19 EST 2026
User: Yrep
Spectrometer: HR+D1059
Trigger mode: 0
Integration Time (sec): 1.000000E-1
Scans to average: 1
Electric dark correction enabled: true
Nonlinearity correction enabled: false
Boxcar width: 0
XAxis mode: Wavelengths
Number of Pixels in Spectrum: 2048
>>>>>Begin Spectral Data<<<<<
223.165	-15.62
223.4	-15.62
223.635	-15.62
223.869	-20.62
224.104	-17.62
224.338	-6.62
224.573	-9.62
224.808	5.38
225.042	-1.62
225.277	-3.62
225.511	1.38
225.746	3.38
225.98	9.38
226.215	-2.62
226.449	17.38
226.683	6.38
226.918	7.38
227.152	27.38
227.387	45.38
227.621	45.38
227.856	34.38
228.09	39.38
228.324	48.38
228.559	59.38
228.793	67.38
229.027	62.38
229.262	56.38
229.496	65.38
229.73	66.38
229.964	75.38
230.199	73.38
230.433	66.38
230.667	79.38
230.901	71.38
231.136	68.38
231.37	83.38
231.604	85.38
231.838	87.38
232.072	86.38
232.306	87.38
232.541	86.38
232.775	80.38
233.009	91.38
233.243	91.38
233.477	80.38
233.711	90.38
233.945	85.38
234.179	85.38
234.413	73.38
234.647	79.38
234.881	87.38
235.115	92.38
235.349	77.38
235.583	87.38
235.817	83.38
236.051	66.38
236.285	88.38
236.519	66.38
236.753	83.38
236.987	79.38
237.221	71.38
237.455	85.38
237.689	78.38
237.922	70.38
238.156	74.38
238.39	78.38
238.624	85.38
238.858	87.38
239.091	81.38
239.325	67.38
239.559	66.38
239.793	73.38
240.027	73.38
240.26	68.38
240.494	75.38
240.728	83.38
240.961	69.38
241.195	85.38
241.429	86.38
241.662	85.38
241.896	71.38
242.13	80.38
242.363	84.38
242.597	79.38
242.83	73.38
243.064	75.38
243.298	84.38
243.531	89.38
243.765	84.38
243.998	81.38
244.232	82.38
244.465	64.38
244.699	79.38
244.932	77.38
245.166	64.38
245.399	91.38
245.633	77.38
245.866	66.38
246.099	75.38
246.333	85.38
246.566	85.38
246.8	81.38
247.033	78.38
247.266	80.38
247.5	81.38
247.733	85.38
247.966	85.38
248.2	90.38
248.433	68.38
248.666	82.38
248.899	78.38
249.133	65.38
249.366	88.38
249.599	88.38
249.832	77.38
250.066	79.38
250.299	87.38
250.532	82.38
250.765	87.38
250.998	85.38
251.231	81.38
251.465	68.38
251.698	88.38
251.931	79.38
252.164	71.38
252.397	83.38
252.63	74.38
252.863	62.38
253.096	90.38
253.329	73.38
253.562	82.38
253.795	74.38
254.028	90.38
254.261	65.38
254.494	76.38
254.727	83.38
254.96	61.38
255.193	72.38
255.426	80.38
255.659	73.38
255.892	83.38
256.124	87.38
256.357	81.38
256.59	74.38
256.823	82.38
257.056	70.38
257.289	96.38
257.521	82.38
257.754	82.38
257.987	82.38
258.22	95.38
258.452	82.38
258.685	81.38
258.918	71.38
259.151	83.38
259.383	86.38
259.616	88.38
259.849	85.38
260.081	79.38
260.314	65.38
260.547	85.38
260.779	73.38
261.012	93.38
261.244	82.38
261.477	87.38
261.71	83.38
261.942	85.38
262.175	89.38
262.407	96.38
262.64	76.38
262.872	94.38
263.105	92.38
263.337	88.38
263.57	75.38
263.802	95.38
264.035	75.38
264.267	90.38
264.499	85.38
264.732	85.38
264.964	84.38
265.197	91.38
265.429	78.38
265.661	82.38
265.894	83.38
266.126	90.38
266.358	83.38
266.591	81.38
266.823	78.38
267.055	91.38
267.287	83.38
267.52	85.38
267.752	82.38
267.984	86.38
268.216	77.38
268.448	86.38
268.681	78.38
268.913	109.38
269.145	90.38
269.377	81.38
269.609	69.38
269.841	62.38
270.073	87.38
270.306	89.38
270.538	82.38
270.77	82.38
271.002	85.38
271.234	69.38
271.466	80.38
271.698	67.38
271.93	88.38
272.162	85.38
272.394	83.38
272.626	76.38
272.858	78.38
273.09	83.38
273.322	68.38
273.553	96.38
273.785	88.38
274.017	91.38
274.249	78.38
274.481	79.38
274.713	86.38
274.945	83.38
275.176	83.38
275.408	89.38
275.64	80.38
275.872	94.38
276.104	82.38
276.335	88.38
276.567	74.38
276.799	82.38
277.031	82.38
277.262	104.38
277.494	113.38
277.726	91.38
277.957	97.38
278.189	85.38
278.421	91.38
278.652	88.38
278.884	95.38
279.115	82.38
279.347	80.38
279.579	86.38
279.81	87.38
280.042	77.38
280.273	86.38
280.505	86.38
280.736	75.38
280.968	77.38
281.199	89.38
281.431	96.38
281.662	94.38
281.894	84.38
282.125	97.38
282.356	78.38
282.588	81.38
282.819	89.38
283.051	104.38
283.282	85.38
283.513	92.38
283.745	89.38
283.976	89.38
284.207	79.38
284.439	80.38
284.67	79.38
284.901	75.38
285.132	90.38
285.364	66.38
285.595	72.38
285.826	83.38
286.057	86.38
286.288	75.38
286.52	88.38
286.751	85.38
286.982	77.38
287.213	91.38
287.444	77.38
287.675	86.38
287.906	85.38
288.138	78.38
288.369	86.38
288.6	85.38
288.831	90.38
289.062	81.38
289.293	90.38
289.524	94.38
289.755	73.38
289.986	78.38
290.217	99.38
290.448	79.38
290.679	76.38
290.91	78.38
291.141	87.38
291.371	106.38
291.602	77.38
291.833	79.38
292.064	91.38
292.295	75.38
292.526	83.38
292.757	80.38
292.987	81.38
293.218	65.38
293.449	84.38
293.68	86.38
293.91	88.38
294.141	92.38
294.372	96.38
294.603	72.38
294.833	78.38
295.064	85.38
295.295	85.38
295.525	88.38
295.756	90.38
295.987	87.38
296.217	82.38
296.448	73.38
296.679	84.38
296.909	82.38
297.14	80.38
297.37	78.38
297.601	85.38
297.831	85.38
298.062	76.38
298.292	84.38
298.523	90.38
298.753	81.38
298.984	78.38
299.214	78.38
299.445	88.38
299.675	81.38
299.905	80.38
300.136	82.38
300.366	76.38
300.597	90.38
300.827	69.38
301.057	81.38
301.288	74.38
301.518	73.38
301.748	72.38
301.979	92.38
302.209	84.38
302.439	89.38
302.669	101.38
302.9	83.38
303.13	99.38
303.36	93.38
303.59	78.38
303.82	87.38
304.051	81.38
304.281	87.38
304.511	89.38
304.741	95.38
304.971	87.38
305.201	86.38
305.431	84.38
305.661	87.38
305.891	71.38
306.121	80.38
306.352	86.38
306.582	85.38
306.812	93.38
307.042	85.38
307.272	75.38
307.502	77.38
307.731	69.38
307.961	91.38
308.191	90.38
308.421	81.38
308.651	86.38
308.881	93.38
309.111	90.38
309.341	83.38
309.571	76.38
309.8	83.38
310.03	89.38
310.26	89.38
310.49	83.38
310.72	101.38
310.949	81.38
311.179	92.38
311.409	91.38
311.639	94.38
311.868	87.38
312.098	87.38
312.328	82.38
312.557	85.38
312.787	89.38
313.017	86.38
313.246	77.38
313.476	81.38
313.706	83.38
313.935	79.38
314.165	94.38
314.394	95.38
314.624	83.38
314.853	78.38
315.083	75.38
315.312	88.38
315.542	87.38
315.771	103.38
316.001	75.38
316.23	89.38
316.46	90.38
316.689	76.38
316.919	94.38
317.148	96.38
317.377	85.38
317.607	89.38
317.836	91.38
318.065	70.38
318.295	81.38
318.524	92.38
318.753	85.38
318.983	87.38
319.212	99.38
319.441	83.38
319.67	92.38
319.9	94.38
320.129	73.38
320.358	72.38
320.587	78.38
320.816	85.38
321.046	91.38
321.275	81.38
321.504	85.38
321.733	83.38
321.962	92.38
322.191	76.38
322.42	83.38
322.649	81.38
322.878	91.38
323.108	79.38
323.337	91.38
323.566	74.38
323.795	92.38
324.024	86.38
324.253	93.38
324.482	78.38
324.71	77.38
324.939	94.38
325.168	105.38
325.397	96.38
325.626	96.38
325.855	77.38
326.084	87.38
326.313	84.38
326.542	75.38
326.77	82.38
326.999	77.38
327.228	102.38
327.457	85.38
327.686	81.38
327.914	94.38
328.143	79.38
328.372	81.38
328.6	89.38
328.829	85.38
329.058	69.38
329.287	76.38
329.515	85.38
329.744	78.38
329.972	72.38
330.201	92.38
330.43	88.38
330.658	71.38
330.887	72.38
331.115	87.38
331.344	93.38
331.572	90.38
331.801	77.38
332.03	83.38
332.258	93.38
332.486	80.38
332.715	86.38
332.943	77.38
333.172	86.38
333.4	97.38
333.629	87.38
333.857	85.38
334.085	87.38
334.314	92.38
334.542	77.38
334.771	86.38
334.999	76.38
335.227	79.38
335.455	87.38
335.684	96.38
335.912	71.38
336.14	80.38
336.369	93.38
336.597	88.38
336.825	87.38
337.053	90.38
337.281	82.38
337.51	79.38
337.738	88.38
337.966	93.38
338.194	97.38
338.422	76.38
338.65	80.38
338.878	79.38
339.106	78.38
339.334	84.38
339.562	77.38
339.79	91.38
340.018	71.38
340.246	70.38
340.474	83.38
340.702	91.38
340.93	98.38
341.158	89.38
341.386	85.38
341.614	89.38
341.842	77.38
342.07	78.38
342.298	72.38
342.526	88.38
342.754	80.38
342.981	82.38
343.209	74.38
343.437	98.38
343.665	92.38
343.893	83.38
344.12	85.38
344.348	95.38
344.576	96.38
344.804	77.38
345.031	88.38
345.259	93.38
345.487	72.38
345.714	79.38
345.942	79.38
346.17	75.38
346.397	87.38
346.625	71.38
346.853	76.38
347.08	73.38
347.308	86.38
347.535	83.38
347.763	89.38
347.99	90.38
348.218	71.38
348.445	68.38
348.673	83.38
348.9	101.38
349.128	90.38
349.355	78.38
349.583	91.38
349.81	94.38
350.037	86.38
350.265	76.38
350.492	85.38
350.72	90.38
350.947	70.38
351.174	87.38
351.402	90.38
351.629	93.38
351.856	78.38
352.083	76.38
352.311	87.38
352.538	78.38
352.765	93.38
352.992	94.38
353.22	92.38
353.447	89.38
353.674	75.38
353.901	96.38
354.128	80.38
354.355	76.38
354.583	73.38
354.81	83.38
355.037	73.38
355.264	78.38
355.491	96.38
355.718	96.38
355.945	82.38
356.172	88.38
356.399	80.38
356.626	86.38
356.853	82.38
357.08	91.38
357.307	84.38
357.534	75.38
357.761	91.38
357.988	89.38
358.215	77.38
358.441	86.38
358.668	79.38
358.895	93.38
359.122	91.38
359.349	89.38
359.576	82.38
359.802	77.38
360.029	74.38
360.256	76.38
360.483	77.38
360.709	75.38
360.936	74.38
361.163	70.38
361.39	81.38
361.616	69.38
361.843	81.38
362.07	96.38
362.296	85.38
362.523	89.38
362.749	75.38
362.976	96.38
363.203	92.38
363.429	93.38
363.656	86.38
363.882	78.38
364.109	102.38
364.335	90.38
364.562	75.38
364.788	90.38
365.015	74.38
365.241	81.38
365.468	91.38
365.694	94.38
365.92	76.38
366.147	78.38
366.373	81.38
366.599	84.38
366.826	77.38
367.052	73.38
367.278	91.38
367.505	89.38
367.731	98.38
367.957	70.38
368.184	78.38
368.41	78.38
368.636	83.38
368.862	99.38
369.089	89.38
369.315	96.38
369.541	88.38
369.767	83.38
369.993	85.38
370.219	89.38
370.445	74.38
370.672	97.38
370.898	81.38
371.124	85.38
371.35	92.38
371.576	75.38
371.802	73.38
372.028	75.38
372.254	75.38
372.48	81.38
372.706	81.38
372.932	89.38
373.158	75.38
373.384	85.38
373.61	85.38
373.835	74.38
374.061	71.38
374.287	90.38
374.513	94.38
374.739	85.38
374.965	78.38
375.191	74.38
375.416	87.38
375.642	74.38
375.868	76.38
376.094	81.38
376.319	92.38
376.545	75.38
376.771	80.38
376.997	79.38
377.222	83.38
377.448	83.38
377.674	87.38
377.899	64.38
378.125	77.38
378.35	88.38
378.576	86.38
378.802	84.38
379.027	72.38
379.253	85.38
379.478	90.38
379.704	93.38
379.929	86.38
380.155	82.38
380.38	91.38
380.606	85.38
380.831	85.38
381.057	79.38
381.282	83.38
381.507	68.38
381.733	75.38
381.958	88.38
382.184	84.38
382.409	89.38
382.634	91.38
382.86	89.38
383.085	86.38
383.31	89.38
383.535	84.38
383.761	83.38
383.986	79.38
384.211	90.38
384.436	78.38
384.662	92.38
384.887	72.38
385.112	85.38
385.337	85.38
385.562	86.38
385.787	74.38
386.013	87.38
386.238	79.38
386.463	75.38
386.688	85.38
386.913	77.38
387.138	84.38
387.363	85.38
387.588	79.38
387.813	82.38
388.038	75.38
388.263	82.38
388.488	87.38
388.713	93.38
388.938	77.38
389.163	82.38
389.387	85.38
389.612	80.38
389.837	94.38
390.062	85.38
390.287	80.38
390.512	85.38
390.736	86.38
390.961	82.38
391.186	77.38
391.411	83.38
391.636	80.38
391.86	82.38
392.085	62.38
392.31	81.38
392.534	75.38
392.759	88.38
392.984	78.38
393.208	84.38
393.433	82.38
393.658	71.38
393.882	89.38
394.107	86.38
394.331	61.38
394.556	88.38
394.78	86.38
395.005	77.38
395.229	82.38
395.454	81.38
395.678	85.38
395.903	89.38
396.127	87.38
396.352	74.38
396.576	91.38
396.801	87.38
397.025	76.38
397.249	77.38
397.474	82.38
397.698	83.38
397.922	97.38
398.147	80.38
398.371	81.38
398.595	79.38
398.82	91.38
399.044	67.38
399.268	85.38
399.492	97.38
399.717	74.38
399.941	80.38
400.165	76.38
400.389	85.38
400.613	85.38
400.837	94.38
401.062	77.38
401.286	73.38
401.51	81.38
401.734	84.38
401.958	75.38
402.182	76.38
402.406	78.38
402.63	94.38
402.854	81.38
403.078	74.38
403.302	75.38
403.526	82.38
403.75	93.38
403.974	85.38
404.198	91.38
404.422	87.38
404.645	78.38
404.869	77.38
405.093	78.38
405.317	87.38
405.541	84.38
405.765	90.38
405.988	90.38
406.212	76.38
406.436	87.38
406.66	81.38
406.883	76.38
407.107	88.38
407.331	89.38
407.555	80.38
407.778	79.38
408.002	85.38
408.226	77.38
408.449	82.38
408.673	90.38
408.896	89.38
409.12	85.38
409.344	95.38
409.567	80.38
409.791	85.38
410.014	87.38
410.238	73.38
410.461	75.38
410.685	81.38
410.908	89.38
411.132	79.38
411.355	80.38
411.578	79.38
411.802	70.38
412.025	77.38
412.249	91.38
412.472	79.38
412.695	75.38
412.919	82.38
413.142	80.38
413.365	90.38
413.589	82.38
413.812	71.38
414.035	89.38
414.258	85.38
414.482	78.38
414.705	80.38
414.928	89.38
415.151	93.38
415.374	83.38
415.597	94.38
415.821	86.38
416.044	64.38
416.267	86.38
416.49	66.38
416.713	69.38
416.936	93.38
417.159	89.38
417.382	93.38
417.605	76.38
417.828	97.38
418.051	77.38
418.274	73.38
418.497	95.38
418.72	85.38
418.943	71.38
419.166	72.38
419.389	86.38
419.611	83.38
419.834	85.38
420.057	90.38
420.28	89.38
420.503	85.38
420.726	69.38
420.948	84.38
421.171	79.38
421.394	90.38
421.617	83.38
421.839	70.38
422.062	94.38
422.285	75.38
422.507	89.38
422.73	80.38
422.953	84.38
423.175	89.38
423.398	86.38
423.621	72.38
423.843	89.38
424.066	78.38
424.288	86.38
424.511	93.38
424.733	80.38
424.956	89.38
425.178	86.38
425.401	95.38
425.623	79.38
425.846	80.38
426.068	84.38
426.291	75.38
426.513	71.38
426.735	79.38
426.958	91.38
427.18	80.38
427.402	79.38
427.625	79.38
427.847	87.38
428.069	92.38
428.292	84.38
428.514	82.38
428.736	83.38
428.958	76.38
429.181	82.38
429.403	76.38
429.625	81.38
429.847	66.38
430.069	82.38
430.292	86.38
430.514	86.38
430.736	83.38
430.958	81.38
431.18	72.38
431.402	97.38
431.624	79.38
431.846	69.38
432.068	91.38
432.29	85.38
432.512	91.38
432.734	86.38
432.956	74.38
433.178	85.38
433.4	81.38
433.622	78.38
433.844	83.38
434.066	93.38
434.287	73.38
434.509	75.38
434.731	83.38
434.953	88.38
435.175	84.38
435.397	75.38
435.618	86.38
435.84	81.38
436.062	93.38
436.284	74.38
436.505	75.38
436.727	85.38
436.949	75.38
437.17	75.38
437.392	90.38
437.614	83.38
437.835	86.38
438.057	84.38
438.278	71.38
438.5	71.38
438.721	66.38
438.943	72.38
439.165	77.38
439.386	74.38
439.608	70.38
439.829	76.38
440.05	78.38
440.272	75.38
440.493	80.38
440.715	93.38
440.936	83.38
441.158	85.38
441.379	89.38
441.6	93.38
441.822	87.38
442.043	84.38
442.264	86.38
442.486	79.38
442.707	86.38
442.928	73.38
443.149	77.38
443.371	83.38
443.592	85.38
443.813	77.38
444.034	75.38
444.255	75.38
444.476	78.38
444.698	89.38
444.919	82.38
445.14	173.38
445.361	117.38
445.582	87.38
445.803	85.38
446.024	81.38
446.245	86.38
446.466	83.38
446.687	83.38
446.908	79.38
447.129	76.38
447.35	73.38
447.571	87.38
447.792	97.38
448.013	84.38
448.234	104.38
448.455	87.38
448.675	87.38
448.896	79.38
449.117	83.38
449.338	94.38
449.559	92.38
449.779	72.38
450	71.38
450.221	75.38
450.442	81.38
450.662	91.38
450.883	77.38
451.104	71.38
451.324	83.38
451.545	76.38
451.766	69.38
451.986	90.38
452.207	91.38
452.428	72.38
452.648	71.38
452.869	61.38
453.089	86.38
453.31	70.38
453.53	78.38
453.751	74.38
453.971	96.38
454.192	89.38
454.412	88.38
454.633	80.38
454.853	86.38
455.073	81.38
455.294	88.38
455.514	83.38
455.734	77.38
455.955	80.38
456.175	73.38
456.395	85.38
456.616	85.38
456.836	79.38
457.056	80.38
457.276	90.38
457.497	85.38
457.717	76.38
457.937	85.38
458.157	79.38
458.377	84.38
458.598	82.38
458.818	70.38
459.038	87.38
459.258	86.38
459.478	82.38
459.698	68.38
459.918	86.38
460.138	81.38
460.358	87.38
460.578	80.38
460.798	79.38
461.018	77.38
461.238	91.38
461.458	95.38
461.678	78.38
461.898	88.38
462.118	84.38
462.338	82.38
462.558	82.38
462.777	93.38
462.997	84.38
463.217	98.38
463.437	77.38
463.657	81.38
463.876	70.38
464.096	75.38
464.316	86.38
464.536	82.38
464.755	86.38
464.975	94.38
465.195	98.38
465.414	82.38
465.634	86.38
465.854	81.38
466.073	75.38
466.293	74.38
466.512	83.38
466.732	69.38
466.951	79.38
467.171	76.38
467.391	81.38
467.61	104.38
467.829	87.38
468.049	87.38
468.268	68.38
468.488	86.38
468.707	85.38
468.927	74.38
469.146	81.38
469.365	85.38
469.585	86.38
469.804	94.38
470.023	89.38
470.243	86.38
470.462	75.38
470.681	94.38
470.901	83.38
471.12	87.38
471.339	92.38
471.558	86.38
471.777	95.38
471.997	78.38
472.216	80.38
472.435	73.38
472.654	93.38
472.873	92.38
473.092	96.38
473.311	80.38
473.53	95.38
473.749	77.38
473.968	59.38
474.187	70.38
474.406	78.38
474.625	78.38
474.844	86.38
475.063	94.38
475.282	79.38
475.501	87.38
475.72	88.38
475.939	83.38
476.158	85.38
476.377	74.38
476.596	77.38
476.814	92.38
477.033	93.38
477.252	95.38
477.471	83.38
477.69	84.38
477.908	69.38
478.127	83.38
478.346	90.38
478.564	88.38
478.783	86.38
479.002	83.38
479.22	77.38
479.439	77.38
479.658	86.38
479.876	93.38
480.095	93.38
480.313	94.38
480.532	70.38
480.751	67.38
480.969	85.38
481.188	93.38
481.406	81.38
481.624	78.38
481.843	75.38
482.061	88.38
482.28	71.38
482.498	81.38
482.717	83.38
482.935	87.38
483.153	91.38
483.372	72.38
483.59	79.38
483.808	94.38
484.027	82.38
484.245	89.38
484.463	66.38
484.681	90.38
484.9	96.38
485.118	81.38
485.336	75.38
485.554	87.38
485.772	75.38
485.99	82.38
486.209	79.38
486.427	87.38
486.645	65.38
486.863	83.38
487.081	85.38
487.299	83.38
487.517	77.38
487.735	87.38
487.953	81.38
488.171	83.38
488.389	78.38
488.607	66.38
488.825	93.38
489.043	90.38
489.261	89.38
489.479	96.38
489.696	79.38
489.914	86.38
490.132	69.38
490.35	89.38
490.568	90.38
490.786	82.38
491.003	86.38
491.221	80.38
491.439	81.38
491.657	96.38
491.874	80.38
492.092	75.38
492.31	91.38
492.527	92.38
492.745	79.38
492.963	97.38
493.18	81.38
493.398	80.38
493.615	83.38
493.833	97.38
494.05	72.38
494.268	85.38
494.485	89.38
494.703	81.38
494.92	73.38
495.138	76.38
495.355	76.38
495.573	93.38
495.79	81.38
496.008	81.38
496.225	85.38
496.442	83.38
496.66	93.38
496.877	93.38
497.094	88.38
497.312	74.38
497.529	94.38
497.746	86.38
497.963	83.38
498.181	81.38
498.398	90.38
498.615	84.38
498.832	99.38
499.049	96.38
499.267	85.38
499.484	76.38
499.701	89.38
499.918	96.38
500.135	90.38
500.352	76.38
500.569	76.38
500.786	75.38
501.003	77.38
501.22	74.38
501.437	87.38
501.654	92.38
501.871	82.38
502.088	94.38
502.305	90.38
502.522	78.38
502.739	87.38
502.956	87.38
503.172	79.38
503.389	81.38
503.606	77.38
503.823	86.38
504.04	83.38
504.256	77.38
504.473	80.38
504.69	87.38
504.907	73.38
505.123	77.38
505.34	79.38
505.557	88.38
505.773	91.38
505.99	87.38
506.207	87.38
506.423	79.38
506.64	96.38
506.856	85.38
507.073	81.38
507.289	78.38
507.506	94.38
507.722	87.38
507.939	86.38
508.155	105.38
508.372	89.38
508.588	99.38
508.805	99.38
509.021	86.38
509.238	86.38
509.454	81.38
509.67	103.38
509.887	97.38
510.103	92.38
510.319	99.38
510.536	78.38
510.752	87.38
510.968	81.38
511.184	74.38
511.401	75.38
511.617	92.38
511.833	70.38
512.049	90.38
512.265	88.38
512.481	75.38
512.698	81.38
512.914	79.38
513.13	91.38
513.346	93.38
513.562	92.38
513.778	94.38
513.994	86.38
514.21	88.38
514.426	83.38
514.642	83.38
514.858	75.38
515.074	75.38
515.29	86.38
515.506	96.38
515.721	89.38
515.937	96.38
516.153	89.38
516.369	81.38
516.585	80.38
516.801	91.38
517.016	85.38
517.232	79.38
517.448	90.38
517.664	87.38
517.879	98.38
518.095	83.38
518.311	98.38
518.527	88.38
518.742	93.38
518.958	90.38
519.173	86.38
519.389	81.38
519.605	78.38
519.82	88.38
520.036	85.38
520.251	93.38
