Data from KBr_1_HRD10591_00050.txt Node
Date: Mon Jan 19 13:11:21 EST 2026
User: Yrep
Spectrometer: HR+D1059
Trigger mode: 0
Integration Time (sec): 1.000000E-1
Scans to average: 1
Electric dark correction enabled: true
Nonlinearity correction enabled: false
Boxcar width: 0
XAxis mode: Wavelengths
Number of Pixels in Spectrum: 2048
>>>>>Begin Spectral Data<<<<<
223.165	-21.94
223.4	-21.94
223.635	-21.94
223.869	-17.94
224.104	-23.94
224.338	-14.94
224.573	-29.94
224.808	-19.94
225.042	-3.94
225.277	-2.94
225.511	2.06
225.746	-2.94
225.98	19.06
226.215	11.06
226.449	16.06
226.683	14.06
226.918	38.06
227.152	38.06
227.387	43.06
227.621	44.06
227.856	35.06
228.09	48.06
228.324	64.06
228.559	63.06
228.793	64.06
229.027	59.06
229.262	71.06
229.496	56.06
229.73	85.06
229.964	88.06
230.199	84.06
230.433	81.06
230.667	85.06
230.901	94.06
231.136	81.06
231.37	84.06
231.604	75.06
231.838	70.06
232.072	80.06
232.306	80.06
232.541	69.06
232.775	94.06
233.009	61.06
233.243	77.06
233.477	72.06
233.711	80.06
233.945	81.06
234.179	82.06
234.413	79.06
234.647	99.06
234.881	74.06
235.115	81.06
235.349	88.06
235.583	84.06
235.817	81.06
236.051	79.06
236.285	77.06
236.519	63.06
236.753	77.06
236.987	75.06
237.221	59.06
237.455	62.06
237.689	87.06
237.922	80.06
238.156	71.06
238.39	81.06
238.624	73.06
238.858	79.06
239.091	80.06
239.325	82.06
239.559	89.06
239.793	78.06
240.027	80.06
240.26	63.06
240.494	66.06
240.728	83.06
240.961	78.06
241.195	74.06
241.429	74.06
241.662	85.06
241.896	77.06
242.13	82.06
242.363	71.06
242.597	76.06
242.83	85.06
243.064	67.06
243.298	66.06
243.531	76.06
243.765	86.06
243.998	74.06
244.232	71.06
244.465	71.06
244.699	76.06
244.932	82.06
245.166	79.06
245.399	80.06
245.633	78.06
245.866	72.06
246.099	58.06
246.333	75.06
246.566	88.06
246.8	76.06
247.033	75.06
247.266	71.06
247.5	79.06
247.733	80.06
247.966	72.06
248.2	78.06
248.433	84.06
248.666	84.06
248.899	78.06
249.133	81.06
249.366	81.06
249.599	85.06
249.832	70.06
250.066	67.06
250.299	75.06
250.532	81.06
250.765	78.06
250.998	78.06
251.231	73.06
251.465	84.06
251.698	84.06
251.931	74.06
252.164	80.06
252.397	57.06
252.63	66.06
252.863	73.06
253.096	64.06
253.329	71.06
253.562	75.06
253.795	81.06
254.028	64.06
254.261	76.06
254.494	78.06
254.727	72.06
254.96	81.06
255.193	74.06
255.426	73.06
255.659	78.06
255.892	71.06
256.124	69.06
256.357	89.06
256.59	87.06
256.823	78.06
257.056	85.06
257.289	77.06
257.521	86.06
257.754	71.06
257.987	78.06
258.22	83.06
258.452	86.06
258.685	71.06
258.918	83.06
259.151	80.06
259.383	79.06
259.616	76.06
259.849	87.06
260.081	83.06
260.314	79.06
260.547	72.06
260.779	67.06
261.012	80.06
261.244	77.06
261.477	80.06
261.71	81.06
261.942	83.06
262.175	85.06
262.407	73.06
262.64	82.06
262.872	79.06
263.105	83.06
263.337	83.06
263.57	81.06
263.802	84.06
264.035	71.06
264.267	77.06
264.499	86.06
264.732	75.06
264.964	81.06
265.197	85.06
265.429	69.06
265.661	88.06
265.894	85.06
266.126	79.06
266.358	88.06
266.591	80.06
266.823	79.06
267.055	78.06
267.287	79.06
267.52	71.06
267.752	70.06
267.984	84.06
268.216	88.06
268.448	79.06
268.681	89.06
268.913	96.06
269.145	93.06
269.377	86.06
269.609	81.06
269.841	73.06
270.073	79.06
270.306	90.06
270.538	95.06
270.77	77.06
271.002	80.06
271.234	87.06
271.466	83.06
271.698	74.06
271.93	75.06
272.162	81.06
272.394	85.06
272.626	76.06
272.858	83.06
273.09	89.06
273.322	69.06
273.553	71.06
273.785	91.06
274.017	71.06
274.249	81.06
274.481	82.06
274.713	91.06
274.945	79.06
275.176	85.06
275.408	79.06
275.64	79.06
275.872	87.06
276.104	81.06
276.335	73.06
276.567	87.06
276.799	76.06
277.031	81.06
277.262	79.06
277.494	84.06
277.726	80.06
277.957	75.06
278.189	83.06
278.421	80.06
278.652	73.06
278.884	77.06
279.115	82.06
279.347	73.06
279.579	77.06
279.81	74.06
280.042	89.06
280.273	83.06
280.505	91.06
280.736	69.06
280.968	82.06
281.199	86.06
281.431	86.06
281.662	88.06
281.894	81.06
282.125	64.06
282.356	76.06
282.588	69.06
282.819	69.06
283.051	100.06
283.282	85.06
283.513	86.06
283.745	84.06
283.976	73.06
284.207	80.06
284.439	81.06
284.67	78.06
284.901	79.06
285.132	71.06
285.364	79.06
285.595	90.06
285.826	85.06
286.057	72.06
286.288	71.06
286.52	80.06
286.751	84.06
286.982	81.06
287.213	83.06
287.444	79.06
287.675	101.06
287.906	92.06
288.138	63.06
288.369	86.06
288.6	82.06
288.831	78.06
289.062	85.06
289.293	89.06
289.524	80.06
289.755	102.06
289.986	87.06
290.217	88.06
290.448	77.06
290.679	78.06
290.91	88.06
291.141	75.06
291.371	73.06
291.602	88.06
291.833	80.06
292.064	73.06
292.295	100.06
292.526	88.06
292.757	91.06
292.987	81.06
293.218	80.06
293.449	84.06
293.68	85.06
293.91	83.06
294.141	95.06
294.372	80.06
294.603	79.06
294.833	89.06
295.064	89.06
295.295	95.06
295.525	85.06
295.756	79.06
295.987	80.06
296.217	85.06
296.448	77.06
296.679	80.06
296.909	96.06
297.14	87.06
297.37	83.06
297.601	85.06
297.831	100.06
298.062	87.06
298.292	73.06
298.523	77.06
298.753	74.06
298.984	91.06
299.214	78.06
299.445	75.06
299.675	83.06
299.905	97.06
300.136	87.06
300.366	89.06
300.597	87.06
300.827	71.06
301.057	80.06
301.288	91.06
301.518	87.06
301.748	82.06
301.979	110.06
302.209	79.06
302.439	75.06
302.669	72.06
302.9	85.06
303.13	76.06
303.36	92.06
303.59	85.06
303.82	77.06
304.051	77.06
304.281	97.06
304.511	85.06
304.741	88.06
304.971	88.06
305.201	97.06
305.431	69.06
305.661	72.06
305.891	82.06
306.121	91.06
306.352	89.06
306.582	83.06
306.812	90.06
307.042	75.06
307.272	90.06
307.502	76.06
307.731	93.06
307.961	77.06
308.191	83.06
308.421	77.06
308.651	88.06
308.881	84.06
309.111	88.06
309.341	85.06
309.571	96.06
309.8	72.06
310.03	80.06
310.26	74.06
310.49	94.06
310.72	91.06
310.949	83.06
311.179	90.06
311.409	83.06
311.639	86.06
311.868	99.06
312.098	75.06
312.328	104.06
312.557	80.06
312.787	95.06
313.017	78.06
313.246	81.06
313.476	82.06
313.706	77.06
313.935	69.06
314.165	80.06
314.394	82.06
314.624	84.06
314.853	96.06
315.083	78.06
315.312	102.06
315.542	78.06
315.771	85.06
316.001	94.06
316.23	88.06
316.46	77.06
316.689	77.06
316.919	72.06
317.148	87.06
317.377	90.06
317.607	73.06
317.836	86.06
318.065	80.06
318.295	89.06
318.524	97.06
318.753	79.06
318.983	80.06
319.212	88.06
319.441	91.06
319.67	92.06
319.9	73.06
320.129	93.06
320.358	85.06
320.587	73.06
320.816	82.06
321.046	79.06
321.275	80.06
321.504	82.06
321.733	99.06
321.962	81.06
322.191	81.06
322.42	88.06
322.649	96.06
322.878	84.06
323.108	95.06
323.337	79.06
323.566	93.06
323.795	83.06
324.024	77.06
324.253	87.06
324.482	85.06
324.71	66.06
324.939	94.06
325.168	83.06
325.397	91.06
325.626	91.06
325.855	85.06
326.084	73.06
326.313	89.06
326.542	85.06
326.77	87.06
326.999	83.06
327.228	88.06
327.457	87.06
327.686	79.06
327.914	78.06
328.143	99.06
328.372	77.06
328.6	80.06
328.829	92.06
329.058	82.06
329.287	83.06
329.515	88.06
329.744	90.06
329.972	78.06
330.201	88.06
330.43	83.06
330.658	93.06
330.887	93.06
331.115	84.06
331.344	83.06
331.572	80.06
331.801	92.06
332.03	83.06
332.258	94.06
332.486	87.06
332.715	81.06
332.943	80.06
333.172	78.06
333.4	84.06
333.629	84.06
333.857	85.06
334.085	93.06
334.314	101.06
334.542	75.06
334.771	78.06
334.999	94.06
335.227	80.06
335.455	75.06
335.684	78.06
335.912	90.06
336.14	79.06
336.369	84.06
336.597	83.06
336.825	85.06
337.053	72.06
337.281	78.06
337.51	92.06
337.738	90.06
337.966	75.06
338.194	73.06
338.422	85.06
338.65	83.06
338.878	96.06
339.106	90.06
339.334	93.06
339.562	75.06
339.79	100.06
340.018	84.06
340.246	84.06
340.474	97.06
340.702	87.06
340.93	84.06
341.158	82.06
341.386	79.06
341.614	80.06
341.842	93.06
342.07	92.06
342.298	72.06
342.526	86.06
342.754	70.06
342.981	81.06
343.209	88.06
343.437	96.06
343.665	76.06
343.893	95.06
344.12	83.06
344.348	73.06
344.576	84.06
344.804	76.06
345.031	90.06
345.259	62.06
345.487	77.06
345.714	71.06
345.942	97.06
346.17	92.06
346.397	78.06
346.625	88.06
346.853	87.06
347.08	85.06
347.308	87.06
347.535	81.06
347.763	80.06
347.99	86.06
348.218	77.06
348.445	65.06
348.673	86.06
348.9	102.06
349.128	87.06
349.355	71.06
349.583	79.06
349.81	102.06
350.037	66.06
350.265	81.06
350.492	82.06
350.72	89.06
350.947	92.06
351.174	81.06
351.402	89.06
351.629	94.06
351.856	72.06
352.083	93.06
352.311	91.06
352.538	70.06
352.765	92.06
352.992	90.06
353.22	86.06
353.447	77.06
353.674	96.06
353.901	83.06
354.128	93.06
354.355	74.06
354.583	91.06
354.81	80.06
355.037	92.06
355.264	72.06
355.491	87.06
355.718	88.06
355.945	70.06
356.172	79.06
356.399	90.06
356.626	75.06
356.853	97.06
357.08	88.06
357.307	89.06
357.534	85.06
357.761	83.06
357.988	74.06
358.215	88.06
358.441	77.06
358.668	84.06
358.895	90.06
359.122	86.06
359.349	82.06
359.576	77.06
359.802	90.06
360.029	94.06
360.256	87.06
360.483	79.06
360.709	77.06
360.936	84.06
361.163	73.06
361.39	77.06
361.616	71.06
361.843	81.06
362.07	95.06
362.296	78.06
362.523	90.06
362.749	88.06
362.976	72.06
363.203	92.06
363.429	86.06
363.656	85.06
363.882	83.06
364.109	83.06
364.335	84.06
364.562	77.06
364.788	74.06
365.015	76.06
365.241	90.06
365.468	77.06
365.694	76.06
365.92	84.06
366.147	74.06
366.373	83.06
366.599	84.06
366.826	93.06
367.052	85.06
367.278	77.06
367.505	83.06
367.731	86.06
367.957	88.06
368.184	66.06
368.41	79.06
368.636	74.06
368.862	79.06
369.089	81.06
369.315	76.06
369.541	67.06
369.767	84.06
369.993	94.06
370.219	79.06
370.445	82.06
370.672	80.06
370.898	75.06
371.124	69.06
371.35	95.06
371.576	76.06
371.802	79.06
372.028	70.06
372.254	88.06
372.48	72.06
372.706	81.06
372.932	75.06
373.158	84.06
373.384	66.06
373.61	80.06
373.835	80.06
374.061	73.06
374.287	84.06
374.513	84.06
374.739	78.06
374.965	69.06
375.191	63.06
375.416	80.06
375.642	86.06
375.868	73.06
376.094	95.06
376.319	83.06
376.545	80.06
376.771	92.06
376.997	88.06
377.222	79.06
377.448	77.06
377.674	60.06
377.899	86.06
378.125	83.06
378.35	87.06
378.576	78.06
378.802	79.06
379.027	67.06
379.253	87.06
379.478	84.06
379.704	79.06
379.929	86.06
380.155	88.06
380.38	81.06
380.606	91.06
380.831	92.06
381.057	73.06
381.282	75.06
381.507	91.06
381.733	81.06
381.958	91.06
382.184	68.06
382.409	89.06
382.634	87.06
382.86	82.06
383.085	86.06
383.31	81.06
383.535	91.06
383.761	86.06
383.986	78.06
384.211	94.06
384.436	75.06
384.662	82.06
384.887	75.06
385.112	84.06
385.337	82.06
385.562	89.06
385.787	88.06
386.013	81.06
386.238	79.06
386.463	67.06
386.688	82.06
386.913	87.06
387.138	83.06
387.363	85.06
387.588	89.06
387.813	89.06
388.038	79.06
388.263	83.06
388.488	78.06
388.713	93.06
388.938	78.06
389.163	80.06
389.387	83.06
389.612	64.06
389.837	88.06
390.062	67.06
390.287	75.06
390.512	71.06
390.736	72.06
390.961	75.06
391.186	75.06
391.411	77.06
391.636	80.06
391.86	85.06
392.085	85.06
392.31	88.06
392.534	87.06
392.759	75.06
392.984	79.06
393.208	86.06
393.433	79.06
393.658	88.06
393.882	70.06
394.107	82.06
394.331	79.06
394.556	87.06
394.78	79.06
395.005	76.06
395.229	79.06
395.454	72.06
395.678	75.06
395.903	83.06
396.127	83.06
396.352	90.06
396.576	81.06
396.801	73.06
397.025	93.06
397.249	80.06
397.474	85.06
397.698	87.06
397.922	89.06
398.147	75.06
398.371	89.06
398.595	78.06
398.82	75.06
399.044	69.06
399.268	72.06
399.492	80.06
399.717	83.06
399.941	83.06
400.165	84.06
400.389	81.06
400.613	75.06
400.837	83.06
401.062	82.06
401.286	65.06
401.51	85.06
401.734	76.06
401.958	80.06
402.182	77.06
402.406	77.06
402.63	85.06
402.854	92.06
403.078	65.06
403.302	73.06
403.526	83.06
403.75	86.06
403.974	85.06
404.198	88.06
404.422	76.06
404.645	81.06
404.869	73.06
405.093	54.06
405.317	72.06
405.541	81.06
405.765	73.06
405.988	81.06
406.212	72.06
406.436	71.06
406.66	77.06
406.883	89.06
407.107	82.06
407.331	79.06
407.555	70.06
407.778	73.06
408.002	78.06
408.226	78.06
408.449	86.06
408.673	84.06
408.896	78.06
409.12	71.06
409.344	75.06
409.567	79.06
409.791	70.06
410.014	89.06
410.238	80.06
410.461	77.06
410.685	81.06
410.908	63.06
411.132	81.06
411.355	68.06
411.578	81.06
411.802	80.06
412.025	75.06
412.249	83.06
412.472	73.06
412.695	68.06
412.919	91.06
413.142	81.06
413.365	80.06
413.589	84.06
413.812	80.06
414.035	73.06
414.258	71.06
414.482	74.06
414.705	78.06
414.928	85.06
415.151	81.06
415.374	81.06
415.597	90.06
415.821	76.06
416.044	79.06
416.267	100.06
416.49	90.06
416.713	95.06
416.936	80.06
417.159	82.06
417.382	73.06
417.605	79.06
417.828	84.06
418.051	80.06
418.274	68.06
418.497	84.06
418.72	74.06
418.943	79.06
419.166	81.06
419.389	85.06
419.611	85.06
419.834	89.06
420.057	86.06
420.28	75.06
420.503	81.06
420.726	77.06
420.948	80.06
421.171	76.06
421.394	70.06
421.617	72.06
421.839	88.06
422.062	82.06
422.285	82.06
422.507	87.06
422.73	78.06
422.953	75.06
423.175	79.06
423.398	66.06
423.621	83.06
423.843	83.06
424.066	76.06
424.288	72.06
424.511	88.06
424.733	81.06
424.956	88.06
425.178	68.06
425.401	76.06
425.623	80.06
425.846	88.06
426.068	85.06
426.291	92.06
426.513	75.06
426.735	56.06
426.958	79.06
427.18	83.06
427.402	75.06
427.625	81.06
427.847	77.06
428.069	84.06
428.292	83.06
428.514	90.06
428.736	76.06
428.958	89.06
429.181	78.06
429.403	69.06
429.625	81.06
429.847	78.06
430.069	84.06
430.292	79.06
430.514	73.06
430.736	80.06
430.958	78.06
431.18	73.06
431.402	73.06
431.624	68.06
431.846	87.06
432.068	99.06
432.29	75.06
432.512	83.06
432.734	77.06
432.956	79.06
433.178	83.06
433.4	85.06
433.622	69.06
433.844	89.06
434.066	88.06
434.287	85.06
434.509	77.06
434.731	78.06
434.953	74.06
435.175	74.06
435.397	70.06
435.618	92.06
435.84	80.06
436.062	72.06
436.284	68.06
436.505	92.06
436.727	88.06
436.949	100.06
437.17	69.06
437.392	91.06
437.614	86.06
437.835	97.06
438.057	88.06
438.278	83.06
438.5	76.06
438.721	88.06
438.943	72.06
439.165	79.06
439.386	82.06
439.608	78.06
439.829	74.06
440.05	76.06
440.272	75.06
440.493	82.06
440.715	75.06
440.936	81.06
441.158	79.06
441.379	78.06
441.6	86.06
441.822	80.06
442.043	85.06
442.264	81.06
442.486	79.06
442.707	81.06
442.928	73.06
443.149	84.06
443.371	77.06
443.592	81.06
443.813	79.06
444.034	84.06
444.255	75.06
444.476	89.06
444.698	92.06
444.919	82.06
445.14	149.06
445.361	116.06
445.582	77.06
445.803	85.06
446.024	83.06
446.245	82.06
446.466	80.06
446.687	81.06
446.908	88.06
447.129	94.06
447.35	54.06
447.571	72.06
447.792	95.06
448.013	88.06
448.234	85.06
448.455	82.06
448.675	67.06
448.896	88.06
449.117	91.06
449.338	79.06
449.559	94.06
449.779	88.06
450	81.06
450.221	83.06
450.442	73.06
450.662	81.06
450.883	75.06
451.104	67.06
451.324	81.06
451.545	73.06
451.766	79.06
451.986	61.06
452.207	83.06
452.428	90.06
452.648	80.06
452.869	75.06
453.089	80.06
453.31	64.06
453.53	81.06
453.751	77.06
453.971	89.06
454.192	85.06
454.412	76.06
454.633	85.06
454.853	69.06
455.073	71.06
455.294	70.06
455.514	94.06
455.734	73.06
455.955	80.06
456.175	78.06
456.395	76.06
456.616	72.06
456.836	88.06
457.056	85.06
457.276	80.06
457.497	75.06
457.717	84.06
457.937	76.06
458.157	79.06
458.377	84.06
458.598	87.06
458.818	84.06
459.038	63.06
459.258	66.06
459.478	77.06
459.698	71.06
459.918	72.06
460.138	76.06
460.358	79.06
460.578	73.06
460.798	95.06
461.018	76.06
461.238	85.06
461.458	75.06
461.678	78.06
461.898	68.06
462.118	101.06
462.338	71.06
462.558	84.06
462.777	71.06
462.997	68.06
463.217	59.06
463.437	90.06
463.657	82.06
463.876	91.06
464.096	61.06
464.316	81.06
464.536	85.06
464.755	81.06
464.975	83.06
465.195	83.06
465.414	84.06
465.634	93.06
465.854	87.06
466.073	81.06
466.293	84.06
466.512	74.06
466.732	90.06
466.951	85.06
467.171	67.06
467.391	75.06
467.61	71.06
467.829	80.06
468.049	89.06
468.268	82.06
468.488	80.06
468.707	85.06
468.927	83.06
469.146	80.06
469.365	77.06
469.585	80.06
469.804	85.06
470.023	83.06
470.243	76.06
470.462	94.06
470.681	93.06
470.901	80.06
471.12	74.06
471.339	68.06
471.558	84.06
471.777	91.06
471.997	91.06
472.216	71.06
472.435	69.06
472.654	81.06
472.873	74.06
473.092	86.06
473.311	78.06
473.53	80.06
473.749	69.06
473.968	80.06
474.187	75.06
474.406	81.06
474.625	97.06
474.844	79.06
475.063	73.06
475.282	80.06
475.501	73.06
475.72	79.06
475.939	87.06
476.158	83.06
476.377	80.06
476.596	79.06
476.814	84.06
477.033	89.06
477.252	79.06
477.471	84.06
477.69	73.06
477.908	88.06
478.127	93.06
478.346	74.06
478.564	76.06
478.783	84.06
479.002	77.06
479.22	77.06
479.439	82.06
479.658	85.06
479.876	73.06
480.095	93.06
480.313	81.06
480.532	71.06
480.751	87.06
480.969	82.06
481.188	75.06
481.406	77.06
481.624	77.06
481.843	75.06
482.061	76.06
482.28	80.06
482.498	76.06
482.717	79.06
482.935	74.06
483.153	79.06
483.372	91.06
483.59	94.06
483.808	87.06
484.027	79.06
484.245	71.06
484.463	69.06
484.681	92.06
484.9	87.06
485.118	95.06
485.336	74.06
485.554	75.06
485.772	75.06
485.99	97.06
486.209	89.06
486.427	80.06
486.645	90.06
486.863	73.06
487.081	83.06
487.299	85.06
487.517	91.06
487.735	86.06
487.953	77.06
488.171	80.06
488.389	79.06
488.607	78.06
488.825	85.06
489.043	87.06
489.261	83.06
489.479	79.06
489.696	84.06
489.914	79.06
490.132	75.06
490.35	78.06
490.568	89.06
490.786	69.06
491.003	72.06
491.221	63.06
491.439	66.06
491.657	79.06
491.874	85.06
492.092	88.06
492.31	85.06
492.527	79.06
492.745	81.06
492.963	85.06
493.18	97.06
493.398	94.06
493.615	88.06
493.833	74.06
494.05	85.06
494.268	84.06
494.485	69.06
494.703	70.06
494.92	92.06
495.138	74.06
495.355	87.06
495.573	86.06
495.79	83.06
496.008	78.06
496.225	93.06
496.442	72.06
496.66	73.06
496.877	73.06
497.094	79.06
497.312	71.06
497.529	66.06
497.746	76.06
497.963	91.06
498.181	92.06
498.398	86.06
498.615	65.06
498.832	95.06
499.049	78.06
499.267	87.06
499.484	86.06
499.701	87.06
499.918	89.06
500.135	86.06
500.352	77.06
500.569	88.06
500.786	82.06
501.003	89.06
501.22	86.06
501.437	87.06
501.654	81.06
501.871	91.06
502.088	82.06
502.305	85.06
502.522	93.06
502.739	91.06
502.956	82.06
503.172	84.06
503.389	89.06
503.606	89.06
503.823	85.06
504.04	100.06
504.256	93.06
504.473	85.06
504.69	80.06
504.907	86.06
505.123	74.06
505.34	78.06
505.557	84.06
505.773	86.06
505.99	79.06
506.207	84.06
506.423	65.06
506.64	75.06
506.856	71.06
507.073	75.06
507.289	87.06
507.506	73.06
507.722	90.06
507.939	90.06
508.155	84.06
508.372	78.06
508.588	87.06
508.805	77.06
509.021	82.06
509.238	85.06
509.454	77.06
509.67	73.06
509.887	103.06
510.103	75.06
510.319	76.06
510.536	79.06
510.752	94.06
510.968	79.06
511.184	79.06
511.401	79.06
511.617	94.06
511.833	88.06
512.049	79.06
512.265	89.06
512.481	76.06
512.698	89.06
512.914	80.06
513.13	86.06
513.346	75.06
513.562	87.06
513.778	91.06
513.994	95.06
514.21	89.06
514.426	90.06
514.642	84.06
514.858	92.06
515.074	81.06
515.29	89.06
515.506	77.06
515.721	81.06
515.937	90.06
516.153	88.06
516.369	87.06
516.585	77.06
516.801	83.06
517.016	89.06
517.232	80.06
517.448	75.06
517.664	81.06
517.879	67.06
518.095	78.06
518.311	94.06
518.527	87.06
518.742	75.06
518.958	64.06
519.173	95.06
519.389	80.06
519.605	78.06
519.82	77.06
520.036	94.06
