Data from KBr_1_HRD10591_00009.txt Node
Date: Mon Jan 19 13:11:17 EST 2026
User: Yrep
Spectrometer: HR+D1059
Trigger mode: 0
Integration Time (sec): 1.000000E-1
Scans to average: 1
Electric dark correction enabled: true
Nonlinearity correction enabled: false
Boxcar width: 0
XAxis mode: Wavelengths
Number of Pixels in Spectrum: 2048
>>>>>Begin Spectral Data<<<<<
223.165	-21.25
223.4	-21.25
223.635	-21.25
223.869	-16.25
224.104	-12.25
224.338	-23.25
224.573	-13.25
224.808	-11.25
225.042	-7.25
225.277	-12.25
225.511	-17.25
225.746	4.75
225.98	4.75
226.215	3.75
226.449	23.75
226.683	27.75
226.918	23.75
227.152	45.75
227.387	34.75
227.621	34.75
227.856	35.75
228.09	40.75
228.324	51.75
228.559	52.75
228.793	64.75
229.027	59.75
229.262	54.75
229.496	52.75
229.73	65.75
229.964	65.75
230.199	71.75
230.433	82.75
230.667	74.75
230.901	69.75
231.136	71.75
231.37	81.75
231.604	77.75
231.838	70.75
232.072	78.75
232.306	78.75
232.541	81.75
232.775	62.75
233.009	73.75
233.243	85.75
233.477	76.75
233.711	75.75
233.945	72.75
234.179	72.75
234.413	75.75
234.647	73.75
234.881	76.75
235.115	77.75
235.349	64.75
235.583	83.75
235.817	76.75
236.051	87.75
236.285	70.75
236.519	59.75
236.753	74.75
236.987	76.75
237.221	76.75
237.455	75.75
237.689	71.75
237.922	66.75
238.156	80.75
238.39	75.75
238.624	72.75
238.858	70.75
239.091	88.75
239.325	63.75
239.559	69.75
239.793	74.75
240.027	79.75
240.26	80.75
240.494	72.75
240.728	76.75
240.961	75.75
241.195	85.75
241.429	75.75
241.662	73.75
241.896	63.75
242.13	80.75
242.363	59.75
242.597	65.75
242.83	71.75
243.064	81.75
243.298	69.75
243.531	61.75
243.765	64.75
243.998	58.75
244.232	76.75
244.465	62.75
244.699	78.75
244.932	69.75
245.166	70.75
245.399	73.75
245.633	65.75
245.866	66.75
246.099	77.75
246.333	83.75
246.566	78.75
246.8	71.75
247.033	72.75
247.266	69.75
247.5	88.75
247.733	75.75
247.966	61.75
248.2	77.75
248.433	58.75
248.666	75.75
248.899	75.75
249.133	74.75
249.366	75.75
249.599	70.75
249.832	75.75
250.066	79.75
250.299	76.75
250.532	67.75
250.765	61.75
250.998	79.75
251.231	70.75
251.465	79.75
251.698	69.75
251.931	79.75
252.164	85.75
252.397	51.75
252.63	85.75
252.863	66.75
253.096	79.75
253.329	60.75
253.562	72.75
253.795	78.75
254.028	84.75
254.261	72.75
254.494	78.75
254.727	83.75
254.96	66.75
255.193	87.75
255.426	76.75
255.659	79.75
255.892	84.75
256.124	55.75
256.357	81.75
256.59	88.75
256.823	64.75
257.056	76.75
257.289	77.75
257.521	80.75
257.754	60.75
257.987	75.75
258.22	75.75
258.452	71.75
258.685	83.75
258.918	73.75
259.151	81.75
259.383	71.75
259.616	86.75
259.849	73.75
260.081	72.75
260.314	73.75
260.547	67.75
260.779	75.75
261.012	72.75
261.244	78.75
261.477	78.75
261.71	71.75
261.942	82.75
262.175	72.75
262.407	71.75
262.64	77.75
262.872	76.75
263.105	87.75
263.337	75.75
263.57	67.75
263.802	73.75
264.035	72.75
264.267	70.75
264.499	68.75
264.732	80.75
264.964	75.75
265.197	82.75
265.429	76.75
265.661	88.75
265.894	70.75
266.126	75.75
266.358	76.75
266.591	90.75
266.823	67.75
267.055	91.75
267.287	81.75
267.52	76.75
267.752	81.75
267.984	64.75
268.216	80.75
268.448	78.75
268.681	66.75
268.913	72.75
269.145	61.75
269.377	88.75
269.609	67.75
269.841	71.75
270.073	71.75
270.306	90.75
270.538	74.75
270.77	81.75
271.002	81.75
271.234	77.75
271.466	82.75
271.698	76.75
271.93	74.75
272.162	72.75
272.394	79.75
272.626	90.75
272.858	63.75
273.09	79.75
273.322	79.75
273.553	69.75
273.785	94.75
274.017	94.75
274.249	89.75
274.481	67.75
274.713	72.75
274.945	68.75
275.176	68.75
275.408	80.75
275.64	82.75
275.872	66.75
276.104	77.75
276.335	95.75
276.567	77.75
276.799	77.75
277.031	69.75
277.262	84.75
277.494	80.75
277.726	90.75
277.957	78.75
278.189	84.75
278.421	69.75
278.652	83.75
278.884	69.75
279.115	84.75
279.347	75.75
279.579	84.75
279.81	73.75
280.042	71.75
280.273	74.75
280.505	74.75
280.736	82.75
280.968	90.75
281.199	71.75
281.431	75.75
281.662	80.75
281.894	81.75
282.125	90.75
282.356	81.75
282.588	77.75
282.819	68.75
283.051	88.75
283.282	66.75
283.513	96.75
283.745	81.75
283.976	76.75
284.207	81.75
284.439	81.75
284.67	69.75
284.901	89.75
285.132	78.75
285.364	65.75
285.595	90.75
285.826	75.75
286.057	83.75
286.288	79.75
286.52	74.75
286.751	84.75
286.982	72.75
287.213	91.75
287.444	83.75
287.675	78.75
287.906	81.75
288.138	70.75
288.369	54.75
288.6	74.75
288.831	82.75
289.062	59.75
289.293	83.75
289.524	72.75
289.755	88.75
289.986	77.75
290.217	92.75
290.448	71.75
290.679	85.75
290.91	87.75
291.141	80.75
291.371	74.75
291.602	86.75
291.833	89.75
292.064	82.75
292.295	80.75
292.526	83.75
292.757	80.75
292.987	83.75
293.218	83.75
293.449	86.75
293.68	65.75
293.91	70.75
294.141	67.75
294.372	88.75
294.603	92.75
294.833	82.75
295.064	82.75
295.295	70.75
295.525	78.75
295.756	86.75
295.987	83.75
296.217	80.75
296.448	75.75
296.679	83.75
296.909	65.75
297.14	68.75
297.37	73.75
297.601	83.75
297.831	76.75
298.062	81.75
298.292	76.75
298.523	93.75
298.753	85.75
298.984	73.75
299.214	67.75
299.445	91.75
299.675	83.75
299.905	73.75
300.136	80.75
300.366	79.75
300.597	87.75
300.827	76.75
301.057	75.75
301.288	66.75
301.518	83.75
301.748	58.75
301.979	86.75
302.209	81.75
302.439	75.75
302.669	70.75
302.9	70.75
303.13	72.75
303.36	69.75
303.59	82.75
303.82	75.75
304.051	75.75
304.281	73.75
304.511	83.75
304.741	79.75
304.971	73.75
305.201	81.75
305.431	82.75
305.661	78.75
305.891	75.75
306.121	81.75
306.352	71.75
306.582	85.75
306.812	86.75
307.042	84.75
307.272	75.75
307.502	71.75
307.731	97.75
307.961	92.75
308.191	72.75
308.421	87.75
308.651	85.75
308.881	74.75
309.111	75.75
309.341	67.75
309.571	77.75
309.8	77.75
310.03	75.75
310.26	71.75
310.49	95.75
310.72	79.75
310.949	70.75
311.179	84.75
311.409	80.75
311.639	76.75
311.868	85.75
312.098	74.75
312.328	70.75
312.557	81.75
312.787	85.75
313.017	88.75
313.246	79.75
313.476	88.75
313.706	72.75
313.935	77.75
314.165	78.75
314.394	63.75
314.624	77.75
314.853	81.75
315.083	87.75
315.312	63.75
315.542	79.75
315.771	96.75
316.001	88.75
316.23	89.75
316.46	82.75
316.689	85.75
316.919	92.75
317.148	84.75
317.377	94.75
317.607	83.75
317.836	61.75
318.065	99.75
318.295	83.75
318.524	80.75
318.753	76.75
318.983	73.75
319.212	83.75
319.441	89.75
319.67	76.75
319.9	96.75
320.129	90.75
320.358	95.75
320.587	72.75
320.816	76.75
321.046	72.75
321.275	78.75
321.504	85.75
321.733	76.75
321.962	79.75
322.191	83.75
322.42	73.75
322.649	71.75
322.878	79.75
323.108	76.75
323.337	101.75
323.566	76.75
323.795	73.75
324.024	76.75
324.253	82.75
324.482	72.75
324.71	73.75
324.939	81.75
325.168	81.75
325.397	75.75
325.626	85.75
325.855	78.75
326.084	84.75
326.313	87.75
326.542	79.75
326.77	75.75
326.999	84.75
327.228	85.75
327.457	79.75
327.686	70.75
327.914	83.75
328.143	85.75
328.372	79.75
328.6	80.75
328.829	77.75
329.058	84.75
329.287	84.75
329.515	97.75
329.744	76.75
329.972	75.75
330.201	68.75
330.43	77.75
330.658	70.75
330.887	74.75
331.115	88.75
331.344	73.75
331.572	81.75
331.801	81.75
332.03	84.75
332.258	80.75
332.486	75.75
332.715	73.75
332.943	83.75
333.172	75.75
333.4	61.75
333.629	79.75
333.857	95.75
334.085	105.75
334.314	76.75
334.542	71.75
334.771	73.75
334.999	70.75
335.227	91.75
335.455	86.75
335.684	89.75
335.912	74.75
336.14	73.75
336.369	83.75
336.597	83.75
336.825	84.75
337.053	68.75
337.281	89.75
337.51	76.75
337.738	86.75
337.966	79.75
338.194	73.75
338.422	88.75
338.65	83.75
338.878	95.75
339.106	61.75
339.334	91.75
339.562	71.75
339.79	83.75
340.018	88.75
340.246	89.75
340.474	68.75
340.702	75.75
340.93	84.75
341.158	65.75
341.386	85.75
341.614	91.75
341.842	81.75
342.07	84.75
342.298	77.75
342.526	80.75
342.754	77.75
342.981	85.75
343.209	69.75
343.437	91.75
343.665	70.75
343.893	78.75
344.12	75.75
344.348	83.75
344.576	89.75
344.804	85.75
345.031	84.75
345.259	72.75
345.487	88.75
345.714	72.75
345.942	86.75
346.17	89.75
346.397	71.75
346.625	74.75
346.853	77.75
347.08	81.75
347.308	77.75
347.535	75.75
347.763	73.75
347.99	76.75
348.218	85.75
348.445	77.75
348.673	74.75
348.9	78.75
349.128	80.75
349.355	75.75
349.583	88.75
349.81	83.75
350.037	71.75
350.265	84.75
350.492	77.75
350.72	71.75
350.947	80.75
351.174	77.75
351.402	66.75
351.629	71.75
351.856	77.75
352.083	75.75
352.311	70.75
352.538	59.75
352.765	81.75
352.992	87.75
353.22	79.75
353.447	86.75
353.674	80.75
353.901	76.75
354.128	73.75
354.355	78.75
354.583	78.75
354.81	83.75
355.037	71.75
355.264	98.75
355.491	71.75
355.718	71.75
355.945	83.75
356.172	89.75
356.399	98.75
356.626	84.75
356.853	78.75
357.08	97.75
357.307	72.75
357.534	66.75
357.761	81.75
357.988	83.75
358.215	81.75
358.441	80.75
358.668	96.75
358.895	87.75
359.122	79.75
359.349	86.75
359.576	84.75
359.802	81.75
360.029	89.75
360.256	87.75
360.483	82.75
360.709	85.75
360.936	82.75
361.163	85.75
361.39	87.75
361.616	77.75
361.843	67.75
362.07	97.75
362.296	73.75
362.523	75.75
362.749	70.75
362.976	78.75
363.203	73.75
363.429	82.75
363.656	76.75
363.882	63.75
364.109	72.75
364.335	90.75
364.562	79.75
364.788	74.75
365.015	80.75
365.241	83.75
365.468	65.75
365.694	51.75
365.92	75.75
366.147	75.75
366.373	89.75
366.599	68.75
366.826	88.75
367.052	84.75
367.278	80.75
367.505	74.75
367.731	82.75
367.957	79.75
368.184	72.75
368.41	81.75
368.636	77.75
368.862	88.75
369.089	82.75
369.315	78.75
369.541	76.75
369.767	72.75
369.993	82.75
370.219	75.75
370.445	70.75
370.672	70.75
370.898	87.75
371.124	71.75
371.35	65.75
371.576	97.75
371.802	66.75
372.028	77.75
372.254	85.75
372.48	69.75
372.706	83.75
372.932	85.75
373.158	70.75
373.384	83.75
373.61	73.75
373.835	96.75
374.061	91.75
374.287	60.75
374.513	80.75
374.739	65.75
374.965	72.75
375.191	81.75
375.416	68.75
375.642	68.75
375.868	69.75
376.094	80.75
376.319	83.75
376.545	86.75
376.771	91.75
376.997	81.75
377.222	71.75
377.448	75.75
377.674	77.75
377.899	85.75
378.125	78.75
378.35	83.75
378.576	82.75
378.802	73.75
379.027	62.75
379.253	82.75
379.478	98.75
379.704	92.75
379.929	65.75
380.155	73.75
380.38	80.75
380.606	85.75
380.831	75.75
381.057	81.75
381.282	69.75
381.507	67.75
381.733	81.75
381.958	79.75
382.184	91.75
382.409	66.75
382.634	81.75
382.86	77.75
383.085	79.75
383.31	86.75
383.535	71.75
383.761	76.75
383.986	69.75
384.211	85.75
384.436	72.75
384.662	85.75
384.887	77.75
385.112	80.75
385.337	57.75
385.562	72.75
385.787	86.75
386.013	71.75
386.238	75.75
386.463	73.75
386.688	76.75
386.913	75.75
387.138	80.75
387.363	95.75
387.588	79.75
387.813	95.75
388.038	73.75
388.263	76.75
388.488	80.75
388.713	77.75
388.938	71.75
389.163	75.75
389.387	80.75
389.612	79.75
389.837	86.75
390.062	76.75
390.287	72.75
390.512	76.75
390.736	76.75
390.961	79.75
391.186	72.75
391.411	81.75
391.636	60.75
391.86	70.75
392.085	85.75
392.31	68.75
392.534	77.75
392.759	82.75
392.984	76.75
393.208	81.75
393.433	77.75
393.658	77.75
393.882	73.75
394.107	62.75
394.331	82.75
394.556	86.75
394.78	91.75
395.005	68.75
395.229	80.75
395.454	83.75
395.678	88.75
395.903	79.75
396.127	64.75
396.352	72.75
396.576	72.75
396.801	75.75
397.025	74.75
397.249	74.75
397.474	71.75
397.698	83.75
397.922	74.75
398.147	77.75
398.371	85.75
398.595	79.75
398.82	64.75
399.044	84.75
399.268	77.75
399.492	69.75
399.717	76.75
399.941	67.75
400.165	71.75
400.389	72.75
400.613	88.75
400.837	88.75
401.062	77.75
401.286	76.75
401.51	100.75
401.734	76.75
401.958	90.75
402.182	69.75
402.406	84.75
402.63	85.75
402.854	88.75
403.078	76.75
403.302	83.75
403.526	74.75
403.75	64.75
403.974	62.75
404.198	68.75
404.422	90.75
404.645	83.75
404.869	72.75
405.093	79.75
405.317	74.75
405.541	75.75
405.765	82.75
405.988	69.75
406.212	73.75
406.436	80.75
406.66	77.75
406.883	69.75
407.107	85.75
407.331	71.75
407.555	73.75
407.778	74.75
408.002	77.75
408.226	79.75
408.449	67.75
408.673	84.75
408.896	87.75
409.12	67.75
409.344	74.75
409.567	71.75
409.791	71.75
410.014	86.75
410.238	81.75
410.461	74.75
410.685	71.75
410.908	80.75
411.132	77.75
411.355	77.75
411.578	88.75
411.802	83.75
412.025	64.75
412.249	66.75
412.472	87.75
412.695	86.75
412.919	87.75
413.142	87.75
413.365	72.75
413.589	81.75
413.812	74.75
414.035	77.75
414.258	81.75
414.482	74.75
414.705	73.75
414.928	71.75
415.151	85.75
415.374	72.75
415.597	89.75
415.821	79.75
416.044	95.75
416.267	70.75
416.49	82.75
416.713	87.75
416.936	89.75
417.159	78.75
417.382	73.75
417.605	64.75
417.828	74.75
418.051	74.75
418.274	79.75
418.497	87.75
418.72	74.75
418.943	77.75
419.166	87.75
419.389	67.75
419.611	73.75
419.834	84.75
420.057	82.75
420.28	68.75
420.503	67.75
420.726	79.75
420.948	72.75
421.171	68.75
421.394	67.75
421.617	82.75
421.839	84.75
422.062	90.75
422.285	75.75
422.507	100.75
422.73	81.75
422.953	74.75
423.175	90.75
423.398	72.75
423.621	74.75
423.843	82.75
424.066	88.75
424.288	76.75
424.511	84.75
424.733	95.75
424.956	89.75
425.178	75.75
425.401	65.75
425.623	95.75
425.846	86.75
426.068	85.75
426.291	76.75
426.513	70.75
426.735	84.75
426.958	79.75
427.18	82.75
427.402	87.75
427.625	70.75
427.847	66.75
428.069	80.75
428.292	77.75
428.514	86.75
428.736	81.75
428.958	68.75
429.181	76.75
429.403	88.75
429.625	88.75
429.847	80.75
430.069	76.75
430.292	88.75
430.514	78.75
430.736	73.75
430.958	87.75
431.18	81.75
431.402	77.75
431.624	76.75
431.846	62.75
432.068	74.75
432.29	76.75
432.512	62.75
432.734	64.75
432.956	70.75
433.178	75.75
433.4	84.75
433.622	65.75
433.844	86.75
434.066	81.75
434.287	71.75
434.509	65.75
434.731	81.75
434.953	75.75
435.175	72.75
435.397	75.75
435.618	75.75
435.84	81.75
436.062	80.75
436.284	85.75
436.505	72.75
436.727	68.75
436.949	79.75
437.17	75.75
437.392	75.75
437.614	70.75
437.835	83.75
438.057	81.75
438.278	78.75
438.5	75.75
438.721	74.75
438.943	80.75
439.165	88.75
439.386	67.75
439.608	73.75
439.829	73.75
440.05	69.75
440.272	84.75
440.493	70.75
440.715	88.75
440.936	60.75
441.158	81.75
441.379	77.75
441.6	72.75
441.822	84.75
442.043	77.75
442.264	59.75
442.486	69.75
442.707	78.75
442.928	84.75
443.149	78.75
443.371	72.75
443.592	71.75
443.813	68.75
444.034	93.75
444.255	81.75
444.476	71.75
444.698	68.75
444.919	67.75
445.14	142.75
445.361	101.75
445.582	74.75
445.803	83.75
446.024	78.75
446.245	78.75
446.466	84.75
446.687	87.75
446.908	72.75
447.129	80.75
447.35	86.75
447.571	79.75
447.792	66.75
448.013	75.75
448.234	71.75
448.455	83.75
448.675	75.75
448.896	81.75
449.117	73.75
449.338	76.75
449.559	79.75
449.779	88.75
450	73.75
450.221	84.75
450.442	90.75
450.662	83.75
450.883	74.75
451.104	75.75
451.324	75.75
451.545	72.75
451.766	82.75
451.986	79.75
452.207	67.75
452.428	77.75
452.648	90.75
452.869	81.75
453.089	86.75
453.31	81.75
453.53	79.75
453.751	91.75
453.971	85.75
454.192	81.75
454.412	80.75
454.633	84.75
454.853	81.75
455.073	86.75
455.294	75.75
455.514	99.75
455.734	80.75
455.955	75.75
456.175	90.75
456.395	87.75
456.616	93.75
456.836	89.75
457.056	81.75
457.276	72.75
457.497	78.75
457.717	77.75
457.937	75.75
458.157	85.75
458.377	96.75
458.598	83.75
458.818	84.75
459.038	70.75
459.258	68.75
459.478	66.75
459.698	72.75
459.918	80.75
460.138	65.75
460.358	75.75
460.578	83.75
460.798	76.75
461.018	83.75
461.238	79.75
461.458	76.75
461.678	79.75
461.898	69.75
462.118	80.75
462.338	78.75
462.558	76.75
462.777	80.75
462.997	76.75
463.217	80.75
463.437	74.75
463.657	78.75
463.876	83.75
464.096	74.75
464.316	76.75
464.536	81.75
464.755	79.75
464.975	92.75
465.195	82.75
465.414	69.75
465.634	86.75
465.854	74.75
466.073	62.75
466.293	73.75
466.512	70.75
466.732	77.75
466.951	72.75
467.171	75.75
467.391	66.75
467.61	89.75
467.829	76.75
468.049	87.75
468.268	73.75
468.488	78.75
468.707	68.75
468.927	76.75
469.146	81.75
469.365	69.75
469.585	72.75
469.804	87.75
470.023	96.75
470.243	83.75
470.462	81.75
470.681	82.75
470.901	61.75
471.12	90.75
471.339	73.75
471.558	83.75
471.777	68.75
471.997	68.75
472.216	68.75
472.435	64.75
472.654	60.75
472.873	80.75
473.092	82.75
473.311	90.75
473.53	84.75
473.749	74.75
473.968	81.75
474.187	77.75
474.406	59.75
474.625	67.75
474.844	79.75
475.063	76.75
475.282	78.75
475.501	80.75
475.72	80.75
475.939	84.75
476.158	78.75
476.377	83.75
476.596	72.75
476.814	67.75
477.033	79.75
477.252	76.75
477.471	75.75
477.69	88.75
477.908	74.75
478.127	78.75
478.346	88.75
478.564	73.75
478.783	84.75
479.002	76.75
479.22	88.75
479.439	83.75
479.658	65.75
479.876	62.75
480.095	70.75
480.313	81.75
480.532	75.75
480.751	86.75
480.969	69.75
481.188	70.75
481.406	86.75
481.624	72.75
481.843	79.75
482.061	84.75
482.28	82.75
482.498	83.75
482.717	90.75
482.935	79.75
483.153	83.75
483.372	89.75
483.59	74.75
483.808	83.75
484.027	93.75
484.245	61.75
484.463	79.75
484.681	90.75
484.9	77.75
485.118	81.75
485.336	82.75
485.554	82.75
485.772	71.75
485.99	79.75
486.209	81.75
486.427	58.75
486.645	81.75
486.863	80.75
487.081	71.75
487.299	73.75
487.517	68.75
487.735	81.75
487.953	80.75
488.171	91.75
488.389	82.75
488.607	87.75
488.825	89.75
489.043	87.75
489.261	89.75
489.479	87.75
489.696	82.75
489.914	76.75
490.132	68.75
490.35	72.75
490.568	79.75
490.786	83.75
491.003	71.75
491.221	72.75
491.439	67.75
491.657	85.75
491.874	82.75
492.092	80.75
492.31	80.75
492.527	90.75
492.745	75.75
492.963	68.75
493.18	82.75
493.398	101.75
493.615	61.75
493.833	65.75
494.05	67.75
494.268	73.75
494.485	76.75
494.703	67.75
494.92	74.75
495.138	75.75
495.355	66.75
495.573	79.75
495.79	75.75
496.008	87.75
496.225	82.75
496.442	76.75
496.66	79.75
496.877	84.75
497.094	70.75
497.312	83.75
497.529	92.75
497.746	69.75
497.963	72.75
498.181	81.75
498.398	64.75
498.615	83.75
498.832	79.75
499.049	80.75
499.267	83.75
499.484	72.75
499.701	79.75
499.918	63.75
500.135	76.75
500.352	72.75
500.569	93.75
500.786	83.75
501.003	73.75
501.22	78.75
501.437	67.75
501.654	68.75
501.871	79.75
502.088	82.75
502.305	73.75
502.522	80.75
502.739	75.75
502.956	88.75
503.172	81.75
503.389	83.75
503.606	87.75
503.823	81.75
504.04	90.75
504.256	88.75
504.473	84.75
504.69	77.75
504.907	88.75
505.123	64.75
505.34	79.75
505.557	84.75
505.773	83.75
505.99	73.75
506.207	80.75
506.423	80.75
506.64	81.75
506.856	80.75
507.073	81.75
507.289	85.75
507.506	72.75
507.722	67.75
507.939	73.75
508.155	90.75
508.372	69.75
508.588	72.75
508.805	76.75
509.021	69.75
509.238	78.75
509.454	74.75
509.67	83.75
509.887	69.75
510.103	74.75
510.319	72.75
510.536	79.75
510.752	82.75
510.968	77.75
511.184	77.75
511.401	73.75
511.617	91.75
511.833	72.75
512.049	68.75
512.265	74.75
512.481	71.75
512.698	86.75
512.914	67.75
513.13	71.75
513.346	78.75
513.562	90.75
513.778	72.75
513.994	82.75
514.21	87.75
514.426	81.75
514.642	82.75
514.858	77.75
515.074	76.75
515.29	69.75
515.506	75.75
515.721	76.75
515.937	75.75
516.153	78.75
516.369	81.75
516.585	75.75
516.801	60.75
517.016	89.75
517.232	74.75
517.448	67.75
517.664	70.75
517.879	73.75
518.095	95.75
518.311	76.75
518.527	84.75
518.742	71.75
518.958	80.75
519.173	79.75
519.389	78.75
519.605	75.75
519.82	72.75
520.036	76.75
520.251	81.75
