Data from KBr_1_HRD10591_00046.txt Node
Date: Mon Jan 19 13:11:21 EST 2026
User: Yrep
Spectrometer: HR+D1059
Trigger mode: 0
Integration Time (sec): 1.000000E-1
Scans to average: 1
Electric dark correction enabled: true
Nonlinearity correction enabled: false
Boxcar width: 0
XAxis mode: Wavelengths
Number of Pixels in Spectrum: 2048
>>>>>Begin Spectral Data<<<<<
223.165	-25.94
223.4	-25.94
223.635	-25.94
223.869	-27.94
224.104	-19.94
224.338	-11.94
224.573	-12.94
224.808	-7.94
225.042	-4.94
225.277	-13.94
225.511	-8.94
225.746	16.06
225.98	7.06
226.215	24.06
226.449	7.06
226.683	15.06
226.918	23.06
227.152	42.06
227.387	41.06
227.621	55.06
227.856	47.06
228.09	34.06
228.324	52.06
228.559	63.06
228.793	58.06
229.027	73.06
229.262	59.06
229.496	70.06
229.73	73.06
229.964	67.06
230.199	76.06
230.433	63.06
230.667	80.06
230.901	68.06
231.136	82.06
231.37	76.06
231.604	68.06
231.838	99.06
232.072	83.06
232.306	61.06
232.541	77.06
232.775	64.06
233.009	86.06
233.243	78.06
233.477	76.06
233.711	71.06
233.945	78.06
234.179	82.06
234.413	81.06
234.647	88.06
234.881	77.06
235.115	71.06
235.349	88.06
235.583	79.06
235.817	80.06
236.051	84.06
236.285	85.06
236.519	70.06
236.753	87.06
236.987	74.06
237.221	68.06
237.455	65.06
237.689	78.06
237.922	81.06
238.156	71.06
238.39	76.06
238.624	65.06
238.858	79.06
239.091	75.06
239.325	57.06
239.559	76.06
239.793	78.06
240.027	73.06
240.26	57.06
240.494	63.06
240.728	84.06
240.961	68.06
241.195	81.06
241.429	84.06
241.662	82.06
241.896	78.06
242.13	66.06
242.363	85.06
242.597	74.06
242.83	90.06
243.064	68.06
243.298	78.06
243.531	71.06
243.765	84.06
243.998	88.06
244.232	76.06
244.465	81.06
244.699	77.06
244.932	54.06
245.166	64.06
245.399	73.06
245.633	73.06
245.866	76.06
246.099	66.06
246.333	71.06
246.566	70.06
246.8	86.06
247.033	57.06
247.266	79.06
247.5	90.06
247.733	72.06
247.966	83.06
248.2	81.06
248.433	71.06
248.666	85.06
248.899	72.06
249.133	75.06
249.366	73.06
249.599	70.06
249.832	72.06
250.066	80.06
250.299	79.06
250.532	82.06
250.765	78.06
250.998	73.06
251.231	86.06
251.465	71.06
251.698	85.06
251.931	78.06
252.164	86.06
252.397	75.06
252.63	79.06
252.863	80.06
253.096	89.06
253.329	81.06
253.562	73.06
253.795	71.06
254.028	85.06
254.261	68.06
254.494	86.06
254.727	76.06
254.96	77.06
255.193	89.06
255.426	75.06
255.659	73.06
255.892	87.06
256.124	82.06
256.357	90.06
256.59	76.06
256.823	68.06
257.056	65.06
257.289	58.06
257.521	80.06
257.754	81.06
257.987	84.06
258.22	79.06
258.452	80.06
258.685	82.06
258.918	77.06
259.151	86.06
259.383	98.06
259.616	85.06
259.849	101.06
260.081	84.06
260.314	80.06
260.547	88.06
260.779	78.06
261.012	84.06
261.244	85.06
261.477	82.06
261.71	80.06
261.942	82.06
262.175	67.06
262.407	89.06
262.64	63.06
262.872	97.06
263.105	85.06
263.337	96.06
263.57	78.06
263.802	81.06
264.035	84.06
264.267	72.06
264.499	81.06
264.732	76.06
264.964	88.06
265.197	80.06
265.429	76.06
265.661	91.06
265.894	77.06
266.126	78.06
266.358	78.06
266.591	92.06
266.823	81.06
267.055	81.06
267.287	76.06
267.52	80.06
267.752	86.06
267.984	82.06
268.216	90.06
268.448	67.06
268.681	104.06
268.913	88.06
269.145	73.06
269.377	72.06
269.609	72.06
269.841	78.06
270.073	90.06
270.306	86.06
270.538	77.06
270.77	87.06
271.002	84.06
271.234	87.06
271.466	71.06
271.698	69.06
271.93	89.06
272.162	80.06
272.394	82.06
272.626	79.06
272.858	77.06
273.09	84.06
273.322	88.06
273.553	81.06
273.785	87.06
274.017	71.06
274.249	73.06
274.481	70.06
274.713	67.06
274.945	61.06
275.176	68.06
275.408	81.06
275.64	65.06
275.872	79.06
276.104	74.06
276.335	77.06
276.567	89.06
276.799	81.06
277.031	99.06
277.262	76.06
277.494	95.06
277.726	84.06
277.957	76.06
278.189	61.06
278.421	87.06
278.652	84.06
278.884	84.06
279.115	76.06
279.347	88.06
279.579	92.06
279.81	82.06
280.042	84.06
280.273	84.06
280.505	79.06
280.736	76.06
280.968	88.06
281.199	84.06
281.431	92.06
281.662	79.06
281.894	69.06
282.125	82.06
282.356	88.06
282.588	80.06
282.819	87.06
283.051	96.06
283.282	84.06
283.513	81.06
283.745	80.06
283.976	79.06
284.207	66.06
284.439	81.06
284.67	90.06
284.901	87.06
285.132	101.06
285.364	87.06
285.595	84.06
285.826	86.06
286.057	92.06
286.288	86.06
286.52	82.06
286.751	82.06
286.982	88.06
287.213	80.06
287.444	92.06
287.675	71.06
287.906	80.06
288.138	84.06
288.369	82.06
288.6	91.06
288.831	73.06
289.062	93.06
289.293	76.06
289.524	76.06
289.755	78.06
289.986	83.06
290.217	80.06
290.448	91.06
290.679	84.06
290.91	89.06
291.141	77.06
291.371	86.06
291.602	92.06
291.833	86.06
292.064	89.06
292.295	72.06
292.526	88.06
292.757	78.06
292.987	89.06
293.218	80.06
293.449	89.06
293.68	80.06
293.91	94.06
294.141	81.06
294.372	76.06
294.603	76.06
294.833	69.06
295.064	83.06
295.295	64.06
295.525	77.06
295.756	79.06
295.987	86.06
296.217	90.06
296.448	84.06
296.679	100.06
296.909	84.06
297.14	89.06
297.37	77.06
297.601	86.06
297.831	79.06
298.062	72.06
298.292	79.06
298.523	90.06
298.753	82.06
298.984	76.06
299.214	73.06
299.445	86.06
299.675	87.06
299.905	87.06
300.136	79.06
300.366	78.06
300.597	77.06
300.827	82.06
301.057	81.06
301.288	77.06
301.518	84.06
301.748	79.06
301.979	93.06
302.209	76.06
302.439	92.06
302.669	92.06
302.9	76.06
303.13	100.06
303.36	78.06
303.59	86.06
303.82	71.06
304.051	89.06
304.281	80.06
304.511	87.06
304.741	87.06
304.971	85.06
305.201	84.06
305.431	87.06
305.661	86.06
305.891	89.06
306.121	77.06
306.352	97.06
306.582	92.06
306.812	86.06
307.042	91.06
307.272	76.06
307.502	87.06
307.731	73.06
307.961	86.06
308.191	91.06
308.421	83.06
308.651	74.06
308.881	95.06
309.111	86.06
309.341	66.06
309.571	74.06
309.8	73.06
310.03	87.06
310.26	90.06
310.49	80.06
310.72	95.06
310.949	91.06
311.179	88.06
311.409	82.06
311.639	79.06
311.868	85.06
312.098	78.06
312.328	95.06
312.557	84.06
312.787	86.06
313.017	80.06
313.246	100.06
313.476	100.06
313.706	87.06
313.935	82.06
314.165	99.06
314.394	89.06
314.624	89.06
314.853	87.06
315.083	85.06
315.312	82.06
315.542	92.06
315.771	84.06
316.001	78.06
316.23	98.06
316.46	91.06
316.689	78.06
316.919	85.06
317.148	87.06
317.377	91.06
317.607	86.06
317.836	92.06
318.065	80.06
318.295	76.06
318.524	89.06
318.753	85.06
318.983	82.06
319.212	90.06
319.441	101.06
319.67	87.06
319.9	81.06
320.129	83.06
320.358	63.06
320.587	81.06
320.816	88.06
321.046	81.06
321.275	74.06
321.504	89.06
321.733	102.06
321.962	82.06
322.191	77.06
322.42	88.06
322.649	70.06
322.878	92.06
323.108	88.06
323.337	88.06
323.566	81.06
323.795	77.06
324.024	85.06
324.253	79.06
324.482	90.06
324.71	83.06
324.939	81.06
325.168	83.06
325.397	75.06
325.626	87.06
325.855	101.06
326.084	80.06
326.313	81.06
326.542	94.06
326.77	95.06
326.999	87.06
327.228	89.06
327.457	75.06
327.686	90.06
327.914	81.06
328.143	87.06
328.372	108.06
328.6	86.06
328.829	88.06
329.058	70.06
329.287	87.06
329.515	60.06
329.744	89.06
329.972	85.06
330.201	76.06
330.43	79.06
330.658	85.06
330.887	81.06
331.115	73.06
331.344	86.06
331.572	95.06
331.801	92.06
332.03	85.06
332.258	83.06
332.486	83.06
332.715	88.06
332.943	95.06
333.172	85.06
333.4	100.06
333.629	92.06
333.857	84.06
334.085	86.06
334.314	92.06
334.542	89.06
334.771	77.06
334.999	74.06
335.227	89.06
335.455	79.06
335.684	81.06
335.912	90.06
336.14	91.06
336.369	86.06
336.597	79.06
336.825	75.06
337.053	80.06
337.281	84.06
337.51	74.06
337.738	77.06
337.966	87.06
338.194	89.06
338.422	94.06
338.65	89.06
338.878	92.06
339.106	80.06
339.334	87.06
339.562	94.06
339.79	96.06
340.018	98.06
340.246	90.06
340.474	99.06
340.702	92.06
340.93	86.06
341.158	72.06
341.386	88.06
341.614	79.06
341.842	84.06
342.07	93.06
342.298	95.06
342.526	82.06
342.754	90.06
342.981	88.06
343.209	74.06
343.437	92.06
343.665	97.06
343.893	74.06
344.12	97.06
344.348	93.06
344.576	78.06
344.804	78.06
345.031	89.06
345.259	79.06
345.487	90.06
345.714	72.06
345.942	78.06
346.17	90.06
346.397	83.06
346.625	88.06
346.853	80.06
347.08	78.06
347.308	94.06
347.535	73.06
347.763	88.06
347.99	101.06
348.218	85.06
348.445	79.06
348.673	88.06
348.9	89.06
349.128	85.06
349.355	89.06
349.583	87.06
349.81	100.06
350.037	81.06
350.265	80.06
350.492	89.06
350.72	77.06
350.947	100.06
351.174	93.06
351.402	88.06
351.629	94.06
351.856	78.06
352.083	81.06
352.311	91.06
352.538	86.06
352.765	85.06
352.992	87.06
353.22	81.06
353.447	87.06
353.674	89.06
353.901	91.06
354.128	74.06
354.355	76.06
354.583	90.06
354.81	86.06
355.037	84.06
355.264	95.06
355.491	76.06
355.718	71.06
355.945	100.06
356.172	78.06
356.399	85.06
356.626	67.06
356.853	76.06
357.08	78.06
357.307	79.06
357.534	78.06
357.761	92.06
357.988	77.06
358.215	83.06
358.441	91.06
358.668	81.06
358.895	78.06
359.122	97.06
359.349	96.06
359.576	77.06
359.802	78.06
360.029	93.06
360.256	91.06
360.483	93.06
360.709	78.06
360.936	97.06
361.163	80.06
361.39	76.06
361.616	91.06
361.843	82.06
362.07	78.06
362.296	89.06
362.523	86.06
362.749	97.06
362.976	79.06
363.203	84.06
363.429	70.06
363.656	84.06
363.882	81.06
364.109	77.06
364.335	92.06
364.562	92.06
364.788	73.06
365.015	77.06
365.241	90.06
365.468	62.06
365.694	74.06
365.92	90.06
366.147	82.06
366.373	97.06
366.599	81.06
366.826	85.06
367.052	89.06
367.278	93.06
367.505	88.06
367.731	92.06
367.957	77.06
368.184	84.06
368.41	79.06
368.636	94.06
368.862	83.06
369.089	88.06
369.315	102.06
369.541	85.06
369.767	70.06
369.993	81.06
370.219	79.06
370.445	81.06
370.672	93.06
370.898	88.06
371.124	88.06
371.35	89.06
371.576	72.06
371.802	86.06
372.028	77.06
372.254	100.06
372.48	81.06
372.706	88.06
372.932	92.06
373.158	76.06
373.384	87.06
373.61	72.06
373.835	72.06
374.061	82.06
374.287	89.06
374.513	88.06
374.739	74.06
374.965	80.06
375.191	90.06
375.416	79.06
375.642	77.06
375.868	84.06
376.094	74.06
376.319	81.06
376.545	78.06
376.771	72.06
376.997	89.06
377.222	70.06
377.448	83.06
377.674	73.06
377.899	72.06
378.125	74.06
378.35	81.06
378.576	76.06
378.802	82.06
379.027	93.06
379.253	83.06
379.478	91.06
379.704	86.06
379.929	81.06
380.155	87.06
380.38	86.06
380.606	88.06
380.831	91.06
381.057	89.06
381.282	79.06
381.507	71.06
381.733	86.06
381.958	79.06
382.184	87.06
382.409	95.06
382.634	78.06
382.86	87.06
383.085	95.06
383.31	91.06
383.535	90.06
383.761	78.06
383.986	86.06
384.211	89.06
384.436	81.06
384.662	89.06
384.887	79.06
385.112	72.06
385.337	90.06
385.562	79.06
385.787	78.06
386.013	78.06
386.238	77.06
386.463	75.06
386.688	88.06
386.913	86.06
387.138	96.06
387.363	85.06
387.588	70.06
387.813	82.06
388.038	97.06
388.263	84.06
388.488	89.06
388.713	87.06
388.938	83.06
389.163	77.06
389.387	72.06
389.612	88.06
389.837	95.06
390.062	86.06
390.287	97.06
390.512	75.06
390.736	105.06
390.961	90.06
391.186	81.06
391.411	90.06
391.636	83.06
391.86	81.06
392.085	75.06
392.31	84.06
392.534	97.06
392.759	80.06
392.984	91.06
393.208	83.06
393.433	82.06
393.658	80.06
393.882	88.06
394.107	78.06
394.331	85.06
394.556	96.06
394.78	88.06
395.005	93.06
395.229	84.06
395.454	83.06
395.678	96.06
395.903	75.06
396.127	87.06
396.352	101.06
396.576	85.06
396.801	81.06
397.025	82.06
397.249	68.06
397.474	89.06
397.698	83.06
397.922	94.06
398.147	93.06
398.371	102.06
398.595	84.06
398.82	81.06
399.044	91.06
399.268	80.06
399.492	73.06
399.717	93.06
399.941	88.06
400.165	76.06
400.389	69.06
400.613	90.06
400.837	83.06
401.062	80.06
401.286	82.06
401.51	78.06
401.734	81.06
401.958	80.06
402.182	80.06
402.406	78.06
402.63	89.06
402.854	77.06
403.078	80.06
403.302	79.06
403.526	86.06
403.75	80.06
403.974	84.06
404.198	88.06
404.422	80.06
404.645	80.06
404.869	85.06
405.093	86.06
405.317	76.06
405.541	78.06
405.765	78.06
405.988	94.06
406.212	66.06
406.436	81.06
406.66	85.06
406.883	59.06
407.107	87.06
407.331	98.06
407.555	89.06
407.778	75.06
408.002	90.06
408.226	79.06
408.449	86.06
408.673	79.06
408.896	76.06
409.12	75.06
409.344	90.06
409.567	94.06
409.791	75.06
410.014	85.06
410.238	93.06
410.461	80.06
410.685	90.06
410.908	77.06
411.132	85.06
411.355	83.06
411.578	66.06
411.802	87.06
412.025	85.06
412.249	89.06
412.472	83.06
412.695	80.06
412.919	86.06
413.142	78.06
413.365	71.06
413.589	74.06
413.812	65.06
414.035	84.06
414.258	79.06
414.482	82.06
414.705	74.06
414.928	93.06
415.151	86.06
415.374	68.06
415.597	80.06
415.821	81.06
416.044	63.06
416.267	85.06
416.49	83.06
416.713	92.06
416.936	81.06
417.159	80.06
417.382	83.06
417.605	79.06
417.828	82.06
418.051	72.06
418.274	93.06
418.497	78.06
418.72	87.06
418.943	84.06
419.166	70.06
419.389	77.06
419.611	91.06
419.834	77.06
420.057	80.06
420.28	75.06
420.503	84.06
420.726	92.06
420.948	67.06
421.171	88.06
421.394	85.06
421.617	90.06
421.839	89.06
422.062	60.06
422.285	70.06
422.507	67.06
422.73	82.06
422.953	85.06
423.175	78.06
423.398	88.06
423.621	83.06
423.843	68.06
424.066	73.06
424.288	87.06
424.511	80.06
424.733	96.06
424.956	86.06
425.178	80.06
425.401	74.06
425.623	73.06
425.846	81.06
426.068	66.06
426.291	81.06
426.513	76.06
426.735	82.06
426.958	68.06
427.18	84.06
427.402	79.06
427.625	81.06
427.847	70.06
428.069	76.06
428.292	71.06
428.514	79.06
428.736	79.06
428.958	78.06
429.181	74.06
429.403	70.06
429.625	88.06
429.847	71.06
430.069	74.06
430.292	81.06
430.514	81.06
430.736	72.06
430.958	91.06
431.18	64.06
431.402	70.06
431.624	86.06
431.846	73.06
432.068	76.06
432.29	102.06
432.512	92.06
432.734	80.06
432.956	84.06
433.178	78.06
433.4	77.06
433.622	81.06
433.844	75.06
434.066	87.06
434.287	89.06
434.509	82.06
434.731	80.06
434.953	79.06
435.175	78.06
435.397	91.06
435.618	86.06
435.84	87.06
436.062	90.06
436.284	93.06
436.505	88.06
436.727	86.06
436.949	87.06
437.17	78.06
437.392	81.06
437.614	90.06
437.835	82.06
438.057	63.06
438.278	81.06
438.5	87.06
438.721	87.06
438.943	79.06
439.165	77.06
439.386	82.06
439.608	77.06
439.829	74.06
440.05	94.06
440.272	76.06
440.493	89.06
440.715	70.06
440.936	80.06
441.158	77.06
441.379	90.06
441.6	84.06
441.822	71.06
442.043	79.06
442.264	79.06
442.486	83.06
442.707	82.06
442.928	76.06
443.149	79.06
443.371	86.06
443.592	76.06
443.813	68.06
444.034	78.06
444.255	86.06
444.476	82.06
444.698	82.06
444.919	88.06
445.14	163.06
445.361	120.06
445.582	81.06
445.803	81.06
446.024	87.06
446.245	93.06
446.466	76.06
446.687	70.06
446.908	63.06
447.129	84.06
447.35	89.06
447.571	85.06
447.792	82.06
448.013	76.06
448.234	78.06
448.455	79.06
448.675	81.06
448.896	95.06
449.117	81.06
449.338	74.06
449.559	76.06
449.779	87.06
450	85.06
450.221	81.06
450.442	82.06
450.662	85.06
450.883	100.06
451.104	84.06
451.324	73.06
451.545	66.06
451.766	69.06
451.986	64.06
452.207	74.06
452.428	82.06
452.648	86.06
452.869	78.06
453.089	98.06
453.31	81.06
453.53	86.06
453.751	78.06
453.971	78.06
454.192	72.06
454.412	84.06
454.633	78.06
454.853	95.06
455.073	88.06
455.294	79.06
455.514	78.06
455.734	79.06
455.955	82.06
456.175	67.06
456.395	81.06
456.616	74.06
456.836	90.06
457.056	76.06
457.276	80.06
457.497	69.06
457.717	84.06
457.937	81.06
458.157	83.06
458.377	80.06
458.598	83.06
458.818	90.06
459.038	77.06
459.258	80.06
459.478	92.06
459.698	94.06
459.918	60.06
460.138	76.06
460.358	82.06
460.578	82.06
460.798	79.06
461.018	93.06
461.238	91.06
461.458	89.06
461.678	90.06
461.898	73.06
462.118	74.06
462.338	78.06
462.558	77.06
462.777	86.06
462.997	90.06
463.217	75.06
463.437	62.06
463.657	84.06
463.876	88.06
464.096	84.06
464.316	86.06
464.536	78.06
464.755	90.06
464.975	68.06
465.195	89.06
465.414	87.06
465.634	72.06
465.854	85.06
466.073	81.06
466.293	75.06
466.512	84.06
466.732	78.06
466.951	92.06
467.171	83.06
467.391	73.06
467.61	87.06
467.829	78.06
468.049	76.06
468.268	86.06
468.488	82.06
468.707	78.06
468.927	95.06
469.146	83.06
469.365	71.06
469.585	85.06
469.804	66.06
470.023	87.06
470.243	84.06
470.462	81.06
470.681	70.06
470.901	72.06
471.12	78.06
471.339	85.06
471.558	78.06
471.777	70.06
471.997	81.06
472.216	78.06
472.435	73.06
472.654	90.06
472.873	73.06
473.092	80.06
473.311	83.06
473.53	81.06
473.749	78.06
473.968	82.06
474.187	84.06
474.406	87.06
474.625	79.06
474.844	87.06
475.063	88.06
475.282	89.06
475.501	83.06
475.72	70.06
475.939	81.06
476.158	62.06
476.377	68.06
476.596	70.06
476.814	102.06
477.033	88.06
477.252	82.06
477.471	83.06
477.69	78.06
477.908	85.06
478.127	89.06
478.346	81.06
478.564	82.06
478.783	80.06
479.002	86.06
479.22	83.06
479.439	85.06
479.658	78.06
479.876	84.06
480.095	80.06
480.313	73.06
480.532	91.06
480.751	81.06
480.969	72.06
481.188	88.06
481.406	82.06
481.624	67.06
481.843	79.06
482.061	86.06
482.28	76.06
482.498	90.06
482.717	79.06
482.935	78.06
483.153	71.06
483.372	88.06
483.59	88.06
483.808	87.06
484.027	76.06
484.245	82.06
484.463	66.06
484.681	86.06
484.9	75.06
485.118	79.06
485.336	97.06
485.554	82.06
485.772	89.06
485.99	77.06
486.209	94.06
486.427	80.06
486.645	71.06
486.863	71.06
487.081	77.06
487.299	88.06
487.517	70.06
487.735	85.06
487.953	82.06
488.171	96.06
488.389	71.06
488.607	91.06
488.825	73.06
489.043	79.06
489.261	85.06
489.479	84.06
489.696	78.06
489.914	83.06
490.132	82.06
490.35	77.06
490.568	76.06
490.786	87.06
491.003	78.06
491.221	85.06
491.439	81.06
491.657	95.06
491.874	79.06
492.092	83.06
492.31	87.06
492.527	88.06
492.745	86.06
492.963	88.06
493.18	76.06
493.398	89.06
493.615	93.06
493.833	82.06
494.05	72.06
494.268	88.06
494.485	85.06
494.703	90.06
494.92	90.06
495.138	76.06
495.355	74.06
495.573	70.06
495.79	71.06
496.008	94.06
496.225	101.06
496.442	88.06
496.66	95.06
496.877	92.06
497.094	89.06
497.312	66.06
497.529	85.06
497.746	83.06
497.963	80.06
498.181	82.06
498.398	100.06
498.615	88.06
498.832	79.06
499.049	78.06
499.267	88.06
499.484	73.06
499.701	74.06
499.918	100.06
500.135	84.06
500.352	89.06
500.569	82.06
500.786	90.06
501.003	92.06
501.22	74.06
501.437	88.06
501.654	74.06
501.871	91.06
502.088	89.06
502.305	85.06
502.522	88.06
502.739	86.06
502.956	73.06
503.172	75.06
503.389	81.06
503.606	72.06
503.823	71.06
504.04	81.06
504.256	87.06
504.473	80.06
504.69	92.06
504.907	82.06
505.123	81.06
505.34	82.06
505.557	79.06
505.773	87.06
505.99	83.06
506.207	82.06
506.423	79.06
506.64	78.06
506.856	88.06
507.073	93.06
507.289	86.06
507.506	82.06
507.722	92.06
507.939	90.06
508.155	75.06
508.372	80.06
508.588	75.06
508.805	84.06
509.021	102.06
509.238	86.06
509.454	80.06
509.67	76.06
509.887	91.06
510.103	93.06
510.319	72.06
510.536	83.06
510.752	93.06
510.968	83.06
511.184	85.06
511.401	69.06
511.617	81.06
511.833	83.06
512.049	84.06
512.265	74.06
512.481	92.06
512.698	86.06
512.914	80.06
513.13	86.06
513.346	81.06
513.562	90.06
513.778	90.06
513.994	82.06
514.21	92.06
514.426	90.06
514.642	89.06
514.858	82.06
515.074	74.06
515.29	73.06
515.506	93.06
515.721	84.06
515.937	83.06
516.153	66.06
516.369	94.06
516.585	88.06
516.801	61.06
517.016	85.06
517.232	79.06
517.448	90.06
517.664	81.06
517.879	87.06
518.095	65.06
518.311	87.06
518.527	86.06
518.742	75.06
518.958	72.06
519.173	73.06
519.389	83.06
519.605	72.06
519.82	80.06
