Data from KBr_1_HRD10591_00007.txt Node
Date: Mon Jan 19 13:11:17 EST 2026
User: Yrep
Spectrometer: HR+D1059
Trigger mode: 0
Integration Time (sec): 1.000000E-1
Scans to average: 1
Electric dark correction enabled: true
Nonlinearity correction enabled: false
Boxcar width: 0
XAxis mode: Wavelengths
Number of Pixels in Spectrum: 2048
>>>>>Begin Spectral Data<<<<<
223.165	-12.69
223.4	-12.69
223.635	-12.69
223.869	-23.69
224.104	-13.69
224.338	-10.69
224.573	-15.69
224.808	-16.69
225.042	-7.69
225.277	-11.69
225.511	-2.69
225.746	1.31
225.98	7.31
226.215	30.31
226.449	18.31
226.683	23.31
226.918	20.31
227.152	14.31
227.387	40.31
227.621	35.31
227.856	26.31
228.09	48.31
228.324	59.31
228.559	55.31
228.793	50.31
229.027	52.31
229.262	60.31
229.496	68.31
229.73	73.31
229.964	77.31
230.199	79.31
230.433	75.31
230.667	71.31
230.901	82.31
231.136	76.31
231.37	75.31
231.604	75.31
231.838	74.31
232.072	62.31
232.306	53.31
232.541	70.31
232.775	81.31
233.009	83.31
233.243	69.31
233.477	67.31
233.711	72.31
233.945	95.31
234.179	91.31
234.413	71.31
234.647	92.31
234.881	70.31
235.115	82.31
235.349	78.31
235.583	87.31
235.817	74.31
236.051	80.31
236.285	68.31
236.519	79.31
236.753	83.31
236.987	74.31
237.221	78.31
237.455	74.31
237.689	78.31
237.922	86.31
238.156	71.31
238.39	75.31
238.624	76.31
238.858	75.31
239.091	80.31
239.325	69.31
239.559	82.31
239.793	76.31
240.027	56.31
240.26	83.31
240.494	64.31
240.728	70.31
240.961	87.31
241.195	80.31
241.429	83.31
241.662	63.31
241.896	72.31
242.13	64.31
242.363	87.31
242.597	79.31
242.83	69.31
243.064	76.31
243.298	79.31
243.531	78.31
243.765	74.31
243.998	77.31
244.232	82.31
244.465	82.31
244.699	65.31
244.932	75.31
245.166	70.31
245.399	76.31
245.633	80.31
245.866	76.31
246.099	82.31
246.333	82.31
246.566	82.31
246.8	86.31
247.033	85.31
247.266	92.31
247.5	75.31
247.733	77.31
247.966	83.31
248.2	66.31
248.433	76.31
248.666	87.31
248.899	74.31
249.133	81.31
249.366	79.31
249.599	94.31
249.832	73.31
250.066	82.31
250.299	94.31
250.532	72.31
250.765	69.31
250.998	69.31
251.231	87.31
251.465	78.31
251.698	82.31
251.931	79.31
252.164	63.31
252.397	73.31
252.63	79.31
252.863	93.31
253.096	77.31
253.329	86.31
253.562	75.31
253.795	78.31
254.028	81.31
254.261	86.31
254.494	83.31
254.727	81.31
254.96	95.31
255.193	88.31
255.426	83.31
255.659	83.31
255.892	95.31
256.124	87.31
256.357	84.31
256.59	86.31
256.823	70.31
257.056	79.31
257.289	76.31
257.521	81.31
257.754	78.31
257.987	82.31
258.22	73.31
258.452	82.31
258.685	86.31
258.918	80.31
259.151	87.31
259.383	86.31
259.616	77.31
259.849	93.31
260.081	64.31
260.314	80.31
260.547	84.31
260.779	84.31
261.012	69.31
261.244	87.31
261.477	89.31
261.71	74.31
261.942	82.31
262.175	81.31
262.407	70.31
262.64	83.31
262.872	101.31
263.105	90.31
263.337	87.31
263.57	77.31
263.802	79.31
264.035	82.31
264.267	88.31
264.499	88.31
264.732	91.31
264.964	82.31
265.197	71.31
265.429	89.31
265.661	88.31
265.894	76.31
266.126	78.31
266.358	89.31
266.591	74.31
266.823	86.31
267.055	80.31
267.287	78.31
267.52	87.31
267.752	82.31
267.984	81.31
268.216	84.31
268.448	75.31
268.681	75.31
268.913	84.31
269.145	78.31
269.377	77.31
269.609	82.31
269.841	73.31
270.073	68.31
270.306	89.31
270.538	81.31
270.77	89.31
271.002	90.31
271.234	76.31
271.466	86.31
271.698	75.31
271.93	88.31
272.162	83.31
272.394	79.31
272.626	73.31
272.858	77.31
273.09	92.31
273.322	93.31
273.553	72.31
273.785	82.31
274.017	89.31
274.249	82.31
274.481	92.31
274.713	92.31
274.945	72.31
275.176	86.31
275.408	88.31
275.64	84.31
275.872	94.31
276.104	87.31
276.335	79.31
276.567	78.31
276.799	77.31
277.031	83.31
277.262	90.31
277.494	74.31
277.726	74.31
277.957	77.31
278.189	71.31
278.421	96.31
278.652	85.31
278.884	81.31
279.115	79.31
279.347	78.31
279.579	91.31
279.81	78.31
280.042	73.31
280.273	83.31
280.505	77.31
280.736	98.31
280.968	74.31
281.199	72.31
281.431	85.31
281.662	69.31
281.894	76.31
282.125	82.31
282.356	78.31
282.588	82.31
282.819	83.31
283.051	89.31
283.282	74.31
283.513	82.31
283.745	88.31
283.976	88.31
284.207	78.31
284.439	76.31
284.67	84.31
284.901	70.31
285.132	95.31
285.364	86.31
285.595	74.31
285.826	71.31
286.057	85.31
286.288	86.31
286.52	85.31
286.751	86.31
286.982	89.31
287.213	74.31
287.444	80.31
287.675	98.31
287.906	86.31
288.138	88.31
288.369	96.31
288.6	91.31
288.831	77.31
289.062	77.31
289.293	86.31
289.524	77.31
289.755	74.31
289.986	74.31
290.217	91.31
290.448	96.31
290.679	86.31
290.91	80.31
291.141	89.31
291.371	94.31
291.602	90.31
291.833	83.31
292.064	82.31
292.295	85.31
292.526	90.31
292.757	89.31
292.987	78.31
293.218	93.31
293.449	92.31
293.68	74.31
293.91	100.31
294.141	82.31
294.372	90.31
294.603	73.31
294.833	85.31
295.064	88.31
295.295	85.31
295.525	84.31
295.756	89.31
295.987	85.31
296.217	92.31
296.448	89.31
296.679	79.31
296.909	99.31
297.14	76.31
297.37	82.31
297.601	79.31
297.831	86.31
298.062	90.31
298.292	93.31
298.523	86.31
298.753	82.31
298.984	87.31
299.214	97.31
299.445	77.31
299.675	78.31
299.905	83.31
300.136	85.31
300.366	78.31
300.597	85.31
300.827	73.31
301.057	90.31
301.288	95.31
301.518	84.31
301.748	74.31
301.979	86.31
302.209	77.31
302.439	84.31
302.669	70.31
302.9	84.31
303.13	65.31
303.36	82.31
303.59	86.31
303.82	86.31
304.051	85.31
304.281	93.31
304.511	89.31
304.741	74.31
304.971	86.31
305.201	90.31
305.431	81.31
305.661	91.31
305.891	80.31
306.121	83.31
306.352	86.31
306.582	71.31
306.812	80.31
307.042	74.31
307.272	73.31
307.502	76.31
307.731	92.31
307.961	77.31
308.191	89.31
308.421	84.31
308.651	87.31
308.881	76.31
309.111	99.31
309.341	76.31
309.571	84.31
309.8	77.31
310.03	93.31
310.26	83.31
310.49	98.31
310.72	74.31
310.949	72.31
311.179	90.31
311.409	83.31
311.639	72.31
311.868	74.31
312.098	85.31
312.328	77.31
312.557	80.31
312.787	78.31
313.017	83.31
313.246	80.31
313.476	60.31
313.706	78.31
313.935	93.31
314.165	79.31
314.394	83.31
314.624	95.31
314.853	78.31
315.083	91.31
315.312	90.31
315.542	83.31
315.771	70.31
316.001	78.31
316.23	75.31
316.46	86.31
316.689	77.31
316.919	84.31
317.148	92.31
317.377	78.31
317.607	80.31
317.836	77.31
318.065	79.31
318.295	82.31
318.524	80.31
318.753	99.31
318.983	80.31
319.212	62.31
319.441	78.31
319.67	78.31
319.9	90.31
320.129	93.31
320.358	81.31
320.587	74.31
320.816	95.31
321.046	94.31
321.275	82.31
321.504	77.31
321.733	95.31
321.962	86.31
322.191	87.31
322.42	75.31
322.649	84.31
322.878	92.31
323.108	72.31
323.337	90.31
323.566	85.31
323.795	86.31
324.024	75.31
324.253	87.31
324.482	84.31
324.71	102.31
324.939	83.31
325.168	73.31
325.397	70.31
325.626	76.31
325.855	78.31
326.084	90.31
326.313	88.31
326.542	91.31
326.77	87.31
326.999	91.31
327.228	72.31
327.457	84.31
327.686	80.31
327.914	85.31
328.143	76.31
328.372	78.31
328.6	92.31
328.829	80.31
329.058	80.31
329.287	90.31
329.515	79.31
329.744	89.31
329.972	93.31
330.201	69.31
330.43	97.31
330.658	86.31
330.887	94.31
331.115	85.31
331.344	90.31
331.572	78.31
331.801	86.31
332.03	70.31
332.258	86.31
332.486	86.31
332.715	89.31
332.943	76.31
333.172	81.31
333.4	71.31
333.629	93.31
333.857	64.31
334.085	73.31
334.314	79.31
334.542	80.31
334.771	73.31
334.999	81.31
335.227	79.31
335.455	83.31
335.684	86.31
335.912	68.31
336.14	77.31
336.369	87.31
336.597	92.31
336.825	89.31
337.053	88.31
337.281	97.31
337.51	97.31
337.738	98.31
337.966	87.31
338.194	78.31
338.422	78.31
338.65	81.31
338.878	89.31
339.106	92.31
339.334	94.31
339.562	79.31
339.79	89.31
340.018	74.31
340.246	85.31
340.474	89.31
340.702	88.31
340.93	74.31
341.158	68.31
341.386	84.31
341.614	79.31
341.842	77.31
342.07	85.31
342.298	92.31
342.526	85.31
342.754	77.31
342.981	86.31
343.209	89.31
343.437	90.31
343.665	61.31
343.893	83.31
344.12	78.31
344.348	80.31
344.576	79.31
344.804	95.31
345.031	82.31
345.259	95.31
345.487	83.31
345.714	88.31
345.942	74.31
346.17	74.31
346.397	100.31
346.625	102.31
346.853	86.31
347.08	90.31
347.308	83.31
347.535	75.31
347.763	74.31
347.99	78.31
348.218	79.31
348.445	80.31
348.673	79.31
348.9	94.31
349.128	88.31
349.355	88.31
349.583	86.31
349.81	88.31
350.037	88.31
350.265	74.31
350.492	76.31
350.72	80.31
350.947	73.31
351.174	77.31
351.402	81.31
351.629	87.31
351.856	76.31
352.083	87.31
352.311	90.31
352.538	67.31
352.765	84.31
352.992	76.31
353.22	75.31
353.447	81.31
353.674	78.31
353.901	74.31
354.128	71.31
354.355	72.31
354.583	87.31
354.81	76.31
355.037	81.31
355.264	83.31
355.491	86.31
355.718	84.31
355.945	71.31
356.172	76.31
356.399	84.31
356.626	82.31
356.853	78.31
357.08	78.31
357.307	76.31
357.534	87.31
357.761	86.31
357.988	79.31
358.215	85.31
358.441	89.31
358.668	75.31
358.895	76.31
359.122	66.31
359.349	80.31
359.576	84.31
359.802	84.31
360.029	75.31
360.256	74.31
360.483	85.31
360.709	74.31
360.936	72.31
361.163	74.31
361.39	84.31
361.616	80.31
361.843	84.31
362.07	89.31
362.296	76.31
362.523	77.31
362.749	82.31
362.976	86.31
363.203	77.31
363.429	75.31
363.656	61.31
363.882	76.31
364.109	81.31
364.335	87.31
364.562	75.31
364.788	76.31
365.015	89.31
365.241	94.31
365.468	85.31
365.694	80.31
365.92	87.31
366.147	93.31
366.373	66.31
366.599	82.31
366.826	73.31
367.052	78.31
367.278	72.31
367.505	75.31
367.731	84.31
367.957	73.31
368.184	75.31
368.41	86.31
368.636	78.31
368.862	65.31
369.089	75.31
369.315	81.31
369.541	82.31
369.767	77.31
369.993	86.31
370.219	89.31
370.445	81.31
370.672	89.31
370.898	61.31
371.124	87.31
371.35	77.31
371.576	93.31
371.802	78.31
372.028	85.31
372.254	79.31
372.48	83.31
372.706	88.31
372.932	79.31
373.158	78.31
373.384	74.31
373.61	94.31
373.835	91.31
374.061	82.31
374.287	90.31
374.513	68.31
374.739	80.31
374.965	79.31
375.191	79.31
375.416	89.31
375.642	82.31
375.868	88.31
376.094	78.31
376.319	74.31
376.545	96.31
376.771	77.31
376.997	88.31
377.222	74.31
377.448	75.31
377.674	82.31
377.899	83.31
378.125	89.31
378.35	87.31
378.576	79.31
378.802	79.31
379.027	74.31
379.253	87.31
379.478	92.31
379.704	82.31
379.929	96.31
380.155	79.31
380.38	83.31
380.606	83.31
380.831	87.31
381.057	79.31
381.282	92.31
381.507	89.31
381.733	74.31
381.958	99.31
382.184	103.31
382.409	78.31
382.634	61.31
382.86	77.31
383.085	78.31
383.31	72.31
383.535	85.31
383.761	75.31
383.986	70.31
384.211	78.31
384.436	71.31
384.662	80.31
384.887	84.31
385.112	79.31
385.337	76.31
385.562	78.31
385.787	81.31
386.013	79.31
386.238	82.31
386.463	88.31
386.688	100.31
386.913	84.31
387.138	91.31
387.363	76.31
387.588	83.31
387.813	75.31
388.038	75.31
388.263	74.31
388.488	81.31
388.713	82.31
388.938	80.31
389.163	75.31
389.387	88.31
389.612	80.31
389.837	72.31
390.062	89.31
390.287	62.31
390.512	83.31
390.736	84.31
390.961	83.31
391.186	77.31
391.411	65.31
391.636	76.31
391.86	90.31
392.085	87.31
392.31	68.31
392.534	92.31
392.759	74.31
392.984	83.31
393.208	75.31
393.433	84.31
393.658	88.31
393.882	84.31
394.107	67.31
394.331	82.31
394.556	78.31
394.78	91.31
395.005	92.31
395.229	99.31
395.454	63.31
395.678	81.31
395.903	78.31
396.127	88.31
396.352	99.31
396.576	96.31
396.801	85.31
397.025	62.31
397.249	99.31
397.474	70.31
397.698	77.31
397.922	68.31
398.147	68.31
398.371	76.31
398.595	84.31
398.82	59.31
399.044	79.31
399.268	81.31
399.492	90.31
399.717	79.31
399.941	72.31
400.165	82.31
400.389	93.31
400.613	84.31
400.837	73.31
401.062	90.31
401.286	74.31
401.51	79.31
401.734	84.31
401.958	84.31
402.182	72.31
402.406	80.31
402.63	81.31
402.854	79.31
403.078	76.31
403.302	80.31
403.526	85.31
403.75	74.31
403.974	79.31
404.198	82.31
404.422	89.31
404.645	80.31
404.869	74.31
405.093	89.31
405.317	76.31
405.541	74.31
405.765	77.31
405.988	68.31
406.212	72.31
406.436	62.31
406.66	75.31
406.883	60.31
407.107	72.31
407.331	89.31
407.555	83.31
407.778	67.31
408.002	76.31
408.226	82.31
408.449	88.31
408.673	85.31
408.896	85.31
409.12	80.31
409.344	91.31
409.567	71.31
409.791	83.31
410.014	82.31
410.238	86.31
410.461	77.31
410.685	73.31
410.908	79.31
411.132	76.31
411.355	72.31
411.578	83.31
411.802	65.31
412.025	71.31
412.249	79.31
412.472	88.31
412.695	94.31
412.919	75.31
413.142	90.31
413.365	70.31
413.589	83.31
413.812	84.31
414.035	91.31
414.258	89.31
414.482	86.31
414.705	69.31
414.928	57.31
415.151	76.31
415.374	63.31
415.597	73.31
415.821	80.31
416.044	94.31
416.267	74.31
416.49	76.31
416.713	81.31
416.936	71.31
417.159	73.31
417.382	80.31
417.605	78.31
417.828	85.31
418.051	82.31
418.274	84.31
418.497	90.31
418.72	84.31
418.943	83.31
419.166	83.31
419.389	48.31
419.611	63.31
419.834	69.31
420.057	77.31
420.28	71.31
420.503	93.31
420.726	78.31
420.948	72.31
421.171	74.31
421.394	79.31
421.617	70.31
421.839	84.31
422.062	71.31
422.285	79.31
422.507	71.31
422.73	76.31
422.953	87.31
423.175	66.31
423.398	68.31
423.621	83.31
423.843	74.31
424.066	73.31
424.288	78.31
424.511	82.31
424.733	84.31
424.956	71.31
425.178	73.31
425.401	66.31
425.623	75.31
425.846	71.31
426.068	75.31
426.291	85.31
426.513	74.31
426.735	104.31
426.958	75.31
427.18	80.31
427.402	79.31
427.625	68.31
427.847	55.31
428.069	75.31
428.292	91.31
428.514	89.31
428.736	84.31
428.958	85.31
429.181	79.31
429.403	80.31
429.625	75.31
429.847	70.31
430.069	73.31
430.292	74.31
430.514	77.31
430.736	79.31
430.958	65.31
431.18	65.31
431.402	76.31
431.624	86.31
431.846	68.31
432.068	89.31
432.29	84.31
432.512	84.31
432.734	74.31
432.956	76.31
433.178	49.31
433.4	76.31
433.622	72.31
433.844	80.31
434.066	85.31
434.287	74.31
434.509	86.31
434.731	78.31
434.953	70.31
435.175	68.31
435.397	61.31
435.618	86.31
435.84	85.31
436.062	77.31
436.284	83.31
436.505	77.31
436.727	76.31
436.949	83.31
437.17	78.31
437.392	79.31
437.614	78.31
437.835	74.31
438.057	72.31
438.278	82.31
438.5	70.31
438.721	74.31
438.943	64.31
439.165	64.31
439.386	73.31
439.608	92.31
439.829	85.31
440.05	70.31
440.272	86.31
440.493	80.31
440.715	65.31
440.936	79.31
441.158	91.31
441.379	76.31
441.6	76.31
441.822	90.31
442.043	83.31
442.264	65.31
442.486	76.31
442.707	70.31
442.928	80.31
443.149	79.31
443.371	77.31
443.592	67.31
443.813	74.31
444.034	81.31
444.255	82.31
444.476	88.31
444.698	73.31
444.919	88.31
445.14	135.31
445.361	110.31
445.582	74.31
445.803	75.31
446.024	82.31
446.245	89.31
446.466	85.31
446.687	85.31
446.908	75.31
447.129	85.31
447.35	71.31
447.571	65.31
447.792	78.31
448.013	72.31
448.234	72.31
448.455	82.31
448.675	79.31
448.896	80.31
449.117	79.31
449.338	75.31
449.559	84.31
449.779	76.31
450	74.31
450.221	88.31
450.442	69.31
450.662	90.31
450.883	93.31
451.104	87.31
451.324	85.31
451.545	83.31
451.766	72.31
451.986	82.31
452.207	89.31
452.428	72.31
452.648	90.31
452.869	74.31
453.089	77.31
453.31	74.31
453.53	70.31
453.751	82.31
453.971	86.31
454.192	82.31
454.412	80.31
454.633	79.31
454.853	79.31
455.073	83.31
455.294	83.31
455.514	77.31
455.734	76.31
455.955	86.31
456.175	76.31
456.395	79.31
456.616	77.31
456.836	92.31
457.056	74.31
457.276	63.31
457.497	84.31
457.717	82.31
457.937	85.31
458.157	85.31
458.377	80.31
458.598	82.31
458.818	80.31
459.038	90.31
459.258	88.31
459.478	76.31
459.698	73.31
459.918	62.31
460.138	84.31
460.358	87.31
460.578	70.31
460.798	82.31
461.018	72.31
461.238	90.31
461.458	75.31
461.678	71.31
461.898	78.31
462.118	94.31
462.338	83.31
462.558	66.31
462.777	61.31
462.997	96.31
463.217	75.31
463.437	76.31
463.657	85.31
463.876	76.31
464.096	84.31
464.316	76.31
464.536	83.31
464.755	61.31
464.975	79.31
465.195	84.31
465.414	78.31
465.634	83.31
465.854	79.31
466.073	74.31
466.293	88.31
466.512	92.31
466.732	67.31
466.951	79.31
467.171	85.31
467.391	71.31
467.61	75.31
467.829	83.31
468.049	90.31
468.268	82.31
468.488	65.31
468.707	73.31
468.927	57.31
469.146	91.31
469.365	66.31
469.585	83.31
469.804	88.31
470.023	84.31
470.243	73.31
470.462	82.31
470.681	79.31
470.901	69.31
471.12	73.31
471.339	86.31
471.558	82.31
471.777	74.31
471.997	90.31
472.216	72.31
472.435	95.31
472.654	84.31
472.873	84.31
473.092	91.31
473.311	84.31
473.53	84.31
473.749	73.31
473.968	87.31
474.187	83.31
474.406	87.31
474.625	94.31
474.844	77.31
475.063	70.31
475.282	82.31
475.501	88.31
475.72	93.31
475.939	71.31
476.158	87.31
476.377	84.31
476.596	76.31
476.814	79.31
477.033	88.31
477.252	80.31
477.471	71.31
477.69	89.31
477.908	75.31
478.127	82.31
478.346	74.31
478.564	59.31
478.783	77.31
479.002	79.31
479.22	86.31
479.439	81.31
479.658	76.31
479.876	72.31
480.095	69.31
480.313	83.31
480.532	75.31
480.751	78.31
480.969	65.31
481.188	80.31
481.406	80.31
481.624	66.31
481.843	85.31
482.061	68.31
482.28	87.31
482.498	86.31
482.717	83.31
482.935	79.31
483.153	75.31
483.372	70.31
483.59	85.31
483.808	88.31
484.027	88.31
484.245	67.31
484.463	79.31
484.681	88.31
484.9	73.31
485.118	94.31
485.336	80.31
485.554	72.31
485.772	87.31
485.99	92.31
486.209	75.31
486.427	76.31
486.645	83.31
486.863	67.31
487.081	76.31
487.299	87.31
487.517	81.31
487.735	71.31
487.953	70.31
488.171	80.31
488.389	76.31
488.607	78.31
488.825	72.31
489.043	74.31
489.261	79.31
489.479	78.31
489.696	87.31
489.914	96.31
490.132	92.31
490.35	79.31
490.568	91.31
490.786	86.31
491.003	78.31
491.221	81.31
491.439	66.31
491.657	86.31
491.874	91.31
492.092	81.31
492.31	94.31
492.527	72.31
492.745	81.31
492.963	83.31
493.18	95.31
493.398	93.31
493.615	87.31
493.833	75.31
494.05	93.31
494.268	80.31
494.485	70.31
494.703	77.31
494.92	83.31
495.138	76.31
495.355	84.31
495.573	84.31
495.79	88.31
496.008	98.31
496.225	69.31
496.442	71.31
496.66	99.31
496.877	86.31
497.094	76.31
497.312	93.31
497.529	81.31
497.746	75.31
497.963	85.31
498.181	92.31
498.398	68.31
498.615	70.31
498.832	81.31
499.049	77.31
499.267	90.31
499.484	85.31
499.701	69.31
499.918	81.31
500.135	70.31
500.352	87.31
500.569	83.31
500.786	80.31
501.003	81.31
501.22	71.31
501.437	82.31
501.654	66.31
501.871	90.31
502.088	76.31
502.305	84.31
502.522	77.31
502.739	91.31
502.956	81.31
503.172	73.31
503.389	83.31
503.606	83.31
503.823	89.31
504.04	87.31
504.256	84.31
504.473	89.31
504.69	77.31
504.907	69.31
505.123	86.31
505.34	82.31
505.557	90.31
505.773	85.31
505.99	88.31
506.207	79.31
506.423	80.31
506.64	97.31
506.856	80.31
507.073	78.31
507.289	84.31
507.506	72.31
507.722	71.31
507.939	85.31
508.155	78.31
508.372	77.31
508.588	87.31
508.805	91.31
509.021	91.31
509.238	68.31
509.454	70.31
509.67	85.31
509.887	78.31
510.103	73.31
510.319	65.31
510.536	73.31
510.752	71.31
510.968	77.31
511.184	87.31
511.401	85.31
511.617	80.31
511.833	82.31
512.049	73.31
512.265	82.31
512.481	93.31
512.698	71.31
512.914	86.31
513.13	82.31
513.346	81.31
513.562	83.31
513.778	75.31
513.994	70.31
514.21	75.31
514.426	89.31
514.642	85.31
514.858	82.31
515.074	94.31
515.29	97.31
515.506	86.31
515.721	103.31
515.937	86.31
516.153	91.31
516.369	80.31
516.585	77.31
516.801	84.31
517.016	83.31
517.232	82.31
517.448	84.31
517.664	89.31
517.879	74.31
518.095	86.31
518.311	86.31
518.527	84.31
518.742	84.31
518.958	76.31
519.173	71.31
519.389	78.31
519.605	72.31
519.82	78.31
520.036	80.31
520.251	78.31
