Data from KBr_1_HRD10591_00033.txt Node
Date: Mon Jan 19 13:11:19 EST 2026
User: Yrep
Spectrometer: HR+D1059
Trigger mode: 0
Integration Time (sec): 1.000000E-1
Scans to average: 1
Electric dark correction enabled: true
Nonlinearity correction enabled: false
Boxcar width: 0
XAxis mode: Wavelengths
Number of Pixels in Spectrum: 2048
>>>>>Begin Spectral Data<<<<<
223.165	-30.12
223.4	-30.12
223.635	-30.12
223.869	-23.12
224.104	-18.12
224.338	-13.12
224.573	-13.12
224.808	-11.12
225.042	5.88
225.277	-2.12
225.511	-9.12
225.746	1.88
225.98	7.88
226.215	2.88
226.449	13.88
226.683	32.88
226.918	24.88
227.152	29.88
227.387	39.88
227.621	46.88
227.856	50.88
228.09	50.88
228.324	53.88
228.559	57.88
228.793	55.88
229.027	73.88
229.262	80.88
229.496	89.88
229.73	73.88
229.964	73.88
230.199	74.88
230.433	88.88
230.667	84.88
230.901	78.88
231.136	89.88
231.37	82.88
231.604	95.88
231.838	102.88
232.072	93.88
232.306	93.88
232.541	92.88
232.775	108.88
233.009	105.88
233.243	82.88
233.477	92.88
233.711	91.88
233.945	85.88
234.179	87.88
234.413	89.88
234.647	88.88
234.881	94.88
235.115	106.88
235.349	88.88
235.583	95.88
235.817	95.88
236.051	90.88
236.285	90.88
236.519	98.88
236.753	102.88
236.987	95.88
237.221	90.88
237.455	99.88
237.689	90.88
237.922	95.88
238.156	90.88
238.39	97.88
238.624	85.88
238.858	82.88
239.091	111.88
239.325	97.88
239.559	89.88
239.793	92.88
240.027	94.88
240.26	85.88
240.494	87.88
240.728	93.88
240.961	90.88
241.195	91.88
241.429	93.88
241.662	110.88
241.896	95.88
242.13	91.88
242.363	97.88
242.597	93.88
242.83	94.88
243.064	99.88
243.298	99.88
243.531	89.88
243.765	94.88
243.998	107.88
244.232	106.88
244.465	86.88
244.699	105.88
244.932	101.88
245.166	88.88
245.399	107.88
245.633	98.88
245.866	95.88
246.099	100.88
246.333	119.88
246.566	109.88
246.8	109.88
247.033	93.88
247.266	114.88
247.5	109.88
247.733	94.88
247.966	105.88
248.2	109.88
248.433	102.88
248.666	101.88
248.899	119.88
249.133	111.88
249.366	114.88
249.599	97.88
249.832	108.88
250.066	110.88
250.299	115.88
250.532	119.88
250.765	107.88
250.998	98.88
251.231	109.88
251.465	109.88
251.698	111.88
251.931	109.88
252.164	110.88
252.397	124.88
252.63	115.88
252.863	111.88
253.096	125.88
253.329	129.88
253.562	112.88
253.795	102.88
254.028	95.88
254.261	127.88
254.494	127.88
254.727	126.88
254.96	111.88
255.193	133.88
255.426	114.88
255.659	108.88
255.892	121.88
256.124	119.88
256.357	111.88
256.59	125.88
256.823	119.88
257.056	126.88
257.289	121.88
257.521	112.88
257.754	117.88
257.987	117.88
258.22	120.88
258.452	106.88
258.685	125.88
258.918	129.88
259.151	139.88
259.383	128.88
259.616	121.88
259.849	125.88
260.081	135.88
260.314	119.88
260.547	126.88
260.779	130.88
261.012	134.88
261.244	113.88
261.477	123.88
261.71	124.88
261.942	112.88
262.175	129.88
262.407	112.88
262.64	125.88
262.872	125.88
263.105	130.88
263.337	140.88
263.57	137.88
263.802	134.88
264.035	128.88
264.267	136.88
264.499	131.88
264.732	116.88
264.964	130.88
265.197	143.88
265.429	128.88
265.661	145.88
265.894	147.88
266.126	137.88
266.358	124.88
266.591	137.88
266.823	144.88
267.055	139.88
267.287	146.88
267.52	146.88
267.752	147.88
267.984	141.88
268.216	109.88
268.448	138.88
268.681	151.88
268.913	155.88
269.145	147.88
269.377	147.88
269.609	125.88
269.841	144.88
270.073	138.88
270.306	151.88
270.538	145.88
270.77	151.88
271.002	162.88
271.234	161.88
271.466	151.88
271.698	135.88
271.93	145.88
272.162	157.88
272.394	150.88
272.626	158.88
272.858	153.88
273.09	151.88
273.322	146.88
273.553	143.88
273.785	153.88
274.017	166.88
274.249	150.88
274.481	162.88
274.713	159.88
274.945	149.88
275.176	152.88
275.408	152.88
275.64	156.88
275.872	154.88
276.104	145.88
276.335	154.88
276.567	150.88
276.799	157.88
277.031	146.88
277.262	157.88
277.494	162.88
277.726	165.88
277.957	151.88
278.189	157.88
278.421	177.88
278.652	149.88
278.884	165.88
279.115	160.88
279.347	185.88
279.579	159.88
279.81	172.88
280.042	163.88
280.273	177.88
280.505	171.88
280.736	155.88
280.968	183.88
281.199	163.88
281.431	170.88
281.662	188.88
281.894	172.88
282.125	179.88
282.356	186.88
282.588	173.88
282.819	166.88
283.051	177.88
283.282	165.88
283.513	175.88
283.745	174.88
283.976	187.88
284.207	190.88
284.439	181.88
284.67	189.88
284.901	185.88
285.132	192.88
285.364	184.88
285.595	191.88
285.826	185.88
286.057	183.88
286.288	177.88
286.52	189.88
286.751	186.88
286.982	172.88
287.213	173.88
287.444	189.88
287.675	180.88
287.906	178.88
288.138	202.88
288.369	168.88
288.6	187.88
288.831	195.88
289.062	189.88
289.293	198.88
289.524	207.88
289.755	200.88
289.986	193.88
290.217	193.88
290.448	196.88
290.679	189.88
290.91	207.88
291.141	179.88
291.371	206.88
291.602	184.88
291.833	197.88
292.064	203.88
292.295	198.88
292.526	209.88
292.757	176.88
292.987	195.88
293.218	189.88
293.449	187.88
293.68	194.88
293.91	201.88
294.141	187.88
294.372	190.88
294.603	218.88
294.833	187.88
295.064	189.88
295.295	178.88
295.525	207.88
295.756	207.88
295.987	203.88
296.217	205.88
296.448	193.88
296.679	191.88
296.909	203.88
297.14	229.88
297.37	210.88
297.601	213.88
297.831	208.88
298.062	214.88
298.292	207.88
298.523	207.88
298.753	212.88
298.984	203.88
299.214	214.88
299.445	209.88
299.675	217.88
299.905	202.88
300.136	203.88
300.366	200.88
300.597	206.88
300.827	208.88
301.057	185.88
301.288	211.88
301.518	225.88
301.748	211.88
301.979	230.88
302.209	215.88
302.439	222.88
302.669	217.88
302.9	219.88
303.13	208.88
303.36	216.88
303.59	195.88
303.82	229.88
304.051	226.88
304.281	220.88
304.511	218.88
304.741	215.88
304.971	236.88
305.201	213.88
305.431	221.88
305.661	216.88
305.891	215.88
306.121	223.88
306.352	211.88
306.582	217.88
306.812	216.88
307.042	227.88
307.272	233.88
307.502	224.88
307.731	219.88
307.961	231.88
308.191	232.88
308.421	214.88
308.651	231.88
308.881	233.88
309.111	221.88
309.341	226.88
309.571	223.88
309.8	224.88
310.03	216.88
310.26	224.88
310.49	230.88
310.72	229.88
310.949	219.88
311.179	226.88
311.409	225.88
311.639	216.88
311.868	206.88
312.098	224.88
312.328	233.88
312.557	251.88
312.787	241.88
313.017	246.88
313.246	241.88
313.476	229.88
313.706	238.88
313.935	230.88
314.165	237.88
314.394	225.88
314.624	240.88
314.853	265.88
315.083	232.88
315.312	243.88
315.542	235.88
315.771	237.88
316.001	238.88
316.23	249.88
316.46	244.88
316.689	245.88
316.919	246.88
317.148	248.88
317.377	240.88
317.607	247.88
317.836	261.88
318.065	252.88
318.295	227.88
318.524	229.88
318.753	245.88
318.983	241.88
319.212	233.88
319.441	245.88
319.67	254.88
319.9	249.88
320.129	259.88
320.358	237.88
320.587	242.88
320.816	253.88
321.046	258.88
321.275	251.88
321.504	242.88
321.733	258.88
321.962	250.88
322.191	257.88
322.42	226.88
322.649	250.88
322.878	260.88
323.108	271.88
323.337	263.88
323.566	266.88
323.795	265.88
324.024	266.88
324.253	252.88
324.482	265.88
324.71	249.88
324.939	273.88
325.168	275.88
325.397	265.88
325.626	270.88
325.855	276.88
326.084	261.88
326.313	260.88
326.542	258.88
326.77	266.88
326.999	255.88
327.228	263.88
327.457	274.88
327.686	273.88
327.914	254.88
328.143	280.88
328.372	289.88
328.6	271.88
328.829	272.88
329.058	278.88
329.287	275.88
329.515	280.88
329.744	285.88
329.972	297.88
330.201	335.88
330.43	324.88
330.658	297.88
330.887	285.88
331.115	293.88
331.344	277.88
331.572	277.88
331.801	284.88
332.03	303.88
332.258	306.88
332.486	287.88
332.715	305.88
332.943	286.88
333.172	289.88
333.4	314.88
333.629	305.88
333.857	300.88
334.085	320.88
334.314	322.88
334.542	315.88
334.771	318.88
334.999	309.88
335.227	311.88
335.455	319.88
335.684	315.88
335.912	300.88
336.14	287.88
336.369	305.88
336.597	302.88
336.825	298.88
337.053	307.88
337.281	310.88
337.51	325.88
337.738	314.88
337.966	301.88
338.194	301.88
338.422	316.88
338.65	314.88
338.878	289.88
339.106	320.88
339.334	303.88
339.562	313.88
339.79	295.88
340.018	316.88
340.246	303.88
340.474	303.88
340.702	300.88
340.93	303.88
341.158	306.88
341.386	304.88
341.614	304.88
341.842	303.88
342.07	298.88
342.298	291.88
342.526	279.88
342.754	295.88
342.981	287.88
343.209	311.88
343.437	317.88
343.665	321.88
343.893	324.88
344.12	329.88
344.348	339.88
344.576	371.88
344.804	342.88
345.031	354.88
345.259	307.88
345.487	318.88
345.714	307.88
345.942	290.88
346.17	287.88
346.397	296.88
346.625	293.88
346.853	288.88
347.08	289.88
347.308	280.88
347.535	281.88
347.763	298.88
347.99	295.88
348.218	273.88
348.445	281.88
348.673	288.88
348.9	285.88
349.128	288.88
349.355	273.88
349.583	293.88
349.81	293.88
350.037	268.88
350.265	267.88
350.492	307.88
350.72	290.88
350.947	275.88
351.174	271.88
351.402	271.88
351.629	298.88
351.856	299.88
352.083	294.88
352.311	285.88
352.538	277.88
352.765	297.88
352.992	292.88
353.22	310.88
353.447	276.88
353.674	274.88
353.901	285.88
354.128	285.88
354.355	288.88
354.583	269.88
354.81	263.88
355.037	285.88
355.264	288.88
355.491	298.88
355.718	293.88
355.945	289.88
356.172	290.88
356.399	295.88
356.626	283.88
356.853	269.88
357.08	285.88
357.307	273.88
357.534	279.88
357.761	272.88
357.988	288.88
358.215	280.88
358.441	282.88
358.668	286.88
358.895	271.88
359.122	282.88
359.349	280.88
359.576	280.88
359.802	290.88
360.029	294.88
360.256	273.88
360.483	275.88
360.709	283.88
360.936	285.88
361.163	289.88
361.39	274.88
361.616	286.88
361.843	289.88
362.07	285.88
362.296	291.88
362.523	281.88
362.749	293.88
362.976	282.88
363.203	285.88
363.429	282.88
363.656	285.88
363.882	293.88
364.109	298.88
364.335	289.88
364.562	295.88
364.788	292.88
365.015	303.88
365.241	282.88
365.468	292.88
365.694	294.88
365.92	301.88
366.147	284.88
366.373	290.88
366.599	286.88
366.826	285.88
367.052	297.88
367.278	300.88
367.505	279.88
367.731	283.88
367.957	294.88
368.184	309.88
368.41	305.88
368.636	302.88
368.862	299.88
369.089	286.88
369.315	295.88
369.541	286.88
369.767	289.88
369.993	290.88
370.219	305.88
370.445	288.88
370.672	294.88
370.898	309.88
371.124	295.88
371.35	292.88
371.576	308.88
371.802	312.88
372.028	299.88
372.254	320.88
372.48	303.88
372.706	315.88
372.932	303.88
373.158	303.88
373.384	299.88
373.61	313.88
373.835	311.88
374.061	311.88
374.287	316.88
374.513	315.88
374.739	320.88
374.965	303.88
375.191	297.88
375.416	305.88
375.642	309.88
375.868	321.88
376.094	320.88
376.319	304.88
376.545	303.88
376.771	310.88
376.997	294.88
377.222	316.88
377.448	303.88
377.674	305.88
377.899	301.88
378.125	302.88
378.35	325.88
378.576	313.88
378.802	320.88
379.027	322.88
379.253	302.88
379.478	317.88
379.704	326.88
379.929	307.88
380.155	318.88
380.38	303.88
380.606	301.88
380.831	309.88
381.057	302.88
381.282	309.88
381.507	322.88
381.733	315.88
381.958	315.88
382.184	323.88
382.409	339.88
382.634	324.88
382.86	324.88
383.085	334.88
383.31	340.88
383.535	346.88
383.761	329.88
383.986	335.88
384.211	320.88
384.436	342.88
384.662	359.88
384.887	361.88
385.112	349.88
385.337	372.88
385.562	348.88
385.787	345.88
386.013	360.88
386.238	365.88
386.463	346.88
386.688	337.88
386.913	345.88
387.138	353.88
387.363	369.88
387.588	354.88
387.813	333.88
388.038	357.88
388.263	359.88
388.488	365.88
388.713	360.88
388.938	354.88
389.163	360.88
389.387	342.88
389.612	363.88
389.837	376.88
390.062	362.88
390.287	360.88
390.512	384.88
390.736	369.88
390.961	362.88
391.186	357.88
391.411	361.88
391.636	374.88
391.86	371.88
392.085	366.88
392.31	363.88
392.534	389.88
392.759	385.88
392.984	401.88
393.208	401.88
393.433	450.88
393.658	405.88
393.882	387.88
394.107	385.88
394.331	370.88
394.556	383.88
394.78	386.88
395.005	392.88
395.229	405.88
395.454	392.88
395.678	376.88
395.903	390.88
396.127	388.88
396.352	405.88
396.576	409.88
396.801	423.88
397.025	419.88
397.249	416.88
397.474	405.88
397.698	403.88
397.922	401.88
398.147	390.88
398.371	416.88
398.595	443.88
398.82	429.88
399.044	454.88
399.268	444.88
399.492	450.88
399.717	507.88
399.941	477.88
400.165	469.88
400.389	477.88
400.613	443.88
400.837	409.88
401.062	431.88
401.286	445.88
401.51	426.88
401.734	435.88
401.958	421.88
402.182	422.88
402.406	436.88
402.63	434.88
402.854	445.88
403.078	445.88
403.302	443.88
403.526	458.88
403.75	475.88
403.974	563.88
404.198	748.88
404.422	1101.88
404.645	1335.88
404.869	1112.88
405.093	784.88
405.317	547.88
405.541	497.88
405.765	465.88
405.988	438.88
406.212	457.88
406.436	446.88
406.66	470.88
406.883	423.88
407.107	446.88
407.331	455.88
407.555	467.88
407.778	430.88
408.002	456.88
408.226	457.88
408.449	448.88
408.673	447.88
408.896	462.88
409.12	427.88
409.344	426.88
409.567	422.88
409.791	423.88
410.014	440.88
410.238	409.88
410.461	436.88
410.685	427.88
410.908	436.88
411.132	408.88
411.355	419.88
411.578	436.88
411.802	425.88
412.025	411.88
412.249	413.88
412.472	396.88
412.695	425.88
412.919	414.88
413.142	418.88
413.365	405.88
413.589	402.88
413.812	433.88
414.035	422.88
414.258	402.88
414.482	421.88
414.705	413.88
414.928	411.88
415.151	401.88
415.374	419.88
415.597	417.88
415.821	400.88
416.044	391.88
416.267	394.88
416.49	397.88
416.713	388.88
416.936	401.88
417.159	417.88
417.382	416.88
417.605	387.88
417.828	407.88
418.051	415.88
418.274	421.88
418.497	425.88
418.72	429.88
418.943	405.88
419.166	415.88
419.389	454.88
419.611	455.88
419.834	430.88
420.057	438.88
420.28	405.88
420.503	392.88
420.726	402.88
420.948	398.88
421.171	421.88
421.394	421.88
421.617	404.88
421.839	410.88
422.062	418.88
422.285	400.88
422.507	445.88
422.73	481.88
422.953	466.88
423.175	395.88
423.398	406.88
423.621	413.88
423.843	393.88
424.066	433.88
424.288	410.88
424.511	431.88
424.733	394.88
424.956	433.88
425.178	426.88
425.401	414.88
425.623	423.88
425.846	378.88
426.068	375.88
426.291	395.88
426.513	420.88
426.735	418.88
426.958	398.88
427.18	389.88
427.402	397.88
427.625	415.88
427.847	375.88
428.069	377.88
428.292	391.88
428.514	379.88
428.736	383.88
428.958	362.88
429.181	382.88
429.403	359.88
429.625	395.88
429.847	373.88
430.069	391.88
430.292	381.88
430.514	383.88
430.736	405.88
430.958	382.88
431.18	377.88
431.402	385.88
431.624	377.88
431.846	353.88
432.068	360.88
432.29	368.88
432.512	369.88
432.734	388.88
432.956	377.88
433.178	387.88
433.4	386.88
433.622	396.88
433.844	389.88
434.066	367.88
434.287	368.88
434.509	354.88
434.731	381.88
434.953	369.88
435.175	390.88
435.397	393.88
435.618	368.88
435.84	368.88
436.062	371.88
436.284	368.88
436.505	375.88
436.727	380.88
436.949	396.88
437.17	364.88
437.392	369.88
437.614	353.88
437.835	374.88
438.057	361.88
438.278	362.88
438.5	374.88
438.721	354.88
438.943	381.88
439.165	363.88
439.386	376.88
439.608	376.88
439.829	387.88
440.05	389.88
440.272	384.88
440.493	387.88
440.715	380.88
440.936	381.88
441.158	376.88
441.379	388.88
441.6	398.88
441.822	390.88
442.043	395.88
442.264	392.88
442.486	397.88
442.707	404.88
442.928	392.88
443.149	410.88
443.371	392.88
443.592	397.88
443.813	417.88
444.034	406.88
444.255	408.88
444.476	403.88
444.698	409.88
444.919	414.88
445.14	472.88
445.361	462.88
445.582	416.88
445.803	410.88
446.024	392.88
446.245	409.88
446.466	387.88
446.687	394.88
446.908	386.88
447.129	401.88
447.35	370.88
447.571	385.88
447.792	362.88
448.013	361.88
448.234	378.88
448.455	351.88
448.675	373.88
448.896	365.88
449.117	362.88
449.338	372.88
449.559	362.88
449.779	353.88
450	349.88
450.221	355.88
450.442	367.88
450.662	375.88
450.883	349.88
451.104	368.88
451.324	331.88
451.545	343.88
451.766	375.88
451.986	365.88
452.207	355.88
452.428	343.88
452.648	364.88
452.869	349.88
453.089	333.88
453.31	346.88
453.53	315.88
453.751	303.88
453.971	342.88
454.192	346.88
454.412	327.88
454.633	338.88
454.853	353.88
455.073	330.88
455.294	339.88
455.514	328.88
455.734	340.88
455.955	309.88
456.175	337.88
456.395	310.88
456.616	341.88
456.836	346.88
457.056	343.88
457.276	326.88
457.497	320.88
457.717	337.88
457.937	343.88
458.157	349.88
458.377	348.88
458.598	338.88
458.818	336.88
459.038	339.88
459.258	342.88
459.478	360.88
459.698	352.88
459.918	374.88
460.138	376.88
460.358	382.88
460.578	386.88
460.798	388.88
461.018	394.88
461.238	370.88
461.458	412.88
461.678	403.88
461.898	393.88
462.118	386.88
462.338	412.88
462.558	418.88
462.777	431.88
462.997	424.88
463.217	437.88
463.437	433.88
463.657	421.88
463.876	427.88
464.096	410.88
464.316	410.88
464.536	417.88
464.755	395.88
464.975	384.88
465.195	399.88
465.414	394.88
465.634	389.88
465.854	393.88
466.073	367.88
466.293	386.88
466.512	371.88
466.732	401.88
466.951	390.88
467.171	383.88
467.391	383.88
467.61	375.88
467.829	390.88
468.049	409.88
468.268	399.88
468.488	396.88
468.707	401.88
468.927	392.88
469.146	394.88
469.365	419.88
469.585	418.88
469.804	411.88
470.023	413.88
470.243	425.88
470.462	439.88
470.681	422.88
470.901	420.88
471.12	410.88
471.339	415.88
471.558	397.88
471.777	406.88
471.997	403.88
472.216	397.88
472.435	393.88
472.654	358.88
472.873	363.88
473.092	377.88
473.311	366.88
473.53	370.88
473.749	378.88
473.968	399.88
474.187	386.88
474.406	397.88
474.625	389.88
474.844	393.88
475.063	372.88
475.282	408.88
475.501	377.88
475.72	413.88
475.939	403.88
476.158	422.88
476.377	432.88
476.596	398.88
476.814	405.88
477.033	412.88
477.252	422.88
477.471	442.88
477.69	459.88
477.908	439.88
478.127	451.88
478.346	490.88
478.564	471.88
478.783	488.88
479.002	477.88
479.22	475.88
479.439	464.88
479.658	437.88
479.876	444.88
480.095	432.88
480.313	444.88
480.532	444.88
480.751	453.88
480.969	440.88
481.188	447.88
481.406	422.88
481.624	436.88
481.843	454.88
482.061	431.88
482.28	444.88
482.498	425.88
482.717	422.88
482.935	446.88
483.153	465.88
483.372	446.88
483.59	447.88
483.808	433.88
484.027	425.88
484.245	426.88
484.463	433.88
484.681	434.88
484.9	437.88
485.118	454.88
485.336	425.88
485.554	419.88
485.772	419.88
485.99	413.88
486.209	423.88
486.427	418.88
486.645	445.88
486.863	421.88
487.081	438.88
487.299	436.88
487.517	443.88
487.735	452.88
487.953	462.88
488.171	466.88
488.389	461.88
488.607	455.88
488.825	431.88
489.043	434.88
489.261	421.88
489.479	445.88
489.696	437.88
489.914	433.88
490.132	456.88
490.35	463.88
490.568	454.88
490.786	485.88
491.003	485.88
491.221	479.88
491.439	495.88
491.657	493.88
491.874	523.88
492.092	519.88
492.31	533.88
492.527	520.88
492.745	502.88
492.963	529.88
493.18	491.88
493.398	527.88
493.615	504.88
493.833	497.88
494.05	491.88
494.268	489.88
494.485	478.88
494.703	512.88
494.92	481.88
495.138	500.88
495.355	511.88
495.573	503.88
495.79	503.88
496.008	487.88
496.225	498.88
496.442	509.88
496.66	509.88
496.877	512.88
497.094	515.88
497.312	503.88
497.529	523.88
497.746	537.88
497.963	514.88
498.181	511.88
498.398	530.88
498.615	539.88
498.832	544.88
499.049	581.88
499.267	585.88
499.484	610.88
499.701	639.88
499.918	662.88
500.135	693.88
500.352	737.88
500.569	731.88
500.786	711.88
501.003	731.88
501.22	705.88
501.437	654.88
501.654	618.88
501.871	605.88
502.088	566.88
502.305	555.88
502.522	563.88
502.739	533.88
502.956	537.88
503.172	519.88
503.389	514.88
503.606	501.88
