Data from KBr_1_HRD10591_00042.txt Node
Date: Mon Jan 19 13:11:20 EST 2026
User: Yrep
Spectrometer: HR+D1059
Trigger mode: 0
Integration Time (sec): 1.000000E-1
Scans to average: 1
Electric dark correction enabled: true
Nonlinearity correction enabled: false
Boxcar width: 0
XAxis mode: Wavelengths
Number of Pixels in Spectrum: 2048
>>>>>Begin Spectral Data<<<<<
223.165	-12.69
223.4	-12.69
223.635	-12.69
223.869	-22.69
224.104	-20.69
224.338	-20.69
224.573	-9.69
224.808	-13.69
225.042	-16.69
225.277	4.31
225.511	3.31
225.746	4.31
225.98	16.31
226.215	5.31
226.449	13.31
226.683	23.31
226.918	26.31
227.152	20.31
227.387	45.31
227.621	38.31
227.856	46.31
228.09	37.31
228.324	49.31
228.559	47.31
228.793	53.31
229.027	50.31
229.262	63.31
229.496	71.31
229.73	68.31
229.964	74.31
230.199	69.31
230.433	82.31
230.667	90.31
230.901	75.31
231.136	61.31
231.37	88.31
231.604	89.31
231.838	78.31
232.072	71.31
232.306	76.31
232.541	72.31
232.775	77.31
233.009	82.31
233.243	70.31
233.477	76.31
233.711	74.31
233.945	89.31
234.179	92.31
234.413	77.31
234.647	83.31
234.881	73.31
235.115	92.31
235.349	72.31
235.583	69.31
235.817	78.31
236.051	85.31
236.285	70.31
236.519	67.31
236.753	64.31
236.987	81.31
237.221	78.31
237.455	74.31
237.689	73.31
237.922	64.31
238.156	65.31
238.39	87.31
238.624	86.31
238.858	78.31
239.091	71.31
239.325	67.31
239.559	76.31
239.793	58.31
240.027	67.31
240.26	74.31
240.494	74.31
240.728	74.31
240.961	71.31
241.195	79.31
241.429	72.31
241.662	78.31
241.896	75.31
242.13	56.31
242.363	71.31
242.597	76.31
242.83	82.31
243.064	81.31
243.298	95.31
243.531	89.31
243.765	85.31
243.998	74.31
244.232	71.31
244.465	75.31
244.699	77.31
244.932	73.31
245.166	72.31
245.399	64.31
245.633	72.31
245.866	78.31
246.099	86.31
246.333	84.31
246.566	67.31
246.8	93.31
247.033	76.31
247.266	64.31
247.5	82.31
247.733	83.31
247.966	81.31
248.2	63.31
248.433	71.31
248.666	80.31
248.899	82.31
249.133	77.31
249.366	82.31
249.599	92.31
249.832	75.31
250.066	80.31
250.299	70.31
250.532	72.31
250.765	75.31
250.998	96.31
251.231	73.31
251.465	72.31
251.698	86.31
251.931	71.31
252.164	76.31
252.397	68.31
252.63	89.31
252.863	81.31
253.096	86.31
253.329	74.31
253.562	75.31
253.795	71.31
254.028	82.31
254.261	75.31
254.494	62.31
254.727	89.31
254.96	81.31
255.193	79.31
255.426	91.31
255.659	77.31
255.892	93.31
256.124	63.31
256.357	83.31
256.59	76.31
256.823	68.31
257.056	81.31
257.289	69.31
257.521	78.31
257.754	84.31
257.987	70.31
258.22	87.31
258.452	77.31
258.685	79.31
258.918	76.31
259.151	83.31
259.383	82.31
259.616	83.31
259.849	73.31
260.081	72.31
260.314	77.31
260.547	70.31
260.779	79.31
261.012	87.31
261.244	77.31
261.477	84.31
261.71	83.31
261.942	71.31
262.175	72.31
262.407	70.31
262.64	80.31
262.872	81.31
263.105	74.31
263.337	86.31
263.57	95.31
263.802	71.31
264.035	85.31
264.267	87.31
264.499	87.31
264.732	77.31
264.964	70.31
265.197	94.31
265.429	88.31
265.661	84.31
265.894	78.31
266.126	81.31
266.358	82.31
266.591	85.31
266.823	71.31
267.055	81.31
267.287	82.31
267.52	72.31
267.752	83.31
267.984	80.31
268.216	79.31
268.448	76.31
268.681	80.31
268.913	85.31
269.145	70.31
269.377	87.31
269.609	70.31
269.841	79.31
270.073	83.31
270.306	84.31
270.538	83.31
270.77	86.31
271.002	65.31
271.234	85.31
271.466	82.31
271.698	89.31
271.93	91.31
272.162	88.31
272.394	90.31
272.626	87.31
272.858	81.31
273.09	78.31
273.322	82.31
273.553	74.31
273.785	72.31
274.017	78.31
274.249	77.31
274.481	93.31
274.713	76.31
274.945	96.31
275.176	87.31
275.408	94.31
275.64	80.31
275.872	88.31
276.104	73.31
276.335	79.31
276.567	79.31
276.799	79.31
277.031	70.31
277.262	96.31
277.494	95.31
277.726	74.31
277.957	59.31
278.189	85.31
278.421	76.31
278.652	78.31
278.884	78.31
279.115	77.31
279.347	75.31
279.579	77.31
279.81	77.31
280.042	75.31
280.273	87.31
280.505	81.31
280.736	99.31
280.968	80.31
281.199	83.31
281.431	88.31
281.662	77.31
281.894	91.31
282.125	90.31
282.356	78.31
282.588	75.31
282.819	68.31
283.051	89.31
283.282	83.31
283.513	81.31
283.745	77.31
283.976	84.31
284.207	73.31
284.439	83.31
284.67	91.31
284.901	84.31
285.132	91.31
285.364	90.31
285.595	80.31
285.826	79.31
286.057	72.31
286.288	81.31
286.52	84.31
286.751	84.31
286.982	86.31
287.213	79.31
287.444	83.31
287.675	75.31
287.906	79.31
288.138	90.31
288.369	83.31
288.6	82.31
288.831	76.31
289.062	92.31
289.293	86.31
289.524	89.31
289.755	70.31
289.986	83.31
290.217	79.31
290.448	100.31
290.679	95.31
290.91	80.31
291.141	68.31
291.371	98.31
291.602	70.31
291.833	87.31
292.064	92.31
292.295	94.31
292.526	97.31
292.757	86.31
292.987	76.31
293.218	88.31
293.449	80.31
293.68	78.31
293.91	74.31
294.141	86.31
294.372	83.31
294.603	82.31
294.833	73.31
295.064	80.31
295.295	82.31
295.525	86.31
295.756	92.31
295.987	87.31
296.217	78.31
296.448	85.31
296.679	86.31
296.909	86.31
297.14	92.31
297.37	86.31
297.601	77.31
297.831	77.31
298.062	83.31
298.292	95.31
298.523	75.31
298.753	79.31
298.984	84.31
299.214	84.31
299.445	80.31
299.675	92.31
299.905	92.31
300.136	78.31
300.366	88.31
300.597	76.31
300.827	84.31
301.057	93.31
301.288	74.31
301.518	92.31
301.748	70.31
301.979	93.31
302.209	78.31
302.439	76.31
302.669	79.31
302.9	87.31
303.13	85.31
303.36	73.31
303.59	80.31
303.82	82.31
304.051	95.31
304.281	94.31
304.511	84.31
304.741	75.31
304.971	74.31
305.201	100.31
305.431	80.31
305.661	85.31
305.891	94.31
306.121	91.31
306.352	65.31
306.582	93.31
306.812	74.31
307.042	86.31
307.272	91.31
307.502	82.31
307.731	90.31
307.961	93.31
308.191	82.31
308.421	78.31
308.651	102.31
308.881	86.31
309.111	78.31
309.341	91.31
309.571	89.31
309.8	71.31
310.03	100.31
310.26	70.31
310.49	70.31
310.72	75.31
310.949	91.31
311.179	90.31
311.409	81.31
311.639	84.31
311.868	79.31
312.098	76.31
312.328	89.31
312.557	76.31
312.787	83.31
313.017	72.31
313.246	78.31
313.476	99.31
313.706	81.31
313.935	88.31
314.165	88.31
314.394	88.31
314.624	98.31
314.853	72.31
315.083	79.31
315.312	81.31
315.542	86.31
315.771	61.31
316.001	84.31
316.23	74.31
316.46	100.31
316.689	86.31
316.919	79.31
317.148	74.31
317.377	77.31
317.607	95.31
317.836	76.31
318.065	83.31
318.295	73.31
318.524	91.31
318.753	68.31
318.983	96.31
319.212	93.31
319.441	92.31
319.67	83.31
319.9	92.31
320.129	85.31
320.358	93.31
320.587	80.31
320.816	83.31
321.046	84.31
321.275	96.31
321.504	88.31
321.733	77.31
321.962	82.31
322.191	89.31
322.42	78.31
322.649	79.31
322.878	77.31
323.108	76.31
323.337	95.31
323.566	97.31
323.795	86.31
324.024	74.31
324.253	79.31
324.482	84.31
324.71	93.31
324.939	92.31
325.168	79.31
325.397	62.31
325.626	83.31
325.855	91.31
326.084	90.31
326.313	99.31
326.542	90.31
326.77	80.31
326.999	82.31
327.228	80.31
327.457	73.31
327.686	87.31
327.914	94.31
328.143	84.31
328.372	82.31
328.6	84.31
328.829	76.31
329.058	78.31
329.287	66.31
329.515	82.31
329.744	84.31
329.972	91.31
330.201	70.31
330.43	79.31
330.658	79.31
330.887	81.31
331.115	85.31
331.344	100.31
331.572	82.31
331.801	82.31
332.03	88.31
332.258	93.31
332.486	76.31
332.715	74.31
332.943	79.31
333.172	75.31
333.4	91.31
333.629	83.31
333.857	86.31
334.085	92.31
334.314	82.31
334.542	77.31
334.771	74.31
334.999	75.31
335.227	76.31
335.455	88.31
335.684	93.31
335.912	96.31
336.14	78.31
336.369	93.31
336.597	75.31
336.825	76.31
337.053	68.31
337.281	92.31
337.51	78.31
337.738	70.31
337.966	83.31
338.194	83.31
338.422	87.31
338.65	90.31
338.878	77.31
339.106	80.31
339.334	68.31
339.562	87.31
339.79	80.31
340.018	100.31
340.246	79.31
340.474	79.31
340.702	70.31
340.93	81.31
341.158	79.31
341.386	86.31
341.614	88.31
341.842	75.31
342.07	74.31
342.298	89.31
342.526	71.31
342.754	78.31
342.981	89.31
343.209	76.31
343.437	106.31
343.665	87.31
343.893	88.31
344.12	82.31
344.348	90.31
344.576	71.31
344.804	76.31
345.031	84.31
345.259	75.31
345.487	90.31
345.714	72.31
345.942	78.31
346.17	76.31
346.397	80.31
346.625	82.31
346.853	80.31
347.08	84.31
347.308	84.31
347.535	76.31
347.763	86.31
347.99	85.31
348.218	88.31
348.445	91.31
348.673	86.31
348.9	74.31
349.128	95.31
349.355	75.31
349.583	77.31
349.81	92.31
350.037	71.31
350.265	79.31
350.492	78.31
350.72	84.31
350.947	75.31
351.174	83.31
351.402	83.31
351.629	78.31
351.856	78.31
352.083	88.31
352.311	89.31
352.538	82.31
352.765	88.31
352.992	82.31
353.22	80.31
353.447	79.31
353.674	75.31
353.901	87.31
354.128	91.31
354.355	82.31
354.583	73.31
354.81	79.31
355.037	79.31
355.264	82.31
355.491	78.31
355.718	74.31
355.945	67.31
356.172	72.31
356.399	84.31
356.626	88.31
356.853	86.31
357.08	62.31
357.307	84.31
357.534	82.31
357.761	66.31
357.988	76.31
358.215	84.31
358.441	67.31
358.668	95.31
358.895	78.31
359.122	88.31
359.349	95.31
359.576	76.31
359.802	91.31
360.029	82.31
360.256	85.31
360.483	82.31
360.709	71.31
360.936	93.31
361.163	88.31
361.39	80.31
361.616	77.31
361.843	73.31
362.07	77.31
362.296	89.31
362.523	86.31
362.749	79.31
362.976	82.31
363.203	83.31
363.429	82.31
363.656	78.31
363.882	75.31
364.109	84.31
364.335	106.31
364.562	88.31
364.788	98.31
365.015	85.31
365.241	76.31
365.468	71.31
365.694	65.31
365.92	79.31
366.147	75.31
366.373	68.31
366.599	78.31
366.826	91.31
367.052	84.31
367.278	88.31
367.505	84.31
367.731	73.31
367.957	76.31
368.184	74.31
368.41	83.31
368.636	84.31
368.862	89.31
369.089	83.31
369.315	84.31
369.541	86.31
369.767	77.31
369.993	91.31
370.219	67.31
370.445	79.31
370.672	72.31
370.898	85.31
371.124	89.31
371.35	90.31
371.576	81.31
371.802	84.31
372.028	80.31
372.254	95.31
372.48	75.31
372.706	62.31
372.932	74.31
373.158	76.31
373.384	71.31
373.61	79.31
373.835	80.31
374.061	83.31
374.287	72.31
374.513	75.31
374.739	83.31
374.965	96.31
375.191	90.31
375.416	75.31
375.642	75.31
375.868	94.31
376.094	80.31
376.319	74.31
376.545	84.31
376.771	75.31
376.997	86.31
377.222	68.31
377.448	67.31
377.674	73.31
377.899	71.31
378.125	84.31
378.35	84.31
378.576	94.31
378.802	84.31
379.027	83.31
379.253	88.31
379.478	76.31
379.704	71.31
379.929	67.31
380.155	60.31
380.38	78.31
380.606	60.31
380.831	88.31
381.057	91.31
381.282	103.31
381.507	68.31
381.733	94.31
381.958	85.31
382.184	81.31
382.409	63.31
382.634	92.31
382.86	76.31
383.085	79.31
383.31	72.31
383.535	80.31
383.761	88.31
383.986	78.31
384.211	75.31
384.436	70.31
384.662	80.31
384.887	80.31
385.112	100.31
385.337	81.31
385.562	70.31
385.787	74.31
386.013	82.31
386.238	83.31
386.463	63.31
386.688	84.31
386.913	76.31
387.138	74.31
387.363	98.31
387.588	78.31
387.813	86.31
388.038	69.31
388.263	82.31
388.488	79.31
388.713	88.31
388.938	73.31
389.163	72.31
389.387	79.31
389.612	86.31
389.837	65.31
390.062	86.31
390.287	84.31
390.512	84.31
390.736	96.31
390.961	67.31
391.186	79.31
391.411	76.31
391.636	70.31
391.86	87.31
392.085	76.31
392.31	69.31
392.534	86.31
392.759	73.31
392.984	87.31
393.208	76.31
393.433	83.31
393.658	77.31
393.882	95.31
394.107	77.31
394.331	80.31
394.556	88.31
394.78	75.31
395.005	89.31
395.229	72.31
395.454	79.31
395.678	82.31
395.903	77.31
396.127	82.31
396.352	69.31
396.576	64.31
396.801	72.31
397.025	86.31
397.249	81.31
397.474	74.31
397.698	62.31
397.922	89.31
398.147	77.31
398.371	88.31
398.595	98.31
398.82	65.31
399.044	68.31
399.268	84.31
399.492	82.31
399.717	83.31
399.941	77.31
400.165	86.31
400.389	84.31
400.613	76.31
400.837	71.31
401.062	76.31
401.286	78.31
401.51	83.31
401.734	78.31
401.958	87.31
402.182	88.31
402.406	81.31
402.63	93.31
402.854	79.31
403.078	89.31
403.302	74.31
403.526	84.31
403.75	88.31
403.974	81.31
404.198	81.31
404.422	88.31
404.645	84.31
404.869	81.31
405.093	78.31
405.317	89.31
405.541	81.31
405.765	71.31
405.988	88.31
406.212	72.31
406.436	65.31
406.66	78.31
406.883	66.31
407.107	82.31
407.331	83.31
407.555	74.31
407.778	76.31
408.002	81.31
408.226	84.31
408.449	89.31
408.673	92.31
408.896	74.31
409.12	91.31
409.344	85.31
409.567	78.31
409.791	50.31
410.014	64.31
410.238	85.31
410.461	63.31
410.685	76.31
410.908	72.31
411.132	70.31
411.355	76.31
411.578	83.31
411.802	85.31
412.025	72.31
412.249	86.31
412.472	70.31
412.695	79.31
412.919	80.31
413.142	86.31
413.365	88.31
413.589	81.31
413.812	89.31
414.035	78.31
414.258	68.31
414.482	73.31
414.705	77.31
414.928	67.31
415.151	74.31
415.374	66.31
415.597	82.31
415.821	81.31
416.044	65.31
416.267	74.31
416.49	80.31
416.713	86.31
416.936	83.31
417.159	84.31
417.382	82.31
417.605	88.31
417.828	88.31
418.051	89.31
418.274	79.31
418.497	67.31
418.72	66.31
418.943	79.31
419.166	81.31
419.389	74.31
419.611	71.31
419.834	86.31
420.057	82.31
420.28	71.31
420.503	81.31
420.726	74.31
420.948	85.31
421.171	85.31
421.394	76.31
421.617	85.31
421.839	68.31
422.062	82.31
422.285	75.31
422.507	67.31
422.73	70.31
422.953	77.31
423.175	87.31
423.398	72.31
423.621	71.31
423.843	72.31
424.066	95.31
424.288	83.31
424.511	70.31
424.733	66.31
424.956	59.31
425.178	99.31
425.401	63.31
425.623	85.31
425.846	74.31
426.068	82.31
426.291	74.31
426.513	82.31
426.735	88.31
426.958	77.31
427.18	76.31
427.402	86.31
427.625	80.31
427.847	73.31
428.069	67.31
428.292	83.31
428.514	74.31
428.736	70.31
428.958	89.31
429.181	74.31
429.403	77.31
429.625	70.31
429.847	78.31
430.069	84.31
430.292	88.31
430.514	70.31
430.736	74.31
430.958	91.31
431.18	75.31
431.402	63.31
431.624	87.31
431.846	86.31
432.068	88.31
432.29	80.31
432.512	87.31
432.734	93.31
432.956	71.31
433.178	83.31
433.4	69.31
433.622	86.31
433.844	93.31
434.066	92.31
434.287	72.31
434.509	85.31
434.731	69.31
434.953	83.31
435.175	76.31
435.397	79.31
435.618	70.31
435.84	80.31
436.062	77.31
436.284	78.31
436.505	71.31
436.727	76.31
436.949	73.31
437.17	82.31
437.392	72.31
437.614	90.31
437.835	79.31
438.057	74.31
438.278	82.31
438.5	71.31
438.721	94.31
438.943	80.31
439.165	77.31
439.386	70.31
439.608	84.31
439.829	74.31
440.05	78.31
440.272	82.31
440.493	74.31
440.715	76.31
440.936	72.31
441.158	85.31
441.379	76.31
441.6	83.31
441.822	74.31
442.043	96.31
442.264	94.31
442.486	78.31
442.707	72.31
442.928	76.31
443.149	83.31
443.371	90.31
443.592	78.31
443.813	71.31
444.034	83.31
444.255	83.31
444.476	73.31
444.698	83.31
444.919	85.31
445.14	165.31
445.361	106.31
445.582	78.31
445.803	69.31
446.024	85.31
446.245	78.31
446.466	82.31
446.687	82.31
446.908	77.31
447.129	83.31
447.35	72.31
447.571	80.31
447.792	79.31
448.013	77.31
448.234	87.31
448.455	71.31
448.675	79.31
448.896	77.31
449.117	70.31
449.338	76.31
449.559	66.31
449.779	85.31
450	71.31
450.221	103.31
450.442	74.31
450.662	67.31
450.883	94.31
451.104	78.31
451.324	79.31
451.545	69.31
451.766	80.31
451.986	83.31
452.207	69.31
452.428	72.31
452.648	63.31
452.869	79.31
453.089	59.31
453.31	87.31
453.53	70.31
453.751	75.31
453.971	93.31
454.192	80.31
454.412	79.31
454.633	98.31
454.853	84.31
455.073	83.31
455.294	75.31
455.514	84.31
455.734	82.31
455.955	83.31
456.175	75.31
456.395	75.31
456.616	60.31
456.836	87.31
457.056	81.31
457.276	82.31
457.497	72.31
457.717	62.31
457.937	89.31
458.157	90.31
458.377	80.31
458.598	82.31
458.818	69.31
459.038	63.31
459.258	64.31
459.478	84.31
459.698	79.31
459.918	86.31
460.138	72.31
460.358	88.31
460.578	65.31
460.798	77.31
461.018	65.31
461.238	96.31
461.458	74.31
461.678	75.31
461.898	102.31
462.118	86.31
462.338	78.31
462.558	78.31
462.777	85.31
462.997	76.31
463.217	84.31
463.437	82.31
463.657	88.31
463.876	88.31
464.096	69.31
464.316	83.31
464.536	73.31
464.755	64.31
464.975	63.31
465.195	76.31
465.414	82.31
465.634	75.31
465.854	84.31
466.073	78.31
466.293	68.31
466.512	93.31
466.732	75.31
466.951	83.31
467.171	86.31
467.391	79.31
467.61	80.31
467.829	89.31
468.049	90.31
468.268	78.31
468.488	72.31
468.707	70.31
468.927	83.31
469.146	81.31
469.365	81.31
469.585	93.31
469.804	84.31
470.023	86.31
470.243	70.31
470.462	94.31
470.681	72.31
470.901	81.31
471.12	89.31
471.339	74.31
471.558	88.31
471.777	85.31
471.997	74.31
472.216	77.31
472.435	86.31
472.654	71.31
472.873	82.31
473.092	80.31
473.311	85.31
473.53	64.31
473.749	64.31
473.968	90.31
474.187	92.31
474.406	77.31
474.625	71.31
474.844	85.31
475.063	96.31
475.282	70.31
475.501	86.31
475.72	87.31
475.939	76.31
476.158	68.31
476.377	70.31
476.596	82.31
476.814	75.31
477.033	85.31
477.252	89.31
477.471	68.31
477.69	65.31
477.908	85.31
478.127	78.31
478.346	93.31
478.564	87.31
478.783	90.31
479.002	73.31
479.22	78.31
479.439	87.31
479.658	85.31
479.876	85.31
480.095	72.31
480.313	79.31
480.532	79.31
480.751	81.31
480.969	90.31
481.188	60.31
481.406	77.31
481.624	84.31
481.843	84.31
482.061	69.31
482.28	82.31
482.498	90.31
482.717	93.31
482.935	85.31
483.153	77.31
483.372	73.31
483.59	87.31
483.808	91.31
484.027	75.31
484.245	83.31
484.463	90.31
484.681	76.31
484.9	83.31
485.118	80.31
485.336	75.31
485.554	88.31
485.772	80.31
485.99	83.31
486.209	84.31
486.427	99.31
486.645	82.31
486.863	73.31
487.081	86.31
487.299	93.31
487.517	87.31
487.735	85.31
487.953	83.31
488.171	86.31
488.389	92.31
488.607	76.31
488.825	73.31
489.043	86.31
489.261	82.31
489.479	99.31
489.696	83.31
489.914	74.31
490.132	90.31
490.35	85.31
490.568	78.31
490.786	73.31
491.003	74.31
491.221	78.31
491.439	83.31
491.657	78.31
491.874	79.31
492.092	77.31
492.31	90.31
492.527	78.31
492.745	75.31
492.963	84.31
493.18	78.31
493.398	83.31
493.615	67.31
493.833	67.31
494.05	87.31
494.268	72.31
494.485	98.31
494.703	90.31
494.92	83.31
495.138	93.31
495.355	98.31
495.573	81.31
495.79	94.31
496.008	83.31
496.225	75.31
496.442	66.31
496.66	93.31
496.877	87.31
497.094	92.31
497.312	88.31
497.529	73.31
497.746	86.31
497.963	98.31
498.181	72.31
498.398	86.31
498.615	84.31
498.832	80.31
499.049	79.31
499.267	86.31
499.484	84.31
499.701	83.31
499.918	77.31
500.135	77.31
500.352	76.31
500.569	77.31
500.786	89.31
501.003	86.31
501.22	91.31
501.437	91.31
501.654	76.31
501.871	74.31
502.088	81.31
502.305	88.31
502.522	72.31
502.739	80.31
502.956	87.31
503.172	78.31
503.389	78.31
503.606	77.31
503.823	96.31
504.04	78.31
504.256	85.31
504.473	94.31
504.69	71.31
504.907	84.31
505.123	87.31
505.34	74.31
505.557	86.31
505.773	71.31
505.99	82.31
506.207	84.31
506.423	87.31
506.64	81.31
506.856	82.31
507.073	94.31
507.289	82.31
507.506	73.31
507.722	79.31
507.939	74.31
508.155	92.31
508.372	74.31
508.588	68.31
508.805	92.31
509.021	85.31
509.238	77.31
509.454	88.31
509.67	77.31
509.887	73.31
510.103	79.31
510.319	77.31
510.536	77.31
510.752	63.31
510.968	90.31
511.184	70.31
511.401	79.31
511.617	89.31
511.833	91.31
512.049	81.31
512.265	75.31
512.481	94.31
512.698	80.31
512.914	84.31
513.13	84.31
513.346	100.31
513.562	94.31
513.778	78.31
513.994	75.31
514.21	79.31
514.426	94.31
514.642	78.31
514.858	84.31
515.074	84.31
515.29	89.31
515.506	78.31
515.721	82.31
515.937	83.31
516.153	87.31
516.369	76.31
516.585	74.31
516.801	83.31
517.016	82.31
517.232	83.31
517.448	89.31
517.664	88.31
517.879	80.31
518.095	87.31
518.311	78.31
518.527	85.31
518.742	83.31
518.958	88.31
519.173	80.31
519.389	85.31
519.605	78.31
519.82	88.31
520.036	84.31
