Data from SampB_HRD10591_00066.txt Node
Date: Mon Jan 19 11:33:51 EST 2026
User: Yrep
Spectrometer: HR+D1059
Trigger mode: 0
Integration Time (sec): 3.443000E-1
Scans to average: 1
Electric dark correction enabled: true
Nonlinearity correction enabled: false
Boxcar width: 0
XAxis mode: Wavelengths
Number of Pixels in Spectrum: 2048
>>>>>Begin Spectral Data<<<<<
223.165	-27.62
223.4	-27.62
223.635	-27.62
223.869	-12.62
224.104	-21.62
224.338	-6.62
224.573	-21.62
224.808	-23.62
225.042	-8.62
225.277	5.38
225.511	1.38
225.746	8.38
225.98	7.38
226.215	15.38
226.449	23.38
226.683	17.38
226.918	13.38
227.152	30.38
227.387	24.38
227.621	32.38
227.856	40.38
228.09	34.38
228.324	37.38
228.559	60.38
228.793	56.38
229.027	71.38
229.262	70.38
229.496	78.38
229.73	77.38
229.964	90.38
230.199	83.38
230.433	83.38
230.667	87.38
230.901	85.38
231.136	89.38
231.37	86.38
231.604	84.38
231.838	93.38
232.072	95.38
232.306	98.38
232.541	90.38
232.775	87.38
233.009	98.38
233.243	113.38
233.477	100.38
233.711	82.38
233.945	110.38
234.179	91.38
234.413	100.38
234.647	88.38
234.881	98.38
235.115	105.38
235.349	93.38
235.583	100.38
235.817	104.38
236.051	98.38
236.285	91.38
236.519	101.38
236.753	110.38
236.987	95.38
237.221	94.38
237.455	101.38
237.689	109.38
237.922	106.38
238.156	114.38
238.39	94.38
238.624	116.38
238.858	106.38
239.091	108.38
239.325	89.38
239.559	94.38
239.793	102.38
240.027	113.38
240.26	97.38
240.494	104.38
240.728	107.38
240.961	102.38
241.195	120.38
241.429	114.38
241.662	119.38
241.896	107.38
242.13	108.38
242.363	108.38
242.597	109.38
242.83	124.38
243.064	108.38
243.298	113.38
243.531	98.38
243.765	111.38
243.998	115.38
244.232	109.38
244.465	107.38
244.699	98.38
244.932	110.38
245.166	113.38
245.399	110.38
245.633	111.38
245.866	108.38
246.099	116.38
246.333	116.38
246.566	119.38
246.8	119.38
247.033	111.38
247.266	107.38
247.5	122.38
247.733	121.38
247.966	108.38
248.2	120.38
248.433	118.38
248.666	136.38
248.899	128.38
249.133	129.38
249.366	128.38
249.599	123.38
249.832	121.38
250.066	133.38
250.299	112.38
250.532	134.38
250.765	122.38
250.998	101.38
251.231	118.38
251.465	133.38
251.698	128.38
251.931	135.38
252.164	128.38
252.397	124.38
252.63	132.38
252.863	132.38
253.096	134.38
253.329	140.38
253.562	135.38
253.795	132.38
254.028	153.38
254.261	146.38
254.494	133.38
254.727	140.38
254.96	130.38
255.193	155.38
255.426	143.38
255.659	123.38
255.892	137.38
256.124	140.38
256.357	153.38
256.59	148.38
256.823	124.38
257.056	150.38
257.289	113.38
257.521	135.38
257.754	124.38
257.987	142.38
258.22	140.38
258.452	145.38
258.685	138.38
258.918	156.38
259.151	133.38
259.383	132.38
259.616	138.38
259.849	154.38
260.081	175.38
260.314	143.38
260.547	157.38
260.779	166.38
261.012	150.38
261.244	151.38
261.477	178.38
261.71	170.38
261.942	152.38
262.175	139.38
262.407	137.38
262.64	151.38
262.872	141.38
263.105	162.38
263.337	180.38
263.57	148.38
263.802	139.38
264.035	139.38
264.267	151.38
264.499	157.38
264.732	134.38
264.964	140.38
265.197	122.38
265.429	133.38
265.661	115.38
265.894	119.38
266.126	147.38
266.358	134.38
266.591	154.38
266.823	155.38
267.055	130.38
267.287	149.38
267.52	152.38
267.752	143.38
267.984	142.38
268.216	137.38
268.448	146.38
268.681	138.38
268.913	135.38
269.145	129.38
269.377	129.38
269.609	146.38
269.841	145.38
270.073	154.38
270.306	151.38
270.538	135.38
270.77	134.38
271.002	154.38
271.234	137.38
271.466	165.38
271.698	141.38
271.93	151.38
272.162	162.38
272.394	157.38
272.626	168.38
272.858	160.38
273.09	170.38
273.322	176.38
273.553	179.38
273.785	191.38
274.017	195.38
274.249	204.38
274.481	222.38
274.713	224.38
274.945	237.38
275.176	228.38
275.408	218.38
275.64	201.38
275.872	206.38
276.104	173.38
276.335	158.38
276.567	160.38
276.799	171.38
277.031	176.38
277.262	169.38
277.494	155.38
277.726	161.38
277.957	174.38
278.189	153.38
278.421	163.38
278.652	172.38
278.884	161.38
279.115	161.38
279.347	160.38
279.579	184.38
279.81	172.38
280.042	184.38
280.273	192.38
280.505	174.38
280.736	168.38
280.968	170.38
281.199	165.38
281.431	149.38
281.662	156.38
281.894	161.38
282.125	151.38
282.356	145.38
282.588	164.38
282.819	160.38
283.051	159.38
283.282	175.38
283.513	173.38
283.745	161.38
283.976	167.38
284.207	176.38
284.439	166.38
284.67	168.38
284.901	168.38
285.132	168.38
285.364	172.38
285.595	184.38
285.826	168.38
286.057	161.38
286.288	176.38
286.52	185.38
286.751	158.38
286.982	170.38
287.213	162.38
287.444	172.38
287.675	162.38
287.906	176.38
288.138	165.38
288.369	180.38
288.6	183.38
288.831	165.38
289.062	172.38
289.293	176.38
289.524	182.38
289.755	173.38
289.986	165.38
290.217	185.38
290.448	159.38
290.679	175.38
290.91	186.38
291.141	160.38
291.371	183.38
291.602	187.38
291.833	166.38
292.064	167.38
292.295	176.38
292.526	158.38
292.757	182.38
292.987	162.38
293.218	168.38
293.449	160.38
293.68	164.38
293.91	175.38
294.141	189.38
294.372	185.38
294.603	184.38
294.833	174.38
295.064	182.38
295.295	177.38
295.525	174.38
295.756	165.38
295.987	184.38
296.217	174.38
296.448	174.38
296.679	181.38
296.909	170.38
297.14	188.38
297.37	180.38
297.601	181.38
297.831	162.38
298.062	173.38
298.292	167.38
298.523	198.38
298.753	198.38
298.984	190.38
299.214	168.38
299.445	185.38
299.675	193.38
299.905	189.38
300.136	200.38
300.366	184.38
300.597	190.38
300.827	185.38
301.057	194.38
301.288	209.38
301.518	202.38
301.748	197.38
301.979	253.38
302.209	213.38
302.439	192.38
302.669	190.38
302.9	198.38
303.13	170.38
303.36	189.38
303.59	180.38
303.82	172.38
304.051	199.38
304.281	204.38
304.511	184.38
304.741	194.38
304.971	193.38
305.201	196.38
305.431	193.38
305.661	208.38
305.891	213.38
306.121	196.38
306.352	179.38
306.582	192.38
306.812	194.38
307.042	201.38
307.272	213.38
307.502	210.38
307.731	204.38
307.961	211.38
308.191	205.38
308.421	190.38
308.651	196.38
308.881	186.38
309.111	213.38
309.341	205.38
309.571	212.38
309.8	190.38
310.03	208.38
310.26	191.38
310.49	192.38
310.72	200.38
310.949	184.38
311.179	191.38
311.409	204.38
311.639	193.38
311.868	201.38
312.098	214.38
312.328	200.38
312.557	205.38
312.787	199.38
313.017	198.38
313.246	207.38
313.476	184.38
313.706	190.38
313.935	189.38
314.165	178.38
314.394	191.38
314.624	208.38
314.853	193.38
315.083	201.38
315.312	188.38
315.542	200.38
315.771	196.38
316.001	200.38
316.23	180.38
316.46	184.38
316.689	189.38
316.919	194.38
317.148	201.38
317.377	212.38
317.607	186.38
317.836	183.38
318.065	184.38
318.295	198.38
318.524	208.38
318.753	201.38
318.983	200.38
319.212	215.38
319.441	228.38
319.67	203.38
319.9	194.38
320.129	218.38
320.358	192.38
320.587	196.38
320.816	202.38
321.046	198.38
321.275	207.38
321.504	205.38
321.733	232.38
321.962	189.38
322.191	208.38
322.42	213.38
322.649	207.38
322.878	214.38
323.108	217.38
323.337	218.38
323.566	226.38
323.795	239.38
324.024	234.38
324.253	217.38
324.482	206.38
324.71	223.38
324.939	213.38
325.168	225.38
325.397	212.38
325.626	220.38
325.855	203.38
326.084	210.38
326.313	229.38
326.542	207.38
326.77	227.38
326.999	215.38
327.228	244.38
327.457	232.38
327.686	252.38
327.914	270.38
328.143	298.38
328.372	318.38
328.6	270.38
328.829	252.38
329.058	236.38
329.287	232.38
329.515	265.38
329.744	296.38
329.972	300.38
330.201	383.38
330.43	395.38
330.658	316.38
330.887	255.38
331.115	241.38
331.344	238.38
331.572	257.38
331.801	256.38
332.03	265.38
332.258	260.38
332.486	258.38
332.715	263.38
332.943	286.38
333.172	301.38
333.4	284.38
333.629	329.38
333.857	333.38
334.085	383.38
334.314	443.38
334.542	493.38
334.771	480.38
334.999	358.38
335.227	314.38
335.455	292.38
335.684	277.38
335.912	270.38
336.14	279.38
336.369	253.38
336.597	268.38
336.825	251.38
337.053	268.38
337.281	263.38
337.51	252.38
337.738	247.38
337.966	243.38
338.194	247.38
338.422	237.38
338.65	234.38
338.878	232.38
339.106	233.38
339.334	224.38
339.562	215.38
339.79	237.38
340.018	216.38
340.246	225.38
340.474	213.38
340.702	230.38
340.93	213.38
341.158	224.38
341.386	204.38
341.614	207.38
341.842	196.38
342.07	198.38
342.298	228.38
342.526	210.38
342.754	212.38
342.981	226.38
343.209	233.38
343.437	266.38
343.665	256.38
343.893	251.38
344.12	281.38
344.348	262.38
344.576	236.38
344.804	240.38
345.031	216.38
345.259	229.38
345.487	226.38
345.714	228.38
345.942	223.38
346.17	224.38
346.397	209.38
346.625	219.38
346.853	208.38
347.08	207.38
347.308	223.38
347.535	229.38
347.763	247.38
347.99	218.38
348.218	198.38
348.445	214.38
348.673	212.38
348.9	218.38
349.128	220.38
349.355	224.38
349.583	213.38
349.81	196.38
350.037	208.38
350.265	227.38
350.492	218.38
350.72	213.38
350.947	201.38
351.174	206.38
351.402	193.38
351.629	197.38
351.856	208.38
352.083	207.38
352.311	203.38
352.538	225.38
352.765	211.38
352.992	240.38
353.22	219.38
353.447	199.38
353.674	218.38
353.901	236.38
354.128	205.38
354.355	210.38
354.583	201.38
354.81	220.38
355.037	239.38
355.264	220.38
355.491	226.38
355.718	217.38
355.945	234.38
356.172	234.38
356.399	220.38
356.626	224.38
356.853	231.38
357.08	241.38
357.307	234.38
357.534	223.38
357.761	232.38
357.988	238.38
358.215	254.38
358.441	252.38
358.668	223.38
358.895	212.38
359.122	237.38
359.349	202.38
359.576	212.38
359.802	215.38
360.029	204.38
360.256	223.38
360.483	204.38
360.709	231.38
360.936	240.38
361.163	237.38
361.39	220.38
361.616	225.38
361.843	224.38
362.07	229.38
362.296	226.38
362.523	206.38
362.749	210.38
362.976	221.38
363.203	241.38
363.429	232.38
363.656	239.38
363.882	198.38
364.109	232.38
364.335	220.38
364.562	233.38
364.788	218.38
365.015	255.38
365.241	230.38
365.468	226.38
365.694	218.38
365.92	203.38
366.147	198.38
366.373	207.38
366.599	219.38
366.826	216.38
367.052	212.38
367.278	219.38
367.505	224.38
367.731	205.38
367.957	220.38
368.184	216.38
368.41	231.38
368.636	229.38
368.862	226.38
369.089	222.38
369.315	218.38
369.541	221.38
369.767	207.38
369.993	209.38
370.219	213.38
370.445	234.38
370.672	241.38
370.898	238.38
371.124	236.38
371.35	216.38
371.576	222.38
371.802	238.38
372.028	249.38
372.254	263.38
372.48	245.38
372.706	239.38
372.932	243.38
373.158	273.38
373.384	284.38
373.61	273.38
373.835	275.38
374.061	258.38
374.287	251.38
374.513	262.38
374.739	289.38
374.965	306.38
375.191	269.38
375.416	274.38
375.642	278.38
375.868	285.38
376.094	272.38
376.319	271.38
376.545	246.38
376.771	260.38
376.997	248.38
377.222	229.38
377.448	239.38
377.674	220.38
377.899	233.38
378.125	228.38
378.35	206.38
378.576	232.38
378.802	224.38
379.027	228.38
379.253	238.38
379.478	252.38
379.704	231.38
379.929	232.38
380.155	235.38
380.38	253.38
380.606	231.38
380.831	245.38
381.057	241.38
381.282	255.38
381.507	263.38
381.733	280.38
381.958	275.38
382.184	281.38
382.409	281.38
382.634	298.38
382.86	294.38
383.085	292.38
383.31	283.38
383.535	286.38
383.761	284.38
383.986	298.38
384.211	286.38
384.436	290.38
384.662	281.38
384.887	300.38
385.112	288.38
385.337	289.38
385.562	293.38
385.787	287.38
386.013	304.38
386.238	298.38
386.463	305.38
386.688	305.38
386.913	287.38
387.138	298.38
387.363	293.38
387.588	306.38
387.813	301.38
388.038	284.38
388.263	313.38
388.488	309.38
388.713	287.38
388.938	295.38
389.163	272.38
389.387	272.38
389.612	272.38
389.837	262.38
390.062	277.38
390.287	277.38
390.512	263.38
390.736	268.38
390.961	277.38
391.186	269.38
391.411	306.38
391.636	294.38
391.86	298.38
392.085	294.38
392.31	294.38
392.534	293.38
392.759	317.38
392.984	328.38
393.208	363.38
393.433	385.38
393.658	362.38
393.882	310.38
394.107	304.38
394.331	324.38
394.556	319.38
394.78	332.38
395.005	312.38
395.229	284.38
395.454	321.38
395.678	342.38
395.903	332.38
396.127	346.38
396.352	370.38
396.576	327.38
396.801	376.38
397.025	379.38
397.249	343.38
397.474	312.38
397.698	296.38
397.922	301.38
398.147	313.38
398.371	322.38
398.595	338.38
398.82	350.38
399.044	363.38
399.268	401.38
399.492	470.38
399.717	479.38
399.941	469.38
400.165	417.38
400.389	367.38
400.613	364.38
400.837	334.38
401.062	352.38
401.286	333.38
401.51	320.38
401.734	337.38
401.958	345.38
402.182	326.38
402.406	336.38
402.63	350.38
402.854	376.38
403.078	352.38
403.302	369.38
403.526	369.38
403.75	360.38
403.974	383.38
404.198	385.38
404.422	388.38
404.645	406.38
404.869	378.38
405.093	365.38
405.317	376.38
405.541	358.38
405.765	364.38
405.988	375.38
406.212	391.38
406.436	374.38
406.66	398.38
406.883	361.38
407.107	401.38
407.331	406.38
407.555	380.38
407.778	412.38
408.002	409.38
408.226	389.38
408.449	369.38
408.673	362.38
408.896	362.38
409.12	350.38
409.344	359.38
409.567	357.38
409.791	356.38
410.014	362.38
410.238	366.38
410.461	355.38
410.685	364.38
410.908	358.38
411.132	354.38
411.355	360.38
411.578	355.38
411.802	336.38
412.025	352.38
412.249	347.38
412.472	357.38
412.695	343.38
412.919	347.38
413.142	335.38
413.365	344.38
413.589	340.38
413.812	335.38
414.035	344.38
414.258	352.38
414.482	345.38
414.705	363.38
414.928	354.38
415.151	337.38
415.374	341.38
415.597	346.38
415.821	348.38
416.044	328.38
416.267	329.38
416.49	338.38
416.713	344.38
416.936	324.38
417.159	340.38
417.382	323.38
417.605	338.38
417.828	346.38
418.051	349.38
418.274	337.38
418.497	337.38
418.72	343.38
418.943	352.38
419.166	353.38
419.389	382.38
419.611	373.38
419.834	352.38
420.057	353.38
420.28	362.38
420.503	352.38
420.726	336.38
420.948	341.38
421.171	349.38
421.394	357.38
421.617	367.38
421.839	347.38
422.062	346.38
422.285	374.38
422.507	404.38
422.73	437.38
422.953	437.38
423.175	361.38
423.398	364.38
423.621	356.38
423.843	348.38
424.066	368.38
424.288	368.38
424.511	363.38
424.733	356.38
424.956	358.38
425.178	372.38
425.401	354.38
425.623	342.38
425.846	335.38
426.068	343.38
426.291	346.38
426.513	340.38
426.735	341.38
426.958	341.38
427.18	335.38
427.402	333.38
427.625	330.38
427.847	334.38
428.069	345.38
428.292	324.38
428.514	334.38
428.736	334.38
428.958	344.38
429.181	332.38
429.403	319.38
429.625	325.38
429.847	332.38
430.069	366.38
430.292	378.38
430.514	350.38
430.736	371.38
430.958	338.38
431.18	320.38
431.402	314.38
431.624	308.38
431.846	300.38
432.068	303.38
432.29	310.38
432.512	317.38
432.734	337.38
432.956	326.38
433.178	332.38
433.4	321.38
433.622	312.38
433.844	314.38
434.066	311.38
434.287	296.38
434.509	306.38
434.731	337.38
434.953	325.38
435.175	354.38
435.397	331.38
435.618	309.38
435.84	290.38
436.062	303.38
436.284	305.38
436.505	320.38
436.727	316.38
436.949	305.38
437.17	317.38
437.392	307.38
437.614	306.38
437.835	283.38
438.057	294.38
438.278	316.38
438.5	349.38
438.721	316.38
438.943	313.38
439.165	309.38
439.386	305.38
439.608	358.38
439.829	327.38
440.05	340.38
440.272	347.38
440.493	332.38
440.715	343.38
440.936	337.38
441.158	334.38
441.379	329.38
441.6	334.38
441.822	367.38
442.043	355.38
442.264	342.38
442.486	366.38
442.707	349.38
442.928	334.38
443.149	345.38
443.371	365.38
443.592	364.38
443.813	360.38
444.034	342.38
444.255	382.38
444.476	414.38
444.698	389.38
444.919	404.38
445.14	589.38
445.361	450.38
445.582	401.38
445.803	395.38
446.024	326.38
446.245	347.38
446.466	325.38
446.687	338.38
446.908	337.38
447.129	323.38
447.35	328.38
447.571	311.38
447.792	310.38
448.013	305.38
448.234	301.38
448.455	310.38
448.675	297.38
448.896	303.38
449.117	296.38
449.338	290.38
449.559	294.38
449.779	290.38
450	285.38
450.221	297.38
450.442	299.38
450.662	297.38
450.883	310.38
451.104	312.38
451.324	301.38
451.545	281.38
451.766	307.38
451.986	306.38
452.207	302.38
452.428	278.38
452.648	301.38
452.869	283.38
453.089	289.38
453.31	314.38
453.53	373.38
453.751	366.38
453.971	319.38
454.192	248.38
454.412	269.38
454.633	289.38
454.853	280.38
455.073	292.38
455.294	278.38
455.514	303.38
455.734	291.38
455.955	263.38
456.175	271.38
456.395	260.38
456.616	270.38
456.836	264.38
457.056	255.38
457.276	258.38
457.497	268.38
457.717	262.38
457.937	263.38
458.157	274.38
458.377	266.38
458.598	261.38
458.818	271.38
459.038	267.38
459.258	285.38
459.478	297.38
459.698	303.38
459.918	310.38
460.138	316.38
460.358	320.38
460.578	343.38
460.798	334.38
461.018	344.38
461.238	342.38
461.458	342.38
461.678	352.38
461.898	357.38
462.118	357.38
462.338	361.38
462.558	397.38
462.777	393.38
462.997	408.38
463.217	419.38
463.437	444.38
463.657	396.38
463.876	388.38
464.096	398.38
464.316	379.38
464.536	392.38
464.755	384.38
464.975	346.38
465.195	362.38
465.414	339.38
465.634	323.38
465.854	333.38
466.073	316.38
466.293	304.38
466.512	314.38
466.732	320.38
466.951	325.38
467.171	302.38
467.391	321.38
467.61	314.38
467.829	347.38
468.049	393.38
468.268	428.38
468.488	380.38
468.707	344.38
468.927	317.38
469.146	327.38
469.365	306.38
469.585	330.38
469.804	326.38
470.023	320.38
470.243	329.38
470.462	335.38
470.681	349.38
470.901	324.38
471.12	336.38
471.339	340.38
471.558	331.38
471.777	324.38
471.997	361.38
472.216	469.38
472.435	599.38
472.654	462.38
472.873	346.38
473.092	320.38
473.311	321.38
473.53	332.38
473.749	312.38
473.968	310.38
474.187	300.38
474.406	296.38
474.625	310.38
474.844	297.38
475.063	296.38
475.282	305.38
475.501	309.38
475.72	311.38
475.939	297.38
476.158	320.38
476.377	347.38
476.596	319.38
476.814	321.38
477.033	303.38
477.252	303.38
477.471	306.38
477.69	330.38
477.908	342.38
478.127	349.38
478.346	342.38
478.564	395.38
478.783	342.38
479.002	356.38
479.22	370.38
479.439	363.38
479.658	357.38
479.876	352.38
480.095	380.38
480.313	389.38
480.532	384.38
480.751	434.38
480.969	510.38
481.188	791.38
481.406	731.38
481.624	469.38
481.843	414.38
482.061	373.38
482.28	366.38
482.498	376.38
482.717	341.38
482.935	357.38
483.153	377.38
483.372	360.38
483.59	333.38
483.808	342.38
484.027	358.38
484.245	357.38
484.463	354.38
484.681	368.38
484.9	354.38
485.118	364.38
485.336	361.38
485.554	355.38
485.772	340.38
485.99	335.38
486.209	347.38
486.427	337.38
486.645	371.38
486.863	372.38
487.081	369.38
487.299	361.38
487.517	355.38
487.735	380.38
487.953	367.38
488.171	361.38
488.389	383.38
488.607	342.38
488.825	344.38
489.043	361.38
489.261	375.38
489.479	362.38
489.696	351.38
489.914	369.38
490.132	382.38
490.35	372.38
490.568	374.38
490.786	394.38
491.003	390.38
491.221	382.38
491.439	393.38
491.657	412.38
491.874	422.38
492.092	439.38
492.31	476.38
492.527	404.38
492.745	407.38
492.963	395.38
493.18	423.38
493.398	425.38
493.615	437.38
493.833	400.38
494.05	410.38
494.268	380.38
494.485	388.38
494.703	382.38
494.92	394.38
495.138	379.38
495.355	410.38
495.573	398.38
495.79	380.38
496.008	446.38
496.225	409.38
496.442	420.38
496.66	418.38
496.877	408.38
497.094	417.38
497.312	402.38
497.529	415.38
497.746	419.38
497.963	443.38
498.181	480.38
498.398	542.38
498.615	479.38
498.832	507.38
499.049	534.38
499.267	631.38
499.484	643.38
499.701	645.38
499.918	757.38
500.135	850.38
500.352	908.38
500.569	891.38
500.786	870.38
501.003	844.38
501.22	705.38
501.437	694.38
501.654	650.38
501.871	575.38
502.088	525.38
502.305	530.38
502.522	519.38
502.739	487.38
502.956	440.38
503.172	419.38
