Data from SampB_HRD10591_00008.txt Node
Date: Mon Jan 19 11:33:31 EST 2026
User: Yrep
Spectrometer: HR+D1059
Trigger mode: 0
Integration Time (sec): 3.443000E-1
Scans to average: 1
Electric dark correction enabled: true
Nonlinearity correction enabled: false
Boxcar width: 0
XAxis mode: Wavelengths
Number of Pixels in Spectrum: 2048
>>>>>Begin Spectral Data<<<<<
223.165	-17.19
223.4	-17.19
223.635	-17.19
223.869	-38.19
224.104	-35.19
224.338	-7.19
224.573	-10.19
224.808	-13.19
225.042	-7.19
225.277	-8.19
225.511	-14.19
225.746	4.81
225.98	10.81
226.215	20.81
226.449	24.81
226.683	9.81
226.918	40.81
227.152	38.81
227.387	25.81
227.621	43.81
227.856	30.81
228.09	46.81
228.324	65.81
228.559	47.81
228.793	56.81
229.027	70.81
229.262	68.81
229.496	55.81
229.73	79.81
229.964	74.81
230.199	85.81
230.433	78.81
230.667	84.81
230.901	84.81
231.136	85.81
231.37	80.81
231.604	82.81
231.838	90.81
232.072	86.81
232.306	79.81
232.541	88.81
232.775	85.81
233.009	90.81
233.243	84.81
233.477	76.81
233.711	103.81
233.945	92.81
234.179	95.81
234.413	91.81
234.647	78.81
234.881	92.81
235.115	84.81
235.349	76.81
235.583	85.81
235.817	82.81
236.051	59.81
236.285	75.81
236.519	69.81
236.753	85.81
236.987	69.81
237.221	73.81
237.455	88.81
237.689	80.81
237.922	87.81
238.156	82.81
238.39	83.81
238.624	70.81
238.858	77.81
239.091	68.81
239.325	69.81
239.559	71.81
239.793	84.81
240.027	92.81
240.26	76.81
240.494	75.81
240.728	83.81
240.961	79.81
241.195	90.81
241.429	93.81
241.662	78.81
241.896	89.81
242.13	77.81
242.363	82.81
242.597	78.81
242.83	82.81
243.064	87.81
243.298	79.81
243.531	76.81
243.765	79.81
243.998	87.81
244.232	93.81
244.465	95.81
244.699	93.81
244.932	80.81
245.166	69.81
245.399	86.81
245.633	81.81
245.866	89.81
246.099	96.81
246.333	89.81
246.566	83.81
246.8	87.81
247.033	95.81
247.266	102.81
247.5	89.81
247.733	81.81
247.966	92.81
248.2	84.81
248.433	88.81
248.666	89.81
248.899	102.81
249.133	97.81
249.366	102.81
249.599	92.81
249.832	99.81
250.066	112.81
250.299	96.81
250.532	95.81
250.765	93.81
250.998	105.81
251.231	102.81
251.465	118.81
251.698	86.81
251.931	89.81
252.164	98.81
252.397	105.81
252.63	92.81
252.863	84.81
253.096	77.81
253.329	102.81
253.562	83.81
253.795	88.81
254.028	106.81
254.261	96.81
254.494	108.81
254.727	106.81
254.96	114.81
255.193	97.81
255.426	108.81
255.659	86.81
255.892	105.81
256.124	95.81
256.357	100.81
256.59	94.81
256.823	97.81
257.056	114.81
257.289	96.81
257.521	103.81
257.754	83.81
257.987	94.81
258.22	99.81
258.452	93.81
258.685	103.81
258.918	102.81
259.151	112.81
259.383	104.81
259.616	90.81
259.849	122.81
260.081	111.81
260.314	107.81
260.547	99.81
260.779	99.81
261.012	105.81
261.244	98.81
261.477	94.81
261.71	100.81
261.942	109.81
262.175	107.81
262.407	104.81
262.64	118.81
262.872	93.81
263.105	101.81
263.337	107.81
263.57	108.81
263.802	103.81
264.035	90.81
264.267	106.81
264.499	102.81
264.732	117.81
264.964	109.81
265.197	119.81
265.429	102.81
265.661	98.81
265.894	104.81
266.126	112.81
266.358	86.81
266.591	110.81
266.823	104.81
267.055	102.81
267.287	120.81
267.52	116.81
267.752	98.81
267.984	105.81
268.216	95.81
268.448	110.81
268.681	107.81
268.913	113.81
269.145	119.81
269.377	106.81
269.609	116.81
269.841	109.81
270.073	111.81
270.306	111.81
270.538	106.81
270.77	122.81
271.002	103.81
271.234	117.81
271.466	113.81
271.698	119.81
271.93	117.81
272.162	112.81
272.394	104.81
272.626	99.81
272.858	101.81
273.09	109.81
273.322	110.81
273.553	114.81
273.785	109.81
274.017	129.81
274.249	124.81
274.481	117.81
274.713	129.81
274.945	123.81
275.176	109.81
275.408	110.81
275.64	118.81
275.872	116.81
276.104	107.81
276.335	111.81
276.567	111.81
276.799	105.81
277.031	116.81
277.262	128.81
277.494	129.81
277.726	124.81
277.957	124.81
278.189	114.81
278.421	124.81
278.652	121.81
278.884	110.81
279.115	132.81
279.347	122.81
279.579	121.81
279.81	120.81
280.042	125.81
280.273	128.81
280.505	112.81
280.736	126.81
280.968	126.81
281.199	122.81
281.431	111.81
281.662	107.81
281.894	120.81
282.125	109.81
282.356	123.81
282.588	112.81
282.819	125.81
283.051	120.81
283.282	132.81
283.513	134.81
283.745	127.81
283.976	114.81
284.207	113.81
284.439	134.81
284.67	134.81
284.901	122.81
285.132	112.81
285.364	122.81
285.595	131.81
285.826	135.81
286.057	116.81
286.288	135.81
286.52	132.81
286.751	139.81
286.982	133.81
287.213	124.81
287.444	125.81
287.675	133.81
287.906	118.81
288.138	117.81
288.369	129.81
288.6	127.81
288.831	126.81
289.062	131.81
289.293	129.81
289.524	138.81
289.755	134.81
289.986	125.81
290.217	127.81
290.448	121.81
290.679	131.81
290.91	129.81
291.141	137.81
291.371	124.81
291.602	119.81
291.833	124.81
292.064	104.81
292.295	133.81
292.526	129.81
292.757	121.81
292.987	112.81
293.218	120.81
293.449	126.81
293.68	142.81
293.91	148.81
294.141	145.81
294.372	124.81
294.603	107.81
294.833	132.81
295.064	127.81
295.295	134.81
295.525	150.81
295.756	145.81
295.987	142.81
296.217	118.81
296.448	132.81
296.679	125.81
296.909	141.81
297.14	132.81
297.37	129.81
297.601	140.81
297.831	130.81
298.062	145.81
298.292	134.81
298.523	135.81
298.753	131.81
298.984	138.81
299.214	136.81
299.445	138.81
299.675	128.81
299.905	146.81
300.136	117.81
300.366	140.81
300.597	131.81
300.827	137.81
301.057	140.81
301.288	132.81
301.518	130.81
301.748	136.81
301.979	174.81
302.209	142.81
302.439	154.81
302.669	138.81
302.9	129.81
303.13	138.81
303.36	132.81
303.59	129.81
303.82	136.81
304.051	150.81
304.281	142.81
304.511	137.81
304.741	124.81
304.971	133.81
305.201	123.81
305.431	142.81
305.661	123.81
305.891	142.81
306.121	145.81
306.352	154.81
306.582	144.81
306.812	144.81
307.042	133.81
307.272	142.81
307.502	152.81
307.731	152.81
307.961	163.81
308.191	132.81
308.421	142.81
308.651	144.81
308.881	135.81
309.111	144.81
309.341	141.81
309.571	134.81
309.8	136.81
310.03	137.81
310.26	150.81
310.49	113.81
310.72	144.81
310.949	137.81
311.179	115.81
311.409	157.81
311.639	133.81
311.868	141.81
312.098	147.81
312.328	153.81
312.557	133.81
312.787	129.81
313.017	149.81
313.246	137.81
313.476	138.81
313.706	141.81
313.935	122.81
314.165	141.81
314.394	143.81
314.624	128.81
314.853	156.81
315.083	142.81
315.312	136.81
315.542	138.81
315.771	134.81
316.001	152.81
316.23	151.81
316.46	146.81
316.689	141.81
316.919	140.81
317.148	152.81
317.377	149.81
317.607	146.81
317.836	154.81
318.065	145.81
318.295	142.81
318.524	124.81
318.753	140.81
318.983	142.81
319.212	142.81
319.441	144.81
319.67	146.81
319.9	138.81
320.129	149.81
320.358	147.81
320.587	144.81
320.816	136.81
321.046	148.81
321.275	142.81
321.504	121.81
321.733	133.81
321.962	163.81
322.191	146.81
322.42	155.81
322.649	155.81
322.878	158.81
323.108	144.81
323.337	159.81
323.566	160.81
323.795	170.81
324.024	160.81
324.253	159.81
324.482	140.81
324.71	156.81
324.939	161.81
325.168	153.81
325.397	146.81
325.626	151.81
325.855	156.81
326.084	146.81
326.313	157.81
326.542	152.81
326.77	153.81
326.999	167.81
327.228	170.81
327.457	168.81
327.686	166.81
327.914	168.81
328.143	183.81
328.372	185.81
328.6	182.81
328.829	165.81
329.058	165.81
329.287	146.81
329.515	177.81
329.744	161.81
329.972	202.81
330.201	209.81
330.43	225.81
330.658	173.81
330.887	160.81
331.115	148.81
331.344	169.81
331.572	169.81
331.801	184.81
332.03	170.81
332.258	159.81
332.486	176.81
332.715	167.81
332.943	185.81
333.172	193.81
333.4	183.81
333.629	198.81
333.857	196.81
334.085	231.81
334.314	261.81
334.542	280.81
334.771	245.81
334.999	208.81
335.227	184.81
335.455	181.81
335.684	177.81
335.912	176.81
336.14	177.81
336.369	172.81
336.597	171.81
336.825	176.81
337.053	174.81
337.281	175.81
337.51	174.81
337.738	166.81
337.966	172.81
338.194	166.81
338.422	158.81
338.65	171.81
338.878	142.81
339.106	168.81
339.334	181.81
339.562	173.81
339.79	154.81
340.018	154.81
340.246	156.81
340.474	161.81
340.702	154.81
340.93	156.81
341.158	175.81
341.386	156.81
341.614	156.81
341.842	155.81
342.07	152.81
342.298	147.81
342.526	148.81
342.754	141.81
342.981	169.81
343.209	153.81
343.437	186.81
343.665	175.81
343.893	181.81
344.12	185.81
344.348	168.81
344.576	158.81
344.804	148.81
345.031	161.81
345.259	162.81
345.487	156.81
345.714	162.81
345.942	134.81
346.17	146.81
346.397	154.81
346.625	164.81
346.853	151.81
347.08	131.81
347.308	146.81
347.535	149.81
347.763	154.81
347.99	160.81
348.218	140.81
348.445	161.81
348.673	154.81
348.9	153.81
349.128	164.81
349.355	133.81
349.583	150.81
349.81	162.81
350.037	148.81
350.265	158.81
350.492	165.81
350.72	164.81
350.947	141.81
351.174	148.81
351.402	161.81
351.629	137.81
351.856	137.81
352.083	144.81
352.311	139.81
352.538	149.81
352.765	137.81
352.992	160.81
353.22	145.81
353.447	149.81
353.674	154.81
353.901	146.81
354.128	138.81
354.355	136.81
354.583	153.81
354.81	137.81
355.037	156.81
355.264	157.81
355.491	147.81
355.718	138.81
355.945	153.81
356.172	165.81
356.399	153.81
356.626	130.81
356.853	148.81
357.08	167.81
357.307	157.81
357.534	168.81
357.761	166.81
357.988	152.81
358.215	148.81
358.441	153.81
358.668	145.81
358.895	150.81
359.122	160.81
359.349	143.81
359.576	136.81
359.802	150.81
360.029	153.81
360.256	161.81
360.483	143.81
360.709	160.81
360.936	153.81
361.163	152.81
361.39	136.81
361.616	151.81
361.843	156.81
362.07	160.81
362.296	142.81
362.523	140.81
362.749	154.81
362.976	134.81
363.203	160.81
363.429	164.81
363.656	148.81
363.882	155.81
364.109	158.81
364.335	155.81
364.562	170.81
364.788	135.81
365.015	153.81
365.241	149.81
365.468	172.81
365.694	158.81
365.92	150.81
366.147	155.81
366.373	156.81
366.599	151.81
366.826	137.81
367.052	153.81
367.278	144.81
367.505	157.81
367.731	160.81
367.957	154.81
368.184	141.81
368.41	154.81
368.636	166.81
368.862	151.81
369.089	157.81
369.315	155.81
369.541	156.81
369.767	156.81
369.993	149.81
370.219	155.81
370.445	151.81
370.672	153.81
370.898	152.81
371.124	155.81
371.35	153.81
371.576	157.81
371.802	145.81
372.028	150.81
372.254	166.81
372.48	167.81
372.706	154.81
372.932	177.81
373.158	174.81
373.384	168.81
373.61	156.81
373.835	160.81
374.061	164.81
374.287	178.81
374.513	162.81
374.739	179.81
374.965	178.81
375.191	159.81
375.416	170.81
375.642	189.81
375.868	204.81
376.094	192.81
376.319	186.81
376.545	161.81
376.771	141.81
376.997	160.81
377.222	136.81
377.448	152.81
377.674	152.81
377.899	159.81
378.125	159.81
378.35	151.81
378.576	168.81
378.802	177.81
379.027	167.81
379.253	162.81
379.478	154.81
379.704	151.81
379.929	164.81
380.155	157.81
380.38	159.81
380.606	154.81
380.831	147.81
381.057	166.81
381.282	158.81
381.507	171.81
381.733	164.81
381.958	157.81
382.184	168.81
382.409	154.81
382.634	174.81
382.86	158.81
383.085	169.81
383.31	170.81
383.535	188.81
383.761	171.81
383.986	188.81
384.211	177.81
384.436	183.81
384.662	175.81
384.887	188.81
385.112	198.81
385.337	200.81
385.562	171.81
385.787	172.81
386.013	185.81
386.238	185.81
386.463	180.81
386.688	215.81
386.913	186.81
387.138	188.81
387.363	166.81
387.588	213.81
387.813	200.81
388.038	170.81
388.263	185.81
388.488	184.81
388.713	182.81
388.938	177.81
389.163	163.81
389.387	186.81
389.612	181.81
389.837	183.81
390.062	185.81
390.287	197.81
390.512	159.81
390.736	189.81
390.961	196.81
391.186	174.81
391.411	186.81
391.636	191.81
391.86	197.81
392.085	205.81
392.31	191.81
392.534	168.81
392.759	203.81
392.984	220.81
393.208	234.81
393.433	276.81
393.658	237.81
393.882	204.81
394.107	189.81
394.331	194.81
394.556	209.81
394.78	201.81
395.005	207.81
395.229	183.81
395.454	208.81
395.678	200.81
395.903	210.81
396.127	201.81
396.352	202.81
396.576	217.81
396.801	248.81
397.025	247.81
397.249	230.81
397.474	213.81
397.698	194.81
397.922	194.81
398.147	189.81
398.371	200.81
398.595	218.81
398.82	224.81
399.044	230.81
399.268	243.81
399.492	276.81
399.717	284.81
399.941	280.81
400.165	245.81
400.389	218.81
400.613	218.81
400.837	218.81
401.062	233.81
401.286	221.81
401.51	201.81
401.734	208.81
401.958	236.81
402.182	214.81
402.406	215.81
402.63	230.81
402.854	232.81
403.078	240.81
403.302	230.81
403.526	218.81
403.75	232.81
403.974	227.81
404.198	234.81
404.422	246.81
404.645	226.81
404.869	229.81
405.093	243.81
405.317	231.81
405.541	233.81
405.765	239.81
405.988	213.81
406.212	221.81
406.436	219.81
406.66	221.81
406.883	241.81
407.107	265.81
407.331	238.81
407.555	253.81
407.778	269.81
408.002	262.81
408.226	223.81
408.449	236.81
408.673	217.81
408.896	230.81
409.12	218.81
409.344	238.81
409.567	250.81
409.791	224.81
410.014	250.81
410.238	232.81
410.461	224.81
410.685	242.81
410.908	210.81
411.132	230.81
411.355	212.81
411.578	226.81
411.802	223.81
412.025	221.81
412.249	233.81
412.472	234.81
412.695	219.81
412.919	209.81
413.142	232.81
413.365	239.81
413.589	205.81
413.812	208.81
414.035	225.81
414.258	233.81
414.482	208.81
414.705	221.81
414.928	215.81
415.151	218.81
415.374	213.81
415.597	210.81
415.821	224.81
416.044	216.81
416.267	208.81
416.49	209.81
416.713	225.81
416.936	223.81
417.159	216.81
417.382	233.81
417.605	213.81
417.828	221.81
418.051	208.81
418.274	222.81
418.497	223.81
418.72	236.81
418.943	224.81
419.166	236.81
419.389	229.81
419.611	208.81
419.834	237.81
420.057	229.81
420.28	220.81
420.503	212.81
420.726	216.81
420.948	206.81
421.171	222.81
421.394	224.81
421.617	211.81
421.839	225.81
422.062	227.81
422.285	217.81
422.507	226.81
422.73	255.81
422.953	234.81
423.175	216.81
423.398	241.81
423.621	225.81
423.843	221.81
424.066	215.81
424.288	224.81
424.511	225.81
424.733	222.81
424.956	225.81
425.178	222.81
425.401	225.81
425.623	221.81
425.846	214.81
426.068	219.81
426.291	218.81
426.513	203.81
426.735	196.81
426.958	196.81
427.18	199.81
427.402	198.81
427.625	192.81
427.847	223.81
428.069	206.81
428.292	215.81
428.514	210.81
428.736	188.81
428.958	217.81
429.181	197.81
429.403	200.81
429.625	206.81
429.847	204.81
430.069	206.81
430.292	203.81
430.514	193.81
430.736	212.81
430.958	216.81
431.18	205.81
431.402	191.81
431.624	185.81
431.846	207.81
432.068	190.81
432.29	215.81
432.512	192.81
432.734	194.81
432.956	215.81
433.178	231.81
433.4	193.81
433.622	200.81
433.844	197.81
434.066	203.81
434.287	190.81
434.509	202.81
434.731	204.81
434.953	218.81
435.175	217.81
435.397	201.81
435.618	200.81
435.84	188.81
436.062	177.81
436.284	190.81
436.505	191.81
436.727	215.81
436.949	197.81
437.17	179.81
437.392	192.81
437.614	182.81
437.835	196.81
438.057	202.81
438.278	181.81
438.5	185.81
438.721	188.81
438.943	212.81
439.165	190.81
439.386	203.81
439.608	205.81
439.829	193.81
440.05	198.81
440.272	206.81
440.493	194.81
440.715	202.81
440.936	206.81
441.158	217.81
441.379	218.81
441.6	209.81
441.822	224.81
442.043	217.81
442.264	223.81
442.486	217.81
442.707	233.81
442.928	216.81
443.149	207.81
443.371	218.81
443.592	214.81
443.813	203.81
444.034	218.81
444.255	233.81
444.476	248.81
444.698	251.81
444.919	240.81
445.14	436.81
445.361	294.81
445.582	219.81
445.803	231.81
446.024	212.81
446.245	205.81
446.466	216.81
446.687	200.81
446.908	212.81
447.129	199.81
447.35	205.81
447.571	204.81
447.792	204.81
448.013	191.81
448.234	206.81
448.455	198.81
448.675	192.81
448.896	194.81
449.117	186.81
449.338	190.81
449.559	217.81
449.779	177.81
450	188.81
450.221	184.81
450.442	195.81
450.662	196.81
450.883	190.81
451.104	207.81
451.324	189.81
451.545	178.81
451.766	186.81
451.986	198.81
452.207	187.81
452.428	181.81
452.648	202.81
452.869	185.81
453.089	175.81
453.31	180.81
453.53	203.81
453.751	211.81
453.971	175.81
454.192	168.81
454.412	167.81
454.633	179.81
454.853	201.81
455.073	175.81
455.294	182.81
455.514	182.81
455.734	168.81
455.955	186.81
456.175	173.81
456.395	165.81
456.616	173.81
456.836	159.81
457.056	177.81
457.276	174.81
457.497	161.81
457.717	175.81
457.937	173.81
458.157	172.81
458.377	162.81
458.598	178.81
458.818	175.81
459.038	171.81
459.258	180.81
459.478	179.81
459.698	186.81
459.918	208.81
460.138	213.81
460.358	217.81
460.578	231.81
460.798	224.81
461.018	216.81
461.238	224.81
461.458	225.81
461.678	212.81
461.898	248.81
462.118	223.81
462.338	230.81
462.558	231.81
462.777	236.81
462.997	264.81
463.217	246.81
463.437	260.81
463.657	234.81
463.876	255.81
464.096	255.81
464.316	245.81
464.536	230.81
464.755	252.81
464.975	212.81
465.195	209.81
465.414	221.81
465.634	210.81
465.854	202.81
466.073	196.81
466.293	191.81
466.512	198.81
466.732	191.81
466.951	193.81
467.171	193.81
467.391	196.81
467.61	206.81
467.829	208.81
468.049	232.81
468.268	231.81
468.488	216.81
468.707	189.81
468.927	186.81
469.146	197.81
469.365	202.81
469.585	185.81
469.804	198.81
470.023	193.81
470.243	185.81
470.462	209.81
470.681	199.81
470.901	191.81
471.12	208.81
471.339	210.81
471.558	219.81
471.777	192.81
471.997	209.81
472.216	276.81
472.435	304.81
472.654	220.81
472.873	218.81
473.092	203.81
473.311	195.81
473.53	189.81
473.749	204.81
473.968	213.81
474.187	200.81
474.406	194.81
474.625	193.81
474.844	185.81
475.063	197.81
475.282	197.81
475.501	178.81
475.72	200.81
475.939	196.81
476.158	192.81
476.377	202.81
476.596	185.81
476.814	198.81
477.033	191.81
477.252	194.81
477.471	203.81
477.69	225.81
477.908	212.81
478.127	215.81
478.346	220.81
478.564	214.81
478.783	218.81
479.002	215.81
479.22	236.81
479.439	236.81
479.658	217.81
479.876	236.81
480.095	220.81
480.313	226.81
480.532	229.81
480.751	241.81
480.969	280.81
481.188	430.81
481.406	344.81
481.624	242.81
481.843	226.81
482.061	215.81
482.28	209.81
482.498	217.81
482.717	216.81
482.935	210.81
483.153	204.81
483.372	217.81
483.59	208.81
483.808	208.81
484.027	213.81
484.245	208.81
484.463	219.81
484.681	219.81
484.9	214.81
485.118	221.81
485.336	212.81
485.554	203.81
485.772	207.81
485.99	213.81
486.209	205.81
486.427	196.81
486.645	209.81
486.863	226.81
487.081	211.81
487.299	202.81
487.517	209.81
487.735	212.81
487.953	224.81
488.171	236.81
488.389	231.81
488.607	219.81
488.825	208.81
489.043	208.81
489.261	193.81
489.479	201.81
489.696	199.81
489.914	209.81
490.132	216.81
490.35	208.81
490.568	197.81
490.786	220.81
491.003	225.81
491.221	236.81
491.439	219.81
491.657	233.81
491.874	249.81
492.092	246.81
492.31	237.81
492.527	251.81
492.745	240.81
492.963	248.81
493.18	242.81
493.398	240.81
493.615	249.81
493.833	228.81
494.05	225.81
494.268	246.81
494.485	240.81
494.703	233.81
494.92	233.81
495.138	247.81
495.355	232.81
495.573	233.81
495.79	229.81
496.008	257.81
496.225	242.81
496.442	243.81
496.66	240.81
496.877	218.81
497.094	264.81
497.312	232.81
497.529	252.81
497.746	242.81
497.963	244.81
498.181	257.81
498.398	275.81
498.615	269.81
498.832	285.81
499.049	286.81
499.267	358.81
499.484	340.81
499.701	385.81
499.918	411.81
500.135	452.81
500.352	492.81
500.569	492.81
500.786	496.81
501.003	449.81
501.22	399.81
501.437	373.81
501.654	343.81
501.871	313.81
502.088	305.81
502.305	290.81
502.522	276.81
502.739	286.81
502.956	263.81
503.172	253.81
503.389	242.81
503.606	250.81
503.823	241.81
504.04	252.81
504.256	257.81
