Data from SampB_HRD10591_00096.txt Node
Date: Mon Jan 19 11:34:01 EST 2026
User: Yrep
Spectrometer: HR+D1059
Trigger mode: 0
Integration Time (sec): 3.443000E-1
Scans to average: 1
Electric dark correction enabled: true
Nonlinearity correction enabled: false
Boxcar width: 0
XAxis mode: Wavelengths
Number of Pixels in Spectrum: 2048
>>>>>Begin Spectral Data<<<<<
223.165	-18
223.4	-18
223.635	-18
223.869	-21
224.104	-18
224.338	-22
224.573	-18
224.808	-18
225.042	4
225.277	-2
225.511	-10
225.746	3
225.98	0
226.215	24
226.449	14
226.683	22
226.918	27
227.152	33
227.387	48
227.621	34
227.856	56
228.09	40
228.324	51
228.559	69
228.793	69
229.027	56
229.262	60
229.496	61
229.73	67
229.964	88
230.199	78
230.433	76
230.667	74
230.901	75
231.136	65
231.37	78
231.604	74
231.838	74
232.072	83
232.306	82
232.541	78
232.775	74
233.009	88
233.243	89
233.477	83
233.711	83
233.945	76
234.179	82
234.413	85
234.647	79
234.881	77
235.115	91
235.349	90
235.583	86
235.817	87
236.051	76
236.285	65
236.519	82
236.753	74
236.987	88
237.221	80
237.455	83
237.689	81
237.922	83
238.156	68
238.39	81
238.624	62
238.858	75
239.091	75
239.325	77
239.559	79
239.793	88
240.027	75
240.26	79
240.494	86
240.728	89
240.961	71
241.195	82
241.429	90
241.662	78
241.896	80
242.13	71
242.363	71
242.597	79
242.83	86
243.064	66
243.298	74
243.531	55
243.765	70
243.998	66
244.232	81
244.465	77
244.699	76
244.932	76
245.166	81
245.399	72
245.633	81
245.866	75
246.099	56
246.333	68
246.566	70
246.8	70
247.033	81
247.266	86
247.5	86
247.733	94
247.966	76
248.2	73
248.433	72
248.666	66
248.899	70
249.133	73
249.366	87
249.599	64
249.832	75
250.066	88
250.299	87
250.532	70
250.765	82
250.998	77
251.231	75
251.465	81
251.698	74
251.931	83
252.164	88
252.397	78
252.63	62
252.863	71
253.096	82
253.329	74
253.562	77
253.795	72
254.028	84
254.261	90
254.494	78
254.727	79
254.96	82
255.193	72
255.426	83
255.659	82
255.892	88
256.124	79
256.357	86
256.59	88
256.823	71
257.056	86
257.289	74
257.521	76
257.754	77
257.987	75
258.22	85
258.452	84
258.685	80
258.918	73
259.151	70
259.383	79
259.616	73
259.849	80
260.081	65
260.314	78
260.547	71
260.779	74
261.012	84
261.244	97
261.477	75
261.71	69
261.942	86
262.175	89
262.407	72
262.64	73
262.872	60
263.105	88
263.337	106
263.57	75
263.802	83
264.035	83
264.267	72
264.499	79
264.732	82
264.964	80
265.197	80
265.429	84
265.661	71
265.894	89
266.126	94
266.358	82
266.591	75
266.823	93
267.055	76
267.287	86
267.52	89
267.752	80
267.984	99
268.216	86
268.448	89
268.681	79
268.913	81
269.145	85
269.377	87
269.609	80
269.841	81
270.073	79
270.306	75
270.538	79
270.77	83
271.002	89
271.234	93
271.466	70
271.698	78
271.93	84
272.162	79
272.394	88
272.626	82
272.858	78
273.09	90
273.322	82
273.553	86
273.785	83
274.017	76
274.249	79
274.481	75
274.713	73
274.945	83
275.176	75
275.408	82
275.64	77
275.872	79
276.104	79
276.335	89
276.567	95
276.799	96
277.031	86
277.262	93
277.494	87
277.726	96
277.957	87
278.189	96
278.421	87
278.652	80
278.884	80
279.115	81
279.347	77
279.579	74
279.81	82
280.042	96
280.273	87
280.505	71
280.736	92
280.968	80
281.199	88
281.431	96
281.662	83
281.894	90
282.125	100
282.356	88
282.588	75
282.819	80
283.051	74
283.282	82
283.513	82
283.745	75
283.976	88
284.207	91
284.439	87
284.67	96
284.901	85
285.132	86
285.364	81
285.595	90
285.826	80
286.057	89
286.288	82
286.52	91
286.751	71
286.982	72
287.213	79
287.444	93
287.675	82
287.906	73
288.138	72
288.369	86
288.6	82
288.831	82
289.062	86
289.293	92
289.524	70
289.755	83
289.986	73
290.217	83
290.448	83
290.679	77
290.91	85
291.141	82
291.371	60
291.602	87
291.833	77
292.064	77
292.295	82
292.526	87
292.757	106
292.987	74
293.218	83
293.449	85
293.68	78
293.91	86
294.141	79
294.372	74
294.603	81
294.833	79
295.064	82
295.295	88
295.525	91
295.756	78
295.987	91
296.217	83
296.448	85
296.679	89
296.909	96
297.14	86
297.37	82
297.601	75
297.831	79
298.062	86
298.292	84
298.523	94
298.753	86
298.984	81
299.214	97
299.445	82
299.675	94
299.905	84
300.136	72
300.366	68
300.597	77
300.827	99
301.057	66
301.288	87
301.518	88
301.748	92
301.979	119
302.209	78
302.439	75
302.669	82
302.9	86
303.13	86
303.36	91
303.59	103
303.82	87
304.051	81
304.281	92
304.511	89
304.741	80
304.971	90
305.201	77
305.431	80
305.661	91
305.891	84
306.121	85
306.352	78
306.582	88
306.812	82
307.042	89
307.272	83
307.502	89
307.731	84
307.961	90
308.191	82
308.421	89
308.651	83
308.881	74
309.111	84
309.341	79
309.571	86
309.8	86
310.03	78
310.26	80
310.49	81
310.72	83
310.949	72
311.179	94
311.409	91
311.639	71
311.868	81
312.098	89
312.328	74
312.557	107
312.787	94
313.017	93
313.246	86
313.476	81
313.706	94
313.935	85
314.165	89
314.394	82
314.624	91
314.853	81
315.083	86
315.312	72
315.542	84
315.771	90
316.001	87
316.23	88
316.46	76
316.689	91
316.919	90
317.148	74
317.377	87
317.607	88
317.836	84
318.065	89
318.295	80
318.524	80
318.753	85
318.983	86
319.212	75
319.441	93
319.67	78
319.9	80
320.129	86
320.358	87
320.587	92
320.816	99
321.046	84
321.275	86
321.504	74
321.733	80
321.962	94
322.191	88
322.42	87
322.649	94
322.878	96
323.108	83
323.337	80
323.566	95
323.795	65
324.024	68
324.253	80
324.482	91
324.71	87
324.939	97
325.168	74
325.397	79
325.626	85
325.855	85
326.084	88
326.313	98
326.542	73
326.77	83
326.999	85
327.228	88
327.457	83
327.686	90
327.914	79
328.143	86
328.372	89
328.6	85
328.829	88
329.058	86
329.287	95
329.515	89
329.744	77
329.972	70
330.201	80
330.43	86
330.658	95
330.887	97
331.115	76
331.344	88
331.572	77
331.801	85
332.03	76
332.258	95
332.486	87
332.715	76
332.943	81
333.172	81
333.4	67
333.629	90
333.857	82
334.085	91
334.314	81
334.542	92
334.771	90
334.999	77
335.227	76
335.455	89
335.684	91
335.912	92
336.14	86
336.369	82
336.597	69
336.825	86
337.053	77
337.281	72
337.51	85
337.738	92
337.966	87
338.194	92
338.422	85
338.65	97
338.878	81
339.106	90
339.334	93
339.562	90
339.79	84
340.018	75
340.246	96
340.474	81
340.702	100
340.93	76
341.158	64
341.386	80
341.614	75
341.842	77
342.07	67
342.298	88
342.526	83
342.754	75
342.981	84
343.209	92
343.437	105
343.665	77
343.893	95
344.12	95
344.348	81
344.576	92
344.804	73
345.031	75
345.259	79
345.487	80
345.714	84
345.942	75
346.17	82
346.397	75
346.625	84
346.853	98
347.08	80
347.308	74
347.535	98
347.763	72
347.99	99
348.218	90
348.445	73
348.673	86
348.9	95
349.128	80
349.355	75
349.583	74
349.81	70
350.037	94
350.265	96
350.492	79
350.72	75
350.947	77
351.174	65
351.402	68
351.629	76
351.856	88
352.083	83
352.311	89
352.538	78
352.765	90
352.992	110
353.22	72
353.447	89
353.674	77
353.901	94
354.128	92
354.355	82
354.583	84
354.81	80
355.037	102
355.264	89
355.491	84
355.718	80
355.945	77
356.172	96
356.399	78
356.626	94
356.853	83
357.08	82
357.307	78
357.534	82
357.761	83
357.988	88
358.215	87
358.441	93
358.668	89
358.895	99
359.122	82
359.349	65
359.576	75
359.802	85
360.029	80
360.256	86
360.483	101
360.709	73
360.936	100
361.163	92
361.39	76
361.616	95
361.843	87
362.07	88
362.296	97
362.523	74
362.749	58
362.976	62
363.203	81
363.429	74
363.656	72
363.882	73
364.109	79
364.335	89
364.562	97
364.788	82
365.015	87
365.241	81
365.468	84
365.694	67
365.92	88
366.147	76
366.373	84
366.599	82
366.826	92
367.052	81
367.278	82
367.505	84
367.731	97
367.957	86
368.184	91
368.41	88
368.636	79
368.862	89
369.089	82
369.315	84
369.541	84
369.767	77
369.993	93
370.219	80
370.445	100
370.672	85
370.898	90
371.124	80
371.35	82
371.576	80
371.802	76
372.028	79
372.254	76
372.48	86
372.706	99
372.932	82
373.158	91
373.384	91
373.61	83
373.835	80
374.061	76
374.287	91
374.513	82
374.739	70
374.965	79
375.191	81
375.416	74
375.642	77
375.868	84
376.094	93
376.319	80
376.545	90
376.771	81
376.997	77
377.222	72
377.448	80
377.674	86
377.899	99
378.125	90
378.35	99
378.576	84
378.802	79
379.027	73
379.253	90
379.478	89
379.704	80
379.929	91
380.155	86
380.38	76
380.606	83
380.831	79
381.057	94
381.282	81
381.507	87
381.733	76
381.958	74
382.184	84
382.409	87
382.634	104
382.86	70
383.085	91
383.31	88
383.535	97
383.761	79
383.986	96
384.211	75
384.436	99
384.662	88
384.887	86
385.112	88
385.337	93
385.562	84
385.787	74
386.013	74
386.238	90
386.463	85
386.688	109
386.913	99
387.138	103
387.363	82
387.588	93
387.813	99
388.038	86
388.263	81
388.488	86
388.713	83
388.938	74
389.163	75
389.387	82
389.612	79
389.837	81
390.062	91
390.287	80
390.512	84
390.736	91
390.961	91
391.186	87
391.411	87
391.636	100
391.86	84
392.085	84
392.31	90
392.534	89
392.759	87
392.984	83
393.208	82
393.433	91
393.658	81
393.882	84
394.107	88
394.331	100
394.556	111
394.78	88
395.005	90
395.229	90
395.454	81
395.678	91
395.903	77
396.127	92
396.352	93
396.576	85
396.801	89
397.025	93
397.249	93
397.474	90
397.698	94
397.922	84
398.147	80
398.371	92
398.595	91
398.82	100
399.044	85
399.268	96
399.492	88
399.717	95
399.941	97
400.165	89
400.389	96
400.613	91
400.837	87
401.062	96
401.286	78
401.51	89
401.734	94
401.958	95
402.182	90
402.406	95
402.63	79
402.854	94
403.078	96
403.302	99
403.526	90
403.75	97
403.974	75
404.198	94
404.422	82
404.645	73
404.869	88
405.093	97
405.317	83
405.541	81
405.765	94
405.988	91
406.212	91
406.436	94
406.66	79
406.883	87
407.107	86
407.331	98
407.555	101
407.778	97
408.002	95
408.226	101
408.449	86
408.673	88
408.896	104
409.12	79
409.344	98
409.567	99
409.791	103
410.014	107
410.238	102
410.461	88
410.685	99
410.908	91
411.132	101
411.355	99
411.578	97
411.802	98
412.025	95
412.249	91
412.472	93
412.695	95
412.919	90
413.142	102
413.365	100
413.589	86
413.812	106
414.035	103
414.258	94
414.482	105
414.705	92
414.928	97
415.151	98
415.374	100
415.597	109
415.821	96
416.044	87
416.267	97
416.49	105
416.713	94
416.936	92
417.159	90
417.382	104
417.605	95
417.828	108
418.051	88
418.274	96
418.497	108
418.72	113
418.943	92
419.166	98
419.389	94
419.611	104
419.834	108
420.057	117
420.28	95
420.503	100
420.726	96
420.948	95
421.171	94
421.394	98
421.617	106
421.839	99
422.062	86
422.285	108
422.507	105
422.73	106
422.953	92
423.175	89
423.398	87
423.621	102
423.843	101
424.066	87
424.288	111
424.511	103
424.733	100
424.956	97
425.178	103
425.401	98
425.623	97
425.846	107
426.068	96
426.291	97
426.513	100
426.735	100
426.958	97
427.18	113
427.402	102
427.625	108
427.847	90
428.069	98
428.292	94
428.514	107
428.736	79
428.958	91
429.181	111
429.403	105
429.625	108
429.847	110
430.069	99
430.292	90
430.514	100
430.736	100
430.958	104
431.18	90
431.402	89
431.624	90
431.846	87
432.068	90
432.29	85
432.512	94
432.734	80
432.956	117
433.178	110
433.4	111
433.622	101
433.844	103
434.066	98
434.287	85
434.509	87
434.731	89
434.953	95
435.175	90
435.397	94
435.618	104
435.84	86
436.062	90
436.284	89
436.505	107
436.727	100
436.949	98
437.17	98
437.392	98
437.614	85
437.835	89
438.057	92
438.278	96
438.5	103
438.721	104
438.943	108
439.165	104
439.386	98
439.608	112
439.829	89
440.05	108
440.272	109
440.493	113
440.715	86
440.936	101
441.158	101
441.379	99
441.6	102
441.822	100
442.043	97
442.264	104
442.486	102
442.707	97
442.928	86
443.149	104
443.371	100
443.592	90
443.813	98
444.034	102
444.255	113
444.476	105
444.698	106
444.919	97
445.14	285
445.361	208
445.582	115
445.803	94
446.024	98
446.245	112
446.466	109
446.687	116
446.908	120
447.129	122
447.35	97
447.571	94
447.792	92
448.013	89
448.234	96
448.455	101
448.675	121
448.896	97
449.117	110
449.338	88
449.559	93
449.779	93
450	90
450.221	113
450.442	97
450.662	111
450.883	109
451.104	108
451.324	93
451.545	94
451.766	86
451.986	90
452.207	98
452.428	89
452.648	95
452.869	106
453.089	92
453.31	83
453.53	81
453.751	87
453.971	87
454.192	86
454.412	93
454.633	94
454.853	95
455.073	73
455.294	75
455.514	112
455.734	102
455.955	83
456.175	70
456.395	91
456.616	95
456.836	88
457.056	91
457.276	78
457.497	84
457.717	80
457.937	94
458.157	96
458.377	91
458.598	77
458.818	83
459.038	71
459.258	71
459.478	82
459.698	76
459.918	90
460.138	83
460.358	88
460.578	98
460.798	106
461.018	88
461.238	96
461.458	97
461.678	81
461.898	92
462.118	95
462.338	89
462.558	82
462.777	77
462.997	89
463.217	86
463.437	74
463.657	88
463.876	82
464.096	104
464.316	80
464.536	84
464.755	96
464.975	99
465.195	94
465.414	95
465.634	92
465.854	84
466.073	94
466.293	105
466.512	86
466.732	90
466.951	99
467.171	89
467.391	103
467.61	94
467.829	98
468.049	93
468.268	101
468.488	92
468.707	106
468.927	96
469.146	89
469.365	89
469.585	84
469.804	107
470.023	104
470.243	94
470.462	97
470.681	106
470.901	96
471.12	91
471.339	98
471.558	104
471.777	104
471.997	100
472.216	117
472.435	83
472.654	93
472.873	96
473.092	67
473.311	100
473.53	108
473.749	100
473.968	109
474.187	101
474.406	89
474.625	89
474.844	103
475.063	88
475.282	91
475.501	105
475.72	121
475.939	97
476.158	97
476.377	107
476.596	95
476.814	78
477.033	94
477.252	90
477.471	90
477.69	97
477.908	118
478.127	98
478.346	108
478.564	104
478.783	86
479.002	105
479.22	114
479.439	106
479.658	103
479.876	93
480.095	86
480.313	98
480.532	105
480.751	88
480.969	87
481.188	80
481.406	85
481.624	85
481.843	95
482.061	81
482.28	96
482.498	87
482.717	96
482.935	96
483.153	105
483.372	111
483.59	100
483.808	103
484.027	88
484.245	103
484.463	96
484.681	114
484.9	99
485.118	109
485.336	79
485.554	96
485.772	96
485.99	98
486.209	86
486.427	95
486.645	90
486.863	95
487.081	82
487.299	101
487.517	96
487.735	104
487.953	100
488.171	125
488.389	94
488.607	99
488.825	93
489.043	98
489.261	99
489.479	86
489.696	97
489.914	106
490.132	88
490.35	80
490.568	90
490.786	114
491.003	115
491.221	123
491.439	127
491.657	127
491.874	125
492.092	136
492.31	129
492.527	129
492.745	130
492.963	119
493.18	128
493.398	120
493.615	118
493.833	113
494.05	90
494.268	112
494.485	114
494.703	99
494.92	114
495.138	111
495.355	126
495.573	107
495.79	96
496.008	109
496.225	110
496.442	109
496.66	124
496.877	120
497.094	107
497.312	110
497.529	97
497.746	94
497.963	99
498.181	106
498.398	110
498.615	110
498.832	84
499.049	70
499.267	104
499.484	90
499.701	102
499.918	104
500.135	102
500.352	92
500.569	90
500.786	113
501.003	108
501.22	80
501.437	99
501.654	96
501.871	87
502.088	90
502.305	95
502.522	95
502.739	97
502.956	95
503.172	86
503.389	86
503.606	84
503.823	95
504.04	95
504.256	103
504.473	93
504.69	97
504.907	99
505.123	87
505.34	104
505.557	94
505.773	102
505.99	93
506.207	91
506.423	83
506.64	103
506.856	89
507.073	92
507.289	82
507.506	82
507.722	82
507.939	82
508.155	91
508.372	92
508.588	96
508.805	99
509.021	89
509.238	91
509.454	96
509.67	75
509.887	103
510.103	86
510.319	81
510.536	86
510.752	70
510.968	86
511.184	70
511.401	86
511.617	92
511.833	79
512.049	86
512.265	86
512.481	89
512.698	91
512.914	82
513.13	102
513.346	91
513.562	92
513.778	98
513.994	82
514.21	80
514.426	85
514.642	85
514.858	85
515.074	75
515.29	87
515.506	86
515.721	84
515.937	87
516.153	90
516.369	97
516.585	91
516.801	89
517.016	85
517.232	75
517.448	86
517.664	83
517.879	86
518.095	81
518.311	81
518.527	83
518.742	80
518.958	74
519.173	94
519.389	88
519.605	100
519.82	78
520.036	92
520.251	89
520.467	80
520.682	67
520.898	79
521.113	78
521.329	88
521.544	87
521.76	82
521.975	85
522.19	89
522.406	106
522.621	81
522.836	90
523.052	98
523.267	84
523.482	83
523.698	88
523.913	91
524.128	89
524.343	97
524.559	91
524.774	95
524.989	101
525.204	102
525.419	96
525.634	91
525.849	85
526.064	91
526.28	92
526.495	64
526.71	63
526.925	78
527.14	78
527.355	84
527.57	91
527.785	82
527.999	75
528.214	88
528.429	90
528.644	79
528.859	95
529.074	96
529.289	116
529.503	99
529.718	102
529.933	97
530.148	103
530.363	98
530.577	84
530.792	71
531.007	79
531.221	90
531.436	75
531.651	94
531.865	92
532.08	82
532.295	75
532.509	81
532.724	85
532.938	76
533.153	93
533.367	82
533.582	93
533.796	88
534.011	93
534.225	81
534.44	86
534.654	92
534.868	84
535.083	78
535.297	79
535.511	80
535.726	98
535.94	66
536.154	88
536.369	75
536.583	89
536.797	83
537.011	85
537.225	80
537.44	75
537.654	78
537.868	67
538.082	72
538.296	80
538.51	85
538.724	87
538.938	97
539.153	93
539.367	92
539.581	104
539.795	91
540.009	89
540.222	95
540.436	95
540.65	94
540.864	103
541.078	104
541.292	109
541.506	107
541.72	118
541.934	122
542.147	131
542.361	125
542.575	112
542.789	100
543.002	98
543.216	92
543.43	97
543.644	92
543.857	108
544.071	113
544.285	121
544.498	111
544.712	116
544.925	110
545.139	101
545.352	107
545.566	111
545.779	87
545.993	111
546.206	113
546.42	117
546.633	110
546.847	116
547.06	115
547.274	121
547.487	130
547.7	117
547.914	107
548.127	117
548.34	108
548.554	106
548.767	99
548.98	119
549.193	108
549.407	119
549.62	117
549.833	110
550.046	109
550.259	106
550.473	99
550.686	111
550.899	112
551.112	94
551.325	105
551.538	97
551.751	95
551.964	81
552.177	100
552.39	97
552.603	106
552.816	83
553.029	114
553.242	116
553.455	113
553.667	121
553.88	105
554.093	106
554.306	108
554.519	103
554.732	104
554.944	108
555.157	100
555.37	108
555.583	88
555.795	96
556.008	103
556.221	87
556.433	95
556.646	118
556.859	111
557.071	114
557.284	92
557.496	87
557.709	106
557.921	100
558.134	100
558.346	86
558.559	98
558.771	95
558.984	92
559.196	105
559.409	94
559.621	99
559.833	113
560.046	106
560.258	87
560.47	107
560.683	95
560.895	87
561.107	103
561.32	98
561.532	99
561.744	94
561.956	91
562.168	94
562.381	101
562.593	101
562.805	116
563.017	99
563.229	98
563.441	101
563.653	104
563.865	97
564.077	88
564.289	103
564.501	96
564.713	104
564.925	84
565.137	100
565.349	111
565.561	99
565.773	90
565.985	97
566.197	81
566.408	116
566.62	97
566.832	100
567.044	97
567.255	86
567.467	108
567.679	86
567.891	80
568.102	74
568.314	97
568.526	91
568.737	86
568.949	78
569.161	71
569.372	88
569.584	87
569.795	87
570.007	92
570.218	92
570.43	83
570.641	71
570.853	71
571.064	87
571.276	90
571.487	74
571.698	71
571.91	72
572.121	98
572.333	79
572.544	88
572.755	86
572.966	98
573.178	83
573.389	94
573.6	91
573.811	81
574.023	84
574.234	79
574.445	81
574.656	66
574.867	77
575.078	79
575.289	87
575.501	89
575.712	95
575.923	71
576.134	79
576.345	98
576.556	90
576.767	98
576.978	81
577.188	90
577.399	101
577.61	79
577.821	93
578.032	93
578.243	97
578.454	106
578.665	99
578.875	62
579.086	80
579.297	81
579.508	88
579.718	98
579.929	90
580.14	79
580.35	83
580.561	96
580.772	98
580.982	87
581.193	78
581.403	91
581.614	89
581.825	102
582.035	86
582.246	77
582.456	66
582.667	84
582.877	86
583.087	101
583.298	100
583.508	100
583.719	97
583.929	99
584.139	92
584.35	76
584.56	78
584.77	88
584.981	89
585.191	88
585.401	71
585.611	76
585.821	87
586.032	87
