Data from SampB_HRD10591_00097.txt Node
Date: Mon Jan 19 11:34:01 EST 2026
User: Yrep
Spectrometer: HR+D1059
Trigger mode: 0
Integration Time (sec): 3.443000E-1
Scans to average: 1
Electric dark correction enabled: true
Nonlinearity correction enabled: false
Boxcar width: 0
XAxis mode: Wavelengths
Number of Pixels in Spectrum: 2048
>>>>>Begin Spectral Data<<<<<
223.165	-19.25
223.4	-19.25
223.635	-19.25
223.869	-16.25
224.104	-23.25
224.338	-15.25
224.573	-6.25
224.808	-14.25
225.042	-16.25
225.277	6.75
225.511	0.75
225.746	5.75
225.98	6.75
226.215	9.75
226.449	21.75
226.683	12.75
226.918	25.75
227.152	20.75
227.387	28.75
227.621	30.75
227.856	59.75
228.09	38.75
228.324	59.75
228.559	49.75
228.793	61.75
229.027	63.75
229.262	68.75
229.496	74.75
229.73	61.75
229.964	63.75
230.199	70.75
230.433	80.75
230.667	61.75
230.901	66.75
231.136	91.75
231.37	68.75
231.604	76.75
231.838	82.75
232.072	73.75
232.306	83.75
232.541	86.75
232.775	77.75
233.009	68.75
233.243	71.75
233.477	75.75
233.711	78.75
233.945	74.75
234.179	73.75
234.413	90.75
234.647	92.75
234.881	81.75
235.115	79.75
235.349	78.75
235.583	77.75
235.817	89.75
236.051	78.75
236.285	72.75
236.519	79.75
236.753	72.75
236.987	65.75
237.221	73.75
237.455	67.75
237.689	81.75
237.922	65.75
238.156	88.75
238.39	73.75
238.624	63.75
238.858	77.75
239.091	69.75
239.325	64.75
239.559	64.75
239.793	72.75
240.027	91.75
240.26	73.75
240.494	105.75
240.728	72.75
240.961	75.75
241.195	74.75
241.429	65.75
241.662	66.75
241.896	77.75
242.13	73.75
242.363	72.75
242.597	76.75
242.83	87.75
243.064	79.75
243.298	68.75
243.531	73.75
243.765	78.75
243.998	95.75
244.232	73.75
244.465	89.75
244.699	81.75
244.932	82.75
245.166	88.75
245.399	77.75
245.633	62.75
245.866	77.75
246.099	74.75
246.333	73.75
246.566	56.75
246.8	80.75
247.033	69.75
247.266	74.75
247.5	88.75
247.733	70.75
247.966	83.75
248.2	75.75
248.433	84.75
248.666	80.75
248.899	76.75
249.133	79.75
249.366	86.75
249.599	82.75
249.832	58.75
250.066	83.75
250.299	86.75
250.532	82.75
250.765	79.75
250.998	66.75
251.231	72.75
251.465	69.75
251.698	77.75
251.931	65.75
252.164	69.75
252.397	74.75
252.63	74.75
252.863	61.75
253.096	79.75
253.329	80.75
253.562	70.75
253.795	72.75
254.028	83.75
254.261	76.75
254.494	61.75
254.727	87.75
254.96	70.75
255.193	63.75
255.426	79.75
255.659	74.75
255.892	78.75
256.124	69.75
256.357	65.75
256.59	74.75
256.823	61.75
257.056	77.75
257.289	87.75
257.521	86.75
257.754	81.75
257.987	64.75
258.22	76.75
258.452	72.75
258.685	76.75
258.918	86.75
259.151	77.75
259.383	89.75
259.616	80.75
259.849	77.75
260.081	85.75
260.314	78.75
260.547	70.75
260.779	88.75
261.012	82.75
261.244	78.75
261.477	96.75
261.71	72.75
261.942	84.75
262.175	87.75
262.407	86.75
262.64	74.75
262.872	93.75
263.105	78.75
263.337	85.75
263.57	72.75
263.802	89.75
264.035	91.75
264.267	72.75
264.499	88.75
264.732	78.75
264.964	76.75
265.197	76.75
265.429	81.75
265.661	83.75
265.894	77.75
266.126	79.75
266.358	73.75
266.591	73.75
266.823	81.75
267.055	59.75
267.287	84.75
267.52	63.75
267.752	97.75
267.984	90.75
268.216	70.75
268.448	82.75
268.681	89.75
268.913	78.75
269.145	92.75
269.377	82.75
269.609	71.75
269.841	93.75
270.073	96.75
270.306	78.75
270.538	76.75
270.77	69.75
271.002	86.75
271.234	65.75
271.466	80.75
271.698	77.75
271.93	68.75
272.162	94.75
272.394	91.75
272.626	65.75
272.858	73.75
273.09	82.75
273.322	91.75
273.553	77.75
273.785	82.75
274.017	76.75
274.249	82.75
274.481	88.75
274.713	81.75
274.945	83.75
275.176	76.75
275.408	70.75
275.64	98.75
275.872	67.75
276.104	62.75
276.335	72.75
276.567	78.75
276.799	79.75
277.031	64.75
277.262	74.75
277.494	86.75
277.726	84.75
277.957	73.75
278.189	57.75
278.421	79.75
278.652	68.75
278.884	78.75
279.115	90.75
279.347	96.75
279.579	84.75
279.81	77.75
280.042	78.75
280.273	78.75
280.505	86.75
280.736	94.75
280.968	75.75
281.199	90.75
281.431	82.75
281.662	81.75
281.894	86.75
282.125	77.75
282.356	81.75
282.588	71.75
282.819	71.75
283.051	82.75
283.282	73.75
283.513	93.75
283.745	86.75
283.976	81.75
284.207	73.75
284.439	81.75
284.67	84.75
284.901	89.75
285.132	88.75
285.364	57.75
285.595	90.75
285.826	81.75
286.057	86.75
286.288	96.75
286.52	70.75
286.751	79.75
286.982	78.75
287.213	70.75
287.444	86.75
287.675	79.75
287.906	88.75
288.138	78.75
288.369	84.75
288.6	91.75
288.831	81.75
289.062	81.75
289.293	84.75
289.524	77.75
289.755	72.75
289.986	89.75
290.217	84.75
290.448	86.75
290.679	78.75
290.91	85.75
291.141	68.75
291.371	88.75
291.602	88.75
291.833	85.75
292.064	70.75
292.295	74.75
292.526	84.75
292.757	75.75
292.987	83.75
293.218	77.75
293.449	73.75
293.68	72.75
293.91	88.75
294.141	91.75
294.372	78.75
294.603	90.75
294.833	74.75
295.064	81.75
295.295	83.75
295.525	88.75
295.756	83.75
295.987	72.75
296.217	76.75
296.448	94.75
296.679	92.75
296.909	98.75
297.14	68.75
297.37	79.75
297.601	81.75
297.831	82.75
298.062	85.75
298.292	80.75
298.523	74.75
298.753	88.75
298.984	76.75
299.214	76.75
299.445	78.75
299.675	88.75
299.905	72.75
300.136	97.75
300.366	71.75
300.597	70.75
300.827	65.75
301.057	77.75
301.288	93.75
301.518	81.75
301.748	89.75
301.979	107.75
302.209	74.75
302.439	80.75
302.669	73.75
302.9	80.75
303.13	86.75
303.36	76.75
303.59	61.75
303.82	85.75
304.051	80.75
304.281	93.75
304.511	96.75
304.741	67.75
304.971	75.75
305.201	72.75
305.431	81.75
305.661	76.75
305.891	78.75
306.121	76.75
306.352	86.75
306.582	77.75
306.812	81.75
307.042	79.75
307.272	96.75
307.502	71.75
307.731	92.75
307.961	94.75
308.191	76.75
308.421	70.75
308.651	86.75
308.881	82.75
309.111	72.75
309.341	76.75
309.571	85.75
309.8	74.75
310.03	87.75
310.26	86.75
310.49	88.75
310.72	82.75
310.949	80.75
311.179	80.75
311.409	91.75
311.639	74.75
311.868	91.75
312.098	86.75
312.328	73.75
312.557	85.75
312.787	91.75
313.017	84.75
313.246	81.75
313.476	79.75
313.706	89.75
313.935	76.75
314.165	79.75
314.394	78.75
314.624	84.75
314.853	94.75
315.083	74.75
315.312	82.75
315.542	89.75
315.771	92.75
316.001	81.75
316.23	85.75
316.46	88.75
316.689	88.75
316.919	84.75
317.148	87.75
317.377	97.75
317.607	84.75
317.836	87.75
318.065	79.75
318.295	82.75
318.524	88.75
318.753	64.75
318.983	75.75
319.212	79.75
319.441	73.75
319.67	80.75
319.9	70.75
320.129	79.75
320.358	78.75
320.587	80.75
320.816	80.75
321.046	86.75
321.275	88.75
321.504	77.75
321.733	93.75
321.962	78.75
322.191	82.75
322.42	89.75
322.649	82.75
322.878	86.75
323.108	88.75
323.337	80.75
323.566	82.75
323.795	69.75
324.024	90.75
324.253	84.75
324.482	90.75
324.71	77.75
324.939	88.75
325.168	79.75
325.397	79.75
325.626	83.75
325.855	80.75
326.084	90.75
326.313	84.75
326.542	74.75
326.77	85.75
326.999	65.75
327.228	79.75
327.457	69.75
327.686	87.75
327.914	102.75
328.143	85.75
328.372	84.75
328.6	78.75
328.829	87.75
329.058	91.75
329.287	82.75
329.515	73.75
329.744	78.75
329.972	72.75
330.201	62.75
330.43	77.75
330.658	69.75
330.887	88.75
331.115	81.75
331.344	89.75
331.572	96.75
331.801	75.75
332.03	77.75
332.258	85.75
332.486	77.75
332.715	79.75
332.943	76.75
333.172	79.75
333.4	77.75
333.629	84.75
333.857	64.75
334.085	91.75
334.314	89.75
334.542	84.75
334.771	79.75
334.999	89.75
335.227	85.75
335.455	84.75
335.684	86.75
335.912	84.75
336.14	78.75
336.369	78.75
336.597	83.75
336.825	84.75
337.053	80.75
337.281	77.75
337.51	80.75
337.738	87.75
337.966	86.75
338.194	82.75
338.422	78.75
338.65	81.75
338.878	77.75
339.106	81.75
339.334	88.75
339.562	72.75
339.79	92.75
340.018	91.75
340.246	74.75
340.474	93.75
340.702	68.75
340.93	69.75
341.158	70.75
341.386	74.75
341.614	77.75
341.842	83.75
342.07	87.75
342.298	75.75
342.526	97.75
342.754	75.75
342.981	92.75
343.209	87.75
343.437	100.75
343.665	81.75
343.893	84.75
344.12	86.75
344.348	82.75
344.576	93.75
344.804	79.75
345.031	70.75
345.259	82.75
345.487	75.75
345.714	85.75
345.942	79.75
346.17	75.75
346.397	87.75
346.625	72.75
346.853	72.75
347.08	76.75
347.308	75.75
347.535	75.75
347.763	78.75
347.99	85.75
348.218	87.75
348.445	81.75
348.673	68.75
348.9	83.75
349.128	73.75
349.355	86.75
349.583	86.75
349.81	75.75
350.037	90.75
350.265	90.75
350.492	78.75
350.72	86.75
350.947	93.75
351.174	83.75
351.402	71.75
351.629	78.75
351.856	80.75
352.083	76.75
352.311	86.75
352.538	81.75
352.765	84.75
352.992	97.75
353.22	81.75
353.447	81.75
353.674	84.75
353.901	85.75
354.128	81.75
354.355	79.75
354.583	99.75
354.81	88.75
355.037	84.75
355.264	83.75
355.491	62.75
355.718	84.75
355.945	77.75
356.172	95.75
356.399	86.75
356.626	88.75
356.853	74.75
357.08	90.75
357.307	92.75
357.534	81.75
357.761	94.75
357.988	72.75
358.215	85.75
358.441	74.75
358.668	88.75
358.895	78.75
359.122	86.75
359.349	83.75
359.576	70.75
359.802	92.75
360.029	87.75
360.256	89.75
360.483	71.75
360.709	84.75
360.936	89.75
361.163	73.75
361.39	87.75
361.616	82.75
361.843	88.75
362.07	72.75
362.296	84.75
362.523	70.75
362.749	80.75
362.976	87.75
363.203	86.75
363.429	74.75
363.656	91.75
363.882	75.75
364.109	90.75
364.335	88.75
364.562	76.75
364.788	97.75
365.015	90.75
365.241	97.75
365.468	87.75
365.694	80.75
365.92	85.75
366.147	63.75
366.373	81.75
366.599	71.75
366.826	76.75
367.052	86.75
367.278	72.75
367.505	75.75
367.731	93.75
367.957	76.75
368.184	78.75
368.41	81.75
368.636	79.75
368.862	78.75
369.089	81.75
369.315	80.75
369.541	83.75
369.767	97.75
369.993	69.75
370.219	94.75
370.445	67.75
370.672	96.75
370.898	75.75
371.124	82.75
371.35	100.75
371.576	92.75
371.802	87.75
372.028	78.75
372.254	79.75
372.48	77.75
372.706	87.75
372.932	73.75
373.158	64.75
373.384	81.75
373.61	90.75
373.835	95.75
374.061	72.75
374.287	76.75
374.513	76.75
374.739	77.75
374.965	77.75
375.191	65.75
375.416	94.75
375.642	78.75
375.868	96.75
376.094	80.75
376.319	80.75
376.545	72.75
376.771	72.75
376.997	78.75
377.222	76.75
377.448	63.75
377.674	81.75
377.899	85.75
378.125	89.75
378.35	74.75
378.576	86.75
378.802	65.75
379.027	81.75
379.253	85.75
379.478	78.75
379.704	75.75
379.929	91.75
380.155	79.75
380.38	77.75
380.606	85.75
380.831	85.75
381.057	79.75
381.282	75.75
381.507	86.75
381.733	78.75
381.958	69.75
382.184	76.75
382.409	70.75
382.634	80.75
382.86	84.75
383.085	74.75
383.31	83.75
383.535	76.75
383.761	86.75
383.986	70.75
384.211	61.75
384.436	78.75
384.662	82.75
384.887	74.75
385.112	75.75
385.337	91.75
385.562	67.75
385.787	81.75
386.013	109.75
386.238	87.75
386.463	76.75
386.688	109.75
386.913	81.75
387.138	72.75
387.363	86.75
387.588	86.75
387.813	77.75
388.038	75.75
388.263	76.75
388.488	88.75
388.713	74.75
388.938	79.75
389.163	77.75
389.387	73.75
389.612	82.75
389.837	81.75
390.062	76.75
390.287	83.75
390.512	88.75
390.736	75.75
390.961	77.75
391.186	72.75
391.411	76.75
391.636	74.75
391.86	74.75
392.085	79.75
392.31	84.75
392.534	78.75
392.759	89.75
392.984	97.75
393.208	84.75
393.433	81.75
393.658	78.75
393.882	81.75
394.107	82.75
394.331	82.75
394.556	70.75
394.78	88.75
395.005	90.75
395.229	91.75
395.454	87.75
395.678	86.75
395.903	88.75
396.127	108.75
396.352	74.75
396.576	86.75
396.801	81.75
397.025	76.75
397.249	92.75
397.474	109.75
397.698	81.75
397.922	91.75
398.147	87.75
398.371	78.75
398.595	83.75
398.82	78.75
399.044	86.75
399.268	82.75
399.492	78.75
399.717	93.75
399.941	72.75
400.165	92.75
400.389	84.75
400.613	86.75
400.837	98.75
401.062	100.75
401.286	89.75
401.51	97.75
401.734	96.75
401.958	83.75
402.182	93.75
402.406	69.75
402.63	76.75
402.854	81.75
403.078	83.75
403.302	81.75
403.526	79.75
403.75	92.75
403.974	91.75
404.198	92.75
404.422	90.75
404.645	84.75
404.869	81.75
405.093	95.75
405.317	89.75
405.541	82.75
405.765	85.75
405.988	84.75
406.212	84.75
406.436	86.75
406.66	97.75
406.883	79.75
407.107	80.75
407.331	71.75
407.555	89.75
407.778	93.75
408.002	70.75
408.226	83.75
408.449	92.75
408.673	88.75
408.896	78.75
409.12	77.75
409.344	105.75
409.567	103.75
409.791	92.75
410.014	74.75
410.238	86.75
410.461	98.75
410.685	93.75
410.908	72.75
411.132	89.75
411.355	71.75
411.578	88.75
411.802	89.75
412.025	85.75
412.249	87.75
412.472	79.75
412.695	69.75
412.919	82.75
413.142	90.75
413.365	77.75
413.589	81.75
413.812	91.75
414.035	96.75
414.258	91.75
414.482	80.75
414.705	77.75
414.928	84.75
415.151	91.75
415.374	99.75
415.597	85.75
415.821	84.75
416.044	83.75
416.267	79.75
416.49	86.75
416.713	83.75
416.936	106.75
417.159	93.75
417.382	87.75
417.605	97.75
417.828	91.75
418.051	97.75
418.274	85.75
418.497	94.75
418.72	98.75
418.943	91.75
419.166	87.75
419.389	81.75
419.611	84.75
419.834	87.75
420.057	84.75
420.28	84.75
420.503	93.75
420.726	83.75
420.948	79.75
421.171	75.75
421.394	81.75
421.617	84.75
421.839	71.75
422.062	93.75
422.285	98.75
422.507	79.75
422.73	78.75
422.953	85.75
423.175	89.75
423.398	93.75
423.621	88.75
423.843	89.75
424.066	91.75
424.288	70.75
424.511	94.75
424.733	93.75
424.956	96.75
425.178	82.75
425.401	87.75
425.623	78.75
425.846	92.75
426.068	90.75
426.291	91.75
426.513	97.75
426.735	88.75
426.958	91.75
427.18	80.75
427.402	86.75
427.625	93.75
427.847	90.75
428.069	92.75
428.292	97.75
428.514	96.75
428.736	73.75
428.958	87.75
429.181	101.75
429.403	90.75
429.625	74.75
429.847	71.75
430.069	87.75
430.292	86.75
430.514	75.75
430.736	93.75
430.958	104.75
431.18	87.75
431.402	93.75
431.624	78.75
431.846	87.75
432.068	83.75
432.29	92.75
432.512	86.75
432.734	85.75
432.956	93.75
433.178	106.75
433.4	105.75
433.622	93.75
433.844	79.75
434.066	98.75
434.287	80.75
434.509	79.75
434.731	86.75
434.953	85.75
435.175	85.75
435.397	94.75
435.618	89.75
435.84	84.75
436.062	86.75
436.284	92.75
436.505	85.75
436.727	97.75
436.949	88.75
437.17	103.75
437.392	97.75
437.614	90.75
437.835	65.75
438.057	74.75
438.278	81.75
438.5	98.75
438.721	95.75
438.943	87.75
439.165	95.75
439.386	91.75
439.608	109.75
439.829	102.75
440.05	107.75
440.272	91.75
440.493	81.75
440.715	86.75
440.936	101.75
441.158	100.75
441.379	80.75
441.6	112.75
441.822	88.75
442.043	93.75
442.264	90.75
442.486	71.75
442.707	93.75
442.928	106.75
443.149	82.75
443.371	94.75
443.592	86.75
443.813	85.75
444.034	94.75
444.255	94.75
444.476	92.75
444.698	94.75
444.919	87.75
445.14	294.75
445.361	180.75
445.582	96.75
445.803	93.75
446.024	75.75
446.245	96.75
446.466	97.75
446.687	83.75
446.908	87.75
447.129	84.75
447.35	100.75
447.571	73.75
447.792	90.75
448.013	93.75
448.234	79.75
448.455	94.75
448.675	97.75
448.896	106.75
449.117	77.75
449.338	86.75
449.559	81.75
449.779	77.75
450	90.75
450.221	91.75
450.442	87.75
450.662	73.75
450.883	86.75
451.104	86.75
451.324	76.75
451.545	89.75
451.766	97.75
451.986	95.75
452.207	86.75
452.428	73.75
452.648	96.75
452.869	89.75
453.089	85.75
453.31	80.75
453.53	80.75
453.751	73.75
453.971	82.75
454.192	87.75
454.412	79.75
454.633	85.75
454.853	87.75
455.073	100.75
455.294	75.75
455.514	88.75
455.734	86.75
455.955	87.75
456.175	97.75
456.395	77.75
456.616	76.75
456.836	73.75
457.056	102.75
457.276	83.75
457.497	71.75
457.717	96.75
457.937	73.75
458.157	80.75
458.377	81.75
458.598	87.75
458.818	78.75
459.038	81.75
459.258	85.75
459.478	74.75
459.698	74.75
459.918	81.75
460.138	80.75
460.358	83.75
460.578	91.75
460.798	73.75
461.018	74.75
461.238	96.75
461.458	81.75
461.678	89.75
461.898	78.75
462.118	88.75
462.338	74.75
462.558	94.75
462.777	89.75
462.997	93.75
463.217	73.75
463.437	87.75
463.657	82.75
463.876	84.75
464.096	81.75
464.316	79.75
464.536	70.75
464.755	79.75
464.975	86.75
465.195	89.75
465.414	81.75
465.634	86.75
465.854	93.75
466.073	85.75
466.293	103.75
466.512	88.75
466.732	72.75
466.951	87.75
467.171	101.75
467.391	90.75
467.61	94.75
467.829	86.75
468.049	86.75
468.268	97.75
468.488	84.75
468.707	88.75
468.927	92.75
469.146	91.75
469.365	90.75
469.585	82.75
469.804	90.75
470.023	76.75
470.243	89.75
470.462	74.75
470.681	95.75
470.901	86.75
471.12	96.75
471.339	90.75
471.558	102.75
471.777	79.75
471.997	94.75
472.216	83.75
472.435	89.75
472.654	64.75
472.873	87.75
473.092	84.75
473.311	89.75
473.53	90.75
473.749	87.75
473.968	95.75
474.187	107.75
474.406	82.75
474.625	78.75
474.844	94.75
475.063	74.75
475.282	78.75
475.501	68.75
475.72	91.75
475.939	75.75
476.158	94.75
476.377	90.75
476.596	75.75
476.814	84.75
477.033	73.75
477.252	93.75
477.471	80.75
477.69	85.75
477.908	90.75
478.127	94.75
478.346	88.75
478.564	85.75
478.783	72.75
479.002	100.75
479.22	83.75
479.439	80.75
479.658	80.75
479.876	84.75
480.095	87.75
480.313	89.75
480.532	81.75
480.751	89.75
480.969	82.75
481.188	80.75
481.406	80.75
481.624	89.75
481.843	94.75
482.061	92.75
482.28	78.75
482.498	71.75
482.717	84.75
482.935	72.75
483.153	72.75
483.372	89.75
483.59	104.75
483.808	88.75
484.027	84.75
484.245	88.75
484.463	65.75
484.681	98.75
484.9	104.75
485.118	95.75
485.336	71.75
485.554	85.75
485.772	85.75
485.99	89.75
486.209	87.75
486.427	78.75
486.645	78.75
486.863	92.75
487.081	88.75
487.299	85.75
487.517	89.75
487.735	90.75
487.953	96.75
488.171	94.75
488.389	96.75
488.607	93.75
488.825	80.75
489.043	87.75
489.261	109.75
489.479	82.75
489.696	74.75
489.914	92.75
490.132	93.75
490.35	101.75
490.568	95.75
490.786	91.75
491.003	93.75
491.221	75.75
491.439	90.75
491.657	104.75
491.874	103.75
492.092	95.75
492.31	86.75
492.527	106.75
492.745	100.75
492.963	109.75
493.18	84.75
493.398	97.75
493.615	100.75
493.833	90.75
494.05	98.75
494.268	97.75
494.485	105.75
494.703	95.75
494.92	99.75
495.138	94.75
495.355	103.75
495.573	106.75
495.79	97.75
496.008	91.75
496.225	98.75
496.442	105.75
496.66	108.75
496.877	102.75
497.094	95.75
497.312	94.75
497.529	104.75
497.746	102.75
497.963	90.75
498.181	93.75
498.398	73.75
498.615	98.75
498.832	82.75
499.049	81.75
499.267	92.75
499.484	95.75
499.701	90.75
499.918	82.75
500.135	91.75
500.352	84.75
500.569	84.75
500.786	89.75
501.003	95.75
501.22	78.75
501.437	92.75
501.654	85.75
501.871	97.75
502.088	89.75
502.305	86.75
502.522	89.75
502.739	94.75
502.956	84.75
503.172	90.75
503.389	70.75
503.606	76.75
503.823	89.75
504.04	97.75
504.256	107.75
504.473	83.75
504.69	95.75
504.907	107.75
505.123	77.75
505.34	85.75
505.557	85.75
505.773	90.75
505.99	78.75
506.207	80.75
506.423	81.75
506.64	85.75
506.856	86.75
507.073	70.75
507.289	84.75
507.506	89.75
507.722	87.75
507.939	82.75
508.155	100.75
508.372	91.75
508.588	83.75
508.805	88.75
509.021	80.75
509.238	93.75
509.454	94.75
509.67	87.75
509.887	75.75
510.103	90.75
510.319	60.75
510.536	76.75
510.752	79.75
510.968	81.75
511.184	70.75
511.401	80.75
511.617	77.75
511.833	78.75
512.049	86.75
512.265	84.75
512.481	79.75
512.698	74.75
512.914	90.75
513.13	92.75
513.346	84.75
513.562	87.75
513.778	87.75
513.994	73.75
514.21	89.75
514.426	64.75
514.642	84.75
514.858	79.75
515.074	76.75
515.29	89.75
515.506	75.75
515.721	96.75
515.937	102.75
516.153	92.75
516.369	80.75
516.585	65.75
516.801	79.75
517.016	88.75
517.232	76.75
517.448	85.75
517.664	84.75
517.879	84.75
518.095	75.75
518.311	71.75
518.527	86.75
518.742	77.75
518.958	87.75
519.173	92.75
519.389	89.75
519.605	73.75
