Data from SampB_HRD10591_00104.txt Node
Date: Mon Jan 19 11:37:01 EST 2026
User: Yrep
Spectrometer: HR+D1059
Trigger mode: 0
Integration Time (sec): 3.443000E-1
Scans to average: 1
Electric dark correction enabled: true
Nonlinearity correction enabled: false
Boxcar width: 0
XAxis mode: Wavelengths
Number of Pixels in Spectrum: 2048
>>>>>Begin Spectral Data<<<<<
223.165	-25.88
223.4	-25.88
223.635	-25.88
223.869	-31.88
224.104	-21.88
224.338	-4.88
224.573	-17.88
224.808	-11.88
225.042	0.12
225.277	-4.88
225.511	-8.88
225.746	3.12
225.98	11.12
226.215	17.12
226.449	38.12
226.683	17.12
226.918	15.12
227.152	26.12
227.387	39.12
227.621	46.12
227.856	55.12
228.09	43.12
228.324	49.12
228.559	72.12
228.793	82.12
229.027	112.12
229.262	119.12
229.496	120.12
229.73	124.12
229.964	137.12
230.199	123.12
230.433	121.12
230.667	140.12
230.901	132.12
231.136	139.12
231.37	155.12
231.604	151.12
231.838	168.12
232.072	170.12
232.306	177.12
232.541	154.12
232.775	153.12
233.009	139.12
233.243	136.12
233.477	139.12
233.711	143.12
233.945	155.12
234.179	143.12
234.413	168.12
234.647	133.12
234.881	155.12
235.115	138.12
235.349	157.12
235.583	161.12
235.817	175.12
236.051	164.12
236.285	176.12
236.519	195.12
236.753	232.12
236.987	272.12
237.221	324.12
237.455	317.12
237.689	316.12
237.922	271.12
238.156	242.12
238.39	205.12
238.624	176.12
238.858	177.12
239.091	177.12
239.325	172.12
239.559	167.12
239.793	166.12
240.027	171.12
240.26	170.12
240.494	173.12
240.728	164.12
240.961	171.12
241.195	171.12
241.429	168.12
241.662	147.12
241.896	168.12
242.13	163.12
242.363	172.12
242.597	179.12
242.83	187.12
243.064	164.12
243.298	170.12
243.531	192.12
243.765	184.12
243.998	180.12
244.232	179.12
244.465	164.12
244.699	198.12
244.932	186.12
245.166	169.12
245.399	190.12
245.633	180.12
245.866	193.12
246.099	189.12
246.333	208.12
246.566	196.12
246.8	194.12
247.033	206.12
247.266	187.12
247.5	185.12
247.733	187.12
247.966	183.12
248.2	208.12
248.433	199.12
248.666	195.12
248.899	208.12
249.133	207.12
249.366	214.12
249.599	211.12
249.832	205.12
250.066	222.12
250.299	216.12
250.532	214.12
250.765	227.12
250.998	226.12
251.231	229.12
251.465	207.12
251.698	221.12
251.931	232.12
252.164	227.12
252.397	233.12
252.63	261.12
252.863	233.12
253.096	240.12
253.329	237.12
253.562	215.12
253.795	214.12
254.028	247.12
254.261	240.12
254.494	229.12
254.727	231.12
254.96	239.12
255.193	246.12
255.426	246.12
255.659	257.12
255.892	245.12
256.124	265.12
256.357	279.12
256.59	281.12
256.823	355.12
257.056	439.12
257.289	431.12
257.521	447.12
257.754	509.12
257.987	495.12
258.22	390.12
258.452	338.12
258.685	304.12
258.918	298.12
259.151	284.12
259.383	289.12
259.616	275.12
259.849	274.12
260.081	297.12
260.314	295.12
260.547	271.12
260.779	278.12
261.012	286.12
261.244	279.12
261.477	278.12
261.71	274.12
261.942	278.12
262.175	288.12
262.407	304.12
262.64	312.12
262.872	336.12
263.105	356.12
263.337	409.12
263.57	405.12
263.802	391.12
264.035	351.12
264.267	342.12
264.499	344.12
264.732	345.12
264.964	338.12
265.197	363.12
265.429	419.12
265.661	434.12
265.894	421.12
266.126	460.12
266.358	495.12
266.591	413.12
266.823	390.12
267.055	339.12
267.287	322.12
267.52	334.12
267.752	335.12
267.984	311.12
268.216	327.12
268.448	312.12
268.681	340.12
268.913	316.12
269.145	309.12
269.377	305.12
269.609	306.12
269.841	313.12
270.073	301.12
270.306	303.12
270.538	309.12
270.77	316.12
271.002	321.12
271.234	305.12
271.466	326.12
271.698	313.12
271.93	325.12
272.162	334.12
272.394	341.12
272.626	307.12
272.858	319.12
273.09	320.12
273.322	321.12
273.553	333.12
273.785	347.12
274.017	331.12
274.249	363.12
274.481	345.12
274.713	339.12
274.945	356.12
275.176	357.12
275.408	364.12
275.64	341.12
275.872	365.12
276.104	373.12
276.335	377.12
276.567	361.12
276.799	362.12
277.031	395.12
277.262	391.12
277.494	395.12
277.726	419.12
277.957	465.12
278.189	500.12
278.421	463.12
278.652	489.12
278.884	585.12
279.115	801.12
279.347	1182.12
279.579	1653.12
279.81	1899.12
280.042	1513.12
280.273	1383.12
280.505	1373.12
280.736	855.12
280.968	613.12
281.199	607.12
281.431	711.12
281.662	870.12
281.894	955.12
282.125	796.12
282.356	637.12
282.588	559.12
282.819	486.12
283.051	459.12
283.282	456.12
283.513	457.12
283.745	448.12
283.976	437.12
284.207	455.12
284.439	466.12
284.67	461.12
284.901	514.12
285.132	607.12
285.364	669.12
285.595	591.12
285.826	464.12
286.057	421.12
286.288	409.12
286.52	430.12
286.751	424.12
286.982	421.12
287.213	414.12
287.444	445.12
287.675	435.12
287.906	445.12
288.138	471.12
288.369	471.12
288.6	441.12
288.831	432.12
289.062	448.12
289.293	445.12
289.524	420.12
289.755	414.12
289.986	434.12
290.217	445.12
290.448	422.12
290.679	449.12
290.91	444.12
291.141	452.12
291.371	448.12
291.602	451.12
291.833	475.12
292.064	479.12
292.295	468.12
292.526	498.12
292.757	498.12
292.987	493.12
293.218	506.12
293.449	500.12
293.68	535.12
293.91	532.12
294.141	503.12
294.372	486.12
294.603	462.12
294.833	472.12
295.064	461.12
295.295	463.12
295.525	456.12
295.756	448.12
295.987	448.12
296.217	444.12
296.448	477.12
296.679	449.12
296.909	484.12
297.14	461.12
297.37	468.12
297.601	487.12
297.831	478.12
298.062	465.12
298.292	472.12
298.523	499.12
298.753	499.12
298.984	475.12
299.214	468.12
299.445	495.12
299.675	484.12
299.905	489.12
300.136	496.12
300.366	500.12
300.597	511.12
300.827	526.12
301.057	518.12
301.288	535.12
301.518	517.12
301.748	527.12
301.979	617.12
302.209	572.12
302.439	567.12
302.669	598.12
302.9	595.12
303.13	580.12
303.36	615.12
303.59	630.12
303.82	632.12
304.051	641.12
304.281	670.12
304.511	687.12
304.741	743.12
304.971	828.12
305.201	975.12
305.431	1052.12
305.661	1183.12
305.891	1256.12
306.121	1171.12
306.352	1083.12
306.582	1094.12
306.812	1105.12
307.042	1007.12
307.272	982.12
307.502	1076.12
307.731	1420.12
307.961	1929.12
308.191	2812.12
308.421	3167.12
308.651	2696.12
308.881	2495.12
309.111	3131.12
309.341	3933.12
309.571	3722.12
309.8	2301.12
310.03	1569.12
310.26	1220.12
310.49	1084.12
310.72	963.12
310.949	870.12
311.179	821.12
311.409	784.12
311.639	760.12
311.868	725.12
312.098	721.12
312.328	678.12
312.557	676.12
312.787	654.12
313.017	658.12
313.246	676.12
313.476	642.12
313.706	634.12
313.935	620.12
314.165	620.12
314.394	622.12
314.624	616.12
314.853	591.12
315.083	614.12
315.312	621.12
315.542	611.12
315.771	605.12
316.001	590.12
316.23	580.12
316.46	570.12
316.689	595.12
316.919	573.12
317.148	572.12
317.377	559.12
317.607	595.12
317.836	566.12
318.065	600.12
318.295	593.12
318.524	567.12
318.753	567.12
318.983	548.12
319.212	565.12
319.441	585.12
319.67	572.12
319.9	585.12
320.129	553.12
320.358	546.12
320.587	556.12
320.816	566.12
321.046	569.12
321.275	583.12
321.504	548.12
321.733	544.12
321.962	566.12
322.191	563.12
322.42	564.12
322.649	556.12
322.878	589.12
323.108	548.12
323.337	597.12
323.566	588.12
323.795	590.12
324.024	591.12
324.253	592.12
324.482	582.12
324.71	583.12
324.939	592.12
325.168	584.12
325.397	589.12
325.626	593.12
325.855	593.12
326.084	603.12
326.313	596.12
326.542	591.12
326.77	604.12
326.999	599.12
327.228	606.12
327.457	604.12
327.686	605.12
327.914	598.12
328.143	619.12
328.372	605.12
328.6	595.12
328.829	600.12
329.058	589.12
329.287	605.12
329.515	610.12
329.744	609.12
329.972	597.12
330.201	624.12
330.43	620.12
330.658	612.12
330.887	641.12
331.115	627.12
331.344	624.12
331.572	631.12
331.801	667.12
332.03	643.12
332.258	668.12
332.486	677.12
332.715	698.12
332.943	724.12
333.172	740.12
333.4	738.12
333.629	755.12
333.857	757.12
334.085	761.12
334.314	755.12
334.542	741.12
334.771	709.12
334.999	727.12
335.227	722.12
335.455	696.12
335.684	730.12
335.912	718.12
336.14	688.12
336.369	695.12
336.597	689.12
336.825	681.12
337.053	677.12
337.281	676.12
337.51	671.12
337.738	674.12
337.966	679.12
338.194	643.12
338.422	625.12
338.65	646.12
338.878	648.12
339.106	630.12
339.334	623.12
339.562	623.12
339.79	609.12
340.018	617.12
340.246	636.12
340.474	654.12
340.702	623.12
340.93	649.12
341.158	610.12
341.386	625.12
341.614	604.12
341.842	615.12
342.07	613.12
342.298	640.12
342.526	625.12
342.754	644.12
342.981	632.12
343.209	643.12
343.437	687.12
343.665	704.12
343.893	727.12
344.12	753.12
344.348	698.12
344.576	687.12
344.804	676.12
345.031	648.12
345.259	627.12
345.487	653.12
345.714	629.12
345.942	629.12
346.17	635.12
346.397	629.12
346.625	634.12
346.853	607.12
347.08	597.12
347.308	639.12
347.535	628.12
347.763	618.12
347.99	623.12
348.218	639.12
348.445	644.12
348.673	629.12
348.9	617.12
349.128	644.12
349.355	626.12
349.583	651.12
349.81	625.12
350.037	616.12
350.265	630.12
350.492	631.12
350.72	603.12
350.947	630.12
351.174	644.12
351.402	636.12
351.629	622.12
351.856	651.12
352.083	623.12
352.311	659.12
352.538	651.12
352.765	657.12
352.992	685.12
353.22	642.12
353.447	669.12
353.674	642.12
353.901	673.12
354.128	695.12
354.355	703.12
354.583	693.12
354.81	694.12
355.037	710.12
355.264	733.12
355.491	733.12
355.718	759.12
355.945	762.12
356.172	774.12
356.399	822.12
356.626	839.12
356.853	845.12
357.08	885.12
357.307	930.12
357.534	975.12
357.761	1087.12
357.988	1231.12
358.215	1393.12
358.441	1639.12
358.668	1800.12
358.895	1718.12
359.122	1364.12
359.349	1184.12
359.576	1073.12
359.802	996.12
360.029	919.12
360.256	923.12
360.483	909.12
360.709	881.12
360.936	847.12
361.163	845.12
361.39	797.12
361.616	787.12
361.843	772.12
362.07	765.12
362.296	761.12
362.523	740.12
362.749	736.12
362.976	737.12
363.203	718.12
363.429	704.12
363.656	701.12
363.882	680.12
364.109	707.12
364.335	699.12
364.562	679.12
364.788	691.12
365.015	667.12
365.241	660.12
365.468	672.12
365.694	639.12
365.92	666.12
366.147	678.12
366.373	648.12
366.599	642.12
366.826	688.12
367.052	645.12
367.278	677.12
367.505	641.12
367.731	661.12
367.957	655.12
368.184	657.12
368.41	672.12
368.636	675.12
368.862	642.12
369.089	651.12
369.315	659.12
369.541	676.12
369.767	665.12
369.993	664.12
370.219	648.12
370.445	677.12
370.672	680.12
370.898	699.12
371.124	679.12
371.35	698.12
371.576	704.12
371.802	715.12
372.028	681.12
372.254	712.12
372.48	683.12
372.706	705.12
372.932	718.12
373.158	732.12
373.384	703.12
373.61	740.12
373.835	715.12
374.061	696.12
374.287	717.12
374.513	739.12
374.739	721.12
374.965	745.12
375.191	738.12
375.416	765.12
375.642	708.12
375.868	732.12
376.094	716.12
376.319	701.12
376.545	711.12
376.771	691.12
376.997	663.12
377.222	661.12
377.448	697.12
377.674	682.12
377.899	671.12
378.125	688.12
378.35	661.12
378.576	679.12
378.802	670.12
379.027	684.12
379.253	694.12
379.478	684.12
379.704	698.12
379.929	710.12
380.155	705.12
380.38	701.12
380.606	707.12
380.831	695.12
381.057	725.12
381.282	719.12
381.507	743.12
381.733	729.12
381.958	731.12
382.184	793.12
382.409	799.12
382.634	848.12
382.86	873.12
383.085	952.12
383.31	1001.12
383.535	1002.12
383.761	995.12
383.986	1048.12
384.211	875.12
384.436	878.12
384.662	839.12
384.887	832.12
385.112	849.12
385.337	835.12
385.562	853.12
385.787	867.12
386.013	878.12
386.238	871.12
386.463	879.12
386.688	898.12
386.913	825.12
387.138	841.12
387.363	852.12
387.588	851.12
387.813	849.12
388.038	849.12
388.263	866.12
388.488	857.12
388.713	862.12
388.938	831.12
389.163	788.12
389.387	829.12
389.612	851.12
389.837	864.12
390.062	873.12
390.287	904.12
390.512	862.12
390.736	883.12
390.961	868.12
391.186	892.12
391.411	902.12
391.636	952.12
391.86	963.12
392.085	991.12
392.31	971.12
392.534	1002.12
392.759	1049.12
392.984	1128.12
393.208	1381.12
393.433	1587.12
393.658	1589.12
393.882	1759.12
394.107	2742.12
394.331	4779.12
394.556	6237.12
394.78	4163.12
395.005	2451.12
395.229	1977.12
395.454	1981.12
395.678	2472.12
395.903	4107.12
396.127	7043.12
396.352	8157.12
396.576	4731.12
396.801	2875.12
397.025	2267.12
397.249	1735.12
397.474	1515.12
397.698	1379.12
397.922	1326.12
398.147	1271.12
398.371	1247.12
398.595	1221.12
398.82	1168.12
399.044	1223.12
399.268	1311.12
399.492	1395.12
399.717	1415.12
399.941	1346.12
400.165	1272.12
400.389	1185.12
400.613	1116.12
400.837	1076.12
401.062	1087.12
401.286	1058.12
401.51	1008.12
401.734	1015.12
401.958	1026.12
402.182	1043.12
402.406	1011.12
402.63	1028.12
402.854	1048.12
403.078	1048.12
403.302	1100.12
403.526	1087.12
403.75	1103.12
403.974	1122.12
404.198	1077.12
404.422	1088.12
404.645	1108.12
404.869	1103.12
405.093	1054.12
405.317	1072.12
405.541	1062.12
405.765	1015.12
405.988	1040.12
406.212	1072.12
406.436	1065.12
406.66	1070.12
406.883	1051.12
407.107	1156.12
407.331	1149.12
407.555	1207.12
407.778	1135.12
408.002	1118.12
408.226	1112.12
408.449	1107.12
408.673	1077.12
408.896	1041.12
409.12	1031.12
409.344	1050.12
409.567	1024.12
409.791	1053.12
410.014	1035.12
410.238	1042.12
410.461	1053.12
410.685	1042.12
410.908	1053.12
411.132	1014.12
411.355	973.12
411.578	1009.12
411.802	983.12
412.025	1002.12
412.249	1016.12
412.472	995.12
412.695	989.12
412.919	987.12
413.142	987.12
413.365	999.12
413.589	971.12
413.812	979.12
414.035	961.12
414.258	967.12
414.482	948.12
414.705	997.12
414.928	978.12
415.151	982.12
415.374	958.12
415.597	957.12
415.821	944.12
416.044	951.12
416.267	942.12
416.49	950.12
416.713	986.12
416.936	980.12
417.159	973.12
417.382	1007.12
417.605	963.12
417.828	967.12
418.051	987.12
418.274	971.12
418.497	966.12
418.72	993.12
418.943	978.12
419.166	1041.12
419.389	1064.12
419.611	1095.12
419.834	1013.12
420.057	1021.12
420.28	984.12
420.503	973.12
420.726	959.12
420.948	963.12
421.171	953.12
421.394	1011.12
421.617	944.12
421.839	958.12
422.062	1008.12
422.285	1014.12
422.507	1027.12
422.73	1065.12
422.953	1048.12
423.175	961.12
423.398	972.12
423.621	1010.12
423.843	1046.12
424.066	1011.12
424.288	973.12
424.511	1023.12
424.733	1005.12
424.956	1003.12
425.178	992.12
425.401	979.12
425.623	992.12
425.846	943.12
426.068	943.12
426.291	957.12
426.513	955.12
426.735	947.12
426.958	947.12
427.18	926.12
427.402	932.12
427.625	944.12
427.847	885.12
428.069	879.12
428.292	904.12
428.514	891.12
428.736	872.12
428.958	887.12
429.181	873.12
429.403	895.12
429.625	885.12
429.847	854.12
430.069	888.12
430.292	897.12
430.514	889.12
430.736	872.12
430.958	891.12
431.18	891.12
431.402	859.12
431.624	868.12
431.846	848.12
432.068	836.12
432.29	849.12
432.512	863.12
432.734	905.12
432.956	903.12
433.178	911.12
433.4	908.12
433.622	915.12
433.844	915.12
434.066	894.12
434.287	875.12
434.509	868.12
434.731	922.12
434.953	942.12
435.175	948.12
435.397	948.12
435.618	892.12
435.84	881.12
436.062	891.12
436.284	892.12
436.505	904.12
436.727	919.12
436.949	881.12
437.17	880.12
437.392	881.12
437.614	882.12
437.835	828.12
438.057	835.12
438.278	853.12
438.5	845.12
438.721	876.12
438.943	867.12
439.165	879.12
439.386	881.12
439.608	884.12
439.829	934.12
440.05	896.12
440.272	933.12
440.493	919.12
440.715	953.12
440.936	978.12
441.158	989.12
441.379	993.12
441.6	1023.12
441.822	996.12
442.043	1007.12
442.264	975.12
442.486	975.12
442.707	991.12
442.928	982.12
443.149	973.12
443.371	1007.12
443.592	979.12
443.813	990.12
444.034	1000.12
444.255	1031.12
444.476	1063.12
444.698	1111.12
444.919	1095.12
445.14	1341.12
445.361	1148.12
445.582	1013.12
445.803	1005.12
446.024	974.12
446.245	953.12
446.466	959.12
446.687	950.12
446.908	960.12
447.129	963.12
447.35	944.12
447.571	934.12
447.792	894.12
448.013	918.12
448.234	912.12
448.455	899.12
448.675	900.12
448.896	893.12
449.117	868.12
449.338	874.12
449.559	873.12
449.779	875.12
450	865.12
450.221	853.12
450.442	885.12
450.662	841.12
450.883	876.12
451.104	887.12
451.324	852.12
451.545	849.12
451.766	859.12
451.986	838.12
452.207	872.12
452.428	849.12
452.648	870.12
452.869	863.12
453.089	845.12
453.31	840.12
453.53	829.12
453.751	847.12
453.971	818.12
454.192	830.12
454.412	810.12
454.633	805.12
454.853	825.12
455.073	799.12
455.294	812.12
455.514	790.12
455.734	816.12
455.955	808.12
456.175	780.12
456.395	791.12
456.616	766.12
456.836	790.12
457.056	768.12
457.276	784.12
457.497	755.12
457.717	766.12
457.937	794.12
458.157	786.12
458.377	789.12
458.598	804.12
458.818	774.12
459.038	794.12
459.258	805.12
459.478	849.12
459.698	849.12
459.918	864.12
460.138	919.12
460.358	980.12
460.578	981.12
460.798	966.12
461.018	988.12
461.238	971.12
461.458	971.12
461.678	959.12
461.898	1007.12
462.118	1033.12
462.338	1040.12
462.558	1046.12
462.777	1091.12
462.997	1168.12
463.217	1221.12
463.437	1169.12
463.657	1126.12
463.876	1092.12
464.096	1103.12
464.316	1079.12
464.536	1109.12
464.755	1104.12
464.975	1068.12
465.195	1032.12
465.414	981.12
465.634	960.12
465.854	984.12
466.073	1035.12
466.293	1056.12
466.512	1143.12
466.732	1066.12
466.951	1053.12
467.171	998.12
467.391	998.12
467.61	968.12
467.829	959.12
468.049	948.12
468.268	929.12
468.488	900.12
468.707	903.12
468.927	907.12
469.146	907.12
469.365	884.12
469.585	904.12
469.804	931.12
470.023	943.12
470.243	944.12
470.462	945.12
470.681	943.12
470.901	935.12
471.12	929.12
471.339	945.12
471.558	909.12
471.777	940.12
471.997	903.12
472.216	890.12
472.435	888.12
472.654	868.12
472.873	858.12
473.092	889.12
473.311	935.12
473.53	982.12
473.749	1028.12
473.968	987.12
474.187	996.12
474.406	992.12
474.625	1051.12
474.844	1050.12
475.063	994.12
475.282	990.12
475.501	946.12
475.72	931.12
475.939	920.12
476.158	918.12
476.377	895.12
476.596	874.12
476.814	877.12
477.033	871.12
477.252	901.12
477.471	932.12
477.69	947.12
477.908	955.12
478.127	1005.12
478.346	984.12
478.564	1000.12
478.783	1001.12
479.002	1020.12
479.22	1012.12
479.439	1000.12
479.658	982.12
479.876	997.12
480.095	975.12
480.313	1028.12
480.532	1025.12
480.751	1010.12
480.969	957.12
481.188	950.12
481.406	927.12
481.624	906.12
481.843	897.12
482.061	896.12
482.28	917.12
482.498	912.12
482.717	883.12
482.935	926.12
483.153	972.12
483.372	952.12
483.59	965.12
483.808	958.12
484.027	945.12
484.245	1006.12
484.463	1133.12
484.681	1112.12
484.9	1076.12
485.118	1089.12
485.336	1070.12
485.554	1047.12
485.772	1032.12
485.99	1027.12
486.209	1070.12
486.427	1027.12
486.645	1083.12
486.863	1128.12
487.081	1084.12
487.299	1094.12
487.517	1083.12
487.735	1095.12
487.953	1154.12
488.171	1114.12
488.389	1109.12
488.607	1051.12
488.825	1023.12
489.043	1042.12
489.261	1090.12
489.479	1055.12
489.696	1067.12
489.914	1052.12
490.132	1063.12
490.35	1076.12
490.568	1073.12
490.786	1084.12
491.003	1077.12
491.221	1100.12
491.439	1113.12
491.657	1142.12
491.874	1127.12
492.092	1166.12
492.31	1208.12
492.527	1140.12
492.745	1145.12
492.963	1154.12
493.18	1141.12
493.398	1115.12
493.615	1133.12
493.833	1121.12
494.05	1089.12
494.268	1065.12
494.485	1083.12
494.703	1099.12
494.92	1084.12
495.138	1116.12
495.355	1101.12
495.573	1110.12
495.79	1107.12
496.008	1118.12
496.225	1111.12
496.442	1117.12
496.66	1121.12
496.877	1149.12
497.094	1157.12
497.312	1175.12
497.529	1201.12
497.746	1169.12
497.963	1172.12
498.181	1224.12
498.398	1277.12
498.615	1313.12
498.832	1355.12
499.049	1446.12
499.267	1542.12
