Data from SampB_HRD10591_00032.txt Node
Date: Mon Jan 19 11:33:39 EST 2026
User: Yrep
Spectrometer: HR+D1059
Trigger mode: 0
Integration Time (sec): 3.443000E-1
Scans to average: 1
Electric dark correction enabled: true
Nonlinearity correction enabled: false
Boxcar width: 0
XAxis mode: Wavelengths
Number of Pixels in Spectrum: 2048
>>>>>Begin Spectral Data<<<<<
223.165	-20.19
223.4	-20.19
223.635	-20.19
223.869	-21.19
224.104	-29.19
224.338	-19.19
224.573	-18.19
224.808	-10.19
225.042	-17.19
225.277	-12.19
225.511	-13.19
225.746	4.81
225.98	14.81
226.215	26.81
226.449	14.81
226.683	18.81
226.918	34.81
227.152	45.81
227.387	41.81
227.621	35.81
227.856	40.81
228.09	41.81
228.324	43.81
228.559	61.81
228.793	72.81
229.027	70.81
229.262	72.81
229.496	72.81
229.73	91.81
229.964	78.81
230.199	100.81
230.433	88.81
230.667	93.81
230.901	85.81
231.136	94.81
231.37	84.81
231.604	92.81
231.838	83.81
232.072	93.81
232.306	87.81
232.541	84.81
232.775	87.81
233.009	88.81
233.243	97.81
233.477	92.81
233.711	95.81
233.945	89.81
234.179	99.81
234.413	110.81
234.647	96.81
234.881	84.81
235.115	87.81
235.349	97.81
235.583	99.81
235.817	96.81
236.051	91.81
236.285	97.81
236.519	99.81
236.753	95.81
236.987	82.81
237.221	83.81
237.455	105.81
237.689	95.81
237.922	83.81
238.156	92.81
238.39	109.81
238.624	80.81
238.858	105.81
239.091	74.81
239.325	105.81
239.559	100.81
239.793	101.81
240.027	104.81
240.26	97.81
240.494	101.81
240.728	103.81
240.961	103.81
241.195	105.81
241.429	96.81
241.662	101.81
241.896	104.81
242.13	103.81
242.363	99.81
242.597	105.81
242.83	114.81
243.064	88.81
243.298	105.81
243.531	90.81
243.765	100.81
243.998	101.81
244.232	107.81
244.465	109.81
244.699	94.81
244.932	93.81
245.166	108.81
245.399	105.81
245.633	100.81
245.866	105.81
246.099	107.81
246.333	103.81
246.566	100.81
246.8	99.81
247.033	99.81
247.266	104.81
247.5	105.81
247.733	99.81
247.966	110.81
248.2	121.81
248.433	112.81
248.666	115.81
248.899	109.81
249.133	114.81
249.366	114.81
249.599	109.81
249.832	102.81
250.066	125.81
250.299	115.81
250.532	121.81
250.765	127.81
250.998	110.81
251.231	118.81
251.465	114.81
251.698	105.81
251.931	115.81
252.164	116.81
252.397	121.81
252.63	116.81
252.863	114.81
253.096	123.81
253.329	114.81
253.562	123.81
253.795	115.81
254.028	141.81
254.261	126.81
254.494	121.81
254.727	117.81
254.96	120.81
255.193	121.81
255.426	118.81
255.659	119.81
255.892	131.81
256.124	122.81
256.357	140.81
256.59	131.81
256.823	143.81
257.056	121.81
257.289	131.81
257.521	127.81
257.754	109.81
257.987	127.81
258.22	149.81
258.452	142.81
258.685	128.81
258.918	138.81
259.151	122.81
259.383	133.81
259.616	118.81
259.849	112.81
260.081	132.81
260.314	128.81
260.547	134.81
260.779	123.81
261.012	125.81
261.244	130.81
261.477	143.81
261.71	138.81
261.942	122.81
262.175	127.81
262.407	121.81
262.64	140.81
262.872	129.81
263.105	125.81
263.337	136.81
263.57	119.81
263.802	132.81
264.035	139.81
264.267	119.81
264.499	121.81
264.732	136.81
264.964	123.81
265.197	128.81
265.429	135.81
265.661	147.81
265.894	147.81
266.126	145.81
266.358	131.81
266.591	121.81
266.823	135.81
267.055	136.81
267.287	134.81
267.52	133.81
267.752	136.81
267.984	144.81
268.216	129.81
268.448	125.81
268.681	146.81
268.913	138.81
269.145	145.81
269.377	151.81
269.609	133.81
269.841	139.81
270.073	129.81
270.306	139.81
270.538	149.81
270.77	144.81
271.002	140.81
271.234	121.81
271.466	132.81
271.698	154.81
271.93	151.81
272.162	155.81
272.394	146.81
272.626	132.81
272.858	137.81
273.09	149.81
273.322	136.81
273.553	139.81
273.785	141.81
274.017	147.81
274.249	141.81
274.481	153.81
274.713	169.81
274.945	161.81
275.176	160.81
275.408	140.81
275.64	169.81
275.872	157.81
276.104	164.81
276.335	165.81
276.567	154.81
276.799	153.81
277.031	156.81
277.262	167.81
277.494	143.81
277.726	161.81
277.957	158.81
278.189	170.81
278.421	179.81
278.652	154.81
278.884	155.81
279.115	154.81
279.347	173.81
279.579	156.81
279.81	190.81
280.042	178.81
280.273	167.81
280.505	152.81
280.736	165.81
280.968	156.81
281.199	161.81
281.431	164.81
281.662	140.81
281.894	181.81
282.125	158.81
282.356	147.81
282.588	156.81
282.819	166.81
283.051	184.81
283.282	178.81
283.513	168.81
283.745	175.81
283.976	173.81
284.207	177.81
284.439	174.81
284.67	177.81
284.901	160.81
285.132	168.81
285.364	156.81
285.595	162.81
285.826	154.81
286.057	164.81
286.288	158.81
286.52	192.81
286.751	170.81
286.982	157.81
287.213	160.81
287.444	180.81
287.675	169.81
287.906	172.81
288.138	177.81
288.369	159.81
288.6	176.81
288.831	176.81
289.062	170.81
289.293	163.81
289.524	165.81
289.755	170.81
289.986	163.81
290.217	169.81
290.448	178.81
290.679	177.81
290.91	172.81
291.141	176.81
291.371	166.81
291.602	185.81
291.833	180.81
292.064	170.81
292.295	171.81
292.526	174.81
292.757	183.81
292.987	169.81
293.218	174.81
293.449	153.81
293.68	171.81
293.91	161.81
294.141	168.81
294.372	156.81
294.603	169.81
294.833	185.81
295.064	181.81
295.295	187.81
295.525	177.81
295.756	179.81
295.987	176.81
296.217	188.81
296.448	179.81
296.679	179.81
296.909	183.81
297.14	183.81
297.37	180.81
297.601	168.81
297.831	180.81
298.062	193.81
298.292	185.81
298.523	187.81
298.753	173.81
298.984	196.81
299.214	177.81
299.445	194.81
299.675	175.81
299.905	189.81
300.136	177.81
300.366	203.81
300.597	189.81
300.827	166.81
301.057	177.81
301.288	188.81
301.518	187.81
301.748	194.81
301.979	235.81
302.209	196.81
302.439	189.81
302.669	195.81
302.9	199.81
303.13	205.81
303.36	201.81
303.59	179.81
303.82	195.81
304.051	208.81
304.281	203.81
304.511	196.81
304.741	201.81
304.971	190.81
305.201	190.81
305.431	209.81
305.661	199.81
305.891	202.81
306.121	183.81
306.352	185.81
306.582	183.81
306.812	192.81
307.042	193.81
307.272	208.81
307.502	205.81
307.731	196.81
307.961	191.81
308.191	192.81
308.421	192.81
308.651	178.81
308.881	204.81
309.111	188.81
309.341	185.81
309.571	174.81
309.8	191.81
310.03	187.81
310.26	185.81
310.49	181.81
310.72	192.81
310.949	199.81
311.179	194.81
311.409	194.81
311.639	200.81
311.868	179.81
312.098	179.81
312.328	188.81
312.557	195.81
312.787	194.81
313.017	207.81
313.246	195.81
313.476	202.81
313.706	201.81
313.935	199.81
314.165	204.81
314.394	199.81
314.624	197.81
314.853	212.81
315.083	195.81
315.312	204.81
315.542	204.81
315.771	205.81
316.001	224.81
316.23	204.81
316.46	207.81
316.689	196.81
316.919	201.81
317.148	193.81
317.377	201.81
317.607	203.81
317.836	195.81
318.065	201.81
318.295	186.81
318.524	198.81
318.753	179.81
318.983	201.81
319.212	208.81
319.441	207.81
319.67	204.81
319.9	202.81
320.129	196.81
320.358	209.81
320.587	200.81
320.816	196.81
321.046	199.81
321.275	215.81
321.504	208.81
321.733	187.81
321.962	190.81
322.191	183.81
322.42	206.81
322.649	216.81
322.878	209.81
323.108	201.81
323.337	216.81
323.566	209.81
323.795	221.81
324.024	217.81
324.253	219.81
324.482	205.81
324.71	203.81
324.939	226.81
325.168	235.81
325.397	207.81
325.626	218.81
325.855	221.81
326.084	227.81
326.313	228.81
326.542	223.81
326.77	229.81
326.999	234.81
327.228	227.81
327.457	248.81
327.686	239.81
327.914	262.81
328.143	269.81
328.372	282.81
328.6	251.81
328.829	236.81
329.058	249.81
329.287	227.81
329.515	263.81
329.744	289.81
329.972	282.81
330.201	334.81
330.43	354.81
330.658	274.81
330.887	254.81
331.115	253.81
331.344	248.81
331.572	242.81
331.801	251.81
332.03	233.81
332.258	249.81
332.486	254.81
332.715	273.81
332.943	282.81
333.172	277.81
333.4	304.81
333.629	299.81
333.857	324.81
334.085	341.81
334.314	393.81
334.542	429.81
334.771	422.81
334.999	331.81
335.227	297.81
335.455	275.81
335.684	274.81
335.912	256.81
336.14	252.81
336.369	248.81
336.597	243.81
336.825	231.81
337.053	269.81
337.281	252.81
337.51	260.81
337.738	239.81
337.966	237.81
338.194	213.81
338.422	239.81
338.65	226.81
338.878	244.81
339.106	249.81
339.334	235.81
339.562	228.81
339.79	212.81
340.018	216.81
340.246	213.81
340.474	217.81
340.702	228.81
340.93	207.81
341.158	237.81
341.386	227.81
341.614	239.81
341.842	232.81
342.07	216.81
342.298	235.81
342.526	214.81
342.754	234.81
342.981	227.81
343.209	234.81
343.437	285.81
343.665	254.81
343.893	281.81
344.12	281.81
344.348	236.81
344.576	247.81
344.804	236.81
345.031	243.81
345.259	210.81
345.487	223.81
345.714	228.81
345.942	225.81
346.17	211.81
346.397	227.81
346.625	234.81
346.853	211.81
347.08	216.81
347.308	238.81
347.535	239.81
347.763	227.81
347.99	232.81
348.218	235.81
348.445	213.81
348.673	224.81
348.9	221.81
349.128	207.81
349.355	209.81
349.583	227.81
349.81	220.81
350.037	236.81
350.265	217.81
350.492	219.81
350.72	212.81
350.947	215.81
351.174	225.81
351.402	207.81
351.629	217.81
351.856	204.81
352.083	217.81
352.311	225.81
352.538	217.81
352.765	224.81
352.992	225.81
353.22	213.81
353.447	217.81
353.674	224.81
353.901	205.81
354.128	216.81
354.355	213.81
354.583	201.81
354.81	215.81
355.037	232.81
355.264	202.81
355.491	212.81
355.718	209.81
355.945	227.81
356.172	226.81
356.399	218.81
356.626	220.81
356.853	231.81
357.08	211.81
357.307	214.81
357.534	220.81
357.761	212.81
357.988	229.81
358.215	212.81
358.441	221.81
358.668	213.81
358.895	219.81
359.122	223.81
359.349	210.81
359.576	209.81
359.802	219.81
360.029	216.81
360.256	218.81
360.483	212.81
360.709	242.81
360.936	223.81
361.163	212.81
361.39	226.81
361.616	214.81
361.843	201.81
362.07	212.81
362.296	215.81
362.523	215.81
362.749	219.81
362.976	212.81
363.203	231.81
363.429	207.81
363.656	221.81
363.882	215.81
364.109	215.81
364.335	221.81
364.562	212.81
364.788	227.81
365.015	228.81
365.241	208.81
365.468	218.81
365.694	224.81
365.92	214.81
366.147	227.81
366.373	203.81
366.599	207.81
366.826	223.81
367.052	227.81
367.278	231.81
367.505	233.81
367.731	234.81
367.957	223.81
368.184	222.81
368.41	227.81
368.636	229.81
368.862	234.81
369.089	228.81
369.315	227.81
369.541	226.81
369.767	223.81
369.993	228.81
370.219	231.81
370.445	215.81
370.672	225.81
370.898	226.81
371.124	236.81
371.35	249.81
371.576	233.81
371.802	217.81
372.028	224.81
372.254	239.81
372.48	233.81
372.706	228.81
372.932	236.81
373.158	259.81
373.384	239.81
373.61	260.81
373.835	248.81
374.061	223.81
374.287	242.81
374.513	247.81
374.739	254.81
374.965	261.81
375.191	254.81
375.416	256.81
375.642	258.81
375.868	258.81
376.094	241.81
376.319	239.81
376.545	245.81
376.771	234.81
376.997	249.81
377.222	253.81
377.448	242.81
377.674	233.81
377.899	242.81
378.125	233.81
378.35	252.81
378.576	252.81
378.802	228.81
379.027	221.81
379.253	239.81
379.478	224.81
379.704	253.81
379.929	229.81
380.155	232.81
380.38	225.81
380.606	239.81
380.831	235.81
381.057	261.81
381.282	247.81
381.507	232.81
381.733	245.81
381.958	240.81
382.184	253.81
382.409	238.81
382.634	273.81
382.86	252.81
383.085	260.81
383.31	259.81
383.535	267.81
383.761	266.81
383.986	269.81
384.211	272.81
384.436	258.81
384.662	273.81
384.887	276.81
385.112	267.81
385.337	271.81
385.562	275.81
385.787	290.81
386.013	258.81
386.238	274.81
386.463	275.81
386.688	300.81
386.913	267.81
387.138	280.81
387.363	274.81
387.588	263.81
387.813	279.81
388.038	261.81
388.263	279.81
388.488	270.81
388.713	296.81
388.938	279.81
389.163	254.81
389.387	289.81
389.612	278.81
389.837	276.81
390.062	281.81
390.287	276.81
390.512	284.81
390.736	293.81
390.961	284.81
391.186	280.81
391.411	308.81
391.636	281.81
391.86	290.81
392.085	301.81
392.31	311.81
392.534	289.81
392.759	290.81
392.984	302.81
393.208	329.81
393.433	308.81
393.658	319.81
393.882	278.81
394.107	306.81
394.331	301.81
394.556	297.81
394.78	328.81
395.005	318.81
395.229	295.81
395.454	308.81
395.678	309.81
395.903	323.81
396.127	308.81
396.352	311.81
396.576	305.81
396.801	311.81
397.025	304.81
397.249	321.81
397.474	338.81
397.698	294.81
397.922	319.81
398.147	290.81
398.371	324.81
398.595	312.81
398.82	346.81
399.044	358.81
399.268	404.81
399.492	456.81
399.717	488.81
399.941	442.81
400.165	425.81
400.389	403.81
400.613	355.81
400.837	349.81
401.062	355.81
401.286	335.81
401.51	356.81
401.734	350.81
401.958	339.81
402.182	329.81
402.406	363.81
402.63	344.81
402.854	372.81
403.078	377.81
403.302	380.81
403.526	381.81
403.75	388.81
403.974	395.81
404.198	371.81
404.422	383.81
404.645	379.81
404.869	381.81
405.093	369.81
405.317	373.81
405.541	378.81
405.765	395.81
405.988	375.81
406.212	367.81
406.436	357.81
406.66	364.81
406.883	382.81
407.107	409.81
407.331	422.81
407.555	423.81
407.778	415.81
408.002	414.81
408.226	402.81
408.449	384.81
408.673	386.81
408.896	372.81
409.12	376.81
409.344	391.81
409.567	373.81
409.791	375.81
410.014	364.81
410.238	381.81
410.461	381.81
410.685	375.81
410.908	377.81
411.132	387.81
411.355	363.81
411.578	360.81
411.802	359.81
412.025	358.81
412.249	364.81
412.472	375.81
412.695	367.81
412.919	341.81
413.142	370.81
413.365	347.81
413.589	354.81
413.812	340.81
414.035	366.81
414.258	345.81
414.482	363.81
414.705	351.81
414.928	355.81
415.151	361.81
415.374	348.81
415.597	369.81
415.821	334.81
416.044	342.81
416.267	346.81
416.49	359.81
416.713	367.81
416.936	343.81
417.159	335.81
417.382	332.81
417.605	333.81
417.828	353.81
418.051	359.81
418.274	361.81
418.497	346.81
418.72	363.81
418.943	357.81
419.166	371.81
419.389	400.81
419.611	393.81
419.834	351.81
420.057	378.81
420.28	338.81
420.503	340.81
420.726	365.81
420.948	342.81
421.171	351.81
421.394	362.81
421.617	351.81
421.839	343.81
422.062	372.81
422.285	349.81
422.507	360.81
422.73	369.81
422.953	369.81
423.175	350.81
423.398	362.81
423.621	355.81
423.843	370.81
424.066	367.81
424.288	368.81
424.511	381.81
424.733	377.81
424.956	351.81
425.178	360.81
425.401	367.81
425.623	368.81
425.846	352.81
426.068	333.81
426.291	343.81
426.513	342.81
426.735	323.81
426.958	353.81
427.18	339.81
427.402	315.81
427.625	341.81
427.847	345.81
428.069	347.81
428.292	311.81
428.514	314.81
428.736	318.81
428.958	324.81
429.181	319.81
429.403	322.81
429.625	312.81
429.847	314.81
430.069	313.81
430.292	325.81
430.514	317.81
430.736	326.81
430.958	331.81
431.18	302.81
431.402	315.81
431.624	323.81
431.846	323.81
432.068	320.81
432.29	301.81
432.512	333.81
432.734	328.81
432.956	329.81
433.178	300.81
433.4	325.81
433.622	344.81
433.844	317.81
434.066	323.81
434.287	316.81
434.509	324.81
434.731	328.81
434.953	343.81
435.175	332.81
435.397	347.81
435.618	327.81
435.84	301.81
436.062	317.81
436.284	307.81
436.505	314.81
436.727	316.81
436.949	315.81
437.17	322.81
437.392	311.81
437.614	304.81
437.835	297.81
438.057	304.81
438.278	324.81
438.5	304.81
438.721	325.81
438.943	320.81
439.165	313.81
439.386	320.81
439.608	311.81
439.829	316.81
440.05	327.81
440.272	339.81
440.493	335.81
440.715	332.81
440.936	323.81
441.158	349.81
441.379	326.81
441.6	341.81
441.822	347.81
442.043	348.81
442.264	345.81
442.486	331.81
442.707	347.81
442.928	370.81
443.149	350.81
443.371	353.81
443.592	349.81
443.813	356.81
444.034	356.81
444.255	380.81
444.476	376.81
444.698	385.81
444.919	385.81
445.14	580.81
445.361	454.81
445.582	374.81
445.803	363.81
446.024	347.81
446.245	353.81
446.466	347.81
446.687	330.81
446.908	315.81
447.129	341.81
447.35	328.81
447.571	322.81
447.792	309.81
448.013	320.81
448.234	310.81
448.455	307.81
448.675	308.81
448.896	320.81
449.117	302.81
449.338	292.81
449.559	313.81
449.779	299.81
450	283.81
450.221	294.81
450.442	302.81
450.662	288.81
450.883	307.81
451.104	309.81
451.324	301.81
451.545	303.81
451.766	304.81
451.986	300.81
452.207	280.81
452.428	302.81
452.648	301.81
452.869	281.81
453.089	286.81
453.31	285.81
453.53	303.81
453.751	292.81
453.971	283.81
454.192	266.81
454.412	275.81
454.633	280.81
454.853	271.81
455.073	277.81
455.294	282.81
455.514	275.81
455.734	279.81
455.955	281.81
456.175	272.81
456.395	270.81
456.616	272.81
456.836	272.81
457.056	279.81
457.276	264.81
457.497	274.81
457.717	260.81
457.937	276.81
458.157	276.81
458.377	300.81
458.598	267.81
458.818	290.81
459.038	301.81
459.258	299.81
459.478	304.81
459.698	309.81
459.918	321.81
460.138	331.81
460.358	348.81
460.578	339.81
460.798	333.81
461.018	352.81
461.238	352.81
461.458	344.81
461.678	339.81
461.898	361.81
462.118	363.81
462.338	365.81
462.558	387.81
462.777	403.81
462.997	411.81
463.217	447.81
463.437	416.81
463.657	397.81
463.876	371.81
464.096	395.81
464.316	404.81
464.536	392.81
464.755	391.81
464.975	372.81
465.195	347.81
465.414	341.81
465.634	320.81
465.854	322.81
466.073	321.81
466.293	318.81
466.512	306.81
466.732	304.81
466.951	322.81
467.171	293.81
467.391	309.81
467.61	323.81
467.829	328.81
468.049	372.81
468.268	384.81
468.488	323.81
468.707	313.81
468.927	319.81
469.146	307.81
469.365	312.81
469.585	314.81
469.804	322.81
470.023	324.81
470.243	320.81
470.462	322.81
470.681	325.81
470.901	320.81
471.12	331.81
471.339	337.81
471.558	335.81
471.777	328.81
471.997	356.81
472.216	434.81
472.435	525.81
472.654	393.81
472.873	353.81
473.092	312.81
473.311	310.81
473.53	302.81
473.749	310.81
473.968	316.81
474.187	285.81
474.406	289.81
474.625	294.81
474.844	294.81
475.063	305.81
475.282	312.81
475.501	288.81
475.72	311.81
475.939	303.81
476.158	294.81
476.377	285.81
476.596	299.81
476.814	307.81
477.033	297.81
477.252	307.81
477.471	321.81
477.69	328.81
477.908	329.81
478.127	341.81
478.346	344.81
478.564	342.81
478.783	347.81
479.002	342.81
479.22	344.81
479.439	362.81
479.658	357.81
479.876	373.81
480.095	373.81
480.313	402.81
480.532	393.81
480.751	413.81
480.969	452.81
481.188	694.81
481.406	607.81
481.624	408.81
481.843	369.81
482.061	351.81
482.28	366.81
482.498	361.81
482.717	322.81
482.935	331.81
483.153	331.81
483.372	373.81
483.59	351.81
483.808	350.81
484.027	331.81
484.245	331.81
484.463	331.81
484.681	356.81
484.9	357.81
485.118	351.81
485.336	316.81
485.554	325.81
485.772	338.81
485.99	333.81
486.209	351.81
486.427	350.81
486.645	347.81
486.863	333.81
487.081	333.81
487.299	352.81
487.517	368.81
487.735	351.81
487.953	364.81
488.171	373.81
488.389	351.81
488.607	338.81
488.825	316.81
489.043	347.81
489.261	341.81
489.479	347.81
489.696	353.81
489.914	341.81
490.132	349.81
490.35	357.81
490.568	341.81
490.786	357.81
491.003	365.81
491.221	392.81
491.439	387.81
491.657	409.81
491.874	393.81
492.092	394.81
492.31	424.81
492.527	413.81
492.745	376.81
492.963	407.81
493.18	392.81
493.398	392.81
493.615	385.81
493.833	382.81
494.05	382.81
494.268	371.81
494.485	362.81
494.703	387.81
494.92	398.81
495.138	369.81
495.355	386.81
495.573	378.81
495.79	386.81
496.008	373.81
496.225	391.81
496.442	399.81
496.66	402.81
496.877	401.81
497.094	409.81
497.312	394.81
497.529	389.81
497.746	402.81
497.963	427.81
498.181	443.81
498.398	453.81
498.615	458.81
498.832	483.81
499.049	498.81
499.267	548.81
499.484	573.81
499.701	651.81
499.918	713.81
500.135	805.81
500.352	835.81
500.569	877.81
500.786	862.81
501.003	791.81
501.22	700.81
501.437	632.81
501.654	592.81
501.871	551.81
502.088	493.81
502.305	489.81
502.522	469.81
502.739	452.81
502.956	420.81
503.172	418.81
503.389	385.81
