Data from SampB_HRD10591_00094.txt Node
Date: Mon Jan 19 11:34:00 EST 2026
User: Yrep
Spectrometer: HR+D1059
Trigger mode: 0
Integration Time (sec): 3.443000E-1
Scans to average: 1
Electric dark correction enabled: true
Nonlinearity correction enabled: false
Boxcar width: 0
XAxis mode: Wavelengths
Number of Pixels in Spectrum: 2048
>>>>>Begin Spectral Data<<<<<
223.165	-12.88
223.4	-12.88
223.635	-12.88
223.869	-35.88
224.104	-26.88
224.338	-5.88
224.573	-7.88
224.808	-11.88
225.042	-4.88
225.277	2.12
225.511	-4.88
225.746	14.12
225.98	6.12
226.215	-1.88
226.449	21.12
226.683	20.12
226.918	15.12
227.152	34.12
227.387	46.12
227.621	28.12
227.856	57.12
228.09	33.12
228.324	54.12
228.559	69.12
228.793	71.12
229.027	74.12
229.262	59.12
229.496	60.12
229.73	73.12
229.964	79.12
230.199	66.12
230.433	74.12
230.667	78.12
230.901	75.12
231.136	81.12
231.37	83.12
231.604	80.12
231.838	86.12
232.072	84.12
232.306	79.12
232.541	78.12
232.775	92.12
233.009	81.12
233.243	73.12
233.477	76.12
233.711	91.12
233.945	81.12
234.179	80.12
234.413	78.12
234.647	94.12
234.881	75.12
235.115	82.12
235.349	63.12
235.583	81.12
235.817	76.12
236.051	70.12
236.285	87.12
236.519	83.12
236.753	75.12
236.987	64.12
237.221	87.12
237.455	80.12
237.689	85.12
237.922	89.12
238.156	65.12
238.39	77.12
238.624	71.12
238.858	73.12
239.091	74.12
239.325	89.12
239.559	66.12
239.793	76.12
240.027	79.12
240.26	77.12
240.494	92.12
240.728	74.12
240.961	78.12
241.195	91.12
241.429	87.12
241.662	77.12
241.896	82.12
242.13	75.12
242.363	79.12
242.597	83.12
242.83	83.12
243.064	77.12
243.298	85.12
243.531	86.12
243.765	70.12
243.998	92.12
244.232	81.12
244.465	76.12
244.699	83.12
244.932	86.12
245.166	82.12
245.399	90.12
245.633	76.12
245.866	65.12
246.099	83.12
246.333	81.12
246.566	90.12
246.8	81.12
247.033	67.12
247.266	79.12
247.5	86.12
247.733	80.12
247.966	65.12
248.2	73.12
248.433	85.12
248.666	81.12
248.899	87.12
249.133	75.12
249.366	85.12
249.599	78.12
249.832	94.12
250.066	83.12
250.299	71.12
250.532	90.12
250.765	80.12
250.998	83.12
251.231	64.12
251.465	85.12
251.698	75.12
251.931	88.12
252.164	72.12
252.397	82.12
252.63	66.12
252.863	79.12
253.096	86.12
253.329	106.12
253.562	67.12
253.795	70.12
254.028	94.12
254.261	84.12
254.494	72.12
254.727	79.12
254.96	79.12
255.193	81.12
255.426	68.12
255.659	85.12
255.892	94.12
256.124	91.12
256.357	73.12
256.59	79.12
256.823	87.12
257.056	81.12
257.289	84.12
257.521	90.12
257.754	83.12
257.987	74.12
258.22	81.12
258.452	77.12
258.685	74.12
258.918	80.12
259.151	73.12
259.383	84.12
259.616	71.12
259.849	93.12
260.081	91.12
260.314	104.12
260.547	67.12
260.779	78.12
261.012	76.12
261.244	77.12
261.477	91.12
261.71	88.12
261.942	88.12
262.175	96.12
262.407	73.12
262.64	78.12
262.872	79.12
263.105	87.12
263.337	103.12
263.57	82.12
263.802	82.12
264.035	73.12
264.267	79.12
264.499	69.12
264.732	81.12
264.964	86.12
265.197	77.12
265.429	78.12
265.661	87.12
265.894	74.12
266.126	106.12
266.358	75.12
266.591	68.12
266.823	84.12
267.055	91.12
267.287	80.12
267.52	75.12
267.752	82.12
267.984	85.12
268.216	78.12
268.448	103.12
268.681	70.12
268.913	80.12
269.145	73.12
269.377	76.12
269.609	88.12
269.841	64.12
270.073	90.12
270.306	99.12
270.538	88.12
270.77	77.12
271.002	79.12
271.234	79.12
271.466	94.12
271.698	83.12
271.93	83.12
272.162	83.12
272.394	81.12
272.626	76.12
272.858	77.12
273.09	86.12
273.322	88.12
273.553	65.12
273.785	77.12
274.017	93.12
274.249	84.12
274.481	89.12
274.713	87.12
274.945	86.12
275.176	67.12
275.408	82.12
275.64	90.12
275.872	81.12
276.104	91.12
276.335	64.12
276.567	70.12
276.799	82.12
277.031	81.12
277.262	85.12
277.494	102.12
277.726	86.12
277.957	90.12
278.189	76.12
278.421	77.12
278.652	82.12
278.884	74.12
279.115	69.12
279.347	79.12
279.579	91.12
279.81	79.12
280.042	89.12
280.273	89.12
280.505	76.12
280.736	78.12
280.968	83.12
281.199	74.12
281.431	88.12
281.662	86.12
281.894	78.12
282.125	103.12
282.356	79.12
282.588	82.12
282.819	90.12
283.051	76.12
283.282	91.12
283.513	97.12
283.745	91.12
283.976	98.12
284.207	88.12
284.439	87.12
284.67	104.12
284.901	83.12
285.132	80.12
285.364	87.12
285.595	82.12
285.826	87.12
286.057	88.12
286.288	79.12
286.52	86.12
286.751	94.12
286.982	82.12
287.213	95.12
287.444	91.12
287.675	91.12
287.906	91.12
288.138	80.12
288.369	87.12
288.6	82.12
288.831	81.12
289.062	83.12
289.293	82.12
289.524	91.12
289.755	95.12
289.986	90.12
290.217	72.12
290.448	85.12
290.679	77.12
290.91	92.12
291.141	82.12
291.371	83.12
291.602	90.12
291.833	93.12
292.064	82.12
292.295	78.12
292.526	82.12
292.757	91.12
292.987	73.12
293.218	78.12
293.449	97.12
293.68	78.12
293.91	98.12
294.141	90.12
294.372	78.12
294.603	88.12
294.833	72.12
295.064	81.12
295.295	84.12
295.525	71.12
295.756	88.12
295.987	88.12
296.217	82.12
296.448	84.12
296.679	90.12
296.909	85.12
297.14	86.12
297.37	76.12
297.601	82.12
297.831	73.12
298.062	79.12
298.292	83.12
298.523	90.12
298.753	70.12
298.984	91.12
299.214	75.12
299.445	85.12
299.675	88.12
299.905	84.12
300.136	69.12
300.366	72.12
300.597	91.12
300.827	110.12
301.057	80.12
301.288	82.12
301.518	82.12
301.748	82.12
301.979	123.12
302.209	77.12
302.439	86.12
302.669	88.12
302.9	94.12
303.13	95.12
303.36	74.12
303.59	74.12
303.82	86.12
304.051	92.12
304.281	86.12
304.511	75.12
304.741	74.12
304.971	83.12
305.201	99.12
305.431	87.12
305.661	81.12
305.891	77.12
306.121	94.12
306.352	90.12
306.582	78.12
306.812	90.12
307.042	74.12
307.272	87.12
307.502	90.12
307.731	97.12
307.961	83.12
308.191	83.12
308.421	81.12
308.651	83.12
308.881	91.12
309.111	82.12
309.341	84.12
309.571	79.12
309.8	83.12
310.03	90.12
310.26	92.12
310.49	71.12
310.72	78.12
310.949	85.12
311.179	76.12
311.409	73.12
311.639	88.12
311.868	95.12
312.098	82.12
312.328	99.12
312.557	82.12
312.787	72.12
313.017	97.12
313.246	78.12
313.476	77.12
313.706	81.12
313.935	78.12
314.165	96.12
314.394	82.12
314.624	82.12
314.853	79.12
315.083	75.12
315.312	88.12
315.542	76.12
315.771	79.12
316.001	75.12
316.23	92.12
316.46	82.12
316.689	81.12
316.919	88.12
317.148	88.12
317.377	93.12
317.607	82.12
317.836	84.12
318.065	90.12
318.295	77.12
318.524	84.12
318.753	83.12
318.983	84.12
319.212	78.12
319.441	78.12
319.67	72.12
319.9	93.12
320.129	83.12
320.358	76.12
320.587	81.12
320.816	82.12
321.046	79.12
321.275	96.12
321.504	77.12
321.733	83.12
321.962	79.12
322.191	76.12
322.42	88.12
322.649	80.12
322.878	93.12
323.108	90.12
323.337	68.12
323.566	84.12
323.795	74.12
324.024	74.12
324.253	75.12
324.482	82.12
324.71	82.12
324.939	76.12
325.168	80.12
325.397	87.12
325.626	74.12
325.855	64.12
326.084	81.12
326.313	81.12
326.542	90.12
326.77	78.12
326.999	78.12
327.228	81.12
327.457	78.12
327.686	76.12
327.914	97.12
328.143	83.12
328.372	88.12
328.6	78.12
328.829	65.12
329.058	75.12
329.287	78.12
329.515	77.12
329.744	88.12
329.972	87.12
330.201	90.12
330.43	82.12
330.658	101.12
330.887	82.12
331.115	93.12
331.344	93.12
331.572	96.12
331.801	71.12
332.03	71.12
332.258	84.12
332.486	87.12
332.715	72.12
332.943	81.12
333.172	90.12
333.4	90.12
333.629	79.12
333.857	93.12
334.085	91.12
334.314	87.12
334.542	77.12
334.771	69.12
334.999	92.12
335.227	72.12
335.455	71.12
335.684	83.12
335.912	73.12
336.14	83.12
336.369	81.12
336.597	74.12
336.825	85.12
337.053	74.12
337.281	87.12
337.51	75.12
337.738	87.12
337.966	79.12
338.194	78.12
338.422	86.12
338.65	86.12
338.878	86.12
339.106	72.12
339.334	74.12
339.562	69.12
339.79	80.12
340.018	96.12
340.246	79.12
340.474	81.12
340.702	81.12
340.93	72.12
341.158	86.12
341.386	72.12
341.614	90.12
341.842	83.12
342.07	63.12
342.298	84.12
342.526	84.12
342.754	93.12
342.981	89.12
343.209	74.12
343.437	109.12
343.665	82.12
343.893	80.12
344.12	88.12
344.348	80.12
344.576	94.12
344.804	79.12
345.031	74.12
345.259	83.12
345.487	87.12
345.714	72.12
345.942	92.12
346.17	63.12
346.397	84.12
346.625	77.12
346.853	73.12
347.08	91.12
347.308	88.12
347.535	73.12
347.763	74.12
347.99	88.12
348.218	79.12
348.445	73.12
348.673	93.12
348.9	88.12
349.128	77.12
349.355	86.12
349.583	77.12
349.81	82.12
350.037	80.12
350.265	95.12
350.492	78.12
350.72	63.12
350.947	88.12
351.174	91.12
351.402	86.12
351.629	65.12
351.856	84.12
352.083	82.12
352.311	86.12
352.538	81.12
352.765	92.12
352.992	111.12
353.22	86.12
353.447	87.12
353.674	90.12
353.901	84.12
354.128	85.12
354.355	80.12
354.583	60.12
354.81	86.12
355.037	83.12
355.264	96.12
355.491	93.12
355.718	73.12
355.945	107.12
356.172	84.12
356.399	84.12
356.626	86.12
356.853	86.12
357.08	90.12
357.307	82.12
357.534	85.12
357.761	76.12
357.988	90.12
358.215	90.12
358.441	83.12
358.668	90.12
358.895	78.12
359.122	80.12
359.349	78.12
359.576	79.12
359.802	72.12
360.029	80.12
360.256	70.12
360.483	74.12
360.709	91.12
360.936	97.12
361.163	88.12
361.39	91.12
361.616	86.12
361.843	68.12
362.07	82.12
362.296	91.12
362.523	82.12
362.749	85.12
362.976	74.12
363.203	105.12
363.429	79.12
363.656	72.12
363.882	80.12
364.109	87.12
364.335	91.12
364.562	83.12
364.788	82.12
365.015	82.12
365.241	87.12
365.468	92.12
365.694	61.12
365.92	90.12
366.147	81.12
366.373	75.12
366.599	90.12
366.826	90.12
367.052	82.12
367.278	84.12
367.505	96.12
367.731	104.12
367.957	88.12
368.184	68.12
368.41	78.12
368.636	88.12
368.862	88.12
369.089	75.12
369.315	70.12
369.541	74.12
369.767	84.12
369.993	80.12
370.219	82.12
370.445	62.12
370.672	81.12
370.898	78.12
371.124	91.12
371.35	74.12
371.576	88.12
371.802	81.12
372.028	92.12
372.254	83.12
372.48	84.12
372.706	83.12
372.932	83.12
373.158	81.12
373.384	88.12
373.61	86.12
373.835	73.12
374.061	90.12
374.287	83.12
374.513	98.12
374.739	95.12
374.965	79.12
375.191	88.12
375.416	95.12
375.642	71.12
375.868	78.12
376.094	70.12
376.319	64.12
376.545	72.12
376.771	80.12
376.997	83.12
377.222	66.12
377.448	86.12
377.674	97.12
377.899	74.12
378.125	85.12
378.35	92.12
378.576	63.12
378.802	78.12
379.027	79.12
379.253	84.12
379.478	83.12
379.704	82.12
379.929	79.12
380.155	80.12
380.38	107.12
380.606	81.12
380.831	92.12
381.057	97.12
381.282	83.12
381.507	80.12
381.733	89.12
381.958	76.12
382.184	80.12
382.409	75.12
382.634	83.12
382.86	82.12
383.085	90.12
383.31	74.12
383.535	92.12
383.761	92.12
383.986	91.12
384.211	76.12
384.436	91.12
384.662	85.12
384.887	92.12
385.112	73.12
385.337	91.12
385.562	66.12
385.787	90.12
386.013	84.12
386.238	86.12
386.463	82.12
386.688	116.12
386.913	82.12
387.138	70.12
387.363	81.12
387.588	100.12
387.813	92.12
388.038	81.12
388.263	92.12
388.488	82.12
388.713	86.12
388.938	87.12
389.163	72.12
389.387	82.12
389.612	99.12
389.837	83.12
390.062	86.12
390.287	82.12
390.512	83.12
390.736	81.12
390.961	88.12
391.186	92.12
391.411	87.12
391.636	82.12
391.86	76.12
392.085	88.12
392.31	80.12
392.534	83.12
392.759	84.12
392.984	79.12
393.208	81.12
393.433	90.12
393.658	86.12
393.882	75.12
394.107	82.12
394.331	72.12
394.556	81.12
394.78	89.12
395.005	74.12
395.229	66.12
395.454	89.12
395.678	86.12
395.903	99.12
396.127	89.12
396.352	87.12
396.576	90.12
396.801	88.12
397.025	91.12
397.249	93.12
397.474	95.12
397.698	90.12
397.922	84.12
398.147	87.12
398.371	91.12
398.595	87.12
398.82	77.12
399.044	77.12
399.268	94.12
399.492	69.12
399.717	85.12
399.941	81.12
400.165	89.12
400.389	72.12
400.613	90.12
400.837	86.12
401.062	84.12
401.286	84.12
401.51	90.12
401.734	81.12
401.958	82.12
402.182	89.12
402.406	103.12
402.63	87.12
402.854	85.12
403.078	81.12
403.302	88.12
403.526	88.12
403.75	88.12
403.974	96.12
404.198	83.12
404.422	86.12
404.645	81.12
404.869	89.12
405.093	87.12
405.317	94.12
405.541	84.12
405.765	87.12
405.988	86.12
406.212	91.12
406.436	78.12
406.66	105.12
406.883	95.12
407.107	96.12
407.331	79.12
407.555	84.12
407.778	75.12
408.002	88.12
408.226	87.12
408.449	86.12
408.673	85.12
408.896	100.12
409.12	79.12
409.344	82.12
409.567	94.12
409.791	81.12
410.014	86.12
410.238	92.12
410.461	89.12
410.685	92.12
410.908	87.12
411.132	99.12
411.355	92.12
411.578	83.12
411.802	91.12
412.025	86.12
412.249	99.12
412.472	89.12
412.695	92.12
412.919	77.12
413.142	83.12
413.365	91.12
413.589	76.12
413.812	88.12
414.035	83.12
414.258	84.12
414.482	81.12
414.705	88.12
414.928	96.12
415.151	90.12
415.374	92.12
415.597	83.12
415.821	89.12
416.044	111.12
416.267	99.12
416.49	92.12
416.713	96.12
416.936	100.12
417.159	93.12
417.382	92.12
417.605	84.12
417.828	105.12
418.051	103.12
418.274	101.12
418.497	86.12
418.72	92.12
418.943	101.12
419.166	97.12
419.389	89.12
419.611	91.12
419.834	93.12
420.057	86.12
420.28	99.12
420.503	91.12
420.726	80.12
420.948	94.12
421.171	91.12
421.394	98.12
421.617	97.12
421.839	92.12
422.062	86.12
422.285	87.12
422.507	80.12
422.73	87.12
422.953	99.12
423.175	82.12
423.398	91.12
423.621	76.12
423.843	80.12
424.066	98.12
424.288	98.12
424.511	95.12
424.733	86.12
424.956	65.12
425.178	85.12
425.401	96.12
425.623	94.12
425.846	98.12
426.068	100.12
426.291	82.12
426.513	105.12
426.735	65.12
426.958	82.12
427.18	90.12
427.402	97.12
427.625	83.12
427.847	86.12
428.069	74.12
428.292	80.12
428.514	85.12
428.736	83.12
428.958	96.12
429.181	91.12
429.403	97.12
429.625	96.12
429.847	96.12
430.069	94.12
430.292	99.12
430.514	88.12
430.736	100.12
430.958	100.12
431.18	89.12
431.402	78.12
431.624	72.12
431.846	85.12
432.068	84.12
432.29	99.12
432.512	92.12
432.734	66.12
432.956	102.12
433.178	99.12
433.4	74.12
433.622	98.12
433.844	97.12
434.066	90.12
434.287	80.12
434.509	67.12
434.731	82.12
434.953	73.12
435.175	89.12
435.397	91.12
435.618	86.12
435.84	94.12
436.062	91.12
436.284	90.12
436.505	94.12
436.727	90.12
436.949	86.12
437.17	93.12
437.392	110.12
437.614	98.12
437.835	78.12
438.057	96.12
438.278	89.12
438.5	90.12
438.721	97.12
438.943	93.12
439.165	94.12
439.386	83.12
439.608	115.12
439.829	93.12
440.05	99.12
440.272	86.12
440.493	103.12
440.715	84.12
440.936	96.12
441.158	102.12
441.379	104.12
441.6	104.12
441.822	101.12
442.043	98.12
442.264	92.12
442.486	91.12
442.707	80.12
442.928	81.12
443.149	88.12
443.371	86.12
443.592	89.12
443.813	93.12
444.034	96.12
444.255	105.12
444.476	91.12
444.698	88.12
444.919	93.12
445.14	268.12
445.361	173.12
445.582	75.12
445.803	83.12
446.024	83.12
446.245	78.12
446.466	86.12
446.687	95.12
446.908	99.12
447.129	98.12
447.35	94.12
447.571	103.12
447.792	89.12
448.013	99.12
448.234	104.12
448.455	92.12
448.675	89.12
448.896	87.12
449.117	91.12
449.338	93.12
449.559	103.12
449.779	88.12
450	98.12
450.221	92.12
450.442	98.12
450.662	93.12
450.883	86.12
451.104	90.12
451.324	94.12
451.545	86.12
451.766	96.12
451.986	73.12
452.207	94.12
452.428	96.12
452.648	86.12
452.869	75.12
453.089	96.12
453.31	94.12
453.53	79.12
453.751	86.12
453.971	91.12
454.192	74.12
454.412	86.12
454.633	87.12
454.853	86.12
455.073	89.12
455.294	90.12
455.514	80.12
455.734	85.12
455.955	99.12
456.175	89.12
456.395	88.12
456.616	89.12
456.836	94.12
457.056	87.12
457.276	66.12
457.497	84.12
457.717	58.12
457.937	76.12
458.157	94.12
458.377	79.12
458.598	78.12
458.818	83.12
459.038	58.12
459.258	76.12
459.478	81.12
459.698	96.12
459.918	94.12
460.138	75.12
460.358	77.12
460.578	95.12
460.798	90.12
461.018	83.12
461.238	93.12
461.458	95.12
461.678	100.12
461.898	85.12
462.118	76.12
462.338	103.12
462.558	93.12
462.777	83.12
462.997	83.12
463.217	70.12
463.437	81.12
463.657	83.12
463.876	95.12
464.096	86.12
464.316	76.12
464.536	72.12
464.755	88.12
464.975	88.12
465.195	90.12
465.414	77.12
465.634	77.12
465.854	92.12
466.073	86.12
466.293	92.12
466.512	92.12
466.732	89.12
466.951	85.12
467.171	87.12
467.391	100.12
467.61	82.12
467.829	94.12
468.049	79.12
468.268	89.12
468.488	96.12
468.707	80.12
468.927	85.12
469.146	88.12
469.365	92.12
469.585	96.12
469.804	105.12
470.023	87.12
470.243	98.12
470.462	106.12
470.681	97.12
470.901	85.12
471.12	99.12
471.339	82.12
471.558	95.12
471.777	86.12
471.997	90.12
472.216	96.12
472.435	75.12
472.654	73.12
472.873	98.12
473.092	89.12
473.311	99.12
473.53	87.12
473.749	102.12
473.968	109.12
474.187	95.12
474.406	88.12
474.625	91.12
474.844	92.12
475.063	94.12
475.282	86.12
475.501	91.12
475.72	97.12
475.939	80.12
476.158	82.12
476.377	89.12
476.596	86.12
476.814	94.12
477.033	93.12
477.252	88.12
477.471	86.12
477.69	76.12
477.908	89.12
478.127	103.12
478.346	85.12
478.564	78.12
478.783	95.12
479.002	86.12
479.22	94.12
479.439	102.12
479.658	91.12
479.876	67.12
480.095	96.12
480.313	95.12
480.532	89.12
480.751	86.12
480.969	86.12
481.188	81.12
481.406	70.12
481.624	71.12
481.843	82.12
482.061	100.12
482.28	91.12
482.498	83.12
482.717	93.12
482.935	90.12
483.153	93.12
483.372	80.12
483.59	81.12
483.808	74.12
484.027	88.12
484.245	90.12
484.463	89.12
484.681	108.12
484.9	81.12
485.118	107.12
485.336	103.12
485.554	101.12
485.772	80.12
485.99	81.12
486.209	84.12
486.427	87.12
486.645	88.12
486.863	94.12
487.081	85.12
487.299	109.12
487.517	89.12
487.735	105.12
487.953	103.12
488.171	111.12
488.389	98.12
488.607	94.12
488.825	85.12
489.043	83.12
489.261	90.12
489.479	108.12
489.696	92.12
489.914	102.12
490.132	105.12
490.35	70.12
490.568	82.12
490.786	87.12
491.003	104.12
491.221	102.12
491.439	106.12
491.657	99.12
491.874	114.12
492.092	106.12
492.31	109.12
492.527	118.12
492.745	121.12
492.963	107.12
493.18	99.12
493.398	85.12
493.615	99.12
493.833	94.12
494.05	101.12
494.268	108.12
494.485	89.12
494.703	94.12
494.92	91.12
495.138	106.12
495.355	104.12
495.573	106.12
495.79	98.12
496.008	104.12
496.225	94.12
496.442	101.12
496.66	102.12
496.877	102.12
497.094	106.12
497.312	102.12
497.529	96.12
497.746	111.12
497.963	84.12
498.181	76.12
498.398	68.12
498.615	88.12
498.832	93.12
499.049	85.12
499.267	97.12
499.484	88.12
499.701	100.12
499.918	91.12
500.135	88.12
500.352	77.12
500.569	72.12
500.786	99.12
501.003	91.12
501.22	100.12
501.437	86.12
501.654	107.12
501.871	91.12
502.088	86.12
502.305	110.12
502.522	88.12
502.739	81.12
502.956	61.12
503.172	95.12
503.389	76.12
503.606	77.12
503.823	99.12
504.04	86.12
504.256	78.12
504.473	95.12
504.69	84.12
504.907	100.12
505.123	81.12
505.34	86.12
505.557	95.12
505.773	90.12
505.99	83.12
506.207	90.12
506.423	90.12
506.64	88.12
506.856	94.12
507.073	92.12
507.289	93.12
507.506	92.12
507.722	89.12
507.939	84.12
508.155	93.12
508.372	78.12
508.588	93.12
508.805	103.12
509.021	95.12
509.238	88.12
509.454	95.12
509.67	94.12
509.887	93.12
510.103	97.12
510.319	84.12
510.536	80.12
510.752	75.12
510.968	82.12
511.184	80.12
511.401	76.12
511.617	89.12
511.833	90.12
512.049	86.12
512.265	85.12
512.481	89.12
512.698	95.12
512.914	68.12
513.13	95.12
513.346	72.12
513.562	88.12
513.778	80.12
513.994	82.12
514.21	90.12
514.426	83.12
514.642	76.12
514.858	92.12
515.074	80.12
515.29	79.12
515.506	78.12
515.721	77.12
515.937	92.12
516.153	74.12
516.369	76.12
516.585	84.12
516.801	85.12
517.016	66.12
517.232	78.12
517.448	98.12
517.664	90.12
517.879	86.12
518.095	93.12
518.311	91.12
518.527	73.12
518.742	79.12
518.958	67.12
