Data from SampB_HRD10591_00078.txt Node
Date: Mon Jan 19 11:33:55 EST 2026
User: Yrep
Spectrometer: HR+D1059
Trigger mode: 0
Integration Time (sec): 3.443000E-1
Scans to average: 1
Electric dark correction enabled: true
Nonlinearity correction enabled: false
Boxcar width: 0
XAxis mode: Wavelengths
Number of Pixels in Spectrum: 2048
>>>>>Begin Spectral Data<<<<<
223.165	-21.06
223.4	-21.06
223.635	-21.06
223.869	-13.06
224.104	-37.06
224.338	-11.06
224.573	-31.06
224.808	-2.06
225.042	-3.06
225.277	-8.06
225.511	8.94
225.746	15.94
225.98	10.94
226.215	0.94
226.449	18.94
226.683	19.94
226.918	19.94
227.152	30.94
227.387	42.94
227.621	33.94
227.856	40.94
228.09	40.94
228.324	53.94
228.559	56.94
228.793	74.94
229.027	75.94
229.262	76.94
229.496	75.94
229.73	84.94
229.964	78.94
230.199	83.94
230.433	74.94
230.667	76.94
230.901	91.94
231.136	88.94
231.37	91.94
231.604	96.94
231.838	94.94
232.072	92.94
232.306	98.94
232.541	81.94
232.775	94.94
233.009	93.94
233.243	75.94
233.477	89.94
233.711	83.94
233.945	75.94
234.179	86.94
234.413	91.94
234.647	78.94
234.881	93.94
235.115	81.94
235.349	80.94
235.583	92.94
235.817	111.94
236.051	87.94
236.285	95.94
236.519	94.94
236.753	94.94
236.987	88.94
237.221	95.94
237.455	92.94
237.689	92.94
237.922	94.94
238.156	78.94
238.39	108.94
238.624	96.94
238.858	91.94
239.091	105.94
239.325	94.94
239.559	100.94
239.793	84.94
240.027	103.94
240.26	116.94
240.494	100.94
240.728	95.94
240.961	111.94
241.195	108.94
241.429	90.94
241.662	87.94
241.896	88.94
242.13	103.94
242.363	92.94
242.597	109.94
242.83	110.94
243.064	84.94
243.298	107.94
243.531	99.94
243.765	108.94
243.998	103.94
244.232	106.94
244.465	115.94
244.699	108.94
244.932	117.94
245.166	103.94
245.399	100.94
245.633	104.94
245.866	108.94
246.099	98.94
246.333	112.94
246.566	100.94
246.8	89.94
247.033	106.94
247.266	105.94
247.5	113.94
247.733	118.94
247.966	105.94
248.2	119.94
248.433	115.94
248.666	112.94
248.899	97.94
249.133	100.94
249.366	130.94
249.599	110.94
249.832	110.94
250.066	118.94
250.299	113.94
250.532	104.94
250.765	119.94
250.998	114.94
251.231	109.94
251.465	105.94
251.698	111.94
251.931	92.94
252.164	105.94
252.397	126.94
252.63	118.94
252.863	116.94
253.096	115.94
253.329	147.94
253.562	137.94
253.795	125.94
254.028	125.94
254.261	129.94
254.494	124.94
254.727	121.94
254.96	120.94
255.193	115.94
255.426	112.94
255.659	115.94
255.892	115.94
256.124	111.94
256.357	129.94
256.59	122.94
256.823	111.94
257.056	122.94
257.289	114.94
257.521	122.94
257.754	121.94
257.987	123.94
258.22	111.94
258.452	123.94
258.685	128.94
258.918	121.94
259.151	106.94
259.383	140.94
259.616	119.94
259.849	134.94
260.081	137.94
260.314	147.94
260.547	137.94
260.779	130.94
261.012	141.94
261.244	125.94
261.477	144.94
261.71	120.94
261.942	134.94
262.175	131.94
262.407	112.94
262.64	118.94
262.872	140.94
263.105	135.94
263.337	165.94
263.57	135.94
263.802	124.94
264.035	120.94
264.267	126.94
264.499	129.94
264.732	124.94
264.964	128.94
265.197	121.94
265.429	123.94
265.661	113.94
265.894	128.94
266.126	134.94
266.358	131.94
266.591	122.94
266.823	134.94
267.055	117.94
267.287	127.94
267.52	118.94
267.752	124.94
267.984	126.94
268.216	129.94
268.448	132.94
268.681	134.94
268.913	143.94
269.145	132.94
269.377	138.94
269.609	119.94
269.841	122.94
270.073	137.94
270.306	147.94
270.538	131.94
270.77	127.94
271.002	123.94
271.234	135.94
271.466	131.94
271.698	145.94
271.93	141.94
272.162	136.94
272.394	126.94
272.626	124.94
272.858	154.94
273.09	139.94
273.322	143.94
273.553	138.94
273.785	150.94
274.017	159.94
274.249	166.94
274.481	170.94
274.713	174.94
274.945	177.94
275.176	161.94
275.408	167.94
275.64	142.94
275.872	148.94
276.104	154.94
276.335	140.94
276.567	149.94
276.799	144.94
277.031	150.94
277.262	154.94
277.494	154.94
277.726	129.94
277.957	135.94
278.189	138.94
278.421	154.94
278.652	154.94
278.884	138.94
279.115	145.94
279.347	142.94
279.579	153.94
279.81	152.94
280.042	154.94
280.273	153.94
280.505	158.94
280.736	153.94
280.968	144.94
281.199	139.94
281.431	155.94
281.662	158.94
281.894	155.94
282.125	134.94
282.356	162.94
282.588	138.94
282.819	158.94
283.051	135.94
283.282	158.94
283.513	148.94
283.745	162.94
283.976	170.94
284.207	154.94
284.439	154.94
284.67	157.94
284.901	149.94
285.132	154.94
285.364	166.94
285.595	157.94
285.826	161.94
286.057	160.94
286.288	139.94
286.52	152.94
286.751	136.94
286.982	167.94
287.213	150.94
287.444	160.94
287.675	142.94
287.906	170.94
288.138	164.94
288.369	161.94
288.6	154.94
288.831	146.94
289.062	151.94
289.293	164.94
289.524	164.94
289.755	150.94
289.986	159.94
290.217	164.94
290.448	172.94
290.679	165.94
290.91	154.94
291.141	151.94
291.371	164.94
291.602	163.94
291.833	172.94
292.064	141.94
292.295	159.94
292.526	159.94
292.757	158.94
292.987	169.94
293.218	148.94
293.449	159.94
293.68	161.94
293.91	179.94
294.141	185.94
294.372	171.94
294.603	165.94
294.833	173.94
295.064	171.94
295.295	166.94
295.525	163.94
295.756	187.94
295.987	170.94
296.217	168.94
296.448	155.94
296.679	167.94
296.909	167.94
297.14	177.94
297.37	172.94
297.601	162.94
297.831	181.94
298.062	168.94
298.292	184.94
298.523	185.94
298.753	194.94
298.984	176.94
299.214	182.94
299.445	169.94
299.675	168.94
299.905	182.94
300.136	177.94
300.366	182.94
300.597	163.94
300.827	157.94
301.057	177.94
301.288	162.94
301.518	184.94
301.748	172.94
301.979	219.94
302.209	194.94
302.439	190.94
302.669	186.94
302.9	177.94
303.13	192.94
303.36	182.94
303.59	178.94
303.82	192.94
304.051	188.94
304.281	185.94
304.511	183.94
304.741	175.94
304.971	174.94
305.201	175.94
305.431	187.94
305.661	177.94
305.891	179.94
306.121	190.94
306.352	177.94
306.582	179.94
306.812	190.94
307.042	170.94
307.272	180.94
307.502	177.94
307.731	184.94
307.961	182.94
308.191	163.94
308.421	188.94
308.651	183.94
308.881	190.94
309.111	177.94
309.341	179.94
309.571	177.94
309.8	175.94
310.03	172.94
310.26	183.94
310.49	167.94
310.72	181.94
310.949	173.94
311.179	190.94
311.409	170.94
311.639	178.94
311.868	175.94
312.098	182.94
312.328	178.94
312.557	198.94
312.787	175.94
313.017	180.94
313.246	184.94
313.476	191.94
313.706	171.94
313.935	167.94
314.165	184.94
314.394	182.94
314.624	185.94
314.853	185.94
315.083	182.94
315.312	192.94
315.542	176.94
315.771	187.94
316.001	177.94
316.23	190.94
316.46	164.94
316.689	185.94
316.919	196.94
317.148	173.94
317.377	200.94
317.607	193.94
317.836	180.94
318.065	174.94
318.295	174.94
318.524	183.94
318.753	199.94
318.983	175.94
319.212	181.94
319.441	191.94
319.67	195.94
319.9	178.94
320.129	196.94
320.358	183.94
320.587	186.94
320.816	185.94
321.046	182.94
321.275	190.94
321.504	174.94
321.733	189.94
321.962	186.94
322.191	209.94
322.42	181.94
322.649	197.94
322.878	199.94
323.108	193.94
323.337	188.94
323.566	203.94
323.795	195.94
324.024	176.94
324.253	187.94
324.482	194.94
324.71	187.94
324.939	202.94
325.168	196.94
325.397	195.94
325.626	183.94
325.855	196.94
326.084	190.94
326.313	205.94
326.542	180.94
326.77	190.94
326.999	191.94
327.228	185.94
327.457	187.94
327.686	213.94
327.914	232.94
328.143	241.94
328.372	218.94
328.6	211.94
328.829	210.94
329.058	203.94
329.287	203.94
329.515	204.94
329.744	231.94
329.972	258.94
330.201	255.94
330.43	281.94
330.658	236.94
330.887	236.94
331.115	195.94
331.344	216.94
331.572	225.94
331.801	215.94
332.03	225.94
332.258	206.94
332.486	218.94
332.715	251.94
332.943	238.94
333.172	234.94
333.4	252.94
333.629	253.94
333.857	265.94
334.085	290.94
334.314	316.94
334.542	322.94
334.771	315.94
334.999	277.94
335.227	250.94
335.455	238.94
335.684	245.94
335.912	226.94
336.14	204.94
336.369	237.94
336.597	229.94
336.825	223.94
337.053	231.94
337.281	217.94
337.51	211.94
337.738	215.94
337.966	217.94
338.194	203.94
338.422	209.94
338.65	210.94
338.878	204.94
339.106	212.94
339.334	217.94
339.562	203.94
339.79	205.94
340.018	206.94
340.246	195.94
340.474	193.94
340.702	196.94
340.93	223.94
341.158	198.94
341.386	208.94
341.614	198.94
341.842	195.94
342.07	184.94
342.298	197.94
342.526	199.94
342.754	205.94
342.981	220.94
343.209	211.94
343.437	226.94
343.665	227.94
343.893	236.94
344.12	232.94
344.348	222.94
344.576	207.94
344.804	202.94
345.031	183.94
345.259	220.94
345.487	195.94
345.714	198.94
345.942	197.94
346.17	204.94
346.397	192.94
346.625	209.94
346.853	188.94
347.08	205.94
347.308	211.94
347.535	195.94
347.763	192.94
347.99	204.94
348.218	192.94
348.445	192.94
348.673	194.94
348.9	210.94
349.128	193.94
349.355	198.94
349.583	206.94
349.81	196.94
350.037	200.94
350.265	200.94
350.492	192.94
350.72	193.94
350.947	186.94
351.174	195.94
351.402	193.94
351.629	201.94
351.856	200.94
352.083	202.94
352.311	201.94
352.538	198.94
352.765	193.94
352.992	225.94
353.22	201.94
353.447	195.94
353.674	194.94
353.901	221.94
354.128	209.94
354.355	179.94
354.583	202.94
354.81	190.94
355.037	202.94
355.264	213.94
355.491	186.94
355.718	220.94
355.945	204.94
356.172	201.94
356.399	215.94
356.626	211.94
356.853	217.94
357.08	219.94
357.307	214.94
357.534	202.94
357.761	202.94
357.988	220.94
358.215	231.94
358.441	231.94
358.668	203.94
358.895	210.94
359.122	215.94
359.349	195.94
359.576	202.94
359.802	186.94
360.029	195.94
360.256	208.94
360.483	216.94
360.709	210.94
360.936	200.94
361.163	219.94
361.39	207.94
361.616	206.94
361.843	201.94
362.07	207.94
362.296	204.94
362.523	192.94
362.749	210.94
362.976	205.94
363.203	219.94
363.429	211.94
363.656	216.94
363.882	201.94
364.109	208.94
364.335	218.94
364.562	207.94
364.788	210.94
365.015	221.94
365.241	190.94
365.468	187.94
365.694	189.94
365.92	205.94
366.147	204.94
366.373	197.94
366.599	198.94
366.826	187.94
367.052	198.94
367.278	202.94
367.505	195.94
367.731	220.94
367.957	200.94
368.184	210.94
368.41	191.94
368.636	206.94
368.862	200.94
369.089	204.94
369.315	204.94
369.541	205.94
369.767	194.94
369.993	208.94
370.219	200.94
370.445	208.94
370.672	209.94
370.898	205.94
371.124	221.94
371.35	211.94
371.576	203.94
371.802	215.94
372.028	205.94
372.254	237.94
372.48	215.94
372.706	209.94
372.932	226.94
373.158	241.94
373.384	259.94
373.61	260.94
373.835	229.94
374.061	224.94
374.287	236.94
374.513	240.94
374.739	253.94
374.965	241.94
375.191	233.94
375.416	250.94
375.642	226.94
375.868	257.94
376.094	248.94
376.319	251.94
376.545	221.94
376.771	223.94
376.997	231.94
377.222	208.94
377.448	227.94
377.674	212.94
377.899	226.94
378.125	200.94
378.35	214.94
378.576	209.94
378.802	210.94
379.027	218.94
379.253	219.94
379.478	215.94
379.704	223.94
379.929	221.94
380.155	228.94
380.38	214.94
380.606	201.94
380.831	216.94
381.057	216.94
381.282	233.94
381.507	234.94
381.733	232.94
381.958	217.94
382.184	224.94
382.409	245.94
382.634	255.94
382.86	255.94
383.085	244.94
383.31	241.94
383.535	255.94
383.761	241.94
383.986	255.94
384.211	243.94
384.436	243.94
384.662	248.94
384.887	232.94
385.112	237.94
385.337	270.94
385.562	253.94
385.787	264.94
386.013	263.94
386.238	240.94
386.463	255.94
386.688	278.94
386.913	244.94
387.138	263.94
387.363	239.94
387.588	256.94
387.813	251.94
388.038	250.94
388.263	251.94
388.488	254.94
388.713	260.94
388.938	255.94
389.163	239.94
389.387	266.94
389.612	243.94
389.837	240.94
390.062	259.94
390.287	271.94
390.512	259.94
390.736	256.94
390.961	250.94
391.186	266.94
391.411	256.94
391.636	252.94
391.86	280.94
392.085	290.94
392.31	270.94
392.534	270.94
392.759	278.94
392.984	262.94
393.208	271.94
393.433	279.94
393.658	272.94
393.882	258.94
394.107	268.94
394.331	253.94
394.556	282.94
394.78	296.94
395.005	267.94
395.229	276.94
395.454	292.94
395.678	280.94
395.903	288.94
396.127	308.94
396.352	279.94
396.576	277.94
396.801	268.94
397.025	284.94
397.249	287.94
397.474	293.94
397.698	297.94
397.922	291.94
398.147	288.94
398.371	302.94
398.595	307.94
398.82	327.94
399.044	335.94
399.268	343.94
399.492	404.94
399.717	412.94
399.941	388.94
400.165	364.94
400.389	348.94
400.613	336.94
400.837	320.94
401.062	321.94
401.286	316.94
401.51	320.94
401.734	297.94
401.958	312.94
402.182	308.94
402.406	318.94
402.63	326.94
402.854	340.94
403.078	330.94
403.302	314.94
403.526	340.94
403.75	356.94
403.974	343.94
404.198	346.94
404.422	355.94
404.645	355.94
404.869	356.94
405.093	354.94
405.317	347.94
405.541	350.94
405.765	310.94
405.988	336.94
406.212	357.94
406.436	331.94
406.66	341.94
406.883	362.94
407.107	367.94
407.331	378.94
407.555	384.94
407.778	363.94
408.002	346.94
408.226	363.94
408.449	350.94
408.673	358.94
408.896	345.94
409.12	336.94
409.344	356.94
409.567	345.94
409.791	355.94
410.014	335.94
410.238	334.94
410.461	362.94
410.685	347.94
410.908	335.94
411.132	341.94
411.355	335.94
411.578	339.94
411.802	322.94
412.025	328.94
412.249	336.94
412.472	313.94
412.695	326.94
412.919	319.94
413.142	320.94
413.365	319.94
413.589	330.94
413.812	318.94
414.035	319.94
414.258	327.94
414.482	313.94
414.705	322.94
414.928	331.94
415.151	318.94
415.374	332.94
415.597	322.94
415.821	304.94
416.044	300.94
416.267	323.94
416.49	311.94
416.713	328.94
416.936	308.94
417.159	315.94
417.382	286.94
417.605	322.94
417.828	333.94
418.051	326.94
418.274	326.94
418.497	321.94
418.72	338.94
418.943	314.94
419.166	366.94
419.389	341.94
419.611	342.94
419.834	352.94
420.057	342.94
420.28	337.94
420.503	302.94
420.726	319.94
420.948	313.94
421.171	327.94
421.394	323.94
421.617	322.94
421.839	316.94
422.062	316.94
422.285	321.94
422.507	329.94
422.73	330.94
422.953	324.94
423.175	324.94
423.398	353.94
423.621	340.94
423.843	344.94
424.066	342.94
424.288	363.94
424.511	340.94
424.733	328.94
424.956	328.94
425.178	327.94
425.401	335.94
425.623	327.94
425.846	310.94
426.068	298.94
426.291	305.94
426.513	316.94
426.735	303.94
426.958	305.94
427.18	311.94
427.402	303.94
427.625	304.94
427.847	303.94
428.069	319.94
428.292	298.94
428.514	307.94
428.736	286.94
428.958	312.94
429.181	291.94
429.403	283.94
429.625	293.94
429.847	279.94
430.069	312.94
430.292	309.94
430.514	292.94
430.736	284.94
430.958	324.94
431.18	273.94
431.402	294.94
431.624	290.94
431.846	301.94
432.068	279.94
432.29	270.94
432.512	310.94
432.734	298.94
432.956	290.94
433.178	309.94
433.4	284.94
433.622	306.94
433.844	310.94
434.066	280.94
434.287	292.94
434.509	281.94
434.731	300.94
434.953	284.94
435.175	310.94
435.397	293.94
435.618	282.94
435.84	303.94
436.062	306.94
436.284	299.94
436.505	292.94
436.727	283.94
436.949	314.94
437.17	296.94
437.392	291.94
437.614	274.94
437.835	275.94
438.057	273.94
438.278	280.94
438.5	284.94
438.721	300.94
438.943	282.94
439.165	289.94
439.386	280.94
439.608	305.94
439.829	303.94
440.05	303.94
440.272	302.94
440.493	308.94
440.715	306.94
440.936	296.94
441.158	305.94
441.379	333.94
441.6	332.94
441.822	340.94
442.043	352.94
442.264	319.94
442.486	319.94
442.707	312.94
442.928	323.94
443.149	292.94
443.371	330.94
443.592	328.94
443.813	347.94
444.034	320.94
444.255	320.94
444.476	343.94
444.698	353.94
444.919	378.94
445.14	549.94
445.361	419.94
445.582	342.94
445.803	312.94
446.024	311.94
446.245	320.94
446.466	292.94
446.687	307.94
446.908	300.94
447.129	308.94
447.35	287.94
447.571	304.94
447.792	293.94
448.013	289.94
448.234	287.94
448.455	288.94
448.675	279.94
448.896	260.94
449.117	272.94
449.338	275.94
449.559	285.94
449.779	284.94
450	300.94
450.221	274.94
450.442	294.94
450.662	285.94
450.883	265.94
451.104	289.94
451.324	294.94
451.545	264.94
451.766	284.94
451.986	282.94
452.207	272.94
452.428	272.94
452.648	275.94
452.869	259.94
453.089	266.94
453.31	264.94
453.53	274.94
453.751	245.94
453.971	266.94
454.192	264.94
454.412	249.94
454.633	246.94
454.853	263.94
455.073	250.94
455.294	266.94
455.514	263.94
455.734	254.94
455.955	262.94
456.175	258.94
456.395	259.94
456.616	259.94
456.836	242.94
457.056	256.94
457.276	241.94
457.497	244.94
457.717	243.94
457.937	264.94
458.157	247.94
458.377	253.94
458.598	260.94
458.818	252.94
459.038	267.94
459.258	274.94
459.478	276.94
459.698	283.94
459.918	303.94
460.138	305.94
460.358	314.94
460.578	318.94
460.798	310.94
461.018	335.94
461.238	306.94
461.458	313.94
461.678	310.94
461.898	317.94
462.118	328.94
462.338	332.94
462.558	323.94
462.777	363.94
462.997	408.94
463.217	400.94
463.437	406.94
463.657	365.94
463.876	338.94
464.096	368.94
464.316	356.94
464.536	341.94
464.755	344.94
464.975	326.94
465.195	323.94
465.414	320.94
465.634	290.94
465.854	301.94
466.073	312.94
466.293	319.94
466.512	315.94
466.732	298.94
466.951	272.94
467.171	286.94
467.391	297.94
467.61	305.94
467.829	311.94
468.049	310.94
468.268	340.94
468.488	289.94
468.707	292.94
468.927	289.94
469.146	292.94
469.365	287.94
469.585	275.94
469.804	292.94
470.023	283.94
470.243	304.94
470.462	314.94
470.681	299.94
470.901	274.94
471.12	285.94
471.339	295.94
471.558	291.94
471.777	287.94
471.997	309.94
472.216	345.94
472.435	409.94
472.654	328.94
472.873	298.94
473.092	294.94
473.311	284.94
473.53	284.94
473.749	289.94
473.968	285.94
474.187	266.94
474.406	268.94
474.625	289.94
474.844	291.94
475.063	295.94
475.282	268.94
475.501	294.94
475.72	262.94
475.939	263.94
476.158	287.94
476.377	284.94
476.596	283.94
476.814	292.94
477.033	276.94
477.252	275.94
477.471	292.94
477.69	299.94
477.908	320.94
478.127	338.94
478.346	323.94
478.564	308.94
478.783	323.94
479.002	336.94
479.22	324.94
479.439	328.94
479.658	314.94
479.876	320.94
480.095	346.94
480.313	338.94
480.532	355.94
480.751	350.94
480.969	386.94
481.188	505.94
481.406	456.94
481.624	360.94
481.843	310.94
482.061	318.94
482.28	312.94
482.498	306.94
482.717	320.94
482.935	304.94
483.153	323.94
483.372	316.94
483.59	315.94
483.808	304.94
484.027	306.94
484.245	301.94
484.463	297.94
484.681	315.94
484.9	298.94
485.118	324.94
485.336	312.94
485.554	300.94
485.772	296.94
485.99	315.94
486.209	302.94
486.427	308.94
486.645	313.94
486.863	317.94
487.081	310.94
487.299	303.94
487.517	326.94
487.735	319.94
487.953	352.94
488.171	337.94
488.389	334.94
488.607	345.94
488.825	324.94
489.043	306.94
489.261	316.94
489.479	315.94
489.696	324.94
489.914	340.94
490.132	322.94
490.35	321.94
490.568	345.94
490.786	324.94
491.003	354.94
491.221	336.94
491.439	361.94
491.657	343.94
491.874	362.94
492.092	374.94
492.31	399.94
492.527	370.94
492.745	375.94
492.963	351.94
493.18	342.94
493.398	368.94
493.615	366.94
493.833	344.94
494.05	351.94
494.268	327.94
494.485	346.94
494.703	352.94
494.92	351.94
495.138	354.94
495.355	339.94
495.573	348.94
495.79	339.94
496.008	349.94
496.225	366.94
496.442	344.94
496.66	346.94
496.877	351.94
497.094	373.94
497.312	371.94
497.529	358.94
497.746	354.94
497.963	369.94
498.181	391.94
498.398	406.94
498.615	407.94
498.832	439.94
499.049	445.94
499.267	510.94
499.484	555.94
499.701	558.94
499.918	666.94
500.135	725.94
500.352	782.94
500.569	815.94
500.786	785.94
501.003	735.94
501.22	651.94
501.437	599.94
501.654	545.94
501.871	490.94
502.088	470.94
502.305	456.94
502.522	417.94
502.739	412.94
502.956	401.94
503.172	387.94
503.389	362.94
