Data from SampB_HRD10591_00063.txt Node
Date: Mon Jan 19 11:33:50 EST 2026
User: Yrep
Spectrometer: HR+D1059
Trigger mode: 0
Integration Time (sec): 3.443000E-1
Scans to average: 1
Electric dark correction enabled: true
Nonlinearity correction enabled: false
Boxcar width: 0
XAxis mode: Wavelengths
Number of Pixels in Spectrum: 2048
>>>>>Begin Spectral Data<<<<<
223.165	-23.44
223.4	-23.44
223.635	-23.44
223.869	-19.44
224.104	-23.44
224.338	-15.44
224.573	-23.44
224.808	-9.44
225.042	2.56
225.277	-5.44
225.511	-6.44
225.746	1.56
225.98	-2.44
226.215	22.56
226.449	12.56
226.683	22.56
226.918	39.56
227.152	27.56
227.387	40.56
227.621	49.56
227.856	45.56
228.09	48.56
228.324	54.56
228.559	60.56
228.793	76.56
229.027	96.56
229.262	76.56
229.496	77.56
229.73	82.56
229.964	95.56
230.199	91.56
230.433	96.56
230.667	100.56
230.901	91.56
231.136	98.56
231.37	101.56
231.604	108.56
231.838	90.56
232.072	96.56
232.306	102.56
232.541	99.56
232.775	97.56
233.009	118.56
233.243	106.56
233.477	107.56
233.711	109.56
233.945	109.56
234.179	100.56
234.413	111.56
234.647	98.56
234.881	96.56
235.115	102.56
235.349	103.56
235.583	119.56
235.817	113.56
236.051	98.56
236.285	91.56
236.519	104.56
236.753	100.56
236.987	100.56
237.221	113.56
237.455	99.56
237.689	99.56
237.922	107.56
238.156	105.56
238.39	106.56
238.624	95.56
238.858	114.56
239.091	100.56
239.325	110.56
239.559	123.56
239.793	106.56
240.027	110.56
240.26	103.56
240.494	122.56
240.728	103.56
240.961	118.56
241.195	120.56
241.429	122.56
241.662	99.56
241.896	113.56
242.13	119.56
242.363	118.56
242.597	110.56
242.83	122.56
243.064	126.56
243.298	113.56
243.531	105.56
243.765	118.56
243.998	122.56
244.232	133.56
244.465	115.56
244.699	121.56
244.932	104.56
245.166	124.56
245.399	105.56
245.633	126.56
245.866	119.56
246.099	102.56
246.333	119.56
246.566	122.56
246.8	138.56
247.033	122.56
247.266	114.56
247.5	133.56
247.733	138.56
247.966	123.56
248.2	134.56
248.433	127.56
248.666	122.56
248.899	132.56
249.133	119.56
249.366	120.56
249.599	149.56
249.832	130.56
250.066	147.56
250.299	146.56
250.532	143.56
250.765	117.56
250.998	127.56
251.231	132.56
251.465	142.56
251.698	133.56
251.931	122.56
252.164	138.56
252.397	143.56
252.63	163.56
252.863	154.56
253.096	159.56
253.329	147.56
253.562	142.56
253.795	134.56
254.028	151.56
254.261	146.56
254.494	150.56
254.727	143.56
254.96	123.56
255.193	137.56
255.426	133.56
255.659	145.56
255.892	139.56
256.124	151.56
256.357	150.56
256.59	154.56
256.823	142.56
257.056	151.56
257.289	159.56
257.521	149.56
257.754	154.56
257.987	156.56
258.22	155.56
258.452	141.56
258.685	148.56
258.918	156.56
259.151	155.56
259.383	146.56
259.616	140.56
259.849	162.56
260.081	155.56
260.314	168.56
260.547	146.56
260.779	173.56
261.012	144.56
261.244	148.56
261.477	162.56
261.71	151.56
261.942	148.56
262.175	167.56
262.407	164.56
262.64	154.56
262.872	174.56
263.105	164.56
263.337	158.56
263.57	151.56
263.802	177.56
264.035	164.56
264.267	148.56
264.499	150.56
264.732	158.56
264.964	158.56
265.197	155.56
265.429	155.56
265.661	162.56
265.894	150.56
266.126	161.56
266.358	159.56
266.591	178.56
266.823	166.56
267.055	160.56
267.287	157.56
267.52	152.56
267.752	169.56
267.984	163.56
268.216	161.56
268.448	173.56
268.681	179.56
268.913	164.56
269.145	164.56
269.377	166.56
269.609	164.56
269.841	151.56
270.073	158.56
270.306	186.56
270.538	176.56
270.77	164.56
271.002	159.56
271.234	173.56
271.466	184.56
271.698	166.56
271.93	183.56
272.162	169.56
272.394	179.56
272.626	175.56
272.858	191.56
273.09	184.56
273.322	173.56
273.553	182.56
273.785	185.56
274.017	194.56
274.249	196.56
274.481	183.56
274.713	194.56
274.945	190.56
275.176	183.56
275.408	209.56
275.64	204.56
275.872	186.56
276.104	195.56
276.335	169.56
276.567	194.56
276.799	192.56
277.031	196.56
277.262	190.56
277.494	208.56
277.726	189.56
277.957	193.56
278.189	193.56
278.421	195.56
278.652	208.56
278.884	192.56
279.115	185.56
279.347	197.56
279.579	201.56
279.81	204.56
280.042	220.56
280.273	194.56
280.505	200.56
280.736	200.56
280.968	188.56
281.199	197.56
281.431	197.56
281.662	188.56
281.894	208.56
282.125	206.56
282.356	196.56
282.588	177.56
282.819	184.56
283.051	200.56
283.282	196.56
283.513	213.56
283.745	208.56
283.976	202.56
284.207	218.56
284.439	200.56
284.67	225.56
284.901	199.56
285.132	204.56
285.364	194.56
285.595	221.56
285.826	216.56
286.057	193.56
286.288	229.56
286.52	207.56
286.751	211.56
286.982	222.56
287.213	206.56
287.444	212.56
287.675	216.56
287.906	205.56
288.138	208.56
288.369	208.56
288.6	202.56
288.831	194.56
289.062	218.56
289.293	217.56
289.524	206.56
289.755	219.56
289.986	208.56
290.217	232.56
290.448	208.56
290.679	216.56
290.91	216.56
291.141	222.56
291.371	216.56
291.602	214.56
291.833	220.56
292.064	203.56
292.295	214.56
292.526	215.56
292.757	218.56
292.987	226.56
293.218	215.56
293.449	218.56
293.68	236.56
293.91	223.56
294.141	223.56
294.372	212.56
294.603	217.56
294.833	209.56
295.064	226.56
295.295	232.56
295.525	228.56
295.756	214.56
295.987	234.56
296.217	223.56
296.448	219.56
296.679	242.56
296.909	238.56
297.14	211.56
297.37	228.56
297.601	238.56
297.831	237.56
298.062	239.56
298.292	228.56
298.523	251.56
298.753	227.56
298.984	231.56
299.214	244.56
299.445	247.56
299.675	225.56
299.905	235.56
300.136	234.56
300.366	243.56
300.597	237.56
300.827	247.56
301.057	244.56
301.288	240.56
301.518	244.56
301.748	244.56
301.979	266.56
302.209	251.56
302.439	255.56
302.669	246.56
302.9	237.56
303.13	228.56
303.36	240.56
303.59	259.56
303.82	236.56
304.051	230.56
304.281	249.56
304.511	249.56
304.741	235.56
304.971	231.56
305.201	239.56
305.431	232.56
305.661	244.56
305.891	236.56
306.121	261.56
306.352	241.56
306.582	242.56
306.812	246.56
307.042	250.56
307.272	235.56
307.502	250.56
307.731	255.56
307.961	243.56
308.191	245.56
308.421	252.56
308.651	233.56
308.881	235.56
309.111	238.56
309.341	255.56
309.571	237.56
309.8	246.56
310.03	249.56
310.26	240.56
310.49	260.56
310.72	246.56
310.949	227.56
311.179	250.56
311.409	251.56
311.639	257.56
311.868	235.56
312.098	247.56
312.328	253.56
312.557	256.56
312.787	239.56
313.017	243.56
313.246	255.56
313.476	264.56
313.706	242.56
313.935	247.56
314.165	259.56
314.394	247.56
314.624	255.56
314.853	235.56
315.083	261.56
315.312	254.56
315.542	257.56
315.771	238.56
316.001	260.56
316.23	257.56
316.46	267.56
316.689	253.56
316.919	263.56
317.148	257.56
317.377	280.56
317.607	276.56
317.836	251.56
318.065	256.56
318.295	240.56
318.524	250.56
318.753	258.56
318.983	256.56
319.212	266.56
319.441	272.56
319.67	275.56
319.9	264.56
320.129	274.56
320.358	277.56
320.587	242.56
320.816	258.56
321.046	259.56
321.275	255.56
321.504	256.56
321.733	273.56
321.962	262.56
322.191	272.56
322.42	253.56
322.649	271.56
322.878	275.56
323.108	267.56
323.337	276.56
323.566	244.56
323.795	277.56
324.024	257.56
324.253	262.56
324.482	268.56
324.71	269.56
324.939	260.56
325.168	262.56
325.397	263.56
325.626	272.56
325.855	270.56
326.084	283.56
326.313	294.56
326.542	271.56
326.77	288.56
326.999	270.56
327.228	275.56
327.457	296.56
327.686	300.56
327.914	294.56
328.143	304.56
328.372	293.56
328.6	284.56
328.829	300.56
329.058	279.56
329.287	296.56
329.515	317.56
329.744	300.56
329.972	316.56
330.201	350.56
330.43	340.56
330.658	336.56
330.887	302.56
331.115	295.56
331.344	298.56
331.572	324.56
331.801	322.56
332.03	334.56
332.258	312.56
332.486	331.56
332.715	357.56
332.943	343.56
333.172	362.56
333.4	362.56
333.629	377.56
333.857	394.56
334.085	414.56
334.314	410.56
334.542	399.56
334.771	407.56
334.999	365.56
335.227	353.56
335.455	363.56
335.684	342.56
335.912	317.56
336.14	322.56
336.369	335.56
336.597	296.56
336.825	324.56
337.053	332.56
337.281	311.56
337.51	315.56
337.738	314.56
337.966	315.56
338.194	299.56
338.422	303.56
338.65	301.56
338.878	295.56
339.106	295.56
339.334	315.56
339.562	304.56
339.79	289.56
340.018	297.56
340.246	289.56
340.474	299.56
340.702	295.56
340.93	286.56
341.158	277.56
341.386	295.56
341.614	278.56
341.842	275.56
342.07	289.56
342.298	300.56
342.526	278.56
342.754	285.56
342.981	294.56
343.209	309.56
343.437	324.56
343.665	346.56
343.893	341.56
344.12	343.56
344.348	322.56
344.576	316.56
344.804	300.56
345.031	271.56
345.259	294.56
345.487	292.56
345.714	283.56
345.942	283.56
346.17	289.56
346.397	282.56
346.625	275.56
346.853	300.56
347.08	273.56
347.308	282.56
347.535	280.56
347.763	281.56
347.99	282.56
348.218	297.56
348.445	272.56
348.673	285.56
348.9	291.56
349.128	296.56
349.355	287.56
349.583	284.56
349.81	264.56
350.037	281.56
350.265	284.56
350.492	284.56
350.72	270.56
350.947	283.56
351.174	278.56
351.402	289.56
351.629	273.56
351.856	277.56
352.083	277.56
352.311	287.56
352.538	270.56
352.765	280.56
352.992	291.56
353.22	267.56
353.447	292.56
353.674	283.56
353.901	267.56
354.128	282.56
354.355	285.56
354.583	297.56
354.81	279.56
355.037	272.56
355.264	292.56
355.491	290.56
355.718	281.56
355.945	288.56
356.172	300.56
356.399	282.56
356.626	302.56
356.853	274.56
357.08	300.56
357.307	304.56
357.534	281.56
357.761	292.56
357.988	287.56
358.215	309.56
358.441	290.56
358.668	298.56
358.895	300.56
359.122	283.56
359.349	298.56
359.576	278.56
359.802	279.56
360.029	288.56
360.256	282.56
360.483	277.56
360.709	280.56
360.936	304.56
361.163	272.56
361.39	261.56
361.616	282.56
361.843	284.56
362.07	303.56
362.296	278.56
362.523	277.56
362.749	289.56
362.976	285.56
363.203	302.56
363.429	285.56
363.656	282.56
363.882	287.56
364.109	282.56
364.335	299.56
364.562	292.56
364.788	273.56
365.015	275.56
365.241	287.56
365.468	270.56
365.694	279.56
365.92	279.56
366.147	271.56
366.373	277.56
366.599	288.56
366.826	290.56
367.052	278.56
367.278	278.56
367.505	277.56
367.731	317.56
367.957	292.56
368.184	279.56
368.41	278.56
368.636	287.56
368.862	282.56
369.089	306.56
369.315	297.56
369.541	293.56
369.767	305.56
369.993	310.56
370.219	291.56
370.445	311.56
370.672	308.56
370.898	302.56
371.124	304.56
371.35	311.56
371.576	314.56
371.802	302.56
372.028	309.56
372.254	326.56
372.48	302.56
372.706	307.56
372.932	314.56
373.158	316.56
373.384	338.56
373.61	342.56
373.835	328.56
374.061	297.56
374.287	319.56
374.513	330.56
374.739	346.56
374.965	337.56
375.191	338.56
375.416	344.56
375.642	331.56
375.868	347.56
376.094	314.56
376.319	304.56
376.545	323.56
376.771	298.56
376.997	299.56
377.222	308.56
377.448	304.56
377.674	315.56
377.899	306.56
378.125	296.56
378.35	303.56
378.576	312.56
378.802	299.56
379.027	319.56
379.253	323.56
379.478	291.56
379.704	315.56
379.929	325.56
380.155	301.56
380.38	293.56
380.606	314.56
380.831	295.56
381.057	314.56
381.282	328.56
381.507	327.56
381.733	319.56
381.958	313.56
382.184	337.56
382.409	325.56
382.634	338.56
382.86	342.56
383.085	322.56
383.31	341.56
383.535	369.56
383.761	333.56
383.986	355.56
384.211	381.56
384.436	351.56
384.662	369.56
384.887	376.56
385.112	369.56
385.337	373.56
385.562	365.56
385.787	378.56
386.013	385.56
386.238	382.56
386.463	364.56
386.688	390.56
386.913	339.56
387.138	354.56
387.363	353.56
387.588	360.56
387.813	355.56
388.038	368.56
388.263	386.56
388.488	366.56
388.713	364.56
388.938	359.56
389.163	353.56
389.387	364.56
389.612	357.56
389.837	370.56
390.062	369.56
390.287	355.56
390.512	355.56
390.736	366.56
390.961	380.56
391.186	379.56
391.411	376.56
391.636	396.56
391.86	410.56
392.085	429.56
392.31	396.56
392.534	409.56
392.759	400.56
392.984	396.56
393.208	413.56
393.433	423.56
393.658	422.56
393.882	375.56
394.107	396.56
394.331	403.56
394.556	424.56
394.78	390.56
395.005	402.56
395.229	412.56
395.454	418.56
395.678	420.56
395.903	418.56
396.127	421.56
396.352	413.56
396.576	391.56
396.801	431.56
397.025	403.56
397.249	416.56
397.474	423.56
397.698	395.56
397.922	400.56
398.147	418.56
398.371	420.56
398.595	445.56
398.82	454.56
399.044	498.56
399.268	548.56
399.492	617.56
399.717	662.56
399.941	602.56
400.165	569.56
400.389	504.56
400.613	494.56
400.837	487.56
401.062	460.56
401.286	472.56
401.51	470.56
401.734	456.56
401.958	459.56
402.182	474.56
402.406	459.56
402.63	483.56
402.854	482.56
403.078	492.56
403.302	524.56
403.526	515.56
403.75	532.56
403.974	518.56
404.198	544.56
404.422	532.56
404.645	520.56
404.869	523.56
405.093	498.56
405.317	499.56
405.541	503.56
405.765	495.56
405.988	491.56
406.212	519.56
406.436	498.56
406.66	526.56
406.883	524.56
407.107	567.56
407.331	579.56
407.555	564.56
407.778	570.56
408.002	546.56
408.226	531.56
408.449	513.56
408.673	502.56
408.896	492.56
409.12	507.56
409.344	522.56
409.567	506.56
409.791	512.56
410.014	528.56
410.238	493.56
410.461	508.56
410.685	500.56
410.908	492.56
411.132	495.56
411.355	467.56
411.578	479.56
411.802	481.56
412.025	472.56
412.249	482.56
412.472	476.56
412.695	468.56
412.919	447.56
413.142	447.56
413.365	471.56
413.589	470.56
413.812	467.56
414.035	462.56
414.258	460.56
414.482	478.56
414.705	470.56
414.928	492.56
415.151	495.56
415.374	469.56
415.597	456.56
415.821	441.56
416.044	448.56
416.267	448.56
416.49	466.56
416.713	476.56
416.936	475.56
417.159	462.56
417.382	464.56
417.605	438.56
417.828	475.56
418.051	473.56
418.274	470.56
418.497	492.56
418.72	480.56
418.943	471.56
419.166	498.56
419.389	517.56
419.611	500.56
419.834	496.56
420.057	481.56
420.28	487.56
420.503	463.56
420.726	474.56
420.948	463.56
421.171	467.56
421.394	460.56
421.617	456.56
421.839	464.56
422.062	484.56
422.285	450.56
422.507	472.56
422.73	500.56
422.953	490.56
423.175	486.56
423.398	507.56
423.621	494.56
423.843	517.56
424.066	502.56
424.288	506.56
424.511	474.56
424.733	477.56
424.956	475.56
425.178	475.56
425.401	489.56
425.623	467.56
425.846	456.56
426.068	453.56
426.291	431.56
426.513	458.56
426.735	458.56
426.958	427.56
427.18	436.56
427.402	451.56
427.625	446.56
427.847	424.56
428.069	399.56
428.292	433.56
428.514	429.56
428.736	428.56
428.958	421.56
429.181	416.56
429.403	407.56
429.625	408.56
429.847	407.56
430.069	418.56
430.292	416.56
430.514	409.56
430.736	428.56
430.958	419.56
431.18	425.56
431.402	412.56
431.624	379.56
431.846	373.56
432.068	412.56
432.29	403.56
432.512	401.56
432.734	420.56
432.956	413.56
433.178	407.56
433.4	387.56
433.622	444.56
433.844	420.56
434.066	422.56
434.287	428.56
434.509	387.56
434.731	437.56
434.953	452.56
435.175	461.56
435.397	435.56
435.618	438.56
435.84	414.56
436.062	417.56
436.284	420.56
436.505	419.56
436.727	395.56
436.949	387.56
437.17	412.56
437.392	374.56
437.614	405.56
437.835	382.56
438.057	363.56
438.278	391.56
438.5	407.56
438.721	412.56
438.943	395.56
439.165	423.56
439.386	406.56
439.608	416.56
439.829	410.56
440.05	411.56
440.272	423.56
440.493	425.56
440.715	438.56
440.936	460.56
441.158	440.56
441.379	467.56
441.6	494.56
441.822	472.56
442.043	455.56
442.264	462.56
442.486	467.56
442.707	454.56
442.928	457.56
443.149	438.56
443.371	459.56
443.592	468.56
443.813	465.56
444.034	467.56
444.255	499.56
444.476	517.56
444.698	530.56
444.919	555.56
445.14	691.56
445.361	574.56
445.582	479.56
445.803	445.56
446.024	456.56
446.245	465.56
446.466	431.56
446.687	427.56
446.908	439.56
447.129	425.56
447.35	443.56
447.571	392.56
447.792	387.56
448.013	406.56
448.234	379.56
448.455	398.56
448.675	388.56
448.896	402.56
449.117	395.56
449.338	374.56
449.559	404.56
449.779	383.56
450	372.56
450.221	374.56
450.442	382.56
450.662	368.56
450.883	368.56
451.104	403.56
451.324	393.56
451.545	374.56
451.766	398.56
451.986	381.56
452.207	403.56
452.428	366.56
452.648	372.56
452.869	376.56
453.089	347.56
453.31	362.56
453.53	369.56
453.751	364.56
453.971	372.56
454.192	351.56
454.412	343.56
454.633	328.56
454.853	382.56
455.073	350.56
455.294	368.56
455.514	348.56
455.734	355.56
455.955	346.56
456.175	329.56
456.395	344.56
456.616	371.56
456.836	353.56
457.056	339.56
457.276	330.56
457.497	344.56
457.717	366.56
457.937	351.56
458.157	348.56
458.377	367.56
458.598	349.56
458.818	366.56
459.038	370.56
459.258	389.56
459.478	395.56
459.698	403.56
459.918	433.56
460.138	423.56
460.358	483.56
460.578	467.56
460.798	490.56
461.018	451.56
461.238	454.56
461.458	486.56
461.678	455.56
461.898	459.56
462.118	464.56
462.338	504.56
462.558	498.56
462.777	508.56
462.997	556.56
463.217	596.56
463.437	586.56
463.657	519.56
463.876	500.56
464.096	532.56
464.316	530.56
464.536	518.56
464.755	510.56
464.975	486.56
465.195	469.56
465.414	434.56
465.634	408.56
465.854	414.56
466.073	398.56
466.293	406.56
466.512	412.56
466.732	420.56
466.951	405.56
467.171	428.56
467.391	410.56
467.61	412.56
467.829	391.56
468.049	406.56
468.268	416.56
468.488	403.56
468.707	414.56
468.927	399.56
469.146	385.56
469.365	404.56
469.585	401.56
469.804	404.56
470.023	418.56
470.243	426.56
470.462	435.56
470.681	415.56
470.901	405.56
471.12	436.56
471.339	404.56
471.558	406.56
471.777	412.56
471.997	397.56
472.216	423.56
472.435	459.56
472.654	421.56
472.873	395.56
473.092	390.56
473.311	399.56
473.53	367.56
473.749	386.56
473.968	389.56
474.187	355.56
474.406	360.56
474.625	370.56
474.844	380.56
475.063	379.56
475.282	380.56
475.501	379.56
475.72	399.56
475.939	382.56
476.158	387.56
476.377	400.56
476.596	376.56
476.814	397.56
477.033	394.56
477.252	394.56
477.471	399.56
477.69	434.56
477.908	429.56
478.127	473.56
478.346	458.56
478.564	455.56
478.783	438.56
479.002	463.56
479.22	468.56
479.439	479.56
479.658	440.56
479.876	458.56
480.095	454.56
480.313	458.56
480.532	495.56
480.751	489.56
480.969	500.56
481.188	546.56
481.406	528.56
481.624	472.56
481.843	444.56
482.061	441.56
482.28	415.56
482.498	438.56
482.717	423.56
482.935	441.56
483.153	439.56
483.372	424.56
483.59	421.56
483.808	418.56
484.027	422.56
484.245	419.56
484.463	455.56
484.681	432.56
484.9	441.56
485.118	428.56
485.336	433.56
485.554	440.56
485.772	426.56
485.99	430.56
486.209	421.56
486.427	443.56
486.645	439.56
486.863	448.56
487.081	445.56
487.299	443.56
487.517	448.56
487.735	465.56
487.953	449.56
488.171	468.56
488.389	436.56
488.607	450.56
488.825	438.56
489.043	413.56
489.261	416.56
489.479	450.56
489.696	435.56
489.914	441.56
490.132	449.56
490.35	454.56
490.568	461.56
490.786	455.56
491.003	455.56
491.221	487.56
491.439	467.56
491.657	470.56
491.874	504.56
492.092	508.56
492.31	499.56
492.527	494.56
492.745	471.56
492.963	484.56
493.18	477.56
493.398	478.56
493.615	507.56
493.833	487.56
494.05	496.56
494.268	492.56
494.485	486.56
494.703	485.56
494.92	482.56
495.138	488.56
495.355	509.56
495.573	501.56
495.79	486.56
496.008	505.56
496.225	496.56
496.442	490.56
496.66	521.56
496.877	500.56
497.094	518.56
497.312	532.56
497.529	509.56
497.746	523.56
497.963	534.56
498.181	546.56
498.398	588.56
498.615	617.56
498.832	637.56
499.049	688.56
499.267	758.56
499.484	813.56
499.701	868.56
499.918	989.56
500.135	1098.56
500.352	1211.56
500.569	1248.56
500.786	1226.56
501.003	1082.56
501.22	986.56
501.437	888.56
501.654	821.56
501.871	735.56
502.088	686.56
502.305	646.56
502.522	622.56
502.739	634.56
502.956	573.56
