Data from SampB_HRD10591_00060.txt Node
Date: Mon Jan 19 11:33:49 EST 2026
User: Yrep
Spectrometer: HR+D1059
Trigger mode: 0
Integration Time (sec): 3.443000E-1
Scans to average: 1
Electric dark correction enabled: true
Nonlinearity correction enabled: false
Boxcar width: 0
XAxis mode: Wavelengths
Number of Pixels in Spectrum: 2048
>>>>>Begin Spectral Data<<<<<
223.165	-21.88
223.4	-21.88
223.635	-21.88
223.869	-20.88
224.104	-28.88
224.338	-9.88
224.573	-23.88
224.808	-11.88
225.042	-7.88
225.277	-7.88
225.511	15.12
225.746	1.12
225.98	-5.88
226.215	11.12
226.449	20.12
226.683	23.12
226.918	33.12
227.152	35.12
227.387	44.12
227.621	43.12
227.856	48.12
228.09	42.12
228.324	55.12
228.559	74.12
228.793	55.12
229.027	69.12
229.262	62.12
229.496	75.12
229.73	76.12
229.964	76.12
230.199	87.12
230.433	73.12
230.667	79.12
230.901	93.12
231.136	86.12
231.37	86.12
231.604	66.12
231.838	81.12
232.072	91.12
232.306	89.12
232.541	89.12
232.775	96.12
233.009	101.12
233.243	91.12
233.477	91.12
233.711	99.12
233.945	94.12
234.179	95.12
234.413	99.12
234.647	99.12
234.881	108.12
235.115	88.12
235.349	93.12
235.583	90.12
235.817	90.12
236.051	109.12
236.285	91.12
236.519	105.12
236.753	92.12
236.987	98.12
237.221	96.12
237.455	97.12
237.689	87.12
237.922	93.12
238.156	88.12
238.39	98.12
238.624	89.12
238.858	103.12
239.091	87.12
239.325	99.12
239.559	97.12
239.793	102.12
240.027	93.12
240.26	107.12
240.494	86.12
240.728	104.12
240.961	98.12
241.195	88.12
241.429	93.12
241.662	107.12
241.896	89.12
242.13	108.12
242.363	97.12
242.597	99.12
242.83	109.12
243.064	106.12
243.298	113.12
243.531	105.12
243.765	95.12
243.998	112.12
244.232	112.12
244.465	104.12
244.699	101.12
244.932	104.12
245.166	97.12
245.399	101.12
245.633	106.12
245.866	97.12
246.099	110.12
246.333	107.12
246.566	87.12
246.8	108.12
247.033	104.12
247.266	103.12
247.5	105.12
247.733	119.12
247.966	112.12
248.2	112.12
248.433	122.12
248.666	120.12
248.899	110.12
249.133	115.12
249.366	123.12
249.599	108.12
249.832	119.12
250.066	117.12
250.299	119.12
250.532	112.12
250.765	110.12
250.998	107.12
251.231	120.12
251.465	128.12
251.698	112.12
251.931	108.12
252.164	114.12
252.397	127.12
252.63	133.12
252.863	115.12
253.096	103.12
253.329	121.12
253.562	107.12
253.795	125.12
254.028	139.12
254.261	118.12
254.494	111.12
254.727	138.12
254.96	120.12
255.193	129.12
255.426	129.12
255.659	118.12
255.892	134.12
256.124	107.12
256.357	134.12
256.59	141.12
256.823	119.12
257.056	118.12
257.289	133.12
257.521	115.12
257.754	108.12
257.987	115.12
258.22	121.12
258.452	111.12
258.685	129.12
258.918	128.12
259.151	108.12
259.383	126.12
259.616	133.12
259.849	127.12
260.081	145.12
260.314	130.12
260.547	123.12
260.779	130.12
261.012	136.12
261.244	132.12
261.477	130.12
261.71	144.12
261.942	130.12
262.175	121.12
262.407	132.12
262.64	113.12
262.872	121.12
263.105	136.12
263.337	139.12
263.57	133.12
263.802	125.12
264.035	111.12
264.267	134.12
264.499	137.12
264.732	129.12
264.964	135.12
265.197	118.12
265.429	128.12
265.661	127.12
265.894	133.12
266.126	130.12
266.358	142.12
266.591	127.12
266.823	136.12
267.055	145.12
267.287	135.12
267.52	121.12
267.752	119.12
267.984	138.12
268.216	146.12
268.448	135.12
268.681	134.12
268.913	149.12
269.145	137.12
269.377	146.12
269.609	137.12
269.841	134.12
270.073	142.12
270.306	133.12
270.538	142.12
270.77	137.12
271.002	136.12
271.234	161.12
271.466	127.12
271.698	125.12
271.93	150.12
272.162	124.12
272.394	139.12
272.626	139.12
272.858	140.12
273.09	160.12
273.322	146.12
273.553	142.12
273.785	158.12
274.017	158.12
274.249	155.12
274.481	146.12
274.713	170.12
274.945	190.12
275.176	178.12
275.408	159.12
275.64	168.12
275.872	156.12
276.104	158.12
276.335	151.12
276.567	149.12
276.799	160.12
277.031	145.12
277.262	163.12
277.494	163.12
277.726	138.12
277.957	157.12
278.189	152.12
278.421	140.12
278.652	137.12
278.884	146.12
279.115	153.12
279.347	154.12
279.579	154.12
279.81	146.12
280.042	157.12
280.273	157.12
280.505	142.12
280.736	169.12
280.968	155.12
281.199	157.12
281.431	149.12
281.662	139.12
281.894	146.12
282.125	146.12
282.356	156.12
282.588	158.12
282.819	151.12
283.051	146.12
283.282	153.12
283.513	161.12
283.745	169.12
283.976	163.12
284.207	151.12
284.439	165.12
284.67	169.12
284.901	167.12
285.132	167.12
285.364	161.12
285.595	174.12
285.826	152.12
286.057	162.12
286.288	151.12
286.52	170.12
286.751	162.12
286.982	156.12
287.213	138.12
287.444	166.12
287.675	174.12
287.906	177.12
288.138	169.12
288.369	166.12
288.6	142.12
288.831	162.12
289.062	168.12
289.293	171.12
289.524	171.12
289.755	154.12
289.986	162.12
290.217	165.12
290.448	162.12
290.679	147.12
290.91	172.12
291.141	155.12
291.371	168.12
291.602	167.12
291.833	150.12
292.064	162.12
292.295	178.12
292.526	167.12
292.757	164.12
292.987	165.12
293.218	164.12
293.449	170.12
293.68	186.12
293.91	156.12
294.141	175.12
294.372	158.12
294.603	158.12
294.833	179.12
295.064	180.12
295.295	169.12
295.525	167.12
295.756	174.12
295.987	167.12
296.217	171.12
296.448	170.12
296.679	173.12
296.909	182.12
297.14	178.12
297.37	181.12
297.601	164.12
297.831	169.12
298.062	182.12
298.292	179.12
298.523	189.12
298.753	174.12
298.984	174.12
299.214	173.12
299.445	166.12
299.675	177.12
299.905	174.12
300.136	178.12
300.366	171.12
300.597	179.12
300.827	175.12
301.057	169.12
301.288	182.12
301.518	177.12
301.748	177.12
301.979	204.12
302.209	197.12
302.439	177.12
302.669	177.12
302.9	192.12
303.13	178.12
303.36	175.12
303.59	176.12
303.82	173.12
304.051	189.12
304.281	176.12
304.511	173.12
304.741	179.12
304.971	182.12
305.201	186.12
305.431	189.12
305.661	189.12
305.891	170.12
306.121	192.12
306.352	190.12
306.582	185.12
306.812	192.12
307.042	175.12
307.272	168.12
307.502	178.12
307.731	178.12
307.961	191.12
308.191	199.12
308.421	190.12
308.651	193.12
308.881	189.12
309.111	182.12
309.341	171.12
309.571	191.12
309.8	175.12
310.03	182.12
310.26	157.12
310.49	180.12
310.72	174.12
310.949	188.12
311.179	183.12
311.409	181.12
311.639	168.12
311.868	171.12
312.098	174.12
312.328	182.12
312.557	178.12
312.787	173.12
313.017	183.12
313.246	181.12
313.476	193.12
313.706	171.12
313.935	182.12
314.165	184.12
314.394	178.12
314.624	192.12
314.853	188.12
315.083	178.12
315.312	198.12
315.542	191.12
315.771	202.12
316.001	175.12
316.23	186.12
316.46	208.12
316.689	201.12
316.919	184.12
317.148	187.12
317.377	210.12
317.607	195.12
317.836	160.12
318.065	184.12
318.295	183.12
318.524	183.12
318.753	194.12
318.983	194.12
319.212	199.12
319.441	186.12
319.67	185.12
319.9	195.12
320.129	192.12
320.358	175.12
320.587	193.12
320.816	191.12
321.046	187.12
321.275	210.12
321.504	199.12
321.733	182.12
321.962	186.12
322.191	198.12
322.42	203.12
322.649	183.12
322.878	183.12
323.108	186.12
323.337	203.12
323.566	194.12
323.795	197.12
324.024	205.12
324.253	199.12
324.482	207.12
324.71	208.12
324.939	190.12
325.168	205.12
325.397	197.12
325.626	201.12
325.855	197.12
326.084	193.12
326.313	201.12
326.542	187.12
326.77	218.12
326.999	206.12
327.228	184.12
327.457	210.12
327.686	220.12
327.914	221.12
328.143	237.12
328.372	223.12
328.6	219.12
328.829	214.12
329.058	209.12
329.287	221.12
329.515	229.12
329.744	243.12
329.972	247.12
330.201	274.12
330.43	271.12
330.658	243.12
330.887	233.12
331.115	221.12
331.344	217.12
331.572	208.12
331.801	209.12
332.03	221.12
332.258	237.12
332.486	239.12
332.715	226.12
332.943	247.12
333.172	254.12
333.4	278.12
333.629	280.12
333.857	284.12
334.085	300.12
334.314	309.12
334.542	330.12
334.771	320.12
334.999	277.12
335.227	261.12
335.455	248.12
335.684	248.12
335.912	243.12
336.14	235.12
336.369	247.12
336.597	216.12
336.825	225.12
337.053	224.12
337.281	225.12
337.51	217.12
337.738	197.12
337.966	210.12
338.194	239.12
338.422	223.12
338.65	229.12
338.878	225.12
339.106	196.12
339.334	218.12
339.562	195.12
339.79	201.12
340.018	216.12
340.246	202.12
340.474	219.12
340.702	217.12
340.93	222.12
341.158	204.12
341.386	203.12
341.614	189.12
341.842	207.12
342.07	205.12
342.298	207.12
342.526	207.12
342.754	199.12
342.981	213.12
343.209	226.12
343.437	247.12
343.665	212.12
343.893	250.12
344.12	225.12
344.348	235.12
344.576	224.12
344.804	220.12
345.031	209.12
345.259	215.12
345.487	217.12
345.714	219.12
345.942	215.12
346.17	213.12
346.397	195.12
346.625	211.12
346.853	198.12
347.08	184.12
347.308	191.12
347.535	203.12
347.763	209.12
347.99	204.12
348.218	203.12
348.445	190.12
348.673	209.12
348.9	230.12
349.128	213.12
349.355	210.12
349.583	217.12
349.81	189.12
350.037	198.12
350.265	203.12
350.492	200.12
350.72	208.12
350.947	187.12
351.174	200.12
351.402	198.12
351.629	190.12
351.856	197.12
352.083	201.12
352.311	204.12
352.538	199.12
352.765	203.12
352.992	203.12
353.22	196.12
353.447	205.12
353.674	200.12
353.901	206.12
354.128	202.12
354.355	200.12
354.583	202.12
354.81	205.12
355.037	213.12
355.264	207.12
355.491	216.12
355.718	216.12
355.945	206.12
356.172	203.12
356.399	198.12
356.626	216.12
356.853	214.12
357.08	219.12
357.307	205.12
357.534	197.12
357.761	199.12
357.988	233.12
358.215	209.12
358.441	206.12
358.668	206.12
358.895	210.12
359.122	222.12
359.349	209.12
359.576	199.12
359.802	206.12
360.029	210.12
360.256	203.12
360.483	213.12
360.709	206.12
360.936	221.12
361.163	227.12
361.39	219.12
361.616	228.12
361.843	208.12
362.07	206.12
362.296	199.12
362.523	199.12
362.749	206.12
362.976	210.12
363.203	222.12
363.429	198.12
363.656	218.12
363.882	197.12
364.109	199.12
364.335	213.12
364.562	200.12
364.788	194.12
365.015	205.12
365.241	213.12
365.468	197.12
365.694	203.12
365.92	219.12
366.147	200.12
366.373	183.12
366.599	216.12
366.826	197.12
367.052	216.12
367.278	199.12
367.505	218.12
367.731	218.12
367.957	200.12
368.184	206.12
368.41	208.12
368.636	195.12
368.862	205.12
369.089	202.12
369.315	212.12
369.541	226.12
369.767	204.12
369.993	231.12
370.219	193.12
370.445	216.12
370.672	219.12
370.898	213.12
371.124	234.12
371.35	226.12
371.576	224.12
371.802	226.12
372.028	230.12
372.254	236.12
372.48	217.12
372.706	230.12
372.932	233.12
373.158	233.12
373.384	242.12
373.61	259.12
373.835	242.12
374.061	216.12
374.287	238.12
374.513	249.12
374.739	249.12
374.965	254.12
375.191	233.12
375.416	239.12
375.642	242.12
375.868	243.12
376.094	231.12
376.319	231.12
376.545	228.12
376.771	243.12
376.997	214.12
377.222	212.12
377.448	235.12
377.674	217.12
377.899	209.12
378.125	209.12
378.35	221.12
378.576	230.12
378.802	222.12
379.027	226.12
379.253	220.12
379.478	223.12
379.704	219.12
379.929	223.12
380.155	212.12
380.38	224.12
380.606	218.12
380.831	218.12
381.057	233.12
381.282	219.12
381.507	240.12
381.733	245.12
381.958	243.12
382.184	241.12
382.409	262.12
382.634	265.12
382.86	241.12
383.085	261.12
383.31	237.12
383.535	249.12
383.761	251.12
383.986	248.12
384.211	258.12
384.436	246.12
384.662	257.12
384.887	253.12
385.112	228.12
385.337	264.12
385.562	267.12
385.787	268.12
386.013	272.12
386.238	264.12
386.463	261.12
386.688	289.12
386.913	246.12
387.138	258.12
387.363	249.12
387.588	252.12
387.813	269.12
388.038	251.12
388.263	247.12
388.488	250.12
388.713	278.12
388.938	263.12
389.163	258.12
389.387	261.12
389.612	261.12
389.837	246.12
390.062	265.12
390.287	249.12
390.512	281.12
390.736	275.12
390.961	271.12
391.186	283.12
391.411	275.12
391.636	270.12
391.86	288.12
392.085	280.12
392.31	285.12
392.534	272.12
392.759	283.12
392.984	296.12
393.208	295.12
393.433	282.12
393.658	290.12
393.882	281.12
394.107	293.12
394.331	304.12
394.556	295.12
394.78	292.12
395.005	283.12
395.229	286.12
395.454	285.12
395.678	288.12
395.903	311.12
396.127	313.12
396.352	318.12
396.576	305.12
396.801	291.12
397.025	307.12
397.249	318.12
397.474	293.12
397.698	286.12
397.922	301.12
398.147	288.12
398.371	303.12
398.595	322.12
398.82	313.12
399.044	337.12
399.268	386.12
399.492	429.12
399.717	467.12
399.941	430.12
400.165	404.12
400.389	349.12
400.613	341.12
400.837	319.12
401.062	318.12
401.286	342.12
401.51	327.12
401.734	326.12
401.958	319.12
402.182	321.12
402.406	330.12
402.63	326.12
402.854	341.12
403.078	331.12
403.302	355.12
403.526	389.12
403.75	355.12
403.974	362.12
404.198	375.12
404.422	387.12
404.645	375.12
404.869	367.12
405.093	365.12
405.317	352.12
405.541	342.12
405.765	331.12
405.988	350.12
406.212	350.12
406.436	350.12
406.66	361.12
406.883	381.12
407.107	369.12
407.331	393.12
407.555	418.12
407.778	377.12
408.002	384.12
408.226	386.12
408.449	354.12
408.673	344.12
408.896	346.12
409.12	374.12
409.344	360.12
409.567	354.12
409.791	348.12
410.014	364.12
410.238	351.12
410.461	348.12
410.685	363.12
410.908	360.12
411.132	360.12
411.355	341.12
411.578	347.12
411.802	335.12
412.025	342.12
412.249	357.12
412.472	319.12
412.695	333.12
412.919	327.12
413.142	334.12
413.365	339.12
413.589	326.12
413.812	338.12
414.035	348.12
414.258	349.12
414.482	321.12
414.705	333.12
414.928	348.12
415.151	331.12
415.374	331.12
415.597	320.12
415.821	321.12
416.044	326.12
416.267	307.12
416.49	313.12
416.713	341.12
416.936	326.12
417.159	317.12
417.382	322.12
417.605	330.12
417.828	347.12
418.051	318.12
418.274	350.12
418.497	346.12
418.72	360.12
418.943	353.12
419.166	361.12
419.389	365.12
419.611	354.12
419.834	335.12
420.057	371.12
420.28	343.12
420.503	335.12
420.726	328.12
420.948	327.12
421.171	328.12
421.394	331.12
421.617	357.12
421.839	330.12
422.062	341.12
422.285	343.12
422.507	346.12
422.73	368.12
422.953	340.12
423.175	345.12
423.398	347.12
423.621	343.12
423.843	354.12
424.066	353.12
424.288	344.12
424.511	345.12
424.733	336.12
424.956	342.12
425.178	359.12
425.401	322.12
425.623	345.12
425.846	327.12
426.068	329.12
426.291	338.12
426.513	331.12
426.735	313.12
426.958	315.12
427.18	312.12
427.402	325.12
427.625	313.12
427.847	316.12
428.069	314.12
428.292	324.12
428.514	305.12
428.736	299.12
428.958	284.12
429.181	311.12
429.403	290.12
429.625	315.12
429.847	297.12
430.069	305.12
430.292	292.12
430.514	305.12
430.736	313.12
430.958	312.12
431.18	309.12
431.402	296.12
431.624	290.12
431.846	282.12
432.068	283.12
432.29	280.12
432.512	317.12
432.734	329.12
432.956	303.12
433.178	314.12
433.4	297.12
433.622	304.12
433.844	316.12
434.066	302.12
434.287	298.12
434.509	303.12
434.731	321.12
434.953	320.12
435.175	317.12
435.397	328.12
435.618	305.12
435.84	310.12
436.062	314.12
436.284	290.12
436.505	298.12
436.727	284.12
436.949	292.12
437.17	299.12
437.392	291.12
437.614	287.12
437.835	269.12
438.057	291.12
438.278	297.12
438.5	303.12
438.721	294.12
438.943	309.12
439.165	317.12
439.386	307.12
439.608	324.12
439.829	297.12
440.05	319.12
440.272	303.12
440.493	336.12
440.715	317.12
440.936	310.12
441.158	322.12
441.379	321.12
441.6	345.12
441.822	358.12
442.043	326.12
442.264	332.12
442.486	332.12
442.707	313.12
442.928	343.12
443.149	342.12
443.371	350.12
443.592	337.12
443.813	318.12
444.034	337.12
444.255	365.12
444.476	365.12
444.698	400.12
444.919	369.12
445.14	570.12
445.361	430.12
445.582	334.12
445.803	336.12
446.024	319.12
446.245	333.12
446.466	318.12
446.687	330.12
446.908	319.12
447.129	305.12
447.35	314.12
447.571	304.12
447.792	296.12
448.013	286.12
448.234	313.12
448.455	288.12
448.675	295.12
448.896	273.12
449.117	277.12
449.338	278.12
449.559	278.12
449.779	295.12
450	287.12
450.221	287.12
450.442	304.12
450.662	288.12
450.883	292.12
451.104	286.12
451.324	280.12
451.545	295.12
451.766	304.12
451.986	289.12
452.207	271.12
452.428	281.12
452.648	271.12
452.869	279.12
453.089	279.12
453.31	280.12
453.53	265.12
453.751	265.12
453.971	248.12
454.192	267.12
454.412	263.12
454.633	265.12
454.853	268.12
455.073	269.12
455.294	279.12
455.514	277.12
455.734	273.12
455.955	266.12
456.175	258.12
456.395	253.12
456.616	262.12
456.836	271.12
457.056	256.12
457.276	232.12
457.497	261.12
457.717	251.12
457.937	261.12
458.157	252.12
458.377	237.12
458.598	252.12
458.818	262.12
459.038	278.12
459.258	278.12
459.478	285.12
459.698	290.12
459.918	296.12
460.138	313.12
460.358	328.12
460.578	355.12
460.798	352.12
461.018	330.12
461.238	327.12
461.458	341.12
461.678	342.12
461.898	337.12
462.118	360.12
462.338	343.12
462.558	349.12
462.777	365.12
462.997	393.12
463.217	439.12
463.437	417.12
463.657	369.12
463.876	351.12
464.096	364.12
464.316	365.12
464.536	355.12
464.755	359.12
464.975	341.12
465.195	361.12
465.414	330.12
465.634	312.12
465.854	311.12
466.073	306.12
466.293	310.12
466.512	289.12
466.732	274.12
466.951	289.12
467.171	313.12
467.391	310.12
467.61	313.12
467.829	297.12
468.049	307.12
468.268	332.12
468.488	312.12
468.707	293.12
468.927	297.12
469.146	304.12
469.365	291.12
469.585	281.12
469.804	302.12
470.023	311.12
470.243	311.12
470.462	306.12
470.681	305.12
470.901	315.12
471.12	306.12
471.339	327.12
471.558	296.12
471.777	295.12
471.997	312.12
472.216	346.12
472.435	409.12
472.654	319.12
472.873	319.12
473.092	306.12
473.311	294.12
473.53	289.12
473.749	281.12
473.968	290.12
474.187	278.12
474.406	273.12
474.625	295.12
474.844	280.12
475.063	293.12
475.282	277.12
475.501	290.12
475.72	285.12
475.939	294.12
476.158	296.12
476.377	291.12
476.596	285.12
476.814	283.12
477.033	274.12
477.252	292.12
477.471	287.12
477.69	303.12
477.908	325.12
478.127	350.12
478.346	335.12
478.564	316.12
478.783	326.12
479.002	339.12
479.22	334.12
479.439	359.12
479.658	317.12
479.876	326.12
480.095	318.12
480.313	354.12
480.532	378.12
480.751	365.12
480.969	387.12
481.188	490.12
481.406	461.12
481.624	369.12
481.843	357.12
482.061	319.12
482.28	318.12
482.498	325.12
482.717	297.12
482.935	307.12
483.153	319.12
483.372	312.12
483.59	316.12
483.808	314.12
484.027	318.12
484.245	309.12
484.463	346.12
484.681	337.12
484.9	323.12
485.118	334.12
485.336	322.12
485.554	321.12
485.772	321.12
485.99	314.12
486.209	326.12
486.427	312.12
486.645	331.12
486.863	327.12
487.081	334.12
487.299	324.12
487.517	335.12
487.735	348.12
487.953	339.12
488.171	356.12
488.389	335.12
488.607	335.12
488.825	316.12
489.043	312.12
489.261	342.12
489.479	338.12
489.696	333.12
489.914	325.12
490.132	349.12
490.35	345.12
490.568	353.12
490.786	356.12
491.003	344.12
491.221	350.12
491.439	369.12
491.657	360.12
491.874	385.12
492.092	380.12
492.31	407.12
492.527	394.12
492.745	386.12
492.963	359.12
493.18	355.12
493.398	375.12
493.615	374.12
493.833	376.12
494.05	369.12
494.268	355.12
494.485	360.12
494.703	378.12
494.92	357.12
495.138	361.12
495.355	394.12
495.573	371.12
495.79	354.12
496.008	377.12
496.225	380.12
496.442	374.12
496.66	382.12
496.877	380.12
497.094	389.12
497.312	391.12
497.529	385.12
497.746	391.12
497.963	393.12
498.181	409.12
498.398	426.12
498.615	433.12
498.832	450.12
499.049	487.12
499.267	522.12
499.484	571.12
499.701	610.12
499.918	673.12
500.135	774.12
500.352	821.12
500.569	838.12
500.786	843.12
501.003	752.12
501.22	697.12
501.437	617.12
501.654	563.12
501.871	504.12
502.088	480.12
502.305	462.12
502.522	464.12
502.739	437.12
502.956	411.12
503.172	403.12
503.389	382.12
