Data from SampB_HRD10591_00030.txt Node
Date: Mon Jan 19 11:33:38 EST 2026
User: Yrep
Spectrometer: HR+D1059
Trigger mode: 0
Integration Time (sec): 3.443000E-1
Scans to average: 1
Electric dark correction enabled: true
Nonlinearity correction enabled: false
Boxcar width: 0
XAxis mode: Wavelengths
Number of Pixels in Spectrum: 2048
>>>>>Begin Spectral Data<<<<<
223.165	-20.44
223.4	-20.44
223.635	-20.44
223.869	-35.44
224.104	-28.44
224.338	-9.44
224.573	-6.44
224.808	-13.44
225.042	10.56
225.277	-6.44
225.511	-14.44
225.746	25.56
225.98	-1.44
226.215	18.56
226.449	6.56
226.683	12.56
226.918	31.56
227.152	30.56
227.387	29.56
227.621	42.56
227.856	45.56
228.09	29.56
228.324	45.56
228.559	61.56
228.793	63.56
229.027	76.56
229.262	62.56
229.496	60.56
229.73	74.56
229.964	88.56
230.199	84.56
230.433	92.56
230.667	85.56
230.901	84.56
231.136	102.56
231.37	84.56
231.604	85.56
231.838	89.56
232.072	84.56
232.306	92.56
232.541	88.56
232.775	96.56
233.009	101.56
233.243	92.56
233.477	88.56
233.711	106.56
233.945	96.56
234.179	95.56
234.413	104.56
234.647	96.56
234.881	84.56
235.115	107.56
235.349	96.56
235.583	94.56
235.817	93.56
236.051	91.56
236.285	103.56
236.519	104.56
236.753	90.56
236.987	104.56
237.221	85.56
237.455	80.56
237.689	98.56
237.922	100.56
238.156	106.56
238.39	92.56
238.624	98.56
238.858	90.56
239.091	92.56
239.325	86.56
239.559	77.56
239.793	107.56
240.027	92.56
240.26	93.56
240.494	96.56
240.728	95.56
240.961	74.56
241.195	96.56
241.429	101.56
241.662	89.56
241.896	95.56
242.13	93.56
242.363	88.56
242.597	105.56
242.83	95.56
243.064	100.56
243.298	97.56
243.531	95.56
243.765	91.56
243.998	103.56
244.232	103.56
244.465	95.56
244.699	87.56
244.932	101.56
245.166	104.56
245.399	101.56
245.633	112.56
245.866	93.56
246.099	97.56
246.333	105.56
246.566	97.56
246.8	118.56
247.033	102.56
247.266	103.56
247.5	99.56
247.733	108.56
247.966	98.56
248.2	92.56
248.433	97.56
248.666	122.56
248.899	128.56
249.133	127.56
249.366	116.56
249.599	115.56
249.832	116.56
250.066	110.56
250.299	110.56
250.532	109.56
250.765	125.56
250.998	114.56
251.231	109.56
251.465	112.56
251.698	118.56
251.931	118.56
252.164	104.56
252.397	116.56
252.63	116.56
252.863	138.56
253.096	118.56
253.329	127.56
253.562	122.56
253.795	124.56
254.028	124.56
254.261	109.56
254.494	111.56
254.727	120.56
254.96	109.56
255.193	122.56
255.426	122.56
255.659	133.56
255.892	128.56
256.124	117.56
256.357	133.56
256.59	116.56
256.823	114.56
257.056	133.56
257.289	116.56
257.521	128.56
257.754	113.56
257.987	96.56
258.22	118.56
258.452	125.56
258.685	115.56
258.918	136.56
259.151	132.56
259.383	134.56
259.616	129.56
259.849	119.56
260.081	147.56
260.314	119.56
260.547	118.56
260.779	117.56
261.012	135.56
261.244	142.56
261.477	138.56
261.71	121.56
261.942	123.56
262.175	145.56
262.407	120.56
262.64	129.56
262.872	132.56
263.105	128.56
263.337	135.56
263.57	127.56
263.802	140.56
264.035	133.56
264.267	126.56
264.499	134.56
264.732	126.56
264.964	154.56
265.197	132.56
265.429	138.56
265.661	142.56
265.894	136.56
266.126	137.56
266.358	133.56
266.591	149.56
266.823	146.56
267.055	146.56
267.287	140.56
267.52	129.56
267.752	134.56
267.984	142.56
268.216	128.56
268.448	130.56
268.681	156.56
268.913	145.56
269.145	149.56
269.377	138.56
269.609	149.56
269.841	137.56
270.073	146.56
270.306	137.56
270.538	153.56
270.77	129.56
271.002	149.56
271.234	150.56
271.466	160.56
271.698	157.56
271.93	127.56
272.162	152.56
272.394	162.56
272.626	127.56
272.858	142.56
273.09	157.56
273.322	154.56
273.553	142.56
273.785	157.56
274.017	144.56
274.249	151.56
274.481	158.56
274.713	158.56
274.945	165.56
275.176	154.56
275.408	177.56
275.64	163.56
275.872	155.56
276.104	152.56
276.335	150.56
276.567	149.56
276.799	153.56
277.031	161.56
277.262	170.56
277.494	160.56
277.726	158.56
277.957	149.56
278.189	144.56
278.421	148.56
278.652	160.56
278.884	155.56
279.115	161.56
279.347	171.56
279.579	169.56
279.81	162.56
280.042	164.56
280.273	163.56
280.505	144.56
280.736	168.56
280.968	168.56
281.199	176.56
281.431	160.56
281.662	162.56
281.894	159.56
282.125	165.56
282.356	159.56
282.588	177.56
282.819	161.56
283.051	171.56
283.282	155.56
283.513	165.56
283.745	181.56
283.976	176.56
284.207	161.56
284.439	157.56
284.67	161.56
284.901	180.56
285.132	171.56
285.364	159.56
285.595	165.56
285.826	180.56
286.057	155.56
286.288	169.56
286.52	179.56
286.751	174.56
286.982	172.56
287.213	161.56
287.444	159.56
287.675	163.56
287.906	189.56
288.138	172.56
288.369	164.56
288.6	176.56
288.831	155.56
289.062	176.56
289.293	188.56
289.524	175.56
289.755	177.56
289.986	186.56
290.217	189.56
290.448	182.56
290.679	183.56
290.91	177.56
291.141	178.56
291.371	180.56
291.602	184.56
291.833	176.56
292.064	179.56
292.295	179.56
292.526	171.56
292.757	191.56
292.987	187.56
293.218	171.56
293.449	174.56
293.68	170.56
293.91	171.56
294.141	191.56
294.372	185.56
294.603	188.56
294.833	182.56
295.064	178.56
295.295	161.56
295.525	185.56
295.756	189.56
295.987	202.56
296.217	180.56
296.448	187.56
296.679	187.56
296.909	186.56
297.14	193.56
297.37	182.56
297.601	185.56
297.831	196.56
298.062	206.56
298.292	196.56
298.523	190.56
298.753	181.56
298.984	193.56
299.214	191.56
299.445	206.56
299.675	190.56
299.905	194.56
300.136	209.56
300.366	189.56
300.597	192.56
300.827	192.56
301.057	198.56
301.288	204.56
301.518	194.56
301.748	206.56
301.979	218.56
302.209	190.56
302.439	190.56
302.669	201.56
302.9	186.56
303.13	203.56
303.36	204.56
303.59	182.56
303.82	198.56
304.051	198.56
304.281	207.56
304.511	191.56
304.741	202.56
304.971	203.56
305.201	196.56
305.431	195.56
305.661	196.56
305.891	199.56
306.121	199.56
306.352	199.56
306.582	186.56
306.812	188.56
307.042	203.56
307.272	194.56
307.502	213.56
307.731	210.56
307.961	215.56
308.191	202.56
308.421	181.56
308.651	196.56
308.881	208.56
309.111	180.56
309.341	184.56
309.571	201.56
309.8	191.56
310.03	199.56
310.26	196.56
310.49	197.56
310.72	188.56
310.949	200.56
311.179	202.56
311.409	186.56
311.639	201.56
311.868	207.56
312.098	200.56
312.328	219.56
312.557	202.56
312.787	192.56
313.017	194.56
313.246	205.56
313.476	197.56
313.706	204.56
313.935	218.56
314.165	218.56
314.394	232.56
314.624	190.56
314.853	205.56
315.083	225.56
315.312	202.56
315.542	224.56
315.771	207.56
316.001	204.56
316.23	233.56
316.46	217.56
316.689	205.56
316.919	192.56
317.148	220.56
317.377	242.56
317.607	223.56
317.836	201.56
318.065	187.56
318.295	216.56
318.524	202.56
318.753	204.56
318.983	205.56
319.212	211.56
319.441	205.56
319.67	224.56
319.9	189.56
320.129	210.56
320.358	221.56
320.587	216.56
320.816	214.56
321.046	201.56
321.275	226.56
321.504	213.56
321.733	220.56
321.962	221.56
322.191	230.56
322.42	223.56
322.649	229.56
322.878	217.56
323.108	230.56
323.337	216.56
323.566	212.56
323.795	207.56
324.024	202.56
324.253	204.56
324.482	221.56
324.71	222.56
324.939	227.56
325.168	216.56
325.397	219.56
325.626	233.56
325.855	234.56
326.084	236.56
326.313	245.56
326.542	225.56
326.77	226.56
326.999	217.56
327.228	225.56
327.457	233.56
327.686	232.56
327.914	241.56
328.143	262.56
328.372	264.56
328.6	246.56
328.829	236.56
329.058	239.56
329.287	246.56
329.515	245.56
329.744	262.56
329.972	274.56
330.201	281.56
330.43	276.56
330.658	239.56
330.887	244.56
331.115	247.56
331.344	245.56
331.572	249.56
331.801	243.56
332.03	242.56
332.258	267.56
332.486	277.56
332.715	286.56
332.943	285.56
333.172	273.56
333.4	295.56
333.629	312.56
333.857	307.56
334.085	322.56
334.314	355.56
334.542	368.56
334.771	345.56
334.999	297.56
335.227	283.56
335.455	279.56
335.684	281.56
335.912	260.56
336.14	266.56
336.369	254.56
336.597	246.56
336.825	262.56
337.053	241.56
337.281	251.56
337.51	256.56
337.738	232.56
337.966	255.56
338.194	259.56
338.422	221.56
338.65	242.56
338.878	253.56
339.106	228.56
339.334	260.56
339.562	220.56
339.79	233.56
340.018	238.56
340.246	240.56
340.474	220.56
340.702	226.56
340.93	234.56
341.158	234.56
341.386	244.56
341.614	240.56
341.842	237.56
342.07	226.56
342.298	232.56
342.526	234.56
342.754	237.56
342.981	247.56
343.209	228.56
343.437	284.56
343.665	270.56
343.893	270.56
344.12	267.56
344.348	266.56
344.576	251.56
344.804	251.56
345.031	245.56
345.259	226.56
345.487	228.56
345.714	230.56
345.942	227.56
346.17	227.56
346.397	230.56
346.625	216.56
346.853	227.56
347.08	232.56
347.308	236.56
347.535	225.56
347.763	235.56
347.99	227.56
348.218	238.56
348.445	221.56
348.673	217.56
348.9	224.56
349.128	222.56
349.355	219.56
349.583	231.56
349.81	237.56
350.037	201.56
350.265	234.56
350.492	229.56
350.72	226.56
350.947	232.56
351.174	234.56
351.402	225.56
351.629	232.56
351.856	229.56
352.083	238.56
352.311	240.56
352.538	242.56
352.765	235.56
352.992	237.56
353.22	216.56
353.447	214.56
353.674	218.56
353.901	240.56
354.128	239.56
354.355	215.56
354.583	225.56
354.81	242.56
355.037	230.56
355.264	238.56
355.491	233.56
355.718	222.56
355.945	231.56
356.172	263.56
356.399	224.56
356.626	240.56
356.853	226.56
357.08	216.56
357.307	222.56
357.534	206.56
357.761	237.56
357.988	234.56
358.215	237.56
358.441	218.56
358.668	216.56
358.895	225.56
359.122	225.56
359.349	234.56
359.576	230.56
359.802	220.56
360.029	223.56
360.256	225.56
360.483	228.56
360.709	218.56
360.936	233.56
361.163	229.56
361.39	220.56
361.616	226.56
361.843	230.56
362.07	231.56
362.296	234.56
362.523	219.56
362.749	233.56
362.976	228.56
363.203	248.56
363.429	225.56
363.656	230.56
363.882	237.56
364.109	231.56
364.335	248.56
364.562	232.56
364.788	201.56
365.015	229.56
365.241	226.56
365.468	231.56
365.694	221.56
365.92	225.56
366.147	204.56
366.373	224.56
366.599	223.56
366.826	220.56
367.052	209.56
367.278	223.56
367.505	232.56
367.731	238.56
367.957	230.56
368.184	221.56
368.41	222.56
368.636	238.56
368.862	246.56
369.089	241.56
369.315	230.56
369.541	233.56
369.767	236.56
369.993	219.56
370.219	225.56
370.445	236.56
370.672	245.56
370.898	247.56
371.124	235.56
371.35	237.56
371.576	256.56
371.802	234.56
372.028	252.56
372.254	249.56
372.48	245.56
372.706	254.56
372.932	260.56
373.158	245.56
373.384	261.56
373.61	246.56
373.835	253.56
374.061	263.56
374.287	249.56
374.513	264.56
374.739	262.56
374.965	262.56
375.191	272.56
375.416	257.56
375.642	258.56
375.868	270.56
376.094	257.56
376.319	270.56
376.545	245.56
376.771	228.56
376.997	256.56
377.222	251.56
377.448	234.56
377.674	244.56
377.899	244.56
378.125	256.56
378.35	250.56
378.576	223.56
378.802	249.56
379.027	248.56
379.253	257.56
379.478	254.56
379.704	236.56
379.929	254.56
380.155	240.56
380.38	245.56
380.606	242.56
380.831	257.56
381.057	264.56
381.282	258.56
381.507	265.56
381.733	255.56
381.958	256.56
382.184	266.56
382.409	268.56
382.634	263.56
382.86	277.56
383.085	268.56
383.31	264.56
383.535	281.56
383.761	273.56
383.986	298.56
384.211	280.56
384.436	283.56
384.662	278.56
384.887	286.56
385.112	302.56
385.337	301.56
385.562	308.56
385.787	294.56
386.013	294.56
386.238	296.56
386.463	266.56
386.688	306.56
386.913	292.56
387.138	279.56
387.363	268.56
387.588	302.56
387.813	292.56
388.038	284.56
388.263	295.56
388.488	302.56
388.713	282.56
388.938	305.56
389.163	295.56
389.387	299.56
389.612	293.56
389.837	281.56
390.062	288.56
390.287	306.56
390.512	301.56
390.736	313.56
390.961	285.56
391.186	294.56
391.411	295.56
391.636	313.56
391.86	329.56
392.085	335.56
392.31	331.56
392.534	329.56
392.759	317.56
392.984	329.56
393.208	317.56
393.433	326.56
393.658	318.56
393.882	318.56
394.107	320.56
394.331	321.56
394.556	329.56
394.78	323.56
395.005	337.56
395.229	320.56
395.454	328.56
395.678	333.56
395.903	345.56
396.127	330.56
396.352	319.56
396.576	315.56
396.801	318.56
397.025	352.56
397.249	324.56
397.474	345.56
397.698	349.56
397.922	340.56
398.147	340.56
398.371	350.56
398.595	355.56
398.82	363.56
399.044	384.56
399.268	457.56
399.492	518.56
399.717	520.56
399.941	464.56
400.165	439.56
400.389	397.56
400.613	388.56
400.837	382.56
401.062	374.56
401.286	367.56
401.51	370.56
401.734	384.56
401.958	376.56
402.182	385.56
402.406	373.56
402.63	374.56
402.854	402.56
403.078	393.56
403.302	411.56
403.526	417.56
403.75	410.56
403.974	416.56
404.198	422.56
404.422	420.56
404.645	441.56
404.869	417.56
405.093	433.56
405.317	417.56
405.541	414.56
405.765	405.56
405.988	398.56
406.212	394.56
406.436	377.56
406.66	434.56
406.883	413.56
407.107	428.56
407.331	431.56
407.555	453.56
407.778	435.56
408.002	443.56
408.226	423.56
408.449	427.56
408.673	419.56
408.896	418.56
409.12	397.56
409.344	437.56
409.567	396.56
409.791	387.56
410.014	395.56
410.238	403.56
410.461	372.56
410.685	418.56
410.908	379.56
411.132	413.56
411.355	398.56
411.578	393.56
411.802	382.56
412.025	393.56
412.249	385.56
412.472	396.56
412.695	374.56
412.919	353.56
413.142	382.56
413.365	387.56
413.589	374.56
413.812	385.56
414.035	365.56
414.258	381.56
414.482	362.56
414.705	394.56
414.928	396.56
415.151	375.56
415.374	413.56
415.597	380.56
415.821	367.56
416.044	376.56
416.267	359.56
416.49	355.56
416.713	372.56
416.936	370.56
417.159	376.56
417.382	375.56
417.605	380.56
417.828	360.56
418.051	374.56
418.274	381.56
418.497	387.56
418.72	389.56
418.943	384.56
419.166	401.56
419.389	424.56
419.611	394.56
419.834	386.56
420.057	389.56
420.28	397.56
420.503	371.56
420.726	388.56
420.948	381.56
421.171	375.56
421.394	385.56
421.617	376.56
421.839	380.56
422.062	392.56
422.285	384.56
422.507	400.56
422.73	388.56
422.953	389.56
423.175	384.56
423.398	388.56
423.621	399.56
423.843	372.56
424.066	379.56
424.288	411.56
424.511	395.56
424.733	390.56
424.956	408.56
425.178	381.56
425.401	389.56
425.623	388.56
425.846	365.56
426.068	362.56
426.291	369.56
426.513	366.56
426.735	349.56
426.958	378.56
427.18	349.56
427.402	364.56
427.625	357.56
427.847	352.56
428.069	359.56
428.292	341.56
428.514	346.56
428.736	328.56
428.958	331.56
429.181	338.56
429.403	333.56
429.625	330.56
429.847	334.56
430.069	326.56
430.292	342.56
430.514	331.56
430.736	337.56
430.958	342.56
431.18	341.56
431.402	341.56
431.624	350.56
431.846	319.56
432.068	320.56
432.29	320.56
432.512	321.56
432.734	342.56
432.956	354.56
433.178	373.56
433.4	337.56
433.622	343.56
433.844	349.56
434.066	335.56
434.287	325.56
434.509	329.56
434.731	346.56
434.953	366.56
435.175	383.56
435.397	355.56
435.618	335.56
435.84	325.56
436.062	331.56
436.284	347.56
436.505	341.56
436.727	353.56
436.949	362.56
437.17	352.56
437.392	309.56
437.614	332.56
437.835	324.56
438.057	301.56
438.278	318.56
438.5	308.56
438.721	314.56
438.943	321.56
439.165	349.56
439.386	341.56
439.608	348.56
439.829	332.56
440.05	342.56
440.272	332.56
440.493	344.56
440.715	335.56
440.936	375.56
441.158	375.56
441.379	368.56
441.6	371.56
441.822	379.56
442.043	383.56
442.264	380.56
442.486	373.56
442.707	366.56
442.928	385.56
443.149	380.56
443.371	371.56
443.592	367.56
443.813	400.56
444.034	385.56
444.255	402.56
444.476	410.56
444.698	439.56
444.919	451.56
445.14	625.56
445.361	498.56
445.582	370.56
445.803	363.56
446.024	354.56
446.245	369.56
446.466	360.56
446.687	371.56
446.908	358.56
447.129	364.56
447.35	359.56
447.571	335.56
447.792	326.56
448.013	339.56
448.234	317.56
448.455	312.56
448.675	314.56
448.896	313.56
449.117	330.56
449.338	306.56
449.559	317.56
449.779	299.56
450	319.56
450.221	315.56
450.442	294.56
450.662	318.56
450.883	300.56
451.104	337.56
451.324	314.56
451.545	334.56
451.766	305.56
451.986	310.56
452.207	313.56
452.428	316.56
452.648	306.56
452.869	305.56
453.089	311.56
453.31	287.56
453.53	283.56
453.751	298.56
453.971	276.56
454.192	290.56
454.412	304.56
454.633	296.56
454.853	286.56
455.073	288.56
455.294	280.56
455.514	298.56
455.734	292.56
455.955	290.56
456.175	286.56
456.395	291.56
456.616	291.56
456.836	291.56
457.056	266.56
457.276	290.56
457.497	294.56
457.717	284.56
457.937	288.56
458.157	285.56
458.377	292.56
458.598	290.56
458.818	290.56
459.038	304.56
459.258	317.56
459.478	317.56
459.698	329.56
459.918	336.56
460.138	351.56
460.358	386.56
460.578	377.56
460.798	377.56
461.018	376.56
461.238	358.56
461.458	391.56
461.678	368.56
461.898	370.56
462.118	384.56
462.338	391.56
462.558	416.56
462.777	426.56
462.997	461.56
463.217	489.56
463.437	473.56
463.657	443.56
463.876	418.56
464.096	437.56
464.316	417.56
464.536	412.56
464.755	409.56
464.975	399.56
465.195	370.56
465.414	365.56
465.634	347.56
465.854	350.56
466.073	341.56
466.293	353.56
466.512	336.56
466.732	326.56
466.951	332.56
467.171	342.56
467.391	340.56
467.61	326.56
467.829	338.56
468.049	350.56
468.268	356.56
468.488	344.56
468.707	352.56
468.927	317.56
469.146	332.56
469.365	334.56
469.585	311.56
469.804	356.56
470.023	346.56
470.243	350.56
470.462	347.56
470.681	348.56
470.901	353.56
471.12	341.56
471.339	335.56
471.558	359.56
471.777	351.56
471.997	340.56
472.216	364.56
472.435	382.56
472.654	346.56
472.873	330.56
473.092	326.56
473.311	326.56
473.53	323.56
473.749	341.56
473.968	321.56
474.187	304.56
474.406	301.56
474.625	313.56
474.844	322.56
475.063	325.56
475.282	313.56
475.501	290.56
475.72	327.56
475.939	309.56
476.158	317.56
476.377	311.56
476.596	315.56
476.814	289.56
477.033	333.56
477.252	349.56
477.471	341.56
477.69	341.56
477.908	364.56
478.127	382.56
478.346	375.56
478.564	375.56
478.783	376.56
479.002	392.56
479.22	379.56
479.439	383.56
479.658	389.56
479.876	374.56
480.095	372.56
480.313	402.56
480.532	408.56
480.751	410.56
480.969	421.56
481.188	474.56
481.406	448.56
481.624	401.56
481.843	365.56
482.061	366.56
482.28	355.56
482.498	351.56
482.717	346.56
482.935	343.56
483.153	358.56
483.372	368.56
483.59	356.56
483.808	356.56
484.027	344.56
484.245	343.56
484.463	341.56
484.681	360.56
484.9	366.56
485.118	368.56
485.336	350.56
485.554	354.56
485.772	353.56
485.99	354.56
486.209	361.56
486.427	350.56
486.645	354.56
486.863	338.56
487.081	383.56
487.299	360.56
487.517	363.56
487.735	390.56
487.953	382.56
488.171	372.56
488.389	379.56
488.607	370.56
488.825	358.56
489.043	372.56
489.261	372.56
489.479	362.56
489.696	366.56
489.914	378.56
490.132	388.56
490.35	380.56
490.568	351.56
490.786	382.56
491.003	388.56
491.221	392.56
491.439	416.56
491.657	411.56
491.874	395.56
492.092	434.56
492.31	418.56
492.527	409.56
492.745	404.56
492.963	412.56
493.18	398.56
493.398	416.56
493.615	413.56
493.833	415.56
494.05	403.56
494.268	418.56
494.485	420.56
494.703	401.56
494.92	420.56
495.138	407.56
495.355	426.56
495.573	418.56
495.79	404.56
496.008	420.56
496.225	413.56
496.442	412.56
496.66	418.56
496.877	438.56
497.094	443.56
497.312	449.56
497.529	435.56
497.746	442.56
497.963	445.56
498.181	443.56
498.398	473.56
498.615	494.56
498.832	523.56
499.049	532.56
499.267	593.56
499.484	627.56
499.701	697.56
499.918	766.56
500.135	833.56
500.352	934.56
500.569	999.56
500.786	955.56
501.003	854.56
501.22	791.56
501.437	698.56
501.654	640.56
501.871	593.56
502.088	555.56
502.305	516.56
502.522	513.56
502.739	496.56
502.956	478.56
503.172	457.56
503.389	451.56
503.606	421.56
