Data from SampB_HRD10591_00011.txt Node
Date: Mon Jan 19 11:33:32 EST 2026
User: Yrep
Spectrometer: HR+D1059
Trigger mode: 0
Integration Time (sec): 3.443000E-1
Scans to average: 1
Electric dark correction enabled: true
Nonlinearity correction enabled: false
Boxcar width: 0
XAxis mode: Wavelengths
Number of Pixels in Spectrum: 2048
>>>>>Begin Spectral Data<<<<<
223.165	-26.25
223.4	-26.25
223.635	-26.25
223.869	-35.25
224.104	-24.25
224.338	-23.25
224.573	-22.25
224.808	-4.25
225.042	-16.25
225.277	-12.25
225.511	2.75
225.746	7.75
225.98	7.75
226.215	17.75
226.449	30.75
226.683	31.75
226.918	27.75
227.152	37.75
227.387	39.75
227.621	41.75
227.856	39.75
228.09	53.75
228.324	53.75
228.559	49.75
228.793	61.75
229.027	70.75
229.262	74.75
229.496	64.75
229.73	75.75
229.964	69.75
230.199	74.75
230.433	83.75
230.667	84.75
230.901	78.75
231.136	61.75
231.37	83.75
231.604	90.75
231.838	89.75
232.072	83.75
232.306	75.75
232.541	84.75
232.775	91.75
233.009	83.75
233.243	84.75
233.477	89.75
233.711	72.75
233.945	96.75
234.179	82.75
234.413	80.75
234.647	79.75
234.881	79.75
235.115	78.75
235.349	88.75
235.583	69.75
235.817	81.75
236.051	99.75
236.285	82.75
236.519	82.75
236.753	68.75
236.987	83.75
237.221	90.75
237.455	80.75
237.689	75.75
237.922	78.75
238.156	78.75
238.39	84.75
238.624	73.75
238.858	85.75
239.091	72.75
239.325	71.75
239.559	83.75
239.793	72.75
240.027	99.75
240.26	81.75
240.494	79.75
240.728	68.75
240.961	84.75
241.195	87.75
241.429	81.75
241.662	75.75
241.896	88.75
242.13	91.75
242.363	64.75
242.597	91.75
242.83	92.75
243.064	91.75
243.298	80.75
243.531	72.75
243.765	93.75
243.998	82.75
244.232	102.75
244.465	88.75
244.699	83.75
244.932	79.75
245.166	81.75
245.399	79.75
245.633	76.75
245.866	88.75
246.099	78.75
246.333	94.75
246.566	89.75
246.8	84.75
247.033	80.75
247.266	84.75
247.5	71.75
247.733	86.75
247.966	102.75
248.2	82.75
248.433	83.75
248.666	86.75
248.899	82.75
249.133	83.75
249.366	91.75
249.599	73.75
249.832	82.75
250.066	98.75
250.299	85.75
250.532	74.75
250.765	96.75
250.998	84.75
251.231	88.75
251.465	84.75
251.698	107.75
251.931	82.75
252.164	93.75
252.397	74.75
252.63	84.75
252.863	81.75
253.096	97.75
253.329	99.75
253.562	84.75
253.795	91.75
254.028	85.75
254.261	84.75
254.494	87.75
254.727	101.75
254.96	94.75
255.193	103.75
255.426	84.75
255.659	77.75
255.892	102.75
256.124	103.75
256.357	94.75
256.59	106.75
256.823	96.75
257.056	90.75
257.289	92.75
257.521	91.75
257.754	93.75
257.987	85.75
258.22	95.75
258.452	89.75
258.685	95.75
258.918	87.75
259.151	86.75
259.383	88.75
259.616	100.75
259.849	86.75
260.081	98.75
260.314	84.75
260.547	108.75
260.779	97.75
261.012	97.75
261.244	102.75
261.477	111.75
261.71	93.75
261.942	86.75
262.175	98.75
262.407	103.75
262.64	111.75
262.872	97.75
263.105	82.75
263.337	100.75
263.57	100.75
263.802	99.75
264.035	97.75
264.267	88.75
264.499	94.75
264.732	99.75
264.964	84.75
265.197	94.75
265.429	85.75
265.661	102.75
265.894	100.75
266.126	96.75
266.358	75.75
266.591	92.75
266.823	77.75
267.055	94.75
267.287	93.75
267.52	110.75
267.752	102.75
267.984	118.75
268.216	83.75
268.448	102.75
268.681	107.75
268.913	114.75
269.145	90.75
269.377	100.75
269.609	94.75
269.841	100.75
270.073	94.75
270.306	107.75
270.538	106.75
270.77	102.75
271.002	100.75
271.234	93.75
271.466	96.75
271.698	83.75
271.93	114.75
272.162	106.75
272.394	107.75
272.626	92.75
272.858	101.75
273.09	123.75
273.322	114.75
273.553	105.75
273.785	98.75
274.017	109.75
274.249	114.75
274.481	107.75
274.713	112.75
274.945	122.75
275.176	102.75
275.408	111.75
275.64	102.75
275.872	104.75
276.104	103.75
276.335	109.75
276.567	95.75
276.799	93.75
277.031	87.75
277.262	108.75
277.494	103.75
277.726	126.75
277.957	96.75
278.189	99.75
278.421	101.75
278.652	104.75
278.884	108.75
279.115	108.75
279.347	97.75
279.579	89.75
279.81	99.75
280.042	90.75
280.273	99.75
280.505	109.75
280.736	97.75
280.968	109.75
281.199	101.75
281.431	101.75
281.662	103.75
281.894	126.75
282.125	111.75
282.356	116.75
282.588	105.75
282.819	107.75
283.051	110.75
283.282	103.75
283.513	116.75
283.745	105.75
283.976	117.75
284.207	103.75
284.439	110.75
284.67	105.75
284.901	108.75
285.132	100.75
285.364	112.75
285.595	118.75
285.826	112.75
286.057	125.75
286.288	95.75
286.52	111.75
286.751	110.75
286.982	112.75
287.213	90.75
287.444	111.75
287.675	94.75
287.906	109.75
288.138	108.75
288.369	118.75
288.6	106.75
288.831	126.75
289.062	108.75
289.293	107.75
289.524	110.75
289.755	102.75
289.986	88.75
290.217	96.75
290.448	112.75
290.679	103.75
290.91	116.75
291.141	113.75
291.371	119.75
291.602	103.75
291.833	114.75
292.064	118.75
292.295	116.75
292.526	122.75
292.757	101.75
292.987	94.75
293.218	108.75
293.449	122.75
293.68	109.75
293.91	116.75
294.141	123.75
294.372	104.75
294.603	108.75
294.833	121.75
295.064	108.75
295.295	111.75
295.525	109.75
295.756	100.75
295.987	109.75
296.217	126.75
296.448	122.75
296.679	111.75
296.909	115.75
297.14	115.75
297.37	121.75
297.601	111.75
297.831	111.75
298.062	142.75
298.292	123.75
298.523	109.75
298.753	124.75
298.984	118.75
299.214	125.75
299.445	127.75
299.675	106.75
299.905	109.75
300.136	111.75
300.366	111.75
300.597	111.75
300.827	123.75
301.057	113.75
301.288	107.75
301.518	132.75
301.748	126.75
301.979	151.75
302.209	127.75
302.439	121.75
302.669	109.75
302.9	121.75
303.13	111.75
303.36	119.75
303.59	121.75
303.82	114.75
304.051	114.75
304.281	118.75
304.511	124.75
304.741	127.75
304.971	122.75
305.201	127.75
305.431	111.75
305.661	123.75
305.891	131.75
306.121	118.75
306.352	113.75
306.582	102.75
306.812	114.75
307.042	105.75
307.272	131.75
307.502	101.75
307.731	127.75
307.961	121.75
308.191	115.75
308.421	123.75
308.651	111.75
308.881	109.75
309.111	125.75
309.341	119.75
309.571	124.75
309.8	126.75
310.03	116.75
310.26	102.75
310.49	110.75
310.72	120.75
310.949	112.75
311.179	114.75
311.409	132.75
311.639	123.75
311.868	113.75
312.098	139.75
312.328	124.75
312.557	120.75
312.787	115.75
313.017	118.75
313.246	122.75
313.476	121.75
313.706	120.75
313.935	114.75
314.165	125.75
314.394	122.75
314.624	126.75
314.853	114.75
315.083	115.75
315.312	127.75
315.542	123.75
315.771	104.75
316.001	114.75
316.23	137.75
316.46	108.75
316.689	109.75
316.919	123.75
317.148	121.75
317.377	127.75
317.607	120.75
317.836	110.75
318.065	124.75
318.295	123.75
318.524	133.75
318.753	112.75
318.983	125.75
319.212	131.75
319.441	116.75
319.67	111.75
319.9	113.75
320.129	118.75
320.358	116.75
320.587	115.75
320.816	107.75
321.046	116.75
321.275	119.75
321.504	113.75
321.733	119.75
321.962	127.75
322.191	108.75
322.42	132.75
322.649	119.75
322.878	126.75
323.108	125.75
323.337	135.75
323.566	126.75
323.795	109.75
324.024	134.75
324.253	107.75
324.482	115.75
324.71	128.75
324.939	131.75
325.168	116.75
325.397	130.75
325.626	135.75
325.855	118.75
326.084	134.75
326.313	144.75
326.542	114.75
326.77	119.75
326.999	143.75
327.228	120.75
327.457	141.75
327.686	141.75
327.914	123.75
328.143	152.75
328.372	138.75
328.6	122.75
328.829	127.75
329.058	111.75
329.287	126.75
329.515	133.75
329.744	144.75
329.972	150.75
330.201	158.75
330.43	166.75
330.658	146.75
330.887	148.75
331.115	134.75
331.344	131.75
331.572	136.75
331.801	129.75
332.03	136.75
332.258	142.75
332.486	125.75
332.715	149.75
332.943	141.75
333.172	158.75
333.4	144.75
333.629	157.75
333.857	172.75
334.085	183.75
334.314	175.75
334.542	198.75
334.771	175.75
334.999	150.75
335.227	142.75
335.455	141.75
335.684	163.75
335.912	150.75
336.14	151.75
336.369	139.75
336.597	138.75
336.825	127.75
337.053	140.75
337.281	138.75
337.51	140.75
337.738	135.75
337.966	124.75
338.194	126.75
338.422	131.75
338.65	150.75
338.878	120.75
339.106	134.75
339.334	138.75
339.562	128.75
339.79	121.75
340.018	135.75
340.246	116.75
340.474	120.75
340.702	112.75
340.93	103.75
341.158	109.75
341.386	126.75
341.614	126.75
341.842	126.75
342.07	127.75
342.298	131.75
342.526	123.75
342.754	119.75
342.981	122.75
343.209	122.75
343.437	165.75
343.665	146.75
343.893	148.75
344.12	165.75
344.348	142.75
344.576	124.75
344.804	131.75
345.031	133.75
345.259	125.75
345.487	140.75
345.714	115.75
345.942	120.75
346.17	139.75
346.397	132.75
346.625	115.75
346.853	123.75
347.08	131.75
347.308	115.75
347.535	136.75
347.763	138.75
347.99	123.75
348.218	148.75
348.445	117.75
348.673	117.75
348.9	124.75
349.128	130.75
349.355	118.75
349.583	102.75
349.81	118.75
350.037	121.75
350.265	131.75
350.492	137.75
350.72	122.75
350.947	136.75
351.174	122.75
351.402	130.75
351.629	129.75
351.856	136.75
352.083	109.75
352.311	123.75
352.538	113.75
352.765	117.75
352.992	139.75
353.22	117.75
353.447	116.75
353.674	140.75
353.901	131.75
354.128	138.75
354.355	127.75
354.583	128.75
354.81	134.75
355.037	124.75
355.264	118.75
355.491	116.75
355.718	125.75
355.945	107.75
356.172	132.75
356.399	136.75
356.626	148.75
356.853	117.75
357.08	152.75
357.307	117.75
357.534	130.75
357.761	134.75
357.988	130.75
358.215	123.75
358.441	119.75
358.668	124.75
358.895	119.75
359.122	119.75
359.349	120.75
359.576	125.75
359.802	124.75
360.029	122.75
360.256	128.75
360.483	118.75
360.709	126.75
360.936	138.75
361.163	125.75
361.39	128.75
361.616	126.75
361.843	109.75
362.07	121.75
362.296	116.75
362.523	111.75
362.749	128.75
362.976	119.75
363.203	127.75
363.429	132.75
363.656	111.75
363.882	128.75
364.109	125.75
364.335	127.75
364.562	118.75
364.788	110.75
365.015	110.75
365.241	125.75
365.468	126.75
365.694	143.75
365.92	111.75
366.147	113.75
366.373	116.75
366.599	119.75
366.826	125.75
367.052	132.75
367.278	123.75
367.505	126.75
367.731	122.75
367.957	117.75
368.184	116.75
368.41	122.75
368.636	122.75
368.862	118.75
369.089	130.75
369.315	118.75
369.541	133.75
369.767	132.75
369.993	123.75
370.219	135.75
370.445	133.75
370.672	119.75
370.898	130.75
371.124	135.75
371.35	140.75
371.576	135.75
371.802	129.75
372.028	125.75
372.254	146.75
372.48	134.75
372.706	127.75
372.932	124.75
373.158	156.75
373.384	138.75
373.61	142.75
373.835	142.75
374.061	140.75
374.287	139.75
374.513	134.75
374.739	110.75
374.965	140.75
375.191	125.75
375.416	133.75
375.642	141.75
375.868	152.75
376.094	143.75
376.319	136.75
376.545	129.75
376.771	133.75
376.997	133.75
377.222	132.75
377.448	141.75
377.674	135.75
377.899	135.75
378.125	129.75
378.35	140.75
378.576	125.75
378.802	120.75
379.027	126.75
379.253	136.75
379.478	136.75
379.704	122.75
379.929	146.75
380.155	128.75
380.38	141.75
380.606	126.75
380.831	134.75
381.057	140.75
381.282	141.75
381.507	149.75
381.733	140.75
381.958	140.75
382.184	135.75
382.409	134.75
382.634	135.75
382.86	137.75
383.085	159.75
383.31	163.75
383.535	163.75
383.761	155.75
383.986	152.75
384.211	134.75
384.436	147.75
384.662	153.75
384.887	152.75
385.112	151.75
385.337	154.75
385.562	141.75
385.787	151.75
386.013	163.75
386.238	159.75
386.463	141.75
386.688	174.75
386.913	131.75
387.138	142.75
387.363	151.75
387.588	159.75
387.813	157.75
388.038	146.75
388.263	144.75
388.488	146.75
388.713	150.75
388.938	134.75
389.163	116.75
389.387	154.75
389.612	154.75
389.837	149.75
390.062	127.75
390.287	144.75
390.512	150.75
390.736	151.75
390.961	136.75
391.186	151.75
391.411	146.75
391.636	148.75
391.86	154.75
392.085	162.75
392.31	165.75
392.534	156.75
392.759	164.75
392.984	172.75
393.208	175.75
393.433	177.75
393.658	180.75
393.882	164.75
394.107	171.75
394.331	174.75
394.556	158.75
394.78	166.75
395.005	164.75
395.229	171.75
395.454	183.75
395.678	167.75
395.903	181.75
396.127	171.75
396.352	158.75
396.576	158.75
396.801	170.75
397.025	168.75
397.249	171.75
397.474	186.75
397.698	175.75
397.922	175.75
398.147	150.75
398.371	158.75
398.595	159.75
398.82	180.75
399.044	206.75
399.268	197.75
399.492	228.75
399.717	232.75
399.941	204.75
400.165	196.75
400.389	195.75
400.613	203.75
400.837	187.75
401.062	174.75
401.286	179.75
401.51	179.75
401.734	185.75
401.958	186.75
402.182	164.75
402.406	160.75
402.63	185.75
402.854	177.75
403.078	182.75
403.302	197.75
403.526	194.75
403.75	201.75
403.974	194.75
404.198	193.75
404.422	214.75
404.645	196.75
404.869	201.75
405.093	207.75
405.317	196.75
405.541	185.75
405.765	194.75
405.988	178.75
406.212	204.75
406.436	181.75
406.66	204.75
406.883	216.75
407.107	198.75
407.331	204.75
407.555	191.75
407.778	195.75
408.002	207.75
408.226	198.75
408.449	200.75
408.673	203.75
408.896	186.75
409.12	194.75
409.344	198.75
409.567	187.75
409.791	187.75
410.014	195.75
410.238	190.75
410.461	210.75
410.685	173.75
410.908	189.75
411.132	199.75
411.355	190.75
411.578	183.75
411.802	180.75
412.025	179.75
412.249	164.75
412.472	176.75
412.695	190.75
412.919	177.75
413.142	181.75
413.365	173.75
413.589	178.75
413.812	177.75
414.035	181.75
414.258	144.75
414.482	182.75
414.705	191.75
414.928	192.75
415.151	189.75
415.374	178.75
415.597	182.75
415.821	177.75
416.044	172.75
416.267	181.75
416.49	191.75
416.713	189.75
416.936	182.75
417.159	178.75
417.382	172.75
417.605	182.75
417.828	191.75
418.051	193.75
418.274	185.75
418.497	201.75
418.72	181.75
418.943	191.75
419.166	197.75
419.389	187.75
419.611	188.75
419.834	178.75
420.057	196.75
420.28	191.75
420.503	182.75
420.726	178.75
420.948	196.75
421.171	179.75
421.394	183.75
421.617	183.75
421.839	168.75
422.062	196.75
422.285	189.75
422.507	191.75
422.73	189.75
422.953	183.75
423.175	182.75
423.398	189.75
423.621	187.75
423.843	180.75
424.066	197.75
424.288	205.75
424.511	172.75
424.733	193.75
424.956	188.75
425.178	187.75
425.401	187.75
425.623	187.75
425.846	185.75
426.068	169.75
426.291	182.75
426.513	183.75
426.735	186.75
426.958	177.75
427.18	165.75
427.402	167.75
427.625	171.75
427.847	166.75
428.069	174.75
428.292	155.75
428.514	166.75
428.736	166.75
428.958	171.75
429.181	162.75
429.403	154.75
429.625	184.75
429.847	163.75
430.069	179.75
430.292	181.75
430.514	158.75
430.736	167.75
430.958	173.75
431.18	168.75
431.402	173.75
431.624	158.75
431.846	154.75
432.068	157.75
432.29	172.75
432.512	161.75
432.734	147.75
432.956	168.75
433.178	174.75
433.4	168.75
433.622	176.75
433.844	165.75
434.066	170.75
434.287	161.75
434.509	158.75
434.731	186.75
434.953	175.75
435.175	171.75
435.397	165.75
435.618	168.75
435.84	176.75
436.062	159.75
436.284	159.75
436.505	176.75
436.727	164.75
436.949	166.75
437.17	162.75
437.392	153.75
437.614	148.75
437.835	156.75
438.057	164.75
438.278	170.75
438.5	159.75
438.721	184.75
438.943	180.75
439.165	153.75
439.386	176.75
439.608	174.75
439.829	168.75
440.05	174.75
440.272	165.75
440.493	167.75
440.715	167.75
440.936	170.75
441.158	175.75
441.379	184.75
441.6	203.75
441.822	180.75
442.043	177.75
442.264	159.75
442.486	183.75
442.707	171.75
442.928	175.75
443.149	178.75
443.371	182.75
443.592	170.75
443.813	170.75
444.034	169.75
444.255	195.75
444.476	203.75
444.698	220.75
444.919	214.75
445.14	364.75
445.361	282.75
445.582	192.75
445.803	177.75
446.024	189.75
446.245	182.75
446.466	175.75
446.687	179.75
446.908	176.75
447.129	175.75
447.35	169.75
447.571	164.75
447.792	167.75
448.013	177.75
448.234	183.75
448.455	158.75
448.675	155.75
448.896	163.75
449.117	163.75
449.338	139.75
449.559	148.75
449.779	147.75
450	158.75
450.221	159.75
450.442	173.75
450.662	156.75
450.883	167.75
451.104	175.75
451.324	153.75
451.545	160.75
451.766	167.75
451.986	158.75
452.207	152.75
452.428	150.75
452.648	164.75
452.869	150.75
453.089	151.75
453.31	146.75
453.53	147.75
453.751	143.75
453.971	155.75
454.192	137.75
454.412	154.75
454.633	160.75
454.853	161.75
455.073	154.75
455.294	158.75
455.514	168.75
455.734	151.75
455.955	138.75
456.175	138.75
456.395	133.75
456.616	150.75
456.836	162.75
457.056	137.75
457.276	124.75
457.497	164.75
457.717	137.75
457.937	158.75
458.157	146.75
458.377	146.75
458.598	138.75
458.818	163.75
459.038	143.75
459.258	152.75
459.478	138.75
459.698	155.75
459.918	174.75
460.138	179.75
460.358	180.75
460.578	177.75
460.798	178.75
461.018	191.75
461.238	190.75
461.458	183.75
461.678	184.75
461.898	183.75
462.118	179.75
462.338	190.75
462.558	197.75
462.777	194.75
462.997	213.75
463.217	218.75
463.437	206.75
463.657	181.75
463.876	198.75
464.096	204.75
464.316	198.75
464.536	195.75
464.755	203.75
464.975	200.75
465.195	182.75
465.414	188.75
465.634	180.75
465.854	164.75
466.073	173.75
466.293	168.75
466.512	175.75
466.732	166.75
466.951	171.75
467.171	166.75
467.391	190.75
467.61	159.75
467.829	183.75
468.049	189.75
468.268	180.75
468.488	149.75
468.707	162.75
468.927	152.75
469.146	162.75
469.365	133.75
469.585	158.75
469.804	164.75
470.023	149.75
470.243	179.75
470.462	169.75
470.681	148.75
470.901	172.75
471.12	168.75
471.339	159.75
471.558	152.75
471.777	177.75
471.997	177.75
472.216	187.75
472.435	217.75
472.654	178.75
472.873	182.75
473.092	157.75
473.311	158.75
473.53	156.75
473.749	156.75
473.968	170.75
474.187	156.75
474.406	164.75
474.625	149.75
474.844	166.75
475.063	150.75
475.282	159.75
475.501	152.75
475.72	159.75
475.939	166.75
476.158	159.75
476.377	152.75
476.596	152.75
476.814	161.75
477.033	172.75
477.252	152.75
477.471	165.75
477.69	191.75
477.908	178.75
478.127	186.75
478.346	183.75
478.564	184.75
478.783	173.75
479.002	177.75
479.22	187.75
479.439	189.75
479.658	165.75
479.876	183.75
480.095	166.75
480.313	178.75
480.532	205.75
480.751	196.75
480.969	212.75
481.188	268.75
481.406	250.75
481.624	203.75
481.843	182.75
482.061	175.75
482.28	164.75
482.498	180.75
482.717	178.75
482.935	180.75
483.153	188.75
483.372	187.75
483.59	186.75
483.808	164.75
484.027	170.75
484.245	181.75
484.463	179.75
484.681	200.75
484.9	159.75
485.118	174.75
485.336	178.75
485.554	192.75
485.772	174.75
485.99	182.75
486.209	175.75
486.427	179.75
486.645	177.75
486.863	175.75
487.081	179.75
487.299	176.75
487.517	198.75
487.735	175.75
487.953	173.75
488.171	185.75
488.389	172.75
488.607	171.75
488.825	188.75
489.043	183.75
489.261	178.75
489.479	178.75
489.696	178.75
489.914	192.75
490.132	184.75
490.35	211.75
490.568	179.75
490.786	176.75
491.003	199.75
491.221	187.75
491.439	190.75
491.657	209.75
491.874	189.75
492.092	200.75
492.31	200.75
492.527	192.75
492.745	206.75
492.963	196.75
493.18	201.75
493.398	197.75
493.615	196.75
493.833	203.75
494.05	192.75
494.268	202.75
494.485	200.75
494.703	189.75
494.92	200.75
495.138	187.75
495.355	204.75
495.573	219.75
495.79	203.75
496.008	188.75
496.225	190.75
496.442	197.75
496.66	197.75
496.877	196.75
497.094	219.75
497.312	206.75
497.529	189.75
497.746	212.75
497.963	203.75
498.181	207.75
498.398	230.75
498.615	217.75
498.832	217.75
499.049	239.75
499.267	256.75
499.484	272.75
499.701	286.75
499.918	319.75
500.135	360.75
500.352	390.75
500.569	388.75
500.786	396.75
501.003	361.75
501.22	321.75
501.437	310.75
501.654	287.75
501.871	274.75
502.088	238.75
502.305	247.75
502.522	236.75
502.739	233.75
502.956	230.75
503.172	214.75
503.389	213.75
503.606	197.75
503.823	197.75
504.04	210.75
504.256	205.75
504.473	196.75
504.69	218.75
504.907	202.75
505.123	178.75
