Data from SampB_HRD10591_00080.txt Node
Date: Mon Jan 19 11:33:55 EST 2026
User: Yrep
Spectrometer: HR+D1059
Trigger mode: 0
Integration Time (sec): 3.443000E-1
Scans to average: 1
Electric dark correction enabled: true
Nonlinearity correction enabled: false
Boxcar width: 0
XAxis mode: Wavelengths
Number of Pixels in Spectrum: 2048
>>>>>Begin Spectral Data<<<<<
223.165	-22.44
223.4	-22.44
223.635	-22.44
223.869	-13.44
224.104	-22.44
224.338	-26.44
224.573	-15.44
224.808	-25.44
225.042	-1.44
225.277	-2.44
225.511	-0.44
225.746	8.56
225.98	5.56
226.215	22.56
226.449	23.56
226.683	10.56
226.918	28.56
227.152	30.56
227.387	29.56
227.621	37.56
227.856	40.56
228.09	42.56
228.324	46.56
228.559	50.56
228.793	55.56
229.027	74.56
229.262	72.56
229.496	61.56
229.73	78.56
229.964	74.56
230.199	68.56
230.433	85.56
230.667	87.56
230.901	86.56
231.136	80.56
231.37	82.56
231.604	97.56
231.838	99.56
232.072	102.56
232.306	108.56
232.541	97.56
232.775	98.56
233.009	93.56
233.243	100.56
233.477	92.56
233.711	100.56
233.945	98.56
234.179	105.56
234.413	94.56
234.647	106.56
234.881	106.56
235.115	106.56
235.349	87.56
235.583	84.56
235.817	102.56
236.051	93.56
236.285	87.56
236.519	100.56
236.753	103.56
236.987	101.56
237.221	99.56
237.455	105.56
237.689	105.56
237.922	97.56
238.156	106.56
238.39	102.56
238.624	104.56
238.858	106.56
239.091	101.56
239.325	99.56
239.559	112.56
239.793	111.56
240.027	95.56
240.26	116.56
240.494	92.56
240.728	107.56
240.961	96.56
241.195	108.56
241.429	105.56
241.662	98.56
241.896	101.56
242.13	94.56
242.363	105.56
242.597	104.56
242.83	84.56
243.064	116.56
243.298	111.56
243.531	110.56
243.765	103.56
243.998	101.56
244.232	106.56
244.465	104.56
244.699	98.56
244.932	102.56
245.166	110.56
245.399	109.56
245.633	97.56
245.866	105.56
246.099	105.56
246.333	116.56
246.566	100.56
246.8	122.56
247.033	113.56
247.266	106.56
247.5	124.56
247.733	113.56
247.966	127.56
248.2	118.56
248.433	120.56
248.666	109.56
248.899	120.56
249.133	126.56
249.366	121.56
249.599	124.56
249.832	124.56
250.066	109.56
250.299	116.56
250.532	118.56
250.765	113.56
250.998	130.56
251.231	122.56
251.465	109.56
251.698	101.56
251.931	101.56
252.164	126.56
252.397	127.56
252.63	127.56
252.863	133.56
253.096	120.56
253.329	138.56
253.562	133.56
253.795	123.56
254.028	145.56
254.261	125.56
254.494	134.56
254.727	114.56
254.96	124.56
255.193	138.56
255.426	135.56
255.659	136.56
255.892	140.56
256.124	148.56
256.357	142.56
256.59	142.56
256.823	127.56
257.056	135.56
257.289	124.56
257.521	121.56
257.754	140.56
257.987	134.56
258.22	127.56
258.452	128.56
258.685	126.56
258.918	133.56
259.151	132.56
259.383	148.56
259.616	147.56
259.849	137.56
260.081	145.56
260.314	144.56
260.547	148.56
260.779	155.56
261.012	156.56
261.244	138.56
261.477	160.56
261.71	144.56
261.942	140.56
262.175	144.56
262.407	128.56
262.64	136.56
262.872	157.56
263.105	155.56
263.337	162.56
263.57	143.56
263.802	148.56
264.035	140.56
264.267	129.56
264.499	142.56
264.732	128.56
264.964	135.56
265.197	137.56
265.429	148.56
265.661	142.56
265.894	153.56
266.126	164.56
266.358	150.56
266.591	159.56
266.823	108.56
267.055	136.56
267.287	140.56
267.52	146.56
267.752	151.56
267.984	142.56
268.216	150.56
268.448	142.56
268.681	146.56
268.913	139.56
269.145	133.56
269.377	157.56
269.609	163.56
269.841	144.56
270.073	160.56
270.306	154.56
270.538	150.56
270.77	142.56
271.002	153.56
271.234	162.56
271.466	149.56
271.698	140.56
271.93	170.56
272.162	170.56
272.394	166.56
272.626	172.56
272.858	181.56
273.09	183.56
273.322	183.56
273.553	153.56
273.785	165.56
274.017	152.56
274.249	190.56
274.481	187.56
274.713	189.56
274.945	182.56
275.176	190.56
275.408	183.56
275.64	178.56
275.872	162.56
276.104	172.56
276.335	162.56
276.567	166.56
276.799	152.56
277.031	188.56
277.262	169.56
277.494	184.56
277.726	171.56
277.957	167.56
278.189	163.56
278.421	170.56
278.652	165.56
278.884	175.56
279.115	180.56
279.347	167.56
279.579	168.56
279.81	170.56
280.042	185.56
280.273	181.56
280.505	167.56
280.736	174.56
280.968	178.56
281.199	176.56
281.431	175.56
281.662	170.56
281.894	173.56
282.125	177.56
282.356	175.56
282.588	172.56
282.819	170.56
283.051	172.56
283.282	184.56
283.513	196.56
283.745	196.56
283.976	181.56
284.207	190.56
284.439	198.56
284.67	180.56
284.901	178.56
285.132	172.56
285.364	178.56
285.595	189.56
285.826	168.56
286.057	202.56
286.288	194.56
286.52	189.56
286.751	187.56
286.982	193.56
287.213	187.56
287.444	187.56
287.675	183.56
287.906	181.56
288.138	188.56
288.369	182.56
288.6	207.56
288.831	202.56
289.062	196.56
289.293	184.56
289.524	188.56
289.755	190.56
289.986	192.56
290.217	180.56
290.448	191.56
290.679	196.56
290.91	206.56
291.141	192.56
291.371	189.56
291.602	190.56
291.833	188.56
292.064	193.56
292.295	187.56
292.526	189.56
292.757	190.56
292.987	187.56
293.218	197.56
293.449	202.56
293.68	194.56
293.91	198.56
294.141	220.56
294.372	206.56
294.603	218.56
294.833	191.56
295.064	198.56
295.295	208.56
295.525	189.56
295.756	206.56
295.987	206.56
296.217	186.56
296.448	198.56
296.679	209.56
296.909	218.56
297.14	209.56
297.37	206.56
297.601	212.56
297.831	191.56
298.062	202.56
298.292	214.56
298.523	221.56
298.753	232.56
298.984	206.56
299.214	209.56
299.445	213.56
299.675	199.56
299.905	204.56
300.136	224.56
300.366	213.56
300.597	210.56
300.827	217.56
301.057	208.56
301.288	212.56
301.518	217.56
301.748	228.56
301.979	255.56
302.209	218.56
302.439	228.56
302.669	193.56
302.9	218.56
303.13	211.56
303.36	200.56
303.59	206.56
303.82	213.56
304.051	211.56
304.281	219.56
304.511	224.56
304.741	213.56
304.971	233.56
305.201	207.56
305.431	210.56
305.661	216.56
305.891	224.56
306.121	224.56
306.352	216.56
306.582	194.56
306.812	209.56
307.042	204.56
307.272	215.56
307.502	210.56
307.731	217.56
307.961	213.56
308.191	225.56
308.421	236.56
308.651	224.56
308.881	207.56
309.111	220.56
309.341	217.56
309.571	213.56
309.8	218.56
310.03	193.56
310.26	213.56
310.49	218.56
310.72	210.56
310.949	216.56
311.179	226.56
311.409	216.56
311.639	205.56
311.868	227.56
312.098	216.56
312.328	225.56
312.557	226.56
312.787	234.56
313.017	226.56
313.246	222.56
313.476	231.56
313.706	210.56
313.935	236.56
314.165	230.56
314.394	231.56
314.624	211.56
314.853	238.56
315.083	232.56
315.312	226.56
315.542	226.56
315.771	224.56
316.001	239.56
316.23	233.56
316.46	236.56
316.689	224.56
316.919	227.56
317.148	229.56
317.377	219.56
317.607	233.56
317.836	229.56
318.065	221.56
318.295	218.56
318.524	224.56
318.753	224.56
318.983	220.56
319.212	237.56
319.441	228.56
319.67	220.56
319.9	235.56
320.129	231.56
320.358	231.56
320.587	225.56
320.816	222.56
321.046	235.56
321.275	237.56
321.504	209.56
321.733	229.56
321.962	246.56
322.191	225.56
322.42	233.56
322.649	239.56
322.878	221.56
323.108	230.56
323.337	230.56
323.566	234.56
323.795	239.56
324.024	226.56
324.253	217.56
324.482	218.56
324.71	241.56
324.939	239.56
325.168	243.56
325.397	231.56
325.626	245.56
325.855	233.56
326.084	246.56
326.313	250.56
326.542	255.56
326.77	239.56
326.999	240.56
327.228	250.56
327.457	254.56
327.686	226.56
327.914	271.56
328.143	280.56
328.372	286.56
328.6	272.56
328.829	269.56
329.058	265.56
329.287	251.56
329.515	265.56
329.744	285.56
329.972	284.56
330.201	316.56
330.43	330.56
330.658	296.56
330.887	267.56
331.115	261.56
331.344	254.56
331.572	270.56
331.801	260.56
332.03	276.56
332.258	284.56
332.486	281.56
332.715	291.56
332.943	301.56
333.172	313.56
333.4	308.56
333.629	325.56
333.857	338.56
334.085	349.56
334.314	400.56
334.542	376.56
334.771	382.56
334.999	344.56
335.227	285.56
335.455	305.56
335.684	300.56
335.912	291.56
336.14	293.56
336.369	300.56
336.597	312.56
336.825	283.56
337.053	274.56
337.281	270.56
337.51	272.56
337.738	277.56
337.966	280.56
338.194	265.56
338.422	249.56
338.65	285.56
338.878	260.56
339.106	262.56
339.334	254.56
339.562	237.56
339.79	245.56
340.018	252.56
340.246	244.56
340.474	247.56
340.702	251.56
340.93	248.56
341.158	251.56
341.386	252.56
341.614	255.56
341.842	245.56
342.07	251.56
342.298	238.56
342.526	248.56
342.754	253.56
342.981	265.56
343.209	255.56
343.437	289.56
343.665	291.56
343.893	294.56
344.12	320.56
344.348	290.56
344.576	288.56
344.804	269.56
345.031	250.56
345.259	249.56
345.487	246.56
345.714	253.56
345.942	252.56
346.17	244.56
346.397	240.56
346.625	245.56
346.853	247.56
347.08	230.56
347.308	255.56
347.535	257.56
347.763	241.56
347.99	251.56
348.218	255.56
348.445	231.56
348.673	248.56
348.9	250.56
349.128	251.56
349.355	231.56
349.583	241.56
349.81	235.56
350.037	240.56
350.265	245.56
350.492	245.56
350.72	233.56
350.947	240.56
351.174	250.56
351.402	237.56
351.629	252.56
351.856	234.56
352.083	230.56
352.311	249.56
352.538	230.56
352.765	231.56
352.992	229.56
353.22	238.56
353.447	233.56
353.674	247.56
353.901	240.56
354.128	237.56
354.355	247.56
354.583	246.56
354.81	242.56
355.037	250.56
355.264	248.56
355.491	261.56
355.718	265.56
355.945	250.56
356.172	244.56
356.399	255.56
356.626	254.56
356.853	257.56
357.08	257.56
357.307	255.56
357.534	251.56
357.761	246.56
357.988	259.56
358.215	276.56
358.441	252.56
358.668	259.56
358.895	249.56
359.122	246.56
359.349	251.56
359.576	260.56
359.802	242.56
360.029	241.56
360.256	254.56
360.483	234.56
360.709	257.56
360.936	264.56
361.163	260.56
361.39	228.56
361.616	239.56
361.843	245.56
362.07	263.56
362.296	265.56
362.523	251.56
362.749	251.56
362.976	256.56
363.203	261.56
363.429	256.56
363.656	240.56
363.882	239.56
364.109	257.56
364.335	251.56
364.562	233.56
364.788	237.56
365.015	264.56
365.241	255.56
365.468	271.56
365.694	251.56
365.92	236.56
366.147	254.56
366.373	246.56
366.599	245.56
366.826	239.56
367.052	243.56
367.278	247.56
367.505	242.56
367.731	256.56
367.957	255.56
368.184	252.56
368.41	257.56
368.636	265.56
368.862	268.56
369.089	248.56
369.315	251.56
369.541	253.56
369.767	242.56
369.993	257.56
370.219	249.56
370.445	252.56
370.672	264.56
370.898	268.56
371.124	296.56
371.35	261.56
371.576	262.56
371.802	256.56
372.028	260.56
372.254	283.56
372.48	290.56
372.706	278.56
372.932	276.56
373.158	277.56
373.384	316.56
373.61	311.56
373.835	289.56
374.061	273.56
374.287	301.56
374.513	291.56
374.739	337.56
374.965	323.56
375.191	293.56
375.416	291.56
375.642	302.56
375.868	300.56
376.094	286.56
376.319	297.56
376.545	288.56
376.771	272.56
376.997	273.56
377.222	265.56
377.448	279.56
377.674	254.56
377.899	254.56
378.125	253.56
378.35	271.56
378.576	266.56
378.802	270.56
379.027	257.56
379.253	276.56
379.478	260.56
379.704	286.56
379.929	283.56
380.155	269.56
380.38	273.56
380.606	272.56
380.831	272.56
381.057	271.56
381.282	281.56
381.507	275.56
381.733	300.56
381.958	300.56
382.184	314.56
382.409	303.56
382.634	309.56
382.86	316.56
383.085	297.56
383.31	300.56
383.535	302.56
383.761	311.56
383.986	321.56
384.211	306.56
384.436	336.56
384.662	315.56
384.887	339.56
385.112	313.56
385.337	306.56
385.562	332.56
385.787	317.56
386.013	332.56
386.238	342.56
386.463	306.56
386.688	353.56
386.913	354.56
387.138	313.56
387.363	298.56
387.588	332.56
387.813	330.56
388.038	333.56
388.263	343.56
388.488	321.56
388.713	304.56
388.938	322.56
389.163	298.56
389.387	325.56
389.612	326.56
389.837	325.56
390.062	324.56
390.287	330.56
390.512	335.56
390.736	304.56
390.961	324.56
391.186	357.56
391.411	345.56
391.636	371.56
391.86	362.56
392.085	381.56
392.31	363.56
392.534	346.56
392.759	370.56
392.984	358.56
393.208	345.56
393.433	361.56
393.658	348.56
393.882	344.56
394.107	350.56
394.331	343.56
394.556	362.56
394.78	363.56
395.005	351.56
395.229	330.56
395.454	366.56
395.678	383.56
395.903	387.56
396.127	375.56
396.352	349.56
396.576	363.56
396.801	373.56
397.025	366.56
397.249	362.56
397.474	378.56
397.698	344.56
397.922	362.56
398.147	354.56
398.371	375.56
398.595	402.56
398.82	398.56
399.044	438.56
399.268	494.56
399.492	525.56
399.717	557.56
399.941	552.56
400.165	482.56
400.389	451.56
400.613	429.56
400.837	385.56
401.062	406.56
401.286	388.56
401.51	386.56
401.734	389.56
401.958	406.56
402.182	401.56
402.406	397.56
402.63	417.56
402.854	428.56
403.078	449.56
403.302	414.56
403.526	445.56
403.75	456.56
403.974	452.56
404.198	482.56
404.422	491.56
404.645	486.56
404.869	457.56
405.093	463.56
405.317	460.56
405.541	447.56
405.765	433.56
405.988	444.56
406.212	449.56
406.436	439.56
406.66	468.56
406.883	486.56
407.107	474.56
407.331	479.56
407.555	511.56
407.778	508.56
408.002	466.56
408.226	469.56
408.449	457.56
408.673	440.56
408.896	441.56
409.12	456.56
409.344	452.56
409.567	441.56
409.791	436.56
410.014	453.56
410.238	457.56
410.461	429.56
410.685	430.56
410.908	443.56
411.132	424.56
411.355	394.56
411.578	410.56
411.802	426.56
412.025	439.56
412.249	419.56
412.472	417.56
412.695	408.56
412.919	410.56
413.142	426.56
413.365	412.56
413.589	420.56
413.812	413.56
414.035	378.56
414.258	411.56
414.482	398.56
414.705	406.56
414.928	409.56
415.151	415.56
415.374	380.56
415.597	411.56
415.821	420.56
416.044	399.56
416.267	390.56
416.49	435.56
416.713	408.56
416.936	400.56
417.159	415.56
417.382	406.56
417.605	385.56
417.828	418.56
418.051	408.56
418.274	405.56
418.497	413.56
418.72	433.56
418.943	416.56
419.166	446.56
419.389	463.56
419.611	430.56
419.834	437.56
420.057	438.56
420.28	419.56
420.503	427.56
420.726	396.56
420.948	386.56
421.171	406.56
421.394	436.56
421.617	407.56
421.839	415.56
422.062	408.56
422.285	397.56
422.507	432.56
422.73	426.56
422.953	423.56
423.175	418.56
423.398	435.56
423.621	430.56
423.843	439.56
424.066	449.56
424.288	418.56
424.511	437.56
424.733	440.56
424.956	432.56
425.178	418.56
425.401	407.56
425.623	412.56
425.846	391.56
426.068	400.56
426.291	399.56
426.513	388.56
426.735	399.56
426.958	390.56
427.18	392.56
427.402	381.56
427.625	401.56
427.847	351.56
428.069	375.56
428.292	373.56
428.514	379.56
428.736	360.56
428.958	362.56
429.181	361.56
429.403	353.56
429.625	383.56
429.847	337.56
430.069	367.56
430.292	348.56
430.514	363.56
430.736	348.56
430.958	352.56
431.18	364.56
431.402	360.56
431.624	358.56
431.846	349.56
432.068	349.56
432.29	357.56
432.512	376.56
432.734	385.56
432.956	365.56
433.178	368.56
433.4	375.56
433.622	381.56
433.844	370.56
434.066	357.56
434.287	348.56
434.509	372.56
434.731	375.56
434.953	410.56
435.175	380.56
435.397	379.56
435.618	358.56
435.84	369.56
436.062	369.56
436.284	341.56
436.505	348.56
436.727	360.56
436.949	379.56
437.17	378.56
437.392	368.56
437.614	368.56
437.835	354.56
438.057	355.56
438.278	364.56
438.5	360.56
438.721	358.56
438.943	363.56
439.165	354.56
439.386	375.56
439.608	383.56
439.829	378.56
440.05	390.56
440.272	369.56
440.493	378.56
440.715	399.56
440.936	396.56
441.158	398.56
441.379	404.56
441.6	411.56
441.822	412.56
442.043	409.56
442.264	393.56
442.486	408.56
442.707	424.56
442.928	393.56
443.149	403.56
443.371	402.56
443.592	390.56
443.813	415.56
444.034	416.56
444.255	457.56
444.476	456.56
444.698	463.56
444.919	488.56
445.14	629.56
445.361	513.56
445.582	431.56
445.803	398.56
446.024	389.56
446.245	394.56
446.466	366.56
446.687	379.56
446.908	407.56
447.129	383.56
447.35	380.56
447.571	343.56
447.792	354.56
448.013	371.56
448.234	362.56
448.455	341.56
448.675	361.56
448.896	347.56
449.117	348.56
449.338	337.56
449.559	351.56
449.779	334.56
450	357.56
450.221	354.56
450.442	354.56
450.662	355.56
450.883	330.56
451.104	345.56
451.324	335.56
451.545	320.56
451.766	333.56
451.986	341.56
452.207	328.56
452.428	336.56
452.648	322.56
452.869	336.56
453.089	332.56
453.31	312.56
453.53	319.56
453.751	314.56
453.971	322.56
454.192	312.56
454.412	293.56
454.633	344.56
454.853	315.56
455.073	326.56
455.294	312.56
455.514	326.56
455.734	318.56
455.955	318.56
456.175	305.56
456.395	304.56
456.616	319.56
456.836	299.56
457.056	319.56
457.276	299.56
457.497	301.56
457.717	292.56
457.937	311.56
458.157	311.56
458.377	310.56
458.598	293.56
458.818	331.56
459.038	349.56
459.258	325.56
459.478	331.56
459.698	348.56
459.918	355.56
460.138	379.56
460.358	410.56
460.578	416.56
460.798	403.56
461.018	427.56
461.238	402.56
461.458	413.56
461.678	419.56
461.898	394.56
462.118	422.56
462.338	446.56
462.558	447.56
462.777	460.56
462.997	520.56
463.217	529.56
463.437	498.56
463.657	467.56
463.876	468.56
464.096	465.56
464.316	459.56
464.536	455.56
464.755	439.56
464.975	448.56
465.195	424.56
465.414	392.56
465.634	347.56
465.854	367.56
466.073	364.56
466.293	361.56
466.512	352.56
466.732	354.56
466.951	361.56
467.171	364.56
467.391	361.56
467.61	362.56
467.829	377.56
468.049	378.56
468.268	388.56
468.488	370.56
468.707	356.56
468.927	351.56
469.146	338.56
469.365	358.56
469.585	353.56
469.804	378.56
470.023	384.56
470.243	372.56
470.462	351.56
470.681	380.56
470.901	384.56
471.12	362.56
471.339	373.56
471.558	351.56
471.777	351.56
471.997	366.56
472.216	410.56
472.435	479.56
472.654	404.56
472.873	376.56
473.092	345.56
473.311	356.56
473.53	346.56
473.749	342.56
473.968	341.56
474.187	351.56
474.406	318.56
474.625	343.56
474.844	353.56
475.063	353.56
475.282	333.56
475.501	326.56
475.72	354.56
475.939	331.56
476.158	352.56
476.377	356.56
476.596	345.56
476.814	346.56
477.033	351.56
477.252	358.56
477.471	348.56
477.69	389.56
477.908	397.56
478.127	410.56
478.346	401.56
478.564	395.56
478.783	392.56
479.002	427.56
479.22	422.56
479.439	409.56
479.658	398.56
479.876	422.56
480.095	408.56
480.313	410.56
480.532	427.56
480.751	440.56
480.969	469.56
481.188	616.56
481.406	566.56
481.624	444.56
481.843	398.56
482.061	388.56
482.28	374.56
482.498	378.56
482.717	357.56
482.935	393.56
483.153	378.56
483.372	389.56
483.59	394.56
483.808	375.56
484.027	381.56
484.245	358.56
484.463	365.56
484.681	385.56
484.9	409.56
485.118	400.56
485.336	388.56
485.554	367.56
485.772	374.56
485.99	368.56
486.209	390.56
486.427	382.56
486.645	366.56
486.863	383.56
487.081	394.56
487.299	390.56
487.517	387.56
487.735	410.56
487.953	428.56
488.171	414.56
488.389	423.56
488.607	398.56
488.825	362.56
489.043	362.56
489.261	408.56
489.479	388.56
489.696	412.56
489.914	378.56
490.132	390.56
490.35	408.56
490.568	395.56
490.786	405.56
491.003	412.56
491.221	414.56
491.439	422.56
491.657	420.56
491.874	418.56
492.092	447.56
492.31	470.56
492.527	468.56
492.745	441.56
492.963	438.56
493.18	424.56
493.398	428.56
493.615	442.56
493.833	415.56
494.05	424.56
494.268	435.56
494.485	439.56
494.703	428.56
494.92	444.56
495.138	412.56
495.355	431.56
495.573	446.56
495.79	446.56
496.008	486.56
496.225	439.56
496.442	452.56
496.66	459.56
496.877	454.56
497.094	463.56
497.312	470.56
497.529	469.56
497.746	461.56
497.963	458.56
498.181	486.56
498.398	497.56
498.615	545.56
498.832	568.56
499.049	630.56
499.267	651.56
499.484	699.56
499.701	736.56
499.918	832.56
500.135	978.56
500.352	1054.56
500.569	1052.56
500.786	1024.56
501.003	956.56
501.22	831.56
501.437	783.56
501.654	690.56
501.871	625.56
502.088	574.56
502.305	551.56
502.522	545.56
502.739	523.56
502.956	492.56
503.172	479.56
