Data from SampB_HRD10591_00054.txt Node
Date: Mon Jan 19 11:33:47 EST 2026
User: Yrep
Spectrometer: HR+D1059
Trigger mode: 0
Integration Time (sec): 3.443000E-1
Scans to average: 1
Electric dark correction enabled: true
Nonlinearity correction enabled: false
Boxcar width: 0
XAxis mode: Wavelengths
Number of Pixels in Spectrum: 2048
>>>>>Begin Spectral Data<<<<<
223.165	-30.31
223.4	-30.31
223.635	-30.31
223.869	-25.31
224.104	-32.31
224.338	-23.31
224.573	-22.31
224.808	-6.31
225.042	-7.31
225.277	-6.31
225.511	5.69
225.746	19.69
225.98	14.69
226.215	16.69
226.449	15.69
226.683	16.69
226.918	27.69
227.152	36.69
227.387	18.69
227.621	41.69
227.856	46.69
228.09	42.69
228.324	49.69
228.559	60.69
228.793	60.69
229.027	69.69
229.262	68.69
229.496	74.69
229.73	66.69
229.964	81.69
230.199	71.69
230.433	85.69
230.667	85.69
230.901	90.69
231.136	84.69
231.37	94.69
231.604	82.69
231.838	76.69
232.072	77.69
232.306	86.69
232.541	103.69
232.775	91.69
233.009	96.69
233.243	88.69
233.477	90.69
233.711	85.69
233.945	89.69
234.179	98.69
234.413	111.69
234.647	98.69
234.881	96.69
235.115	85.69
235.349	102.69
235.583	89.69
235.817	96.69
236.051	91.69
236.285	78.69
236.519	111.69
236.753	100.69
236.987	84.69
237.221	70.69
237.455	84.69
237.689	79.69
237.922	83.69
238.156	79.69
238.39	90.69
238.624	93.69
238.858	81.69
239.091	87.69
239.325	88.69
239.559	91.69
239.793	92.69
240.027	82.69
240.26	92.69
240.494	93.69
240.728	76.69
240.961	93.69
241.195	98.69
241.429	95.69
241.662	83.69
241.896	96.69
242.13	92.69
242.363	82.69
242.597	86.69
242.83	92.69
243.064	97.69
243.298	98.69
243.531	83.69
243.765	101.69
243.998	97.69
244.232	93.69
244.465	93.69
244.699	101.69
244.932	81.69
245.166	80.69
245.399	90.69
245.633	109.69
245.866	77.69
246.099	88.69
246.333	90.69
246.566	95.69
246.8	77.69
247.033	88.69
247.266	103.69
247.5	100.69
247.733	96.69
247.966	100.69
248.2	96.69
248.433	110.69
248.666	88.69
248.899	102.69
249.133	95.69
249.366	109.69
249.599	106.69
249.832	90.69
250.066	92.69
250.299	100.69
250.532	96.69
250.765	97.69
250.998	92.69
251.231	97.69
251.465	97.69
251.698	111.69
251.931	98.69
252.164	84.69
252.397	85.69
252.63	115.69
252.863	88.69
253.096	99.69
253.329	110.69
253.562	98.69
253.795	106.69
254.028	118.69
254.261	105.69
254.494	110.69
254.727	114.69
254.96	119.69
255.193	93.69
255.426	111.69
255.659	100.69
255.892	112.69
256.124	111.69
256.357	115.69
256.59	118.69
256.823	99.69
257.056	111.69
257.289	116.69
257.521	115.69
257.754	111.69
257.987	104.69
258.22	110.69
258.452	94.69
258.685	116.69
258.918	117.69
259.151	110.69
259.383	112.69
259.616	103.69
259.849	103.69
260.081	100.69
260.314	106.69
260.547	103.69
260.779	112.69
261.012	102.69
261.244	101.69
261.477	129.69
261.71	104.69
261.942	102.69
262.175	109.69
262.407	113.69
262.64	104.69
262.872	118.69
263.105	113.69
263.337	124.69
263.57	110.69
263.802	109.69
264.035	112.69
264.267	106.69
264.499	93.69
264.732	117.69
264.964	111.69
265.197	96.69
265.429	102.69
265.661	116.69
265.894	101.69
266.126	117.69
266.358	98.69
266.591	117.69
266.823	111.69
267.055	105.69
267.287	107.69
267.52	103.69
267.752	107.69
267.984	106.69
268.216	99.69
268.448	113.69
268.681	113.69
268.913	117.69
269.145	100.69
269.377	115.69
269.609	97.69
269.841	115.69
270.073	123.69
270.306	115.69
270.538	108.69
270.77	101.69
271.002	109.69
271.234	108.69
271.466	110.69
271.698	97.69
271.93	108.69
272.162	110.69
272.394	96.69
272.626	114.69
272.858	114.69
273.09	125.69
273.322	112.69
273.553	119.69
273.785	125.69
274.017	108.69
274.249	124.69
274.481	139.69
274.713	124.69
274.945	132.69
275.176	108.69
275.408	136.69
275.64	126.69
275.872	117.69
276.104	125.69
276.335	110.69
276.567	110.69
276.799	116.69
277.031	114.69
277.262	120.69
277.494	126.69
277.726	132.69
277.957	113.69
278.189	108.69
278.421	112.69
278.652	116.69
278.884	137.69
279.115	127.69
279.347	125.69
279.579	152.69
279.81	154.69
280.042	141.69
280.273	138.69
280.505	150.69
280.736	129.69
280.968	131.69
281.199	128.69
281.431	119.69
281.662	127.69
281.894	132.69
282.125	108.69
282.356	117.69
282.588	112.69
282.819	119.69
283.051	130.69
283.282	118.69
283.513	142.69
283.745	116.69
283.976	129.69
284.207	121.69
284.439	127.69
284.67	133.69
284.901	141.69
285.132	141.69
285.364	135.69
285.595	129.69
285.826	125.69
286.057	128.69
286.288	119.69
286.52	127.69
286.751	116.69
286.982	139.69
287.213	115.69
287.444	131.69
287.675	124.69
287.906	123.69
288.138	144.69
288.369	129.69
288.6	138.69
288.831	113.69
289.062	133.69
289.293	119.69
289.524	131.69
289.755	125.69
289.986	133.69
290.217	139.69
290.448	120.69
290.679	128.69
290.91	126.69
291.141	129.69
291.371	122.69
291.602	114.69
291.833	130.69
292.064	131.69
292.295	118.69
292.526	148.69
292.757	119.69
292.987	123.69
293.218	117.69
293.449	140.69
293.68	125.69
293.91	123.69
294.141	142.69
294.372	125.69
294.603	122.69
294.833	119.69
295.064	129.69
295.295	134.69
295.525	111.69
295.756	123.69
295.987	126.69
296.217	125.69
296.448	142.69
296.679	145.69
296.909	143.69
297.14	147.69
297.37	124.69
297.601	139.69
297.831	128.69
298.062	141.69
298.292	140.69
298.523	123.69
298.753	137.69
298.984	135.69
299.214	146.69
299.445	122.69
299.675	131.69
299.905	131.69
300.136	129.69
300.366	120.69
300.597	132.69
300.827	136.69
301.057	148.69
301.288	143.69
301.518	126.69
301.748	134.69
301.979	172.69
302.209	138.69
302.439	134.69
302.669	153.69
302.9	158.69
303.13	139.69
303.36	126.69
303.59	137.69
303.82	144.69
304.051	146.69
304.281	140.69
304.511	153.69
304.741	139.69
304.971	130.69
305.201	134.69
305.431	126.69
305.661	154.69
305.891	131.69
306.121	131.69
306.352	159.69
306.582	134.69
306.812	117.69
307.042	133.69
307.272	139.69
307.502	143.69
307.731	151.69
307.961	133.69
308.191	154.69
308.421	136.69
308.651	143.69
308.881	155.69
309.111	136.69
309.341	125.69
309.571	132.69
309.8	124.69
310.03	131.69
310.26	141.69
310.49	138.69
310.72	133.69
310.949	142.69
311.179	129.69
311.409	132.69
311.639	136.69
311.868	139.69
312.098	130.69
312.328	130.69
312.557	148.69
312.787	155.69
313.017	134.69
313.246	133.69
313.476	139.69
313.706	133.69
313.935	136.69
314.165	131.69
314.394	152.69
314.624	131.69
314.853	141.69
315.083	152.69
315.312	135.69
315.542	122.69
315.771	139.69
316.001	133.69
316.23	157.69
316.46	155.69
316.689	153.69
316.919	155.69
317.148	142.69
317.377	155.69
317.607	143.69
317.836	126.69
318.065	143.69
318.295	158.69
318.524	141.69
318.753	155.69
318.983	146.69
319.212	156.69
319.441	133.69
319.67	152.69
319.9	147.69
320.129	150.69
320.358	141.69
320.587	141.69
320.816	135.69
321.046	155.69
321.275	143.69
321.504	143.69
321.733	150.69
321.962	145.69
322.191	159.69
322.42	136.69
322.649	144.69
322.878	144.69
323.108	163.69
323.337	172.69
323.566	159.69
323.795	180.69
324.024	165.69
324.253	155.69
324.482	142.69
324.71	136.69
324.939	177.69
325.168	158.69
325.397	145.69
325.626	158.69
325.855	148.69
326.084	148.69
326.313	156.69
326.542	136.69
326.77	139.69
326.999	152.69
327.228	130.69
327.457	150.69
327.686	156.69
327.914	161.69
328.143	181.69
328.372	175.69
328.6	172.69
328.829	158.69
329.058	172.69
329.287	145.69
329.515	150.69
329.744	162.69
329.972	170.69
330.201	186.69
330.43	210.69
330.658	165.69
330.887	157.69
331.115	168.69
331.344	162.69
331.572	170.69
331.801	152.69
332.03	165.69
332.258	191.69
332.486	157.69
332.715	190.69
332.943	176.69
333.172	178.69
333.4	186.69
333.629	189.69
333.857	182.69
334.085	184.69
334.314	227.69
334.542	230.69
334.771	216.69
334.999	205.69
335.227	188.69
335.455	188.69
335.684	185.69
335.912	180.69
336.14	183.69
336.369	179.69
336.597	176.69
336.825	170.69
337.053	180.69
337.281	181.69
337.51	171.69
337.738	175.69
337.966	152.69
338.194	164.69
338.422	165.69
338.65	173.69
338.878	175.69
339.106	158.69
339.334	163.69
339.562	154.69
339.79	142.69
340.018	141.69
340.246	149.69
340.474	153.69
340.702	153.69
340.93	155.69
341.158	158.69
341.386	162.69
341.614	158.69
341.842	148.69
342.07	158.69
342.298	165.69
342.526	156.69
342.754	138.69
342.981	164.69
343.209	168.69
343.437	203.69
343.665	157.69
343.893	168.69
344.12	186.69
344.348	171.69
344.576	169.69
344.804	164.69
345.031	151.69
345.259	141.69
345.487	178.69
345.714	142.69
345.942	155.69
346.17	141.69
346.397	157.69
346.625	146.69
346.853	155.69
347.08	146.69
347.308	164.69
347.535	146.69
347.763	148.69
347.99	159.69
348.218	168.69
348.445	157.69
348.673	142.69
348.9	146.69
349.128	147.69
349.355	144.69
349.583	145.69
349.81	136.69
350.037	152.69
350.265	153.69
350.492	147.69
350.72	149.69
350.947	147.69
351.174	164.69
351.402	142.69
351.629	141.69
351.856	149.69
352.083	155.69
352.311	148.69
352.538	141.69
352.765	136.69
352.992	167.69
353.22	153.69
353.447	138.69
353.674	148.69
353.901	164.69
354.128	154.69
354.355	147.69
354.583	136.69
354.81	152.69
355.037	149.69
355.264	157.69
355.491	140.69
355.718	138.69
355.945	140.69
356.172	157.69
356.399	154.69
356.626	150.69
356.853	163.69
357.08	156.69
357.307	156.69
357.534	156.69
357.761	145.69
357.988	167.69
358.215	160.69
358.441	158.69
358.668	144.69
358.895	141.69
359.122	133.69
359.349	134.69
359.576	152.69
359.802	151.69
360.029	149.69
360.256	149.69
360.483	144.69
360.709	148.69
360.936	155.69
361.163	157.69
361.39	142.69
361.616	149.69
361.843	154.69
362.07	160.69
362.296	143.69
362.523	155.69
362.749	151.69
362.976	152.69
363.203	166.69
363.429	166.69
363.656	152.69
363.882	162.69
364.109	136.69
364.335	162.69
364.562	160.69
364.788	150.69
365.015	167.69
365.241	150.69
365.468	149.69
365.694	160.69
365.92	141.69
366.147	144.69
366.373	146.69
366.599	148.69
366.826	146.69
367.052	142.69
367.278	157.69
367.505	139.69
367.731	173.69
367.957	165.69
368.184	162.69
368.41	156.69
368.636	155.69
368.862	155.69
369.089	173.69
369.315	148.69
369.541	153.69
369.767	162.69
369.993	149.69
370.219	156.69
370.445	150.69
370.672	152.69
370.898	162.69
371.124	148.69
371.35	150.69
371.576	152.69
371.802	152.69
372.028	173.69
372.254	165.69
372.48	174.69
372.706	177.69
372.932	159.69
373.158	145.69
373.384	168.69
373.61	181.69
373.835	179.69
374.061	158.69
374.287	162.69
374.513	159.69
374.739	173.69
374.965	176.69
375.191	172.69
375.416	174.69
375.642	171.69
375.868	169.69
376.094	178.69
376.319	185.69
376.545	174.69
376.771	170.69
376.997	158.69
377.222	170.69
377.448	148.69
377.674	157.69
377.899	169.69
378.125	181.69
378.35	160.69
378.576	153.69
378.802	153.69
379.027	157.69
379.253	156.69
379.478	169.69
379.704	170.69
379.929	175.69
380.155	156.69
380.38	162.69
380.606	156.69
380.831	164.69
381.057	177.69
381.282	161.69
381.507	155.69
381.733	166.69
381.958	176.69
382.184	167.69
382.409	174.69
382.634	190.69
382.86	160.69
383.085	177.69
383.31	162.69
383.535	174.69
383.761	178.69
383.986	185.69
384.211	177.69
384.436	172.69
384.662	170.69
384.887	184.69
385.112	151.69
385.337	186.69
385.562	166.69
385.787	181.69
386.013	184.69
386.238	187.69
386.463	183.69
386.688	213.69
386.913	196.69
387.138	152.69
387.363	183.69
387.588	195.69
387.813	198.69
388.038	170.69
388.263	193.69
388.488	173.69
388.713	180.69
388.938	183.69
389.163	186.69
389.387	185.69
389.612	176.69
389.837	172.69
390.062	176.69
390.287	173.69
390.512	187.69
390.736	185.69
390.961	185.69
391.186	187.69
391.411	193.69
391.636	200.69
391.86	182.69
392.085	204.69
392.31	192.69
392.534	202.69
392.759	195.69
392.984	212.69
393.208	227.69
393.433	288.69
393.658	244.69
393.882	202.69
394.107	193.69
394.331	202.69
394.556	189.69
394.78	192.69
395.005	188.69
395.229	189.69
395.454	212.69
395.678	197.69
395.903	210.69
396.127	202.69
396.352	221.69
396.576	232.69
396.801	256.69
397.025	242.69
397.249	212.69
397.474	201.69
397.698	179.69
397.922	204.69
398.147	210.69
398.371	202.69
398.595	222.69
398.82	193.69
399.044	230.69
399.268	240.69
399.492	260.69
399.717	269.69
399.941	240.69
400.165	248.69
400.389	238.69
400.613	215.69
400.837	221.69
401.062	223.69
401.286	226.69
401.51	213.69
401.734	209.69
401.958	208.69
402.182	226.69
402.406	228.69
402.63	221.69
402.854	228.69
403.078	226.69
403.302	231.69
403.526	231.69
403.75	240.69
403.974	238.69
404.198	244.69
404.422	250.69
404.645	236.69
404.869	214.69
405.093	237.69
405.317	218.69
405.541	222.69
405.765	221.69
405.988	219.69
406.212	215.69
406.436	233.69
406.66	246.69
406.883	219.69
407.107	240.69
407.331	251.69
407.555	255.69
407.778	247.69
408.002	236.69
408.226	241.69
408.449	242.69
408.673	234.69
408.896	229.69
409.12	231.69
409.344	225.69
409.567	226.69
409.791	225.69
410.014	223.69
410.238	226.69
410.461	230.69
410.685	226.69
410.908	214.69
411.132	225.69
411.355	211.69
411.578	233.69
411.802	207.69
412.025	232.69
412.249	224.69
412.472	201.69
412.695	219.69
412.919	219.69
413.142	229.69
413.365	230.69
413.589	234.69
413.812	208.69
414.035	225.69
414.258	221.69
414.482	224.69
414.705	213.69
414.928	228.69
415.151	221.69
415.374	217.69
415.597	219.69
415.821	223.69
416.044	213.69
416.267	220.69
416.49	213.69
416.713	212.69
416.936	200.69
417.159	198.69
417.382	207.69
417.605	202.69
417.828	234.69
418.051	219.69
418.274	227.69
418.497	232.69
418.72	228.69
418.943	230.69
419.166	231.69
419.389	230.69
419.611	235.69
419.834	226.69
420.057	215.69
420.28	216.69
420.503	213.69
420.726	223.69
420.948	209.69
421.171	210.69
421.394	228.69
421.617	208.69
421.839	204.69
422.062	202.69
422.285	216.69
422.507	226.69
422.73	240.69
422.953	232.69
423.175	220.69
423.398	224.69
423.621	241.69
423.843	234.69
424.066	217.69
424.288	223.69
424.511	214.69
424.733	225.69
424.956	217.69
425.178	219.69
425.401	213.69
425.623	229.69
425.846	220.69
426.068	222.69
426.291	208.69
426.513	211.69
426.735	212.69
426.958	196.69
427.18	202.69
427.402	217.69
427.625	205.69
427.847	205.69
428.069	204.69
428.292	222.69
428.514	209.69
428.736	208.69
428.958	194.69
429.181	215.69
429.403	188.69
429.625	199.69
429.847	196.69
430.069	186.69
430.292	210.69
430.514	194.69
430.736	214.69
430.958	209.69
431.18	185.69
431.402	196.69
431.624	214.69
431.846	195.69
432.068	184.69
432.29	192.69
432.512	216.69
432.734	208.69
432.956	203.69
433.178	212.69
433.4	203.69
433.622	229.69
433.844	197.69
434.066	213.69
434.287	198.69
434.509	195.69
434.731	202.69
434.953	216.69
435.175	218.69
435.397	194.69
435.618	216.69
435.84	194.69
436.062	196.69
436.284	180.69
436.505	195.69
436.727	180.69
436.949	190.69
437.17	197.69
437.392	197.69
437.614	212.69
437.835	177.69
438.057	175.69
438.278	185.69
438.5	187.69
438.721	207.69
438.943	191.69
439.165	217.69
439.386	197.69
439.608	212.69
439.829	221.69
440.05	204.69
440.272	194.69
440.493	208.69
440.715	202.69
440.936	208.69
441.158	221.69
441.379	212.69
441.6	219.69
441.822	224.69
442.043	221.69
442.264	224.69
442.486	230.69
442.707	209.69
442.928	205.69
443.149	218.69
443.371	224.69
443.592	220.69
443.813	227.69
444.034	217.69
444.255	228.69
444.476	251.69
444.698	233.69
444.919	235.69
445.14	433.69
445.361	309.69
445.582	223.69
445.803	243.69
446.024	218.69
446.245	214.69
446.466	208.69
446.687	192.69
446.908	204.69
447.129	222.69
447.35	192.69
447.571	202.69
447.792	193.69
448.013	197.69
448.234	190.69
448.455	181.69
448.675	186.69
448.896	182.69
449.117	201.69
449.338	184.69
449.559	188.69
449.779	189.69
450	193.69
450.221	180.69
450.442	206.69
450.662	189.69
450.883	187.69
451.104	200.69
451.324	208.69
451.545	179.69
451.766	188.69
451.986	179.69
452.207	206.69
452.428	199.69
452.648	206.69
452.869	191.69
453.089	181.69
453.31	174.69
453.53	195.69
453.751	187.69
453.971	175.69
454.192	174.69
454.412	176.69
454.633	183.69
454.853	177.69
455.073	184.69
455.294	179.69
455.514	173.69
455.734	184.69
455.955	186.69
456.175	186.69
456.395	179.69
456.616	180.69
456.836	193.69
457.056	178.69
457.276	172.69
457.497	171.69
457.717	152.69
457.937	177.69
458.157	183.69
458.377	168.69
458.598	186.69
458.818	185.69
459.038	187.69
459.258	189.69
459.478	176.69
459.698	186.69
459.918	198.69
460.138	206.69
460.358	219.69
460.578	233.69
460.798	221.69
461.018	211.69
461.238	223.69
461.458	210.69
461.678	234.69
461.898	209.69
462.118	218.69
462.338	238.69
462.558	233.69
462.777	224.69
462.997	239.69
463.217	250.69
463.437	244.69
463.657	229.69
463.876	223.69
464.096	227.69
464.316	235.69
464.536	227.69
464.755	232.69
464.975	220.69
465.195	220.69
465.414	210.69
465.634	197.69
465.854	202.69
466.073	185.69
466.293	188.69
466.512	189.69
466.732	192.69
466.951	194.69
467.171	185.69
467.391	193.69
467.61	196.69
467.829	196.69
468.049	212.69
468.268	216.69
468.488	207.69
468.707	191.69
468.927	189.69
469.146	192.69
469.365	192.69
469.585	195.69
469.804	184.69
470.023	190.69
470.243	212.69
470.462	198.69
470.681	212.69
470.901	204.69
471.12	202.69
471.339	185.69
471.558	193.69
471.777	203.69
471.997	202.69
472.216	217.69
472.435	233.69
472.654	209.69
472.873	189.69
473.092	182.69
473.311	199.69
473.53	182.69
473.749	189.69
473.968	194.69
474.187	170.69
474.406	168.69
474.625	202.69
474.844	189.69
475.063	188.69
475.282	173.69
475.501	180.69
475.72	202.69
475.939	201.69
476.158	192.69
476.377	198.69
476.596	190.69
476.814	179.69
477.033	196.69
477.252	201.69
477.471	181.69
477.69	206.69
477.908	207.69
478.127	235.69
478.346	217.69
478.564	221.69
478.783	210.69
479.002	221.69
479.22	221.69
479.439	204.69
479.658	205.69
479.876	191.69
480.095	210.69
480.313	233.69
480.532	224.69
480.751	233.69
480.969	223.69
481.188	277.69
481.406	264.69
481.624	223.69
481.843	214.69
482.061	205.69
482.28	225.69
482.498	199.69
482.717	204.69
482.935	200.69
483.153	215.69
483.372	224.69
483.59	210.69
483.808	219.69
484.027	202.69
484.245	211.69
484.463	217.69
484.681	217.69
484.9	209.69
485.118	222.69
485.336	221.69
485.554	198.69
485.772	197.69
485.99	210.69
486.209	226.69
486.427	213.69
486.645	207.69
486.863	204.69
487.081	214.69
487.299	224.69
487.517	234.69
487.735	239.69
487.953	208.69
488.171	211.69
488.389	210.69
488.607	230.69
488.825	194.69
489.043	227.69
489.261	220.69
489.479	219.69
489.696	229.69
489.914	214.69
490.132	210.69
490.35	211.69
490.568	225.69
490.786	223.69
491.003	225.69
491.221	225.69
491.439	212.69
491.657	249.69
491.874	241.69
492.092	228.69
492.31	238.69
492.527	224.69
492.745	229.69
492.963	242.69
493.18	229.69
493.398	220.69
493.615	228.69
493.833	232.69
494.05	228.69
494.268	229.69
494.485	224.69
494.703	229.69
494.92	230.69
495.138	235.69
495.355	218.69
495.573	228.69
495.79	225.69
496.008	241.69
496.225	233.69
496.442	221.69
496.66	243.69
496.877	226.69
497.094	248.69
497.312	226.69
497.529	244.69
497.746	227.69
497.963	245.69
498.181	249.69
498.398	271.69
498.615	258.69
498.832	292.69
499.049	295.69
499.267	319.69
499.484	333.69
499.701	355.69
499.918	402.69
500.135	451.69
500.352	484.69
500.569	449.69
500.786	471.69
501.003	443.69
501.22	399.69
501.437	352.69
501.654	325.69
501.871	317.69
502.088	307.69
502.305	284.69
502.522	274.69
502.739	280.69
502.956	261.69
503.172	261.69
503.389	250.69
503.606	257.69
503.823	236.69
504.04	249.69
