Data from SampB_HRD10591_00072.txt Node
Date: Mon Jan 19 11:33:53 EST 2026
User: Yrep
Spectrometer: HR+D1059
Trigger mode: 0
Integration Time (sec): 3.443000E-1
Scans to average: 1
Electric dark correction enabled: true
Nonlinearity correction enabled: false
Boxcar width: 0
XAxis mode: Wavelengths
Number of Pixels in Spectrum: 2048
>>>>>Begin Spectral Data<<<<<
223.165	-4.88
223.4	-4.88
223.635	-4.88
223.869	-19.88
224.104	-31.88
224.338	-19.88
224.573	-15.88
224.808	-3.88
225.042	-9.88
225.277	0.12
225.511	1.12
225.746	-1.88
225.98	-12.88
226.215	9.12
226.449	17.12
226.683	22.12
226.918	32.12
227.152	39.12
227.387	36.12
227.621	43.12
227.856	41.12
228.09	58.12
228.324	58.12
228.559	64.12
228.793	77.12
229.027	68.12
229.262	68.12
229.496	87.12
229.73	83.12
229.964	76.12
230.199	91.12
230.433	90.12
230.667	84.12
230.901	88.12
231.136	71.12
231.37	90.12
231.604	90.12
231.838	81.12
232.072	84.12
232.306	100.12
232.541	84.12
232.775	75.12
233.009	98.12
233.243	86.12
233.477	84.12
233.711	100.12
233.945	90.12
234.179	94.12
234.413	96.12
234.647	85.12
234.881	78.12
235.115	88.12
235.349	93.12
235.583	93.12
235.817	84.12
236.051	92.12
236.285	76.12
236.519	87.12
236.753	64.12
236.987	105.12
237.221	95.12
237.455	101.12
237.689	80.12
237.922	80.12
238.156	79.12
238.39	77.12
238.624	83.12
238.858	96.12
239.091	97.12
239.325	86.12
239.559	83.12
239.793	99.12
240.027	110.12
240.26	90.12
240.494	78.12
240.728	81.12
240.961	95.12
241.195	97.12
241.429	100.12
241.662	97.12
241.896	94.12
242.13	92.12
242.363	96.12
242.597	92.12
242.83	93.12
243.064	95.12
243.298	85.12
243.531	97.12
243.765	97.12
243.998	104.12
244.232	92.12
244.465	86.12
244.699	91.12
244.932	83.12
245.166	78.12
245.399	116.12
245.633	80.12
245.866	95.12
246.099	92.12
246.333	93.12
246.566	82.12
246.8	87.12
247.033	79.12
247.266	99.12
247.5	86.12
247.733	92.12
247.966	85.12
248.2	96.12
248.433	103.12
248.666	90.12
248.899	94.12
249.133	96.12
249.366	102.12
249.599	113.12
249.832	98.12
250.066	122.12
250.299	80.12
250.532	96.12
250.765	89.12
250.998	98.12
251.231	96.12
251.465	113.12
251.698	94.12
251.931	105.12
252.164	111.12
252.397	101.12
252.63	101.12
252.863	111.12
253.096	116.12
253.329	101.12
253.562	102.12
253.795	114.12
254.028	118.12
254.261	105.12
254.494	117.12
254.727	103.12
254.96	113.12
255.193	112.12
255.426	97.12
255.659	105.12
255.892	121.12
256.124	116.12
256.357	113.12
256.59	110.12
256.823	103.12
257.056	93.12
257.289	102.12
257.521	99.12
257.754	103.12
257.987	111.12
258.22	113.12
258.452	110.12
258.685	102.12
258.918	99.12
259.151	109.12
259.383	113.12
259.616	114.12
259.849	106.12
260.081	106.12
260.314	109.12
260.547	105.12
260.779	99.12
261.012	122.12
261.244	109.12
261.477	121.12
261.71	103.12
261.942	117.12
262.175	121.12
262.407	111.12
262.64	112.12
262.872	114.12
263.105	120.12
263.337	131.12
263.57	103.12
263.802	103.12
264.035	109.12
264.267	93.12
264.499	113.12
264.732	107.12
264.964	106.12
265.197	105.12
265.429	121.12
265.661	99.12
265.894	100.12
266.126	109.12
266.358	103.12
266.591	103.12
266.823	129.12
267.055	101.12
267.287	93.12
267.52	102.12
267.752	117.12
267.984	107.12
268.216	118.12
268.448	119.12
268.681	130.12
268.913	121.12
269.145	113.12
269.377	120.12
269.609	118.12
269.841	114.12
270.073	103.12
270.306	109.12
270.538	103.12
270.77	124.12
271.002	102.12
271.234	117.12
271.466	118.12
271.698	108.12
271.93	123.12
272.162	127.12
272.394	119.12
272.626	114.12
272.858	130.12
273.09	120.12
273.322	131.12
273.553	109.12
273.785	120.12
274.017	118.12
274.249	137.12
274.481	140.12
274.713	130.12
274.945	140.12
275.176	128.12
275.408	137.12
275.64	118.12
275.872	113.12
276.104	120.12
276.335	115.12
276.567	126.12
276.799	109.12
277.031	109.12
277.262	128.12
277.494	120.12
277.726	121.12
277.957	117.12
278.189	117.12
278.421	129.12
278.652	117.12
278.884	121.12
279.115	125.12
279.347	126.12
279.579	119.12
279.81	119.12
280.042	125.12
280.273	125.12
280.505	130.12
280.736	114.12
280.968	132.12
281.199	120.12
281.431	137.12
281.662	118.12
281.894	130.12
282.125	129.12
282.356	114.12
282.588	124.12
282.819	126.12
283.051	140.12
283.282	123.12
283.513	126.12
283.745	133.12
283.976	132.12
284.207	132.12
284.439	135.12
284.67	130.12
284.901	121.12
285.132	133.12
285.364	126.12
285.595	117.12
285.826	141.12
286.057	127.12
286.288	111.12
286.52	136.12
286.751	125.12
286.982	140.12
287.213	134.12
287.444	138.12
287.675	139.12
287.906	129.12
288.138	133.12
288.369	132.12
288.6	123.12
288.831	127.12
289.062	123.12
289.293	124.12
289.524	130.12
289.755	126.12
289.986	124.12
290.217	138.12
290.448	130.12
290.679	133.12
290.91	140.12
291.141	140.12
291.371	124.12
291.602	149.12
291.833	132.12
292.064	122.12
292.295	141.12
292.526	140.12
292.757	139.12
292.987	141.12
293.218	129.12
293.449	127.12
293.68	132.12
293.91	127.12
294.141	137.12
294.372	135.12
294.603	146.12
294.833	137.12
295.064	142.12
295.295	147.12
295.525	135.12
295.756	140.12
295.987	146.12
296.217	134.12
296.448	134.12
296.679	153.12
296.909	131.12
297.14	155.12
297.37	143.12
297.601	138.12
297.831	138.12
298.062	150.12
298.292	131.12
298.523	145.12
298.753	133.12
298.984	140.12
299.214	132.12
299.445	125.12
299.675	135.12
299.905	137.12
300.136	129.12
300.366	142.12
300.597	123.12
300.827	146.12
301.057	135.12
301.288	136.12
301.518	142.12
301.748	144.12
301.979	177.12
302.209	149.12
302.439	141.12
302.669	130.12
302.9	153.12
303.13	130.12
303.36	133.12
303.59	147.12
303.82	149.12
304.051	153.12
304.281	142.12
304.511	156.12
304.741	142.12
304.971	139.12
305.201	141.12
305.431	132.12
305.661	139.12
305.891	141.12
306.121	147.12
306.352	143.12
306.582	142.12
306.812	128.12
307.042	155.12
307.272	126.12
307.502	137.12
307.731	156.12
307.961	150.12
308.191	144.12
308.421	152.12
308.651	149.12
308.881	146.12
309.111	147.12
309.341	127.12
309.571	134.12
309.8	129.12
310.03	134.12
310.26	143.12
310.49	140.12
310.72	147.12
310.949	141.12
311.179	146.12
311.409	149.12
311.639	125.12
311.868	152.12
312.098	148.12
312.328	142.12
312.557	157.12
312.787	154.12
313.017	128.12
313.246	139.12
313.476	157.12
313.706	132.12
313.935	150.12
314.165	143.12
314.394	159.12
314.624	148.12
314.853	143.12
315.083	123.12
315.312	140.12
315.542	151.12
315.771	137.12
316.001	149.12
316.23	150.12
316.46	138.12
316.689	146.12
316.919	158.12
317.148	155.12
317.377	158.12
317.607	138.12
317.836	139.12
318.065	149.12
318.295	134.12
318.524	153.12
318.753	145.12
318.983	163.12
319.212	138.12
319.441	126.12
319.67	132.12
319.9	150.12
320.129	146.12
320.358	152.12
320.587	125.12
320.816	135.12
321.046	149.12
321.275	172.12
321.504	130.12
321.733	157.12
321.962	129.12
322.191	131.12
322.42	134.12
322.649	135.12
322.878	139.12
323.108	161.12
323.337	147.12
323.566	155.12
323.795	142.12
324.024	153.12
324.253	155.12
324.482	146.12
324.71	133.12
324.939	159.12
325.168	151.12
325.397	153.12
325.626	134.12
325.855	153.12
326.084	160.12
326.313	159.12
326.542	164.12
326.77	165.12
326.999	159.12
327.228	143.12
327.457	137.12
327.686	173.12
327.914	165.12
328.143	173.12
328.372	189.12
328.6	167.12
328.829	160.12
329.058	171.12
329.287	162.12
329.515	166.12
329.744	168.12
329.972	174.12
330.201	185.12
330.43	194.12
330.658	177.12
330.887	185.12
331.115	178.12
331.344	154.12
331.572	182.12
331.801	166.12
332.03	164.12
332.258	165.12
332.486	183.12
332.715	177.12
332.943	188.12
333.172	194.12
333.4	169.12
333.629	179.12
333.857	184.12
334.085	199.12
334.314	213.12
334.542	213.12
334.771	205.12
334.999	189.12
335.227	190.12
335.455	163.12
335.684	178.12
335.912	166.12
336.14	185.12
336.369	180.12
336.597	165.12
336.825	157.12
337.053	169.12
337.281	148.12
337.51	154.12
337.738	171.12
337.966	137.12
338.194	171.12
338.422	165.12
338.65	166.12
338.878	163.12
339.106	166.12
339.334	180.12
339.562	151.12
339.79	158.12
340.018	169.12
340.246	155.12
340.474	153.12
340.702	154.12
340.93	157.12
341.158	155.12
341.386	156.12
341.614	157.12
341.842	153.12
342.07	156.12
342.298	154.12
342.526	147.12
342.754	151.12
342.981	163.12
343.209	168.12
343.437	192.12
343.665	161.12
343.893	172.12
344.12	183.12
344.348	162.12
344.576	181.12
344.804	163.12
345.031	165.12
345.259	160.12
345.487	169.12
345.714	155.12
345.942	164.12
346.17	175.12
346.397	132.12
346.625	157.12
346.853	147.12
347.08	153.12
347.308	157.12
347.535	149.12
347.763	157.12
347.99	151.12
348.218	178.12
348.445	143.12
348.673	155.12
348.9	160.12
349.128	164.12
349.355	148.12
349.583	157.12
349.81	156.12
350.037	148.12
350.265	153.12
350.492	147.12
350.72	160.12
350.947	148.12
351.174	160.12
351.402	163.12
351.629	166.12
351.856	150.12
352.083	172.12
352.311	158.12
352.538	151.12
352.765	166.12
352.992	160.12
353.22	149.12
353.447	155.12
353.674	153.12
353.901	129.12
354.128	149.12
354.355	144.12
354.583	144.12
354.81	159.12
355.037	152.12
355.264	155.12
355.491	164.12
355.718	172.12
355.945	158.12
356.172	155.12
356.399	163.12
356.626	157.12
356.853	156.12
357.08	162.12
357.307	148.12
357.534	149.12
357.761	156.12
357.988	162.12
358.215	169.12
358.441	147.12
358.668	140.12
358.895	167.12
359.122	161.12
359.349	153.12
359.576	142.12
359.802	151.12
360.029	145.12
360.256	134.12
360.483	157.12
360.709	138.12
360.936	175.12
361.163	153.12
361.39	149.12
361.616	159.12
361.843	137.12
362.07	171.12
362.296	154.12
362.523	144.12
362.749	158.12
362.976	149.12
363.203	171.12
363.429	150.12
363.656	134.12
363.882	129.12
364.109	155.12
364.335	160.12
364.562	162.12
364.788	152.12
365.015	151.12
365.241	159.12
365.468	139.12
365.694	148.12
365.92	157.12
366.147	157.12
366.373	139.12
366.599	165.12
366.826	158.12
367.052	151.12
367.278	161.12
367.505	144.12
367.731	160.12
367.957	153.12
368.184	157.12
368.41	154.12
368.636	162.12
368.862	159.12
369.089	155.12
369.315	166.12
369.541	168.12
369.767	154.12
369.993	159.12
370.219	161.12
370.445	161.12
370.672	164.12
370.898	156.12
371.124	158.12
371.35	160.12
371.576	167.12
371.802	155.12
372.028	161.12
372.254	170.12
372.48	165.12
372.706	167.12
372.932	163.12
373.158	174.12
373.384	190.12
373.61	177.12
373.835	168.12
374.061	157.12
374.287	155.12
374.513	167.12
374.739	185.12
374.965	181.12
375.191	184.12
375.416	157.12
375.642	183.12
375.868	157.12
376.094	166.12
376.319	163.12
376.545	174.12
376.771	177.12
376.997	183.12
377.222	167.12
377.448	157.12
377.674	173.12
377.899	164.12
378.125	144.12
378.35	172.12
378.576	174.12
378.802	168.12
379.027	179.12
379.253	166.12
379.478	146.12
379.704	174.12
379.929	163.12
380.155	175.12
380.38	161.12
380.606	162.12
380.831	179.12
381.057	173.12
381.282	162.12
381.507	163.12
381.733	164.12
381.958	166.12
382.184	175.12
382.409	159.12
382.634	191.12
382.86	170.12
383.085	183.12
383.31	178.12
383.535	171.12
383.761	169.12
383.986	178.12
384.211	172.12
384.436	189.12
384.662	181.12
384.887	176.12
385.112	168.12
385.337	178.12
385.562	182.12
385.787	170.12
386.013	183.12
386.238	182.12
386.463	187.12
386.688	230.12
386.913	182.12
387.138	183.12
387.363	172.12
387.588	177.12
387.813	190.12
388.038	178.12
388.263	185.12
388.488	185.12
388.713	185.12
388.938	186.12
389.163	173.12
389.387	182.12
389.612	164.12
389.837	202.12
390.062	185.12
390.287	183.12
390.512	184.12
390.736	187.12
390.961	196.12
391.186	182.12
391.411	188.12
391.636	183.12
391.86	191.12
392.085	186.12
392.31	198.12
392.534	199.12
392.759	187.12
392.984	185.12
393.208	202.12
393.433	186.12
393.658	190.12
393.882	197.12
394.107	175.12
394.331	196.12
394.556	203.12
394.78	198.12
395.005	203.12
395.229	203.12
395.454	206.12
395.678	197.12
395.903	204.12
396.127	235.12
396.352	210.12
396.576	198.12
396.801	196.12
397.025	224.12
397.249	197.12
397.474	217.12
397.698	198.12
397.922	203.12
398.147	193.12
398.371	204.12
398.595	213.12
398.82	203.12
399.044	230.12
399.268	263.12
399.492	269.12
399.717	299.12
399.941	249.12
400.165	256.12
400.389	236.12
400.613	228.12
400.837	235.12
401.062	225.12
401.286	200.12
401.51	226.12
401.734	200.12
401.958	212.12
402.182	221.12
402.406	219.12
402.63	225.12
402.854	234.12
403.078	223.12
403.302	237.12
403.526	238.12
403.75	246.12
403.974	229.12
404.198	238.12
404.422	246.12
404.645	228.12
404.869	242.12
405.093	251.12
405.317	225.12
405.541	219.12
405.765	231.12
405.988	230.12
406.212	235.12
406.436	243.12
406.66	232.12
406.883	241.12
407.107	244.12
407.331	243.12
407.555	259.12
407.778	249.12
408.002	235.12
408.226	260.12
408.449	256.12
408.673	240.12
408.896	226.12
409.12	229.12
409.344	233.12
409.567	224.12
409.791	248.12
410.014	252.12
410.238	234.12
410.461	219.12
410.685	227.12
410.908	218.12
411.132	211.12
411.355	210.12
411.578	223.12
411.802	222.12
412.025	229.12
412.249	224.12
412.472	221.12
412.695	235.12
412.919	220.12
413.142	226.12
413.365	204.12
413.589	218.12
413.812	225.12
414.035	230.12
414.258	234.12
414.482	230.12
414.705	224.12
414.928	242.12
415.151	208.12
415.374	227.12
415.597	206.12
415.821	225.12
416.044	221.12
416.267	227.12
416.49	206.12
416.713	221.12
416.936	220.12
417.159	219.12
417.382	206.12
417.605	222.12
417.828	229.12
418.051	219.12
418.274	229.12
418.497	221.12
418.72	224.12
418.943	227.12
419.166	240.12
419.389	236.12
419.611	249.12
419.834	216.12
420.057	230.12
420.28	229.12
420.503	223.12
420.726	217.12
420.948	240.12
421.171	226.12
421.394	214.12
421.617	237.12
421.839	229.12
422.062	209.12
422.285	205.12
422.507	212.12
422.73	209.12
422.953	226.12
423.175	234.12
423.398	226.12
423.621	249.12
423.843	240.12
424.066	227.12
424.288	234.12
424.511	217.12
424.733	227.12
424.956	229.12
425.178	220.12
425.401	231.12
425.623	221.12
425.846	222.12
426.068	226.12
426.291	217.12
426.513	214.12
426.735	229.12
426.958	193.12
427.18	218.12
427.402	225.12
427.625	207.12
427.847	204.12
428.069	205.12
428.292	210.12
428.514	194.12
428.736	187.12
428.958	188.12
429.181	207.12
429.403	213.12
429.625	189.12
429.847	199.12
430.069	223.12
430.292	206.12
430.514	208.12
430.736	205.12
430.958	188.12
431.18	203.12
431.402	198.12
431.624	198.12
431.846	189.12
432.068	202.12
432.29	205.12
432.512	209.12
432.734	205.12
432.956	225.12
433.178	221.12
433.4	205.12
433.622	233.12
433.844	211.12
434.066	207.12
434.287	199.12
434.509	195.12
434.731	213.12
434.953	195.12
435.175	216.12
435.397	210.12
435.618	208.12
435.84	192.12
436.062	207.12
436.284	196.12
436.505	206.12
436.727	212.12
436.949	207.12
437.17	197.12
437.392	201.12
437.614	204.12
437.835	177.12
438.057	190.12
438.278	185.12
438.5	187.12
438.721	201.12
438.943	177.12
439.165	185.12
439.386	209.12
439.608	211.12
439.829	217.12
440.05	225.12
440.272	204.12
440.493	223.12
440.715	209.12
440.936	207.12
441.158	217.12
441.379	232.12
441.6	211.12
441.822	228.12
442.043	222.12
442.264	230.12
442.486	187.12
442.707	209.12
442.928	218.12
443.149	230.12
443.371	246.12
443.592	221.12
443.813	214.12
444.034	215.12
444.255	225.12
444.476	253.12
444.698	240.12
444.919	242.12
445.14	420.12
445.361	320.12
445.582	246.12
445.803	229.12
446.024	209.12
446.245	224.12
446.466	213.12
446.687	189.12
446.908	205.12
447.129	231.12
447.35	205.12
447.571	210.12
447.792	210.12
448.013	194.12
448.234	203.12
448.455	198.12
448.675	192.12
448.896	171.12
449.117	181.12
449.338	188.12
449.559	185.12
449.779	193.12
450	182.12
450.221	179.12
450.442	200.12
450.662	183.12
450.883	201.12
451.104	217.12
451.324	188.12
451.545	186.12
451.766	205.12
451.986	199.12
452.207	189.12
452.428	205.12
452.648	204.12
452.869	197.12
453.089	199.12
453.31	179.12
453.53	179.12
453.751	187.12
453.971	177.12
454.192	181.12
454.412	176.12
454.633	194.12
454.853	193.12
455.073	189.12
455.294	189.12
455.514	202.12
455.734	159.12
455.955	187.12
456.175	162.12
456.395	176.12
456.616	168.12
456.836	189.12
457.056	180.12
457.276	181.12
457.497	181.12
457.717	188.12
457.937	187.12
458.157	181.12
458.377	175.12
458.598	175.12
458.818	181.12
459.038	180.12
459.258	185.12
459.478	188.12
459.698	194.12
459.918	200.12
460.138	204.12
460.358	224.12
460.578	231.12
460.798	222.12
461.018	228.12
461.238	222.12
461.458	229.12
461.678	209.12
461.898	222.12
462.118	238.12
462.338	222.12
462.558	249.12
462.777	244.12
462.997	246.12
463.217	263.12
463.437	249.12
463.657	256.12
463.876	225.12
464.096	225.12
464.316	236.12
464.536	228.12
464.755	241.12
464.975	213.12
465.195	228.12
465.414	210.12
465.634	203.12
465.854	198.12
466.073	204.12
466.293	215.12
466.512	196.12
466.732	191.12
466.951	199.12
467.171	220.12
467.391	201.12
467.61	212.12
467.829	190.12
468.049	213.12
468.268	206.12
468.488	210.12
468.707	201.12
468.927	199.12
469.146	205.12
469.365	213.12
469.585	209.12
469.804	187.12
470.023	214.12
470.243	201.12
470.462	214.12
470.681	210.12
470.901	206.12
471.12	205.12
471.339	206.12
471.558	203.12
471.777	225.12
471.997	207.12
472.216	217.12
472.435	253.12
472.654	204.12
472.873	198.12
473.092	209.12
473.311	196.12
473.53	208.12
473.749	185.12
473.968	208.12
474.187	181.12
474.406	196.12
474.625	182.12
474.844	192.12
475.063	189.12
475.282	198.12
475.501	180.12
475.72	202.12
475.939	203.12
476.158	205.12
476.377	192.12
476.596	201.12
476.814	204.12
477.033	194.12
477.252	203.12
477.471	198.12
477.69	196.12
477.908	214.12
478.127	231.12
478.346	237.12
478.564	210.12
478.783	209.12
479.002	224.12
479.22	242.12
479.439	228.12
479.658	222.12
479.876	209.12
480.095	218.12
480.313	236.12
480.532	241.12
480.751	237.12
480.969	249.12
481.188	285.12
481.406	264.12
481.624	228.12
481.843	213.12
482.061	209.12
482.28	196.12
482.498	215.12
482.717	189.12
482.935	206.12
483.153	203.12
483.372	210.12
483.59	220.12
483.808	206.12
484.027	206.12
484.245	219.12
484.463	210.12
484.681	244.12
484.9	224.12
485.118	222.12
485.336	210.12
485.554	209.12
485.772	205.12
485.99	226.12
486.209	215.12
486.427	224.12
486.645	205.12
486.863	212.12
487.081	219.12
487.299	203.12
487.517	210.12
487.735	233.12
487.953	220.12
488.171	229.12
488.389	220.12
488.607	217.12
488.825	210.12
489.043	196.12
489.261	222.12
489.479	214.12
489.696	211.12
489.914	214.12
490.132	219.12
490.35	219.12
490.568	226.12
490.786	224.12
491.003	233.12
491.221	232.12
491.439	238.12
491.657	242.12
491.874	241.12
492.092	236.12
492.31	261.12
492.527	239.12
492.745	231.12
492.963	238.12
493.18	221.12
493.398	228.12
493.615	254.12
493.833	245.12
494.05	248.12
494.268	229.12
494.485	227.12
494.703	246.12
494.92	231.12
495.138	223.12
495.355	238.12
495.573	230.12
495.79	241.12
496.008	258.12
496.225	238.12
496.442	232.12
496.66	257.12
496.877	241.12
497.094	237.12
497.312	256.12
497.529	271.12
497.746	269.12
497.963	254.12
498.181	270.12
498.398	276.12
498.615	292.12
498.832	284.12
499.049	296.12
499.267	318.12
499.484	352.12
499.701	367.12
499.918	421.12
500.135	463.12
500.352	473.12
500.569	492.12
500.786	503.12
501.003	452.12
501.22	429.12
501.437	366.12
501.654	335.12
501.871	324.12
502.088	293.12
502.305	294.12
502.522	282.12
502.739	279.12
502.956	254.12
503.172	273.12
503.389	253.12
503.606	242.12
503.823	236.12
504.04	249.12
