Data from SampB_HRD10591_00002.txt Node
Date: Mon Jan 19 11:33:29 EST 2026
User: Yrep
Spectrometer: HR+D1059
Trigger mode: 0
Integration Time (sec): 3.443000E-1
Scans to average: 1
Electric dark correction enabled: true
Nonlinearity correction enabled: false
Boxcar width: 0
XAxis mode: Wavelengths
Number of Pixels in Spectrum: 2048
>>>>>Begin Spectral Data<<<<<
223.165	-31.25
223.4	-31.25
223.635	-31.25
223.869	-18.25
224.104	-6.25
224.338	-18.25
224.573	-17.25
224.808	-21.25
225.042	-13.25
225.277	3.75
225.511	-11.25
225.746	16.75
225.98	9.75
226.215	-2.25
226.449	19.75
226.683	21.75
226.918	36.75
227.152	30.75
227.387	43.75
227.621	45.75
227.856	51.75
228.09	48.75
228.324	45.75
228.559	60.75
228.793	72.75
229.027	82.75
229.262	65.75
229.496	59.75
229.73	73.75
229.964	81.75
230.199	72.75
230.433	69.75
230.667	86.75
230.901	68.75
231.136	80.75
231.37	82.75
231.604	84.75
231.838	90.75
232.072	87.75
232.306	100.75
232.541	93.75
232.775	94.75
233.009	88.75
233.243	80.75
233.477	83.75
233.711	87.75
233.945	91.75
234.179	96.75
234.413	98.75
234.647	97.75
234.881	86.75
235.115	80.75
235.349	83.75
235.583	73.75
235.817	72.75
236.051	84.75
236.285	76.75
236.519	78.75
236.753	98.75
236.987	102.75
237.221	81.75
237.455	91.75
237.689	84.75
237.922	80.75
238.156	87.75
238.39	61.75
238.624	88.75
238.858	75.75
239.091	82.75
239.325	94.75
239.559	87.75
239.793	94.75
240.027	88.75
240.26	79.75
240.494	90.75
240.728	82.75
240.961	81.75
241.195	103.75
241.429	99.75
241.662	72.75
241.896	93.75
242.13	100.75
242.363	89.75
242.597	80.75
242.83	101.75
243.064	108.75
243.298	88.75
243.531	105.75
243.765	89.75
243.998	110.75
244.232	93.75
244.465	87.75
244.699	88.75
244.932	101.75
245.166	80.75
245.399	98.75
245.633	89.75
245.866	91.75
246.099	87.75
246.333	104.75
246.566	89.75
246.8	92.75
247.033	92.75
247.266	88.75
247.5	90.75
247.733	91.75
247.966	100.75
248.2	97.75
248.433	107.75
248.666	94.75
248.899	77.75
249.133	103.75
249.366	99.75
249.599	104.75
249.832	110.75
250.066	123.75
250.299	115.75
250.532	124.75
250.765	92.75
250.998	92.75
251.231	104.75
251.465	98.75
251.698	102.75
251.931	98.75
252.164	99.75
252.397	95.75
252.63	102.75
252.863	117.75
253.096	117.75
253.329	108.75
253.562	98.75
253.795	109.75
254.028	119.75
254.261	107.75
254.494	111.75
254.727	117.75
254.96	126.75
255.193	112.75
255.426	105.75
255.659	112.75
255.892	115.75
256.124	116.75
256.357	108.75
256.59	99.75
256.823	112.75
257.056	126.75
257.289	102.75
257.521	121.75
257.754	104.75
257.987	118.75
258.22	104.75
258.452	122.75
258.685	97.75
258.918	117.75
259.151	87.75
259.383	112.75
259.616	101.75
259.849	111.75
260.081	131.75
260.314	97.75
260.547	114.75
260.779	124.75
261.012	119.75
261.244	114.75
261.477	146.75
261.71	116.75
261.942	115.75
262.175	116.75
262.407	91.75
262.64	114.75
262.872	116.75
263.105	121.75
263.337	121.75
263.57	121.75
263.802	112.75
264.035	120.75
264.267	115.75
264.499	115.75
264.732	119.75
264.964	129.75
265.197	134.75
265.429	105.75
265.661	110.75
265.894	116.75
266.126	122.75
266.358	110.75
266.591	118.75
266.823	112.75
267.055	126.75
267.287	127.75
267.52	108.75
267.752	119.75
267.984	122.75
268.216	125.75
268.448	143.75
268.681	118.75
268.913	120.75
269.145	113.75
269.377	111.75
269.609	121.75
269.841	116.75
270.073	118.75
270.306	106.75
270.538	119.75
270.77	119.75
271.002	119.75
271.234	119.75
271.466	128.75
271.698	117.75
271.93	113.75
272.162	120.75
272.394	129.75
272.626	132.75
272.858	113.75
273.09	131.75
273.322	120.75
273.553	137.75
273.785	121.75
274.017	111.75
274.249	128.75
274.481	116.75
274.713	132.75
274.945	147.75
275.176	145.75
275.408	139.75
275.64	143.75
275.872	141.75
276.104	148.75
276.335	137.75
276.567	118.75
276.799	116.75
277.031	136.75
277.262	149.75
277.494	138.75
277.726	145.75
277.957	144.75
278.189	133.75
278.421	128.75
278.652	117.75
278.884	133.75
279.115	126.75
279.347	164.75
279.579	167.75
279.81	181.75
280.042	171.75
280.273	157.75
280.505	152.75
280.736	169.75
280.968	143.75
281.199	134.75
281.431	142.75
281.662	134.75
281.894	131.75
282.125	132.75
282.356	137.75
282.588	137.75
282.819	134.75
283.051	149.75
283.282	119.75
283.513	158.75
283.745	142.75
283.976	143.75
284.207	141.75
284.439	139.75
284.67	137.75
284.901	140.75
285.132	152.75
285.364	157.75
285.595	154.75
285.826	141.75
286.057	159.75
286.288	148.75
286.52	147.75
286.751	141.75
286.982	148.75
287.213	134.75
287.444	156.75
287.675	134.75
287.906	151.75
288.138	162.75
288.369	155.75
288.6	150.75
288.831	156.75
289.062	163.75
289.293	149.75
289.524	134.75
289.755	145.75
289.986	148.75
290.217	147.75
290.448	153.75
290.679	156.75
290.91	165.75
291.141	147.75
291.371	145.75
291.602	155.75
291.833	122.75
292.064	138.75
292.295	160.75
292.526	148.75
292.757	168.75
292.987	156.75
293.218	158.75
293.449	168.75
293.68	157.75
293.91	142.75
294.141	156.75
294.372	156.75
294.603	155.75
294.833	162.75
295.064	154.75
295.295	153.75
295.525	153.75
295.756	148.75
295.987	157.75
296.217	156.75
296.448	159.75
296.679	155.75
296.909	160.75
297.14	166.75
297.37	168.75
297.601	158.75
297.831	165.75
298.062	163.75
298.292	172.75
298.523	158.75
298.753	173.75
298.984	161.75
299.214	175.75
299.445	156.75
299.675	167.75
299.905	167.75
300.136	155.75
300.366	163.75
300.597	158.75
300.827	156.75
301.057	181.75
301.288	167.75
301.518	166.75
301.748	171.75
301.979	218.75
302.209	175.75
302.439	165.75
302.669	162.75
302.9	147.75
303.13	176.75
303.36	169.75
303.59	170.75
303.82	171.75
304.051	182.75
304.281	181.75
304.511	164.75
304.741	174.75
304.971	171.75
305.201	165.75
305.431	172.75
305.661	173.75
305.891	166.75
306.121	165.75
306.352	161.75
306.582	178.75
306.812	172.75
307.042	168.75
307.272	190.75
307.502	173.75
307.731	167.75
307.961	190.75
308.191	168.75
308.421	175.75
308.651	179.75
308.881	183.75
309.111	175.75
309.341	169.75
309.571	173.75
309.8	173.75
310.03	179.75
310.26	157.75
310.49	180.75
310.72	168.75
310.949	162.75
311.179	158.75
311.409	169.75
311.639	172.75
311.868	181.75
312.098	181.75
312.328	172.75
312.557	173.75
312.787	156.75
313.017	178.75
313.246	200.75
313.476	180.75
313.706	159.75
313.935	169.75
314.165	174.75
314.394	179.75
314.624	168.75
314.853	173.75
315.083	170.75
315.312	186.75
315.542	171.75
315.771	191.75
316.001	188.75
316.23	183.75
316.46	174.75
316.689	184.75
316.919	180.75
317.148	161.75
317.377	176.75
317.607	178.75
317.836	169.75
318.065	165.75
318.295	185.75
318.524	171.75
318.753	181.75
318.983	170.75
319.212	177.75
319.441	182.75
319.67	171.75
319.9	171.75
320.129	179.75
320.358	177.75
320.587	169.75
320.816	158.75
321.046	167.75
321.275	168.75
321.504	179.75
321.733	182.75
321.962	177.75
322.191	188.75
322.42	174.75
322.649	195.75
322.878	199.75
323.108	188.75
323.337	211.75
323.566	221.75
323.795	213.75
324.024	206.75
324.253	191.75
324.482	197.75
324.71	182.75
324.939	200.75
325.168	205.75
325.397	201.75
325.626	192.75
325.855	174.75
326.084	188.75
326.313	189.75
326.542	181.75
326.77	203.75
326.999	192.75
327.228	210.75
327.457	205.75
327.686	212.75
327.914	238.75
328.143	256.75
328.372	244.75
328.6	225.75
328.829	206.75
329.058	197.75
329.287	204.75
329.515	206.75
329.744	242.75
329.972	270.75
330.201	300.75
330.43	307.75
330.658	243.75
330.887	210.75
331.115	211.75
331.344	199.75
331.572	223.75
331.801	204.75
332.03	220.75
332.258	227.75
332.486	231.75
332.715	236.75
332.943	229.75
333.172	254.75
333.4	250.75
333.629	260.75
333.857	301.75
334.085	323.75
334.314	376.75
334.542	421.75
334.771	382.75
334.999	303.75
335.227	268.75
335.455	244.75
335.684	237.75
335.912	252.75
336.14	244.75
336.369	247.75
336.597	207.75
336.825	225.75
337.053	239.75
337.281	249.75
337.51	238.75
337.738	229.75
337.966	236.75
338.194	228.75
338.422	233.75
338.65	235.75
338.878	221.75
339.106	210.75
339.334	197.75
339.562	200.75
339.79	192.75
340.018	174.75
340.246	193.75
340.474	190.75
340.702	183.75
340.93	199.75
341.158	200.75
341.386	193.75
341.614	195.75
341.842	206.75
342.07	200.75
342.298	195.75
342.526	195.75
342.754	213.75
342.981	197.75
343.209	192.75
343.437	229.75
343.665	223.75
343.893	229.75
344.12	237.75
344.348	226.75
344.576	205.75
344.804	216.75
345.031	197.75
345.259	198.75
345.487	197.75
345.714	195.75
345.942	189.75
346.17	197.75
346.397	189.75
346.625	194.75
346.853	179.75
347.08	176.75
347.308	203.75
347.535	190.75
347.763	191.75
347.99	183.75
348.218	202.75
348.445	162.75
348.673	188.75
348.9	182.75
349.128	195.75
349.355	183.75
349.583	179.75
349.81	180.75
350.037	181.75
350.265	195.75
350.492	175.75
350.72	206.75
350.947	186.75
351.174	192.75
351.402	176.75
351.629	184.75
351.856	177.75
352.083	188.75
352.311	190.75
352.538	176.75
352.765	197.75
352.992	205.75
353.22	192.75
353.447	180.75
353.674	195.75
353.901	198.75
354.128	172.75
354.355	184.75
354.583	193.75
354.81	181.75
355.037	181.75
355.264	176.75
355.491	192.75
355.718	185.75
355.945	200.75
356.172	172.75
356.399	189.75
356.626	186.75
356.853	189.75
357.08	180.75
357.307	181.75
357.534	175.75
357.761	197.75
357.988	185.75
358.215	197.75
358.441	196.75
358.668	192.75
358.895	190.75
359.122	201.75
359.349	195.75
359.576	183.75
359.802	185.75
360.029	195.75
360.256	192.75
360.483	178.75
360.709	174.75
360.936	209.75
361.163	188.75
361.39	192.75
361.616	199.75
361.843	181.75
362.07	186.75
362.296	189.75
362.523	183.75
362.749	175.75
362.976	201.75
363.203	204.75
363.429	184.75
363.656	200.75
363.882	189.75
364.109	219.75
364.335	212.75
364.562	189.75
364.788	197.75
365.015	175.75
365.241	201.75
365.468	207.75
365.694	187.75
365.92	185.75
366.147	179.75
366.373	171.75
366.599	189.75
366.826	200.75
367.052	211.75
367.278	199.75
367.505	179.75
367.731	201.75
367.957	188.75
368.184	190.75
368.41	205.75
368.636	205.75
368.862	201.75
369.089	193.75
369.315	175.75
369.541	197.75
369.767	181.75
369.993	191.75
370.219	191.75
370.445	196.75
370.672	192.75
370.898	182.75
371.124	207.75
371.35	189.75
371.576	201.75
371.802	192.75
372.028	208.75
372.254	209.75
372.48	203.75
372.706	211.75
372.932	222.75
373.158	210.75
373.384	215.75
373.61	230.75
373.835	212.75
374.061	207.75
374.287	211.75
374.513	224.75
374.739	229.75
374.965	230.75
375.191	236.75
375.416	245.75
375.642	228.75
375.868	252.75
376.094	234.75
376.319	216.75
376.545	204.75
376.771	207.75
376.997	199.75
377.222	203.75
377.448	207.75
377.674	222.75
377.899	199.75
378.125	199.75
378.35	196.75
378.576	199.75
378.802	212.75
379.027	207.75
379.253	200.75
379.478	196.75
379.704	202.75
379.929	208.75
380.155	197.75
380.38	192.75
380.606	197.75
380.831	215.75
381.057	229.75
381.282	209.75
381.507	211.75
381.733	221.75
381.958	227.75
382.184	217.75
382.409	216.75
382.634	248.75
382.86	234.75
383.085	228.75
383.31	244.75
383.535	245.75
383.761	254.75
383.986	239.75
384.211	232.75
384.436	242.75
384.662	229.75
384.887	243.75
385.112	252.75
385.337	245.75
385.562	253.75
385.787	261.75
386.013	277.75
386.238	247.75
386.463	252.75
386.688	271.75
386.913	250.75
387.138	236.75
387.363	252.75
387.588	250.75
387.813	261.75
388.038	261.75
388.263	263.75
388.488	252.75
388.713	235.75
388.938	248.75
389.163	220.75
389.387	249.75
389.612	243.75
389.837	246.75
390.062	235.75
390.287	246.75
390.512	246.75
390.736	247.75
390.961	246.75
391.186	241.75
391.411	258.75
391.636	270.75
391.86	251.75
392.085	273.75
392.31	265.75
392.534	261.75
392.759	268.75
392.984	295.75
393.208	337.75
393.433	400.75
393.658	341.75
393.882	266.75
394.107	263.75
394.331	271.75
394.556	268.75
394.78	291.75
395.005	275.75
395.229	267.75
395.454	272.75
395.678	292.75
395.903	317.75
396.127	283.75
396.352	293.75
396.576	302.75
396.801	344.75
397.025	356.75
397.249	281.75
397.474	286.75
397.698	261.75
397.922	275.75
398.147	283.75
398.371	285.75
398.595	302.75
398.82	293.75
399.044	334.75
399.268	361.75
399.492	387.75
399.717	407.75
399.941	416.75
400.165	356.75
400.389	324.75
400.613	304.75
400.837	308.75
401.062	320.75
401.286	290.75
401.51	291.75
401.734	298.75
401.958	291.75
402.182	305.75
402.406	315.75
402.63	318.75
402.854	323.75
403.078	328.75
403.302	298.75
403.526	324.75
403.75	325.75
403.974	310.75
404.198	319.75
404.422	332.75
404.645	331.75
404.869	326.75
405.093	314.75
405.317	327.75
405.541	330.75
405.765	324.75
405.988	313.75
406.212	315.75
406.436	324.75
406.66	327.75
406.883	336.75
407.107	352.75
407.331	355.75
407.555	337.75
407.778	371.75
408.002	351.75
408.226	336.75
408.449	358.75
408.673	334.75
408.896	327.75
409.12	317.75
409.344	319.75
409.567	316.75
409.791	341.75
410.014	328.75
410.238	330.75
410.461	321.75
410.685	343.75
410.908	327.75
411.132	308.75
411.355	315.75
411.578	303.75
411.802	301.75
412.025	316.75
412.249	316.75
412.472	290.75
412.695	284.75
412.919	292.75
413.142	295.75
413.365	300.75
413.589	309.75
413.812	287.75
414.035	312.75
414.258	319.75
414.482	314.75
414.705	317.75
414.928	327.75
415.151	317.75
415.374	299.75
415.597	300.75
415.821	318.75
416.044	293.75
416.267	299.75
416.49	278.75
416.713	285.75
416.936	309.75
417.159	312.75
417.382	295.75
417.605	302.75
417.828	317.75
418.051	296.75
418.274	313.75
418.497	305.75
418.72	328.75
418.943	314.75
419.166	325.75
419.389	336.75
419.611	336.75
419.834	312.75
420.057	316.75
420.28	309.75
420.503	313.75
420.726	301.75
420.948	290.75
421.171	305.75
421.394	285.75
421.617	291.75
421.839	300.75
422.062	307.75
422.285	317.75
422.507	360.75
422.73	407.75
422.953	377.75
423.175	324.75
423.398	325.75
423.621	340.75
423.843	329.75
424.066	314.75
424.288	314.75
424.511	324.75
424.733	311.75
424.956	311.75
425.178	308.75
425.401	308.75
425.623	318.75
425.846	288.75
426.068	285.75
426.291	290.75
426.513	287.75
426.735	307.75
426.958	290.75
427.18	298.75
427.402	304.75
427.625	290.75
427.847	289.75
428.069	288.75
428.292	305.75
428.514	308.75
428.736	327.75
428.958	312.75
429.181	306.75
429.403	290.75
429.625	300.75
429.847	321.75
430.069	352.75
430.292	366.75
430.514	311.75
430.736	331.75
430.958	303.75
431.18	279.75
431.402	274.75
431.624	284.75
431.846	274.75
432.068	287.75
432.29	265.75
432.512	263.75
432.734	296.75
432.956	289.75
433.178	281.75
433.4	278.75
433.622	275.75
433.844	292.75
434.066	273.75
434.287	281.75
434.509	273.75
434.731	295.75
434.953	285.75
435.175	290.75
435.397	293.75
435.618	291.75
435.84	263.75
436.062	279.75
436.284	253.75
436.505	282.75
436.727	279.75
436.949	266.75
437.17	284.75
437.392	276.75
437.614	265.75
437.835	245.75
438.057	252.75
438.278	277.75
438.5	269.75
438.721	277.75
438.943	279.75
439.165	278.75
439.386	292.75
439.608	289.75
439.829	284.75
440.05	295.75
440.272	289.75
440.493	305.75
440.715	287.75
440.936	300.75
441.158	302.75
441.379	305.75
441.6	317.75
441.822	321.75
442.043	309.75
442.264	315.75
442.486	311.75
442.707	327.75
442.928	326.75
443.149	310.75
443.371	328.75
443.592	311.75
443.813	329.75
444.034	330.75
444.255	330.75
444.476	358.75
444.698	359.75
444.919	360.75
445.14	535.75
445.361	441.75
445.582	377.75
445.803	334.75
446.024	307.75
446.245	296.75
446.466	314.75
446.687	289.75
446.908	298.75
447.129	289.75
447.35	284.75
447.571	308.75
447.792	288.75
448.013	289.75
448.234	281.75
448.455	263.75
448.675	276.75
448.896	263.75
449.117	271.75
449.338	253.75
449.559	275.75
449.779	270.75
450	266.75
450.221	279.75
450.442	263.75
450.662	253.75
450.883	261.75
451.104	295.75
451.324	262.75
451.545	278.75
451.766	296.75
451.986	266.75
452.207	268.75
452.428	285.75
452.648	289.75
452.869	262.75
453.089	277.75
453.31	285.75
453.53	378.75
453.751	349.75
453.971	281.75
454.192	238.75
454.412	253.75
454.633	265.75
454.853	265.75
455.073	260.75
455.294	277.75
455.514	283.75
455.734	265.75
455.955	234.75
456.175	237.75
456.395	257.75
456.616	248.75
456.836	261.75
457.056	225.75
457.276	229.75
457.497	243.75
457.717	251.75
457.937	233.75
458.157	232.75
458.377	238.75
458.598	249.75
458.818	243.75
459.038	231.75
459.258	257.75
459.478	252.75
459.698	246.75
459.918	272.75
460.138	285.75
460.358	277.75
460.578	313.75
460.798	318.75
461.018	312.75
461.238	298.75
461.458	305.75
461.678	317.75
461.898	325.75
462.118	317.75
462.338	346.75
462.558	331.75
462.777	353.75
462.997	344.75
463.217	394.75
463.437	360.75
463.657	363.75
463.876	344.75
464.096	381.75
464.316	350.75
464.536	344.75
464.755	343.75
464.975	319.75
465.195	308.75
465.414	303.75
465.634	287.75
465.854	293.75
466.073	278.75
466.293	279.75
466.512	272.75
466.732	274.75
466.951	288.75
467.171	269.75
467.391	267.75
467.61	278.75
467.829	280.75
468.049	340.75
468.268	356.75
468.488	296.75
468.707	287.75
468.927	286.75
469.146	287.75
469.365	275.75
469.585	269.75
469.804	292.75
470.023	289.75
470.243	286.75
470.462	290.75
470.681	291.75
470.901	287.75
471.12	273.75
471.339	289.75
471.558	295.75
471.777	290.75
471.997	306.75
472.216	375.75
472.435	461.75
472.654	335.75
472.873	284.75
473.092	289.75
473.311	270.75
473.53	278.75
473.749	263.75
473.968	281.75
474.187	272.75
474.406	256.75
474.625	275.75
474.844	264.75
475.063	259.75
475.282	265.75
475.501	253.75
475.72	253.75
475.939	290.75
476.158	311.75
476.377	280.75
476.596	260.75
476.814	273.75
477.033	263.75
477.252	268.75
477.471	277.75
477.69	300.75
477.908	302.75
478.127	304.75
478.346	309.75
478.564	292.75
478.783	305.75
479.002	319.75
479.22	311.75
479.439	318.75
479.658	307.75
479.876	303.75
480.095	321.75
480.313	353.75
480.532	347.75
480.751	362.75
480.969	414.75
481.188	618.75
481.406	524.75
481.624	379.75
481.843	337.75
482.061	319.75
482.28	328.75
482.498	315.75
482.717	288.75
482.935	301.75
483.153	311.75
483.372	323.75
483.59	291.75
483.808	278.75
484.027	309.75
484.245	327.75
484.463	311.75
484.681	336.75
484.9	318.75
485.118	295.75
485.336	280.75
485.554	298.75
485.772	304.75
485.99	313.75
486.209	294.75
486.427	298.75
486.645	312.75
486.863	320.75
487.081	312.75
487.299	329.75
487.517	300.75
487.735	314.75
487.953	332.75
488.171	326.75
488.389	317.75
488.607	335.75
488.825	313.75
489.043	313.75
489.261	310.75
489.479	304.75
489.696	305.75
489.914	316.75
490.132	330.75
490.35	323.75
490.568	310.75
490.786	329.75
491.003	335.75
491.221	316.75
491.439	347.75
491.657	355.75
491.874	362.75
492.092	360.75
492.31	379.75
492.527	358.75
492.745	373.75
492.963	361.75
493.18	369.75
493.398	359.75
493.615	367.75
493.833	350.75
494.05	348.75
494.268	356.75
494.485	334.75
494.703	344.75
494.92	331.75
495.138	335.75
495.355	337.75
495.573	332.75
495.79	346.75
496.008	360.75
496.225	352.75
496.442	363.75
496.66	367.75
496.877	362.75
497.094	348.75
497.312	364.75
497.529	388.75
497.746	365.75
497.963	377.75
498.181	434.75
498.398	494.75
498.615	414.75
498.832	429.75
499.049	460.75
499.267	579.75
499.484	558.75
499.701	587.75
499.918	683.75
500.135	799.75
500.352	816.75
500.569	801.75
500.786	803.75
501.003	766.75
501.22	633.75
501.437	610.75
501.654	619.75
501.871	529.75
502.088	470.75
502.305	473.75
502.522	467.75
502.739	460.75
502.956	404.75
503.172	364.75
503.389	364.75
503.606	385.75
503.823	451.75
