Data from SampB_HRD10591_00033.txt Node
Date: Mon Jan 19 11:33:39 EST 2026
User: Yrep
Spectrometer: HR+D1059
Trigger mode: 0
Integration Time (sec): 3.443000E-1
Scans to average: 1
Electric dark correction enabled: true
Nonlinearity correction enabled: false
Boxcar width: 0
XAxis mode: Wavelengths
Number of Pixels in Spectrum: 2048
>>>>>Begin Spectral Data<<<<<
223.165	-28.38
223.4	-28.38
223.635	-28.38
223.869	-35.38
224.104	-16.38
224.338	-5.38
224.573	-8.38
224.808	-16.38
225.042	-11.38
225.277	-16.38
225.511	-3.38
225.746	14.62
225.98	5.62
226.215	25.62
226.449	12.62
226.683	23.62
226.918	26.62
227.152	32.62
227.387	33.62
227.621	38.62
227.856	44.62
228.09	41.62
228.324	60.62
228.559	60.62
228.793	57.62
229.027	63.62
229.262	82.62
229.496	81.62
229.73	81.62
229.964	87.62
230.199	87.62
230.433	65.62
230.667	76.62
230.901	81.62
231.136	90.62
231.37	86.62
231.604	87.62
231.838	81.62
232.072	93.62
232.306	81.62
232.541	92.62
232.775	90.62
233.009	89.62
233.243	91.62
233.477	81.62
233.711	85.62
233.945	81.62
234.179	88.62
234.413	94.62
234.647	79.62
234.881	77.62
235.115	83.62
235.349	78.62
235.583	82.62
235.817	78.62
236.051	88.62
236.285	75.62
236.519	82.62
236.753	81.62
236.987	94.62
237.221	87.62
237.455	69.62
237.689	89.62
237.922	67.62
238.156	92.62
238.39	90.62
238.624	92.62
238.858	80.62
239.091	73.62
239.325	80.62
239.559	85.62
239.793	96.62
240.027	82.62
240.26	87.62
240.494	89.62
240.728	88.62
240.961	81.62
241.195	96.62
241.429	90.62
241.662	81.62
241.896	74.62
242.13	87.62
242.363	96.62
242.597	82.62
242.83	99.62
243.064	77.62
243.298	96.62
243.531	75.62
243.765	90.62
243.998	86.62
244.232	88.62
244.465	90.62
244.699	86.62
244.932	99.62
245.166	99.62
245.399	85.62
245.633	89.62
245.866	86.62
246.099	99.62
246.333	98.62
246.566	69.62
246.8	96.62
247.033	90.62
247.266	64.62
247.5	89.62
247.733	94.62
247.966	89.62
248.2	95.62
248.433	80.62
248.666	92.62
248.899	111.62
249.133	95.62
249.366	105.62
249.599	98.62
249.832	99.62
250.066	98.62
250.299	82.62
250.532	101.62
250.765	94.62
250.998	85.62
251.231	94.62
251.465	105.62
251.698	87.62
251.931	89.62
252.164	104.62
252.397	101.62
252.63	94.62
252.863	87.62
253.096	117.62
253.329	104.62
253.562	97.62
253.795	98.62
254.028	105.62
254.261	96.62
254.494	96.62
254.727	93.62
254.96	106.62
255.193	87.62
255.426	107.62
255.659	107.62
255.892	114.62
256.124	118.62
256.357	123.62
256.59	107.62
256.823	107.62
257.056	89.62
257.289	111.62
257.521	96.62
257.754	91.62
257.987	107.62
258.22	106.62
258.452	97.62
258.685	89.62
258.918	102.62
259.151	75.62
259.383	106.62
259.616	95.62
259.849	96.62
260.081	106.62
260.314	123.62
260.547	97.62
260.779	108.62
261.012	99.62
261.244	117.62
261.477	114.62
261.71	103.62
261.942	94.62
262.175	110.62
262.407	97.62
262.64	92.62
262.872	99.62
263.105	106.62
263.337	127.62
263.57	114.62
263.802	102.62
264.035	110.62
264.267	112.62
264.499	102.62
264.732	110.62
264.964	111.62
265.197	98.62
265.429	99.62
265.661	89.62
265.894	100.62
266.126	99.62
266.358	99.62
266.591	95.62
266.823	108.62
267.055	110.62
267.287	111.62
267.52	88.62
267.752	109.62
267.984	95.62
268.216	97.62
268.448	108.62
268.681	119.62
268.913	104.62
269.145	97.62
269.377	103.62
269.609	102.62
269.841	97.62
270.073	96.62
270.306	99.62
270.538	96.62
270.77	100.62
271.002	113.62
271.234	113.62
271.466	117.62
271.698	104.62
271.93	109.62
272.162	112.62
272.394	119.62
272.626	112.62
272.858	105.62
273.09	105.62
273.322	100.62
273.553	97.62
273.785	95.62
274.017	114.62
274.249	118.62
274.481	123.62
274.713	107.62
274.945	123.62
275.176	118.62
275.408	120.62
275.64	122.62
275.872	114.62
276.104	102.62
276.335	110.62
276.567	105.62
276.799	107.62
277.031	117.62
277.262	109.62
277.494	111.62
277.726	112.62
277.957	105.62
278.189	120.62
278.421	97.62
278.652	108.62
278.884	102.62
279.115	110.62
279.347	113.62
279.579	103.62
279.81	106.62
280.042	114.62
280.273	127.62
280.505	119.62
280.736	114.62
280.968	101.62
281.199	103.62
281.431	109.62
281.662	126.62
281.894	110.62
282.125	102.62
282.356	107.62
282.588	108.62
282.819	112.62
283.051	112.62
283.282	106.62
283.513	121.62
283.745	117.62
283.976	95.62
284.207	108.62
284.439	110.62
284.67	118.62
284.901	126.62
285.132	110.62
285.364	122.62
285.595	128.62
285.826	112.62
286.057	118.62
286.288	108.62
286.52	101.62
286.751	113.62
286.982	139.62
287.213	127.62
287.444	120.62
287.675	123.62
287.906	122.62
288.138	119.62
288.369	126.62
288.6	133.62
288.831	105.62
289.062	128.62
289.293	118.62
289.524	126.62
289.755	117.62
289.986	125.62
290.217	117.62
290.448	122.62
290.679	111.62
290.91	123.62
291.141	125.62
291.371	121.62
291.602	117.62
291.833	125.62
292.064	115.62
292.295	128.62
292.526	115.62
292.757	110.62
292.987	133.62
293.218	105.62
293.449	118.62
293.68	117.62
293.91	127.62
294.141	126.62
294.372	107.62
294.603	125.62
294.833	126.62
295.064	109.62
295.295	116.62
295.525	125.62
295.756	122.62
295.987	127.62
296.217	98.62
296.448	113.62
296.679	120.62
296.909	125.62
297.14	120.62
297.37	120.62
297.601	131.62
297.831	133.62
298.062	108.62
298.292	121.62
298.523	124.62
298.753	108.62
298.984	112.62
299.214	120.62
299.445	119.62
299.675	122.62
299.905	104.62
300.136	127.62
300.366	115.62
300.597	121.62
300.827	118.62
301.057	122.62
301.288	114.62
301.518	114.62
301.748	128.62
301.979	151.62
302.209	117.62
302.439	126.62
302.669	123.62
302.9	113.62
303.13	105.62
303.36	130.62
303.59	122.62
303.82	126.62
304.051	124.62
304.281	117.62
304.511	133.62
304.741	126.62
304.971	122.62
305.201	129.62
305.431	117.62
305.661	128.62
305.891	145.62
306.121	129.62
306.352	123.62
306.582	119.62
306.812	122.62
307.042	118.62
307.272	119.62
307.502	136.62
307.731	135.62
307.961	130.62
308.191	116.62
308.421	124.62
308.651	113.62
308.881	130.62
309.111	135.62
309.341	120.62
309.571	121.62
309.8	112.62
310.03	129.62
310.26	127.62
310.49	110.62
310.72	125.62
310.949	134.62
311.179	124.62
311.409	123.62
311.639	137.62
311.868	129.62
312.098	135.62
312.328	131.62
312.557	119.62
312.787	137.62
313.017	142.62
313.246	139.62
313.476	113.62
313.706	125.62
313.935	129.62
314.165	119.62
314.394	133.62
314.624	123.62
314.853	121.62
315.083	121.62
315.312	128.62
315.542	130.62
315.771	130.62
316.001	123.62
316.23	127.62
316.46	126.62
316.689	117.62
316.919	129.62
317.148	127.62
317.377	143.62
317.607	118.62
317.836	117.62
318.065	112.62
318.295	113.62
318.524	124.62
318.753	115.62
318.983	137.62
319.212	147.62
319.441	128.62
319.67	128.62
319.9	120.62
320.129	125.62
320.358	118.62
320.587	126.62
320.816	131.62
321.046	115.62
321.275	135.62
321.504	124.62
321.733	130.62
321.962	133.62
322.191	129.62
322.42	132.62
322.649	134.62
322.878	127.62
323.108	150.62
323.337	138.62
323.566	135.62
323.795	140.62
324.024	134.62
324.253	127.62
324.482	125.62
324.71	135.62
324.939	139.62
325.168	128.62
325.397	130.62
325.626	125.62
325.855	134.62
326.084	140.62
326.313	134.62
326.542	127.62
326.77	127.62
326.999	125.62
327.228	144.62
327.457	149.62
327.686	158.62
327.914	179.62
328.143	197.62
328.372	191.62
328.6	169.62
328.829	163.62
329.058	147.62
329.287	157.62
329.515	142.62
329.744	190.62
329.972	207.62
330.201	242.62
330.43	244.62
330.658	200.62
330.887	169.62
331.115	158.62
331.344	155.62
331.572	169.62
331.801	136.62
332.03	152.62
332.258	168.62
332.486	147.62
332.715	160.62
332.943	174.62
333.172	162.62
333.4	167.62
333.629	188.62
333.857	186.62
334.085	242.62
334.314	300.62
334.542	305.62
334.771	310.62
334.999	231.62
335.227	198.62
335.455	172.62
335.684	168.62
335.912	171.62
336.14	154.62
336.369	151.62
336.597	159.62
336.825	152.62
337.053	146.62
337.281	155.62
337.51	144.62
337.738	169.62
337.966	154.62
338.194	147.62
338.422	159.62
338.65	158.62
338.878	146.62
339.106	139.62
339.334	141.62
339.562	127.62
339.79	136.62
340.018	147.62
340.246	126.62
340.474	139.62
340.702	123.62
340.93	133.62
341.158	130.62
341.386	121.62
341.614	146.62
341.842	151.62
342.07	149.62
342.298	130.62
342.526	119.62
342.754	126.62
342.981	144.62
343.209	147.62
343.437	170.62
343.665	139.62
343.893	143.62
344.12	159.62
344.348	144.62
344.576	163.62
344.804	118.62
345.031	140.62
345.259	133.62
345.487	140.62
345.714	136.62
345.942	133.62
346.17	130.62
346.397	130.62
346.625	133.62
346.853	122.62
347.08	137.62
347.308	131.62
347.535	130.62
347.763	135.62
347.99	147.62
348.218	148.62
348.445	130.62
348.673	133.62
348.9	143.62
349.128	136.62
349.355	128.62
349.583	116.62
349.81	136.62
350.037	118.62
350.265	136.62
350.492	134.62
350.72	136.62
350.947	129.62
351.174	111.62
351.402	120.62
351.629	129.62
351.856	129.62
352.083	127.62
352.311	150.62
352.538	129.62
352.765	123.62
352.992	151.62
353.22	124.62
353.447	126.62
353.674	147.62
353.901	139.62
354.128	127.62
354.355	137.62
354.583	130.62
354.81	123.62
355.037	138.62
355.264	139.62
355.491	126.62
355.718	128.62
355.945	130.62
356.172	130.62
356.399	132.62
356.626	108.62
356.853	141.62
357.08	143.62
357.307	127.62
357.534	127.62
357.761	130.62
357.988	153.62
358.215	136.62
358.441	143.62
358.668	133.62
358.895	135.62
359.122	128.62
359.349	129.62
359.576	135.62
359.802	130.62
360.029	144.62
360.256	154.62
360.483	117.62
360.709	130.62
360.936	128.62
361.163	120.62
361.39	104.62
361.616	130.62
361.843	131.62
362.07	144.62
362.296	122.62
362.523	125.62
362.749	135.62
362.976	137.62
363.203	145.62
363.429	135.62
363.656	151.62
363.882	138.62
364.109	121.62
364.335	138.62
364.562	130.62
364.788	147.62
365.015	125.62
365.241	139.62
365.468	137.62
365.694	124.62
365.92	126.62
366.147	133.62
366.373	125.62
366.599	123.62
366.826	151.62
367.052	123.62
367.278	140.62
367.505	128.62
367.731	152.62
367.957	128.62
368.184	142.62
368.41	127.62
368.636	142.62
368.862	161.62
369.089	110.62
369.315	134.62
369.541	142.62
369.767	125.62
369.993	153.62
370.219	129.62
370.445	131.62
370.672	144.62
370.898	130.62
371.124	146.62
371.35	133.62
371.576	145.62
371.802	141.62
372.028	146.62
372.254	132.62
372.48	151.62
372.706	146.62
372.932	147.62
373.158	156.62
373.384	155.62
373.61	166.62
373.835	158.62
374.061	162.62
374.287	155.62
374.513	141.62
374.739	145.62
374.965	161.62
375.191	137.62
375.416	151.62
375.642	155.62
375.868	155.62
376.094	149.62
376.319	154.62
376.545	134.62
376.771	134.62
376.997	147.62
377.222	135.62
377.448	138.62
377.674	139.62
377.899	142.62
378.125	157.62
378.35	151.62
378.576	125.62
378.802	119.62
379.027	140.62
379.253	152.62
379.478	139.62
379.704	147.62
379.929	148.62
380.155	138.62
380.38	145.62
380.606	146.62
380.831	125.62
381.057	161.62
381.282	144.62
381.507	155.62
381.733	163.62
381.958	153.62
382.184	159.62
382.409	142.62
382.634	166.62
382.86	162.62
383.085	158.62
383.31	164.62
383.535	159.62
383.761	161.62
383.986	167.62
384.211	156.62
384.436	143.62
384.662	157.62
384.887	168.62
385.112	158.62
385.337	162.62
385.562	169.62
385.787	174.62
386.013	162.62
386.238	172.62
386.463	165.62
386.688	194.62
386.913	163.62
387.138	166.62
387.363	159.62
387.588	174.62
387.813	166.62
388.038	163.62
388.263	178.62
388.488	146.62
388.713	150.62
388.938	158.62
389.163	150.62
389.387	149.62
389.612	156.62
389.837	164.62
390.062	157.62
390.287	159.62
390.512	160.62
390.736	161.62
390.961	165.62
391.186	149.62
391.411	169.62
391.636	166.62
391.86	182.62
392.085	184.62
392.31	167.62
392.534	176.62
392.759	172.62
392.984	175.62
393.208	169.62
393.433	194.62
393.658	190.62
393.882	166.62
394.107	175.62
394.331	173.62
394.556	167.62
394.78	184.62
395.005	181.62
395.229	180.62
395.454	179.62
395.678	159.62
395.903	181.62
396.127	198.62
396.352	204.62
396.576	177.62
396.801	195.62
397.025	173.62
397.249	180.62
397.474	174.62
397.698	184.62
397.922	166.62
398.147	171.62
398.371	156.62
398.595	173.62
398.82	186.62
399.044	185.62
399.268	209.62
399.492	229.62
399.717	243.62
399.941	243.62
400.165	207.62
400.389	181.62
400.613	191.62
400.837	181.62
401.062	187.62
401.286	190.62
401.51	193.62
401.734	170.62
401.958	185.62
402.182	192.62
402.406	194.62
402.63	191.62
402.854	203.62
403.078	193.62
403.302	206.62
403.526	208.62
403.75	197.62
403.974	211.62
404.198	192.62
404.422	209.62
404.645	201.62
404.869	193.62
405.093	210.62
405.317	206.62
405.541	209.62
405.765	191.62
405.988	199.62
406.212	185.62
406.436	195.62
406.66	207.62
406.883	194.62
407.107	197.62
407.331	215.62
407.555	209.62
407.778	211.62
408.002	205.62
408.226	204.62
408.449	203.62
408.673	211.62
408.896	209.62
409.12	195.62
409.344	201.62
409.567	203.62
409.791	203.62
410.014	189.62
410.238	185.62
410.461	208.62
410.685	201.62
410.908	197.62
411.132	214.62
411.355	197.62
411.578	191.62
411.802	177.62
412.025	203.62
412.249	188.62
412.472	203.62
412.695	199.62
412.919	209.62
413.142	195.62
413.365	184.62
413.589	189.62
413.812	188.62
414.035	222.62
414.258	174.62
414.482	185.62
414.705	192.62
414.928	191.62
415.151	197.62
415.374	203.62
415.597	177.62
415.821	193.62
416.044	184.62
416.267	183.62
416.49	188.62
416.713	189.62
416.936	207.62
417.159	201.62
417.382	178.62
417.605	185.62
417.828	202.62
418.051	180.62
418.274	185.62
418.497	195.62
418.72	197.62
418.943	199.62
419.166	219.62
419.389	218.62
419.611	194.62
419.834	191.62
420.057	188.62
420.28	203.62
420.503	190.62
420.726	188.62
420.948	185.62
421.171	184.62
421.394	177.62
421.617	192.62
421.839	198.62
422.062	179.62
422.285	188.62
422.507	218.62
422.73	209.62
422.953	226.62
423.175	195.62
423.398	188.62
423.621	183.62
423.843	205.62
424.066	194.62
424.288	188.62
424.511	192.62
424.733	204.62
424.956	208.62
425.178	200.62
425.401	194.62
425.623	186.62
425.846	178.62
426.068	205.62
426.291	198.62
426.513	176.62
426.735	190.62
426.958	193.62
427.18	187.62
427.402	171.62
427.625	196.62
427.847	190.62
428.069	205.62
428.292	195.62
428.514	181.62
428.736	181.62
428.958	192.62
429.181	185.62
429.403	172.62
429.625	176.62
429.847	197.62
430.069	182.62
430.292	215.62
430.514	189.62
430.736	178.62
430.958	193.62
431.18	161.62
431.402	190.62
431.624	171.62
431.846	174.62
432.068	186.62
432.29	163.62
432.512	164.62
432.734	169.62
432.956	178.62
433.178	183.62
433.4	173.62
433.622	195.62
433.844	189.62
434.066	183.62
434.287	166.62
434.509	163.62
434.731	182.62
434.953	204.62
435.175	191.62
435.397	188.62
435.618	173.62
435.84	162.62
436.062	165.62
436.284	179.62
436.505	170.62
436.727	172.62
436.949	175.62
437.17	174.62
437.392	178.62
437.614	177.62
437.835	156.62
438.057	171.62
438.278	173.62
438.5	171.62
438.721	176.62
438.943	194.62
439.165	198.62
439.386	186.62
439.608	192.62
439.829	184.62
440.05	176.62
440.272	179.62
440.493	177.62
440.715	191.62
440.936	185.62
441.158	187.62
441.379	184.62
441.6	198.62
441.822	187.62
442.043	191.62
442.264	189.62
442.486	197.62
442.707	207.62
442.928	185.62
443.149	190.62
443.371	199.62
443.592	198.62
443.813	187.62
444.034	190.62
444.255	208.62
444.476	208.62
444.698	216.62
444.919	226.62
445.14	403.62
445.361	284.62
445.582	201.62
445.803	181.62
446.024	185.62
446.245	191.62
446.466	185.62
446.687	170.62
446.908	187.62
447.129	185.62
447.35	169.62
447.571	172.62
447.792	182.62
448.013	174.62
448.234	169.62
448.455	176.62
448.675	167.62
448.896	172.62
449.117	176.62
449.338	171.62
449.559	165.62
449.779	185.62
450	184.62
450.221	173.62
450.442	180.62
450.662	173.62
450.883	183.62
451.104	175.62
451.324	169.62
451.545	173.62
451.766	171.62
451.986	181.62
452.207	191.62
452.428	178.62
452.648	181.62
452.869	174.62
453.089	171.62
453.31	159.62
453.53	187.62
453.751	197.62
453.971	176.62
454.192	151.62
454.412	167.62
454.633	159.62
454.853	159.62
455.073	153.62
455.294	168.62
455.514	186.62
455.734	175.62
455.955	159.62
456.175	161.62
456.395	155.62
456.616	166.62
456.836	153.62
457.056	169.62
457.276	154.62
457.497	164.62
457.717	138.62
457.937	154.62
458.157	157.62
458.377	169.62
458.598	160.62
458.818	165.62
459.038	166.62
459.258	171.62
459.478	167.62
459.698	176.62
459.918	174.62
460.138	162.62
460.358	161.62
460.578	199.62
460.798	176.62
461.018	191.62
461.238	192.62
461.458	192.62
461.678	194.62
461.898	201.62
462.118	207.62
462.338	199.62
462.558	206.62
462.777	183.62
462.997	211.62
463.217	218.62
463.437	218.62
463.657	208.62
463.876	226.62
464.096	216.62
464.316	206.62
464.536	205.62
464.755	215.62
464.975	205.62
465.195	189.62
465.414	195.62
465.634	181.62
465.854	184.62
466.073	188.62
466.293	168.62
466.512	163.62
466.732	175.62
466.951	168.62
467.171	182.62
467.391	176.62
467.61	179.62
467.829	183.62
468.049	209.62
468.268	225.62
468.488	202.62
468.707	185.62
468.927	176.62
469.146	182.62
469.365	185.62
469.585	191.62
469.804	182.62
470.023	186.62
470.243	183.62
470.462	173.62
470.681	187.62
470.901	164.62
471.12	173.62
471.339	176.62
471.558	178.62
471.777	190.62
471.997	189.62
472.216	281.62
472.435	319.62
472.654	239.62
472.873	185.62
473.092	183.62
473.311	182.62
473.53	169.62
473.749	184.62
473.968	199.62
474.187	168.62
474.406	181.62
474.625	176.62
474.844	171.62
475.063	173.62
475.282	174.62
475.501	174.62
475.72	191.62
475.939	170.62
476.158	171.62
476.377	165.62
476.596	167.62
476.814	179.62
477.033	173.62
477.252	182.62
477.471	179.62
477.69	187.62
477.908	201.62
478.127	185.62
478.346	198.62
478.564	191.62
478.783	199.62
479.002	197.62
479.22	187.62
479.439	198.62
479.658	185.62
479.876	178.62
480.095	195.62
480.313	212.62
480.532	221.62
480.751	233.62
480.969	297.62
481.188	473.62
481.406	424.62
481.624	271.62
481.843	204.62
482.061	203.62
482.28	201.62
482.498	204.62
482.717	191.62
482.935	199.62
483.153	185.62
483.372	208.62
483.59	197.62
483.808	176.62
484.027	185.62
484.245	198.62
484.463	184.62
484.681	211.62
484.9	187.62
485.118	207.62
485.336	198.62
485.554	192.62
485.772	188.62
485.99	191.62
486.209	198.62
486.427	176.62
486.645	220.62
486.863	191.62
487.081	187.62
487.299	205.62
487.517	192.62
487.735	200.62
487.953	204.62
488.171	206.62
488.389	200.62
488.607	206.62
488.825	179.62
489.043	179.62
489.261	201.62
489.479	194.62
489.696	197.62
489.914	190.62
490.132	193.62
490.35	197.62
490.568	201.62
490.786	207.62
491.003	203.62
491.221	207.62
491.439	212.62
491.657	225.62
491.874	214.62
492.092	225.62
492.31	240.62
492.527	247.62
492.745	225.62
492.963	237.62
493.18	233.62
493.398	200.62
493.615	230.62
493.833	228.62
494.05	220.62
494.268	219.62
494.485	218.62
494.703	218.62
494.92	220.62
495.138	207.62
495.355	204.62
495.573	213.62
495.79	222.62
496.008	234.62
496.225	226.62
496.442	226.62
496.66	236.62
496.877	231.62
497.094	241.62
497.312	206.62
497.529	221.62
497.746	216.62
497.963	238.62
498.181	235.62
498.398	251.62
498.615	256.62
498.832	255.62
499.049	262.62
499.267	305.62
499.484	304.62
499.701	322.62
499.918	359.62
500.135	394.62
500.352	409.62
500.569	415.62
500.786	440.62
501.003	390.62
501.22	333.62
501.437	318.62
501.654	295.62
501.871	267.62
502.088	249.62
502.305	275.62
502.522	254.62
502.739	262.62
502.956	244.62
503.172	211.62
503.389	213.62
503.606	212.62
503.823	234.62
504.04	243.62
504.256	224.62
504.473	230.62
