Data from SampB_HRD10591_00061.txt Node
Date: Mon Jan 19 11:33:49 EST 2026
User: Yrep
Spectrometer: HR+D1059
Trigger mode: 0
Integration Time (sec): 3.443000E-1
Scans to average: 1
Electric dark correction enabled: true
Nonlinearity correction enabled: false
Boxcar width: 0
XAxis mode: Wavelengths
Number of Pixels in Spectrum: 2048
>>>>>Begin Spectral Data<<<<<
223.165	-26.31
223.4	-26.31
223.635	-26.31
223.869	-16.31
224.104	-22.31
224.338	-11.31
224.573	-9.31
224.808	-33.31
225.042	-11.31
225.277	-2.31
225.511	0.69
225.746	13.69
225.98	18.69
226.215	15.69
226.449	17.69
226.683	16.69
226.918	15.69
227.152	33.69
227.387	45.69
227.621	50.69
227.856	50.69
228.09	61.69
228.324	49.69
228.559	75.69
228.793	65.69
229.027	76.69
229.262	85.69
229.496	79.69
229.73	69.69
229.964	78.69
230.199	68.69
230.433	78.69
230.667	91.69
230.901	95.69
231.136	80.69
231.37	93.69
231.604	107.69
231.838	86.69
232.072	91.69
232.306	75.69
232.541	82.69
232.775	97.69
233.009	91.69
233.243	100.69
233.477	89.69
233.711	88.69
233.945	97.69
234.179	82.69
234.413	95.69
234.647	102.69
234.881	86.69
235.115	103.69
235.349	87.69
235.583	93.69
235.817	87.69
236.051	93.69
236.285	84.69
236.519	79.69
236.753	95.69
236.987	89.69
237.221	85.69
237.455	98.69
237.689	90.69
237.922	83.69
238.156	98.69
238.39	83.69
238.624	69.69
238.858	85.69
239.091	107.69
239.325	96.69
239.559	95.69
239.793	94.69
240.027	90.69
240.26	86.69
240.494	84.69
240.728	97.69
240.961	94.69
241.195	89.69
241.429	110.69
241.662	100.69
241.896	94.69
242.13	77.69
242.363	90.69
242.597	98.69
242.83	90.69
243.064	98.69
243.298	93.69
243.531	89.69
243.765	100.69
243.998	85.69
244.232	95.69
244.465	87.69
244.699	97.69
244.932	85.69
245.166	85.69
245.399	93.69
245.633	99.69
245.866	87.69
246.099	96.69
246.333	94.69
246.566	93.69
246.8	103.69
247.033	105.69
247.266	96.69
247.5	96.69
247.733	99.69
247.966	117.69
248.2	86.69
248.433	98.69
248.666	108.69
248.899	110.69
249.133	99.69
249.366	118.69
249.599	103.69
249.832	101.69
250.066	99.69
250.299	105.69
250.532	108.69
250.765	100.69
250.998	102.69
251.231	113.69
251.465	105.69
251.698	105.69
251.931	101.69
252.164	93.69
252.397	111.69
252.63	99.69
252.863	103.69
253.096	100.69
253.329	137.69
253.562	109.69
253.795	107.69
254.028	116.69
254.261	111.69
254.494	101.69
254.727	107.69
254.96	117.69
255.193	125.69
255.426	121.69
255.659	111.69
255.892	115.69
256.124	100.69
256.357	132.69
256.59	107.69
256.823	104.69
257.056	102.69
257.289	91.69
257.521	99.69
257.754	104.69
257.987	107.69
258.22	118.69
258.452	116.69
258.685	107.69
258.918	105.69
259.151	118.69
259.383	94.69
259.616	117.69
259.849	108.69
260.081	122.69
260.314	122.69
260.547	111.69
260.779	113.69
261.012	126.69
261.244	109.69
261.477	128.69
261.71	127.69
261.942	94.69
262.175	109.69
262.407	111.69
262.64	114.69
262.872	108.69
263.105	108.69
263.337	121.69
263.57	122.69
263.802	116.69
264.035	117.69
264.267	114.69
264.499	111.69
264.732	112.69
264.964	111.69
265.197	101.69
265.429	115.69
265.661	122.69
265.894	113.69
266.126	122.69
266.358	129.69
266.591	108.69
266.823	106.69
267.055	106.69
267.287	113.69
267.52	118.69
267.752	121.69
267.984	117.69
268.216	108.69
268.448	123.69
268.681	122.69
268.913	133.69
269.145	109.69
269.377	110.69
269.609	118.69
269.841	116.69
270.073	122.69
270.306	100.69
270.538	118.69
270.77	110.69
271.002	125.69
271.234	125.69
271.466	117.69
271.698	119.69
271.93	128.69
272.162	129.69
272.394	130.69
272.626	128.69
272.858	112.69
273.09	118.69
273.322	129.69
273.553	132.69
273.785	127.69
274.017	116.69
274.249	136.69
274.481	145.69
274.713	147.69
274.945	123.69
275.176	144.69
275.408	134.69
275.64	147.69
275.872	121.69
276.104	116.69
276.335	138.69
276.567	106.69
276.799	131.69
277.031	123.69
277.262	105.69
277.494	127.69
277.726	124.69
277.957	115.69
278.189	133.69
278.421	127.69
278.652	118.69
278.884	129.69
279.115	124.69
279.347	118.69
279.579	124.69
279.81	121.69
280.042	129.69
280.273	149.69
280.505	135.69
280.736	128.69
280.968	125.69
281.199	130.69
281.431	126.69
281.662	122.69
281.894	127.69
282.125	128.69
282.356	126.69
282.588	135.69
282.819	128.69
283.051	125.69
283.282	126.69
283.513	139.69
283.745	127.69
283.976	129.69
284.207	111.69
284.439	134.69
284.67	132.69
284.901	143.69
285.132	128.69
285.364	136.69
285.595	146.69
285.826	150.69
286.057	121.69
286.288	142.69
286.52	116.69
286.751	130.69
286.982	125.69
287.213	114.69
287.444	127.69
287.675	121.69
287.906	118.69
288.138	126.69
288.369	126.69
288.6	124.69
288.831	111.69
289.062	146.69
289.293	134.69
289.524	143.69
289.755	138.69
289.986	144.69
290.217	135.69
290.448	121.69
290.679	126.69
290.91	126.69
291.141	130.69
291.371	132.69
291.602	131.69
291.833	126.69
292.064	135.69
292.295	133.69
292.526	125.69
292.757	115.69
292.987	134.69
293.218	143.69
293.449	129.69
293.68	135.69
293.91	131.69
294.141	135.69
294.372	126.69
294.603	138.69
294.833	137.69
295.064	126.69
295.295	129.69
295.525	130.69
295.756	142.69
295.987	132.69
296.217	130.69
296.448	153.69
296.679	146.69
296.909	134.69
297.14	136.69
297.37	136.69
297.601	135.69
297.831	139.69
298.062	149.69
298.292	152.69
298.523	159.69
298.753	142.69
298.984	141.69
299.214	142.69
299.445	126.69
299.675	152.69
299.905	144.69
300.136	134.69
300.366	144.69
300.597	159.69
300.827	142.69
301.057	131.69
301.288	144.69
301.518	135.69
301.748	134.69
301.979	172.69
302.209	147.69
302.439	153.69
302.669	146.69
302.9	149.69
303.13	141.69
303.36	145.69
303.59	149.69
303.82	142.69
304.051	136.69
304.281	141.69
304.511	151.69
304.741	129.69
304.971	145.69
305.201	149.69
305.431	153.69
305.661	150.69
305.891	142.69
306.121	133.69
306.352	137.69
306.582	151.69
306.812	139.69
307.042	153.69
307.272	125.69
307.502	133.69
307.731	138.69
307.961	140.69
308.191	143.69
308.421	153.69
308.651	141.69
308.881	139.69
309.111	150.69
309.341	141.69
309.571	133.69
309.8	142.69
310.03	147.69
310.26	155.69
310.49	134.69
310.72	150.69
310.949	153.69
311.179	149.69
311.409	134.69
311.639	143.69
311.868	151.69
312.098	146.69
312.328	124.69
312.557	155.69
312.787	148.69
313.017	161.69
313.246	139.69
313.476	127.69
313.706	137.69
313.935	146.69
314.165	135.69
314.394	147.69
314.624	156.69
314.853	147.69
315.083	160.69
315.312	166.69
315.542	154.69
315.771	146.69
316.001	141.69
316.23	163.69
316.46	134.69
316.689	132.69
316.919	144.69
317.148	140.69
317.377	161.69
317.607	148.69
317.836	130.69
318.065	135.69
318.295	143.69
318.524	137.69
318.753	133.69
318.983	141.69
319.212	139.69
319.441	157.69
319.67	137.69
319.9	144.69
320.129	150.69
320.358	166.69
320.587	151.69
320.816	153.69
321.046	148.69
321.275	141.69
321.504	149.69
321.733	137.69
321.962	141.69
322.191	137.69
322.42	137.69
322.649	172.69
322.878	152.69
323.108	137.69
323.337	158.69
323.566	144.69
323.795	151.69
324.024	154.69
324.253	156.69
324.482	166.69
324.71	151.69
324.939	158.69
325.168	137.69
325.397	133.69
325.626	144.69
325.855	158.69
326.084	171.69
326.313	160.69
326.542	159.69
326.77	154.69
326.999	165.69
327.228	162.69
327.457	161.69
327.686	158.69
327.914	178.69
328.143	179.69
328.372	179.69
328.6	165.69
328.829	164.69
329.058	152.69
329.287	167.69
329.515	179.69
329.744	186.69
329.972	188.69
330.201	224.69
330.43	219.69
330.658	220.69
330.887	175.69
331.115	180.69
331.344	160.69
331.572	149.69
331.801	154.69
332.03	166.69
332.258	170.69
332.486	182.69
332.715	180.69
332.943	180.69
333.172	192.69
333.4	197.69
333.629	196.69
333.857	213.69
334.085	227.69
334.314	268.69
334.542	273.69
334.771	252.69
334.999	189.69
335.227	190.69
335.455	196.69
335.684	189.69
335.912	172.69
336.14	184.69
336.369	184.69
336.597	178.69
336.825	183.69
337.053	162.69
337.281	163.69
337.51	190.69
337.738	162.69
337.966	149.69
338.194	165.69
338.422	173.69
338.65	167.69
338.878	179.69
339.106	157.69
339.334	187.69
339.562	165.69
339.79	172.69
340.018	162.69
340.246	150.69
340.474	170.69
340.702	157.69
340.93	149.69
341.158	147.69
341.386	143.69
341.614	159.69
341.842	165.69
342.07	151.69
342.298	150.69
342.526	156.69
342.754	149.69
342.981	151.69
343.209	160.69
343.437	189.69
343.665	175.69
343.893	167.69
344.12	187.69
344.348	180.69
344.576	186.69
344.804	157.69
345.031	152.69
345.259	161.69
345.487	157.69
345.714	139.69
345.942	145.69
346.17	165.69
346.397	155.69
346.625	158.69
346.853	159.69
347.08	160.69
347.308	158.69
347.535	161.69
347.763	164.69
347.99	156.69
348.218	165.69
348.445	149.69
348.673	154.69
348.9	167.69
349.128	165.69
349.355	154.69
349.583	166.69
349.81	140.69
350.037	154.69
350.265	162.69
350.492	155.69
350.72	146.69
350.947	165.69
351.174	163.69
351.402	150.69
351.629	160.69
351.856	151.69
352.083	150.69
352.311	162.69
352.538	162.69
352.765	176.69
352.992	167.69
353.22	163.69
353.447	156.69
353.674	147.69
353.901	155.69
354.128	141.69
354.355	133.69
354.583	149.69
354.81	157.69
355.037	164.69
355.264	154.69
355.491	162.69
355.718	141.69
355.945	169.69
356.172	151.69
356.399	163.69
356.626	160.69
356.853	151.69
357.08	180.69
357.307	171.69
357.534	170.69
357.761	178.69
357.988	160.69
358.215	179.69
358.441	171.69
358.668	151.69
358.895	173.69
359.122	156.69
359.349	151.69
359.576	159.69
359.802	149.69
360.029	140.69
360.256	175.69
360.483	171.69
360.709	154.69
360.936	159.69
361.163	170.69
361.39	163.69
361.616	162.69
361.843	155.69
362.07	170.69
362.296	176.69
362.523	157.69
362.749	157.69
362.976	151.69
363.203	167.69
363.429	175.69
363.656	148.69
363.882	159.69
364.109	160.69
364.335	164.69
364.562	149.69
364.788	148.69
365.015	165.69
365.241	164.69
365.468	166.69
365.694	159.69
365.92	145.69
366.147	144.69
366.373	155.69
366.599	177.69
366.826	149.69
367.052	139.69
367.278	151.69
367.505	167.69
367.731	173.69
367.957	161.69
368.184	176.69
368.41	175.69
368.636	160.69
368.862	167.69
369.089	166.69
369.315	170.69
369.541	147.69
369.767	156.69
369.993	162.69
370.219	147.69
370.445	145.69
370.672	176.69
370.898	152.69
371.124	165.69
371.35	177.69
371.576	169.69
371.802	157.69
372.028	175.69
372.254	183.69
372.48	166.69
372.706	168.69
372.932	173.69
373.158	180.69
373.384	196.69
373.61	201.69
373.835	181.69
374.061	169.69
374.287	176.69
374.513	177.69
374.739	182.69
374.965	195.69
375.191	178.69
375.416	176.69
375.642	184.69
375.868	176.69
376.094	191.69
376.319	163.69
376.545	166.69
376.771	186.69
376.997	171.69
377.222	156.69
377.448	165.69
377.674	161.69
377.899	165.69
378.125	161.69
378.35	158.69
378.576	149.69
378.802	154.69
379.027	163.69
379.253	179.69
379.478	159.69
379.704	175.69
379.929	171.69
380.155	170.69
380.38	174.69
380.606	169.69
380.831	169.69
381.057	186.69
381.282	167.69
381.507	178.69
381.733	172.69
381.958	178.69
382.184	193.69
382.409	184.69
382.634	182.69
382.86	180.69
383.085	189.69
383.31	190.69
383.535	217.69
383.761	193.69
383.986	181.69
384.211	186.69
384.436	187.69
384.662	181.69
384.887	185.69
385.112	187.69
385.337	202.69
385.562	190.69
385.787	175.69
386.013	212.69
386.238	173.69
386.463	193.69
386.688	215.69
386.913	194.69
387.138	176.69
387.363	174.69
387.588	182.69
387.813	181.69
388.038	182.69
388.263	189.69
388.488	182.69
388.713	199.69
388.938	175.69
389.163	186.69
389.387	186.69
389.612	178.69
389.837	186.69
390.062	175.69
390.287	187.69
390.512	172.69
390.736	187.69
390.961	182.69
391.186	207.69
391.411	196.69
391.636	195.69
391.86	207.69
392.085	210.69
392.31	205.69
392.534	179.69
392.759	189.69
392.984	211.69
393.208	205.69
393.433	214.69
393.658	185.69
393.882	179.69
394.107	189.69
394.331	210.69
394.556	202.69
394.78	213.69
395.005	194.69
395.229	206.69
395.454	197.69
395.678	187.69
395.903	196.69
396.127	229.69
396.352	210.69
396.576	203.69
396.801	182.69
397.025	203.69
397.249	198.69
397.474	196.69
397.698	194.69
397.922	205.69
398.147	197.69
398.371	201.69
398.595	223.69
398.82	214.69
399.044	234.69
399.268	261.69
399.492	290.69
399.717	281.69
399.941	285.69
400.165	251.69
400.389	239.69
400.613	231.69
400.837	216.69
401.062	217.69
401.286	209.69
401.51	227.69
401.734	209.69
401.958	214.69
402.182	220.69
402.406	235.69
402.63	219.69
402.854	231.69
403.078	233.69
403.302	240.69
403.526	250.69
403.75	236.69
403.974	236.69
404.198	250.69
404.422	257.69
404.645	249.69
404.869	242.69
405.093	240.69
405.317	241.69
405.541	218.69
405.765	223.69
405.988	230.69
406.212	256.69
406.436	251.69
406.66	263.69
406.883	268.69
407.107	246.69
407.331	243.69
407.555	256.69
407.778	253.69
408.002	238.69
408.226	245.69
408.449	239.69
408.673	236.69
408.896	260.69
409.12	242.69
409.344	240.69
409.567	230.69
409.791	254.69
410.014	239.69
410.238	242.69
410.461	237.69
410.685	231.69
410.908	225.69
411.132	229.69
411.355	226.69
411.578	238.69
411.802	243.69
412.025	238.69
412.249	229.69
412.472	223.69
412.695	228.69
412.919	219.69
413.142	231.69
413.365	225.69
413.589	228.69
413.812	221.69
414.035	237.69
414.258	211.69
414.482	225.69
414.705	246.69
414.928	232.69
415.151	212.69
415.374	220.69
415.597	212.69
415.821	230.69
416.044	218.69
416.267	215.69
416.49	219.69
416.713	224.69
416.936	210.69
417.159	209.69
417.382	209.69
417.605	212.69
417.828	237.69
418.051	228.69
418.274	228.69
418.497	227.69
418.72	223.69
418.943	247.69
419.166	227.69
419.389	236.69
419.611	228.69
419.834	224.69
420.057	219.69
420.28	229.69
420.503	229.69
420.726	238.69
420.948	220.69
421.171	219.69
421.394	238.69
421.617	225.69
421.839	218.69
422.062	221.69
422.285	228.69
422.507	222.69
422.73	223.69
422.953	237.69
423.175	233.69
423.398	234.69
423.621	243.69
423.843	226.69
424.066	216.69
424.288	229.69
424.511	236.69
424.733	222.69
424.956	237.69
425.178	243.69
425.401	235.69
425.623	215.69
425.846	226.69
426.068	203.69
426.291	238.69
426.513	216.69
426.735	211.69
426.958	215.69
427.18	228.69
427.402	211.69
427.625	213.69
427.847	213.69
428.069	213.69
428.292	219.69
428.514	207.69
428.736	197.69
428.958	186.69
429.181	187.69
429.403	206.69
429.625	198.69
429.847	206.69
430.069	215.69
430.292	209.69
430.514	205.69
430.736	226.69
430.958	219.69
431.18	194.69
431.402	201.69
431.624	199.69
431.846	206.69
432.068	206.69
432.29	203.69
432.512	213.69
432.734	227.69
432.956	211.69
433.178	219.69
433.4	201.69
433.622	229.69
433.844	230.69
434.066	216.69
434.287	212.69
434.509	212.69
434.731	206.69
434.953	222.69
435.175	211.69
435.397	224.69
435.618	201.69
435.84	197.69
436.062	183.69
436.284	210.69
436.505	213.69
436.727	213.69
436.949	206.69
437.17	198.69
437.392	183.69
437.614	191.69
437.835	180.69
438.057	201.69
438.278	207.69
438.5	215.69
438.721	213.69
438.943	205.69
439.165	192.69
439.386	214.69
439.608	208.69
439.829	206.69
440.05	203.69
440.272	220.69
440.493	210.69
440.715	212.69
440.936	206.69
441.158	215.69
441.379	219.69
441.6	214.69
441.822	205.69
442.043	222.69
442.264	225.69
442.486	206.69
442.707	223.69
442.928	214.69
443.149	222.69
443.371	234.69
443.592	229.69
443.813	237.69
444.034	241.69
444.255	238.69
444.476	234.69
444.698	259.69
444.919	254.69
445.14	407.69
445.361	326.69
445.582	227.69
445.803	195.69
446.024	225.69
446.245	230.69
446.466	211.69
446.687	206.69
446.908	243.69
447.129	223.69
447.35	202.69
447.571	205.69
447.792	207.69
448.013	212.69
448.234	204.69
448.455	207.69
448.675	197.69
448.896	203.69
449.117	186.69
449.338	203.69
449.559	206.69
449.779	225.69
450	208.69
450.221	189.69
450.442	192.69
450.662	189.69
450.883	191.69
451.104	191.69
451.324	193.69
451.545	198.69
451.766	207.69
451.986	188.69
452.207	181.69
452.428	184.69
452.648	199.69
452.869	172.69
453.089	204.69
453.31	182.69
453.53	189.69
453.751	190.69
453.971	181.69
454.192	203.69
454.412	179.69
454.633	186.69
454.853	194.69
455.073	187.69
455.294	195.69
455.514	191.69
455.734	186.69
455.955	187.69
456.175	184.69
456.395	177.69
456.616	191.69
456.836	177.69
457.056	185.69
457.276	177.69
457.497	178.69
457.717	187.69
457.937	175.69
458.157	186.69
458.377	181.69
458.598	183.69
458.818	172.69
459.038	184.69
459.258	196.69
459.478	197.69
459.698	201.69
459.918	219.69
460.138	226.69
460.358	208.69
460.578	222.69
460.798	228.69
461.018	208.69
461.238	218.69
461.458	219.69
461.678	217.69
461.898	226.69
462.118	233.69
462.338	246.69
462.558	231.69
462.777	244.69
462.997	259.69
463.217	278.69
463.437	275.69
463.657	239.69
463.876	222.69
464.096	223.69
464.316	231.69
464.536	243.69
464.755	234.69
464.975	241.69
465.195	231.69
465.414	224.69
465.634	221.69
465.854	211.69
466.073	207.69
466.293	196.69
466.512	204.69
466.732	214.69
466.951	201.69
467.171	190.69
467.391	194.69
467.61	209.69
467.829	215.69
468.049	218.69
468.268	237.69
468.488	228.69
468.707	203.69
468.927	209.69
469.146	191.69
469.365	209.69
469.585	193.69
469.804	223.69
470.023	217.69
470.243	216.69
470.462	210.69
470.681	207.69
470.901	211.69
471.12	187.69
471.339	217.69
471.558	201.69
471.777	197.69
471.997	194.69
472.216	273.69
472.435	306.69
472.654	243.69
472.873	236.69
473.092	213.69
473.311	193.69
473.53	203.69
473.749	198.69
473.968	211.69
474.187	198.69
474.406	188.69
474.625	205.69
474.844	207.69
475.063	201.69
475.282	193.69
475.501	187.69
475.72	191.69
475.939	201.69
476.158	209.69
476.377	202.69
476.596	199.69
476.814	198.69
477.033	189.69
477.252	197.69
477.471	206.69
477.69	217.69
477.908	233.69
478.127	229.69
478.346	219.69
478.564	230.69
478.783	221.69
479.002	229.69
479.22	218.69
479.439	221.69
479.658	220.69
479.876	226.69
480.095	228.69
480.313	234.69
480.532	252.69
480.751	259.69
480.969	270.69
481.188	375.69
481.406	380.69
481.624	260.69
481.843	227.69
482.061	239.69
482.28	212.69
482.498	232.69
482.717	231.69
482.935	223.69
483.153	219.69
483.372	228.69
483.59	217.69
483.808	227.69
484.027	220.69
484.245	227.69
484.463	224.69
484.681	237.69
484.9	215.69
485.118	229.69
485.336	223.69
485.554	229.69
485.772	219.69
485.99	231.69
486.209	222.69
486.427	212.69
486.645	212.69
486.863	226.69
487.081	218.69
487.299	226.69
487.517	233.69
487.735	230.69
487.953	241.69
488.171	235.69
488.389	231.69
488.607	211.69
488.825	204.69
489.043	205.69
489.261	237.69
489.479	236.69
489.696	225.69
489.914	229.69
490.132	232.69
490.35	226.69
490.568	215.69
490.786	244.69
491.003	217.69
491.221	231.69
491.439	247.69
491.657	239.69
491.874	239.69
492.092	261.69
492.31	260.69
492.527	238.69
492.745	256.69
492.963	259.69
493.18	239.69
493.398	231.69
493.615	252.69
493.833	241.69
494.05	236.69
494.268	237.69
494.485	235.69
494.703	229.69
494.92	241.69
495.138	226.69
495.355	228.69
495.573	227.69
495.79	257.69
496.008	243.69
496.225	229.69
496.442	221.69
496.66	251.69
496.877	251.69
497.094	253.69
497.312	239.69
497.529	250.69
497.746	258.69
497.963	260.69
498.181	259.69
498.398	280.69
498.615	298.69
498.832	291.69
499.049	306.69
499.267	323.69
499.484	361.69
499.701	386.69
499.918	398.69
500.135	465.69
500.352	487.69
500.569	534.69
500.786	526.69
501.003	465.69
501.22	422.69
501.437	380.69
501.654	360.69
501.871	305.69
502.088	308.69
502.305	274.69
502.522	295.69
502.739	280.69
502.956	274.69
503.172	254.69
503.389	244.69
503.606	235.69
503.823	256.69
