Data from SampB_HRD10591_00031.txt Node
Date: Mon Jan 19 11:33:39 EST 2026
User: Yrep
Spectrometer: HR+D1059
Trigger mode: 0
Integration Time (sec): 3.443000E-1
Scans to average: 1
Electric dark correction enabled: true
Nonlinearity correction enabled: false
Boxcar width: 0
XAxis mode: Wavelengths
Number of Pixels in Spectrum: 2048
>>>>>Begin Spectral Data<<<<<
223.165	-27.06
223.4	-27.06
223.635	-27.06
223.869	-23.06
224.104	-22.06
224.338	-23.06
224.573	-3.06
224.808	-11.06
225.042	-8.06
225.277	-7.06
225.511	-0.06
225.746	9.94
225.98	6.94
226.215	17.94
226.449	13.94
226.683	15.94
226.918	22.94
227.152	36.94
227.387	39.94
227.621	36.94
227.856	52.94
228.09	40.94
228.324	49.94
228.559	64.94
228.793	59.94
229.027	77.94
229.262	73.94
229.496	75.94
229.73	75.94
229.964	89.94
230.199	78.94
230.433	80.94
230.667	89.94
230.901	62.94
231.136	84.94
231.37	88.94
231.604	96.94
231.838	90.94
232.072	87.94
232.306	86.94
232.541	92.94
232.775	79.94
233.009	81.94
233.243	88.94
233.477	78.94
233.711	93.94
233.945	87.94
234.179	86.94
234.413	94.94
234.647	93.94
234.881	92.94
235.115	85.94
235.349	82.94
235.583	86.94
235.817	84.94
236.051	87.94
236.285	78.94
236.519	92.94
236.753	97.94
236.987	89.94
237.221	71.94
237.455	93.94
237.689	90.94
237.922	88.94
238.156	68.94
238.39	100.94
238.624	84.94
238.858	88.94
239.091	93.94
239.325	102.94
239.559	99.94
239.793	85.94
240.027	101.94
240.26	80.94
240.494	84.94
240.728	91.94
240.961	94.94
241.195	79.94
241.429	74.94
241.662	84.94
241.896	91.94
242.13	86.94
242.363	77.94
242.597	89.94
242.83	88.94
243.064	103.94
243.298	97.94
243.531	101.94
243.765	95.94
243.998	95.94
244.232	96.94
244.465	96.94
244.699	106.94
244.932	100.94
245.166	85.94
245.399	90.94
245.633	99.94
245.866	96.94
246.099	96.94
246.333	96.94
246.566	100.94
246.8	90.94
247.033	104.94
247.266	93.94
247.5	94.94
247.733	107.94
247.966	106.94
248.2	90.94
248.433	101.94
248.666	101.94
248.899	103.94
249.133	102.94
249.366	103.94
249.599	111.94
249.832	100.94
250.066	121.94
250.299	105.94
250.532	108.94
250.765	102.94
250.998	106.94
251.231	105.94
251.465	84.94
251.698	102.94
251.931	108.94
252.164	108.94
252.397	102.94
252.63	117.94
252.863	112.94
253.096	93.94
253.329	118.94
253.562	95.94
253.795	111.94
254.028	123.94
254.261	106.94
254.494	106.94
254.727	120.94
254.96	111.94
255.193	99.94
255.426	117.94
255.659	102.94
255.892	122.94
256.124	111.94
256.357	115.94
256.59	109.94
256.823	117.94
257.056	106.94
257.289	115.94
257.521	119.94
257.754	111.94
257.987	120.94
258.22	122.94
258.452	121.94
258.685	115.94
258.918	112.94
259.151	109.94
259.383	120.94
259.616	111.94
259.849	112.94
260.081	124.94
260.314	109.94
260.547	122.94
260.779	115.94
261.012	121.94
261.244	121.94
261.477	141.94
261.71	126.94
261.942	112.94
262.175	123.94
262.407	103.94
262.64	130.94
262.872	108.94
263.105	122.94
263.337	121.94
263.57	114.94
263.802	116.94
264.035	107.94
264.267	111.94
264.499	134.94
264.732	115.94
264.964	111.94
265.197	119.94
265.429	116.94
265.661	119.94
265.894	123.94
266.126	123.94
266.358	127.94
266.591	125.94
266.823	128.94
267.055	121.94
267.287	107.94
267.52	124.94
267.752	108.94
267.984	118.94
268.216	137.94
268.448	146.94
268.681	130.94
268.913	133.94
269.145	123.94
269.377	127.94
269.609	119.94
269.841	130.94
270.073	112.94
270.306	124.94
270.538	133.94
270.77	132.94
271.002	120.94
271.234	128.94
271.466	128.94
271.698	116.94
271.93	122.94
272.162	138.94
272.394	134.94
272.626	124.94
272.858	142.94
273.09	146.94
273.322	131.94
273.553	133.94
273.785	133.94
274.017	108.94
274.249	135.94
274.481	144.94
274.713	146.94
274.945	146.94
275.176	151.94
275.408	160.94
275.64	151.94
275.872	157.94
276.104	142.94
276.335	159.94
276.567	139.94
276.799	140.94
277.031	143.94
277.262	160.94
277.494	147.94
277.726	160.94
277.957	133.94
278.189	146.94
278.421	149.94
278.652	146.94
278.884	156.94
279.115	158.94
279.347	159.94
279.579	146.94
279.81	160.94
280.042	146.94
280.273	160.94
280.505	150.94
280.736	149.94
280.968	132.94
281.199	143.94
281.431	150.94
281.662	167.94
281.894	150.94
282.125	161.94
282.356	165.94
282.588	153.94
282.819	148.94
283.051	140.94
283.282	165.94
283.513	149.94
283.745	156.94
283.976	152.94
284.207	173.94
284.439	158.94
284.67	151.94
284.901	158.94
285.132	177.94
285.364	160.94
285.595	170.94
285.826	166.94
286.057	161.94
286.288	158.94
286.52	146.94
286.751	166.94
286.982	167.94
287.213	150.94
287.444	160.94
287.675	165.94
287.906	166.94
288.138	149.94
288.369	163.94
288.6	159.94
288.831	163.94
289.062	159.94
289.293	148.94
289.524	150.94
289.755	167.94
289.986	156.94
290.217	146.94
290.448	156.94
290.679	156.94
290.91	182.94
291.141	170.94
291.371	169.94
291.602	163.94
291.833	156.94
292.064	154.94
292.295	159.94
292.526	164.94
292.757	152.94
292.987	152.94
293.218	157.94
293.449	164.94
293.68	149.94
293.91	157.94
294.141	173.94
294.372	156.94
294.603	170.94
294.833	164.94
295.064	158.94
295.295	175.94
295.525	157.94
295.756	144.94
295.987	164.94
296.217	157.94
296.448	153.94
296.679	146.94
296.909	164.94
297.14	171.94
297.37	171.94
297.601	155.94
297.831	181.94
298.062	158.94
298.292	156.94
298.523	171.94
298.753	170.94
298.984	173.94
299.214	187.94
299.445	181.94
299.675	188.94
299.905	190.94
300.136	160.94
300.366	153.94
300.597	160.94
300.827	169.94
301.057	181.94
301.288	166.94
301.518	179.94
301.748	185.94
301.979	221.94
302.209	179.94
302.439	178.94
302.669	174.94
302.9	174.94
303.13	172.94
303.36	170.94
303.59	170.94
303.82	181.94
304.051	183.94
304.281	173.94
304.511	185.94
304.741	173.94
304.971	169.94
305.201	195.94
305.431	199.94
305.661	175.94
305.891	178.94
306.121	178.94
306.352	172.94
306.582	174.94
306.812	181.94
307.042	174.94
307.272	174.94
307.502	178.94
307.731	175.94
307.961	184.94
308.191	158.94
308.421	184.94
308.651	166.94
308.881	185.94
309.111	175.94
309.341	195.94
309.571	178.94
309.8	174.94
310.03	164.94
310.26	171.94
310.49	183.94
310.72	164.94
310.949	179.94
311.179	168.94
311.409	168.94
311.639	182.94
311.868	182.94
312.098	178.94
312.328	189.94
312.557	190.94
312.787	194.94
313.017	190.94
313.246	191.94
313.476	186.94
313.706	186.94
313.935	181.94
314.165	189.94
314.394	202.94
314.624	174.94
314.853	194.94
315.083	172.94
315.312	179.94
315.542	172.94
315.771	187.94
316.001	174.94
316.23	190.94
316.46	180.94
316.689	163.94
316.919	190.94
317.148	180.94
317.377	186.94
317.607	197.94
317.836	187.94
318.065	181.94
318.295	184.94
318.524	173.94
318.753	189.94
318.983	176.94
319.212	188.94
319.441	187.94
319.67	175.94
319.9	184.94
320.129	175.94
320.358	193.94
320.587	184.94
320.816	189.94
321.046	198.94
321.275	184.94
321.504	199.94
321.733	201.94
321.962	183.94
322.191	182.94
322.42	178.94
322.649	206.94
322.878	188.94
323.108	192.94
323.337	199.94
323.566	208.94
323.795	201.94
324.024	202.94
324.253	221.94
324.482	185.94
324.71	187.94
324.939	206.94
325.168	201.94
325.397	198.94
325.626	183.94
325.855	185.94
326.084	195.94
326.313	204.94
326.542	202.94
326.77	210.94
326.999	205.94
327.228	207.94
327.457	213.94
327.686	216.94
327.914	237.94
328.143	255.94
328.372	250.94
328.6	209.94
328.829	207.94
329.058	211.94
329.287	211.94
329.515	227.94
329.744	240.94
329.972	263.94
330.201	293.94
330.43	295.94
330.658	265.94
330.887	236.94
331.115	207.94
331.344	210.94
331.572	231.94
331.801	224.94
332.03	242.94
332.258	239.94
332.486	206.94
332.715	234.94
332.943	260.94
333.172	268.94
333.4	264.94
333.629	268.94
333.857	307.94
334.085	318.94
334.314	343.94
334.542	339.94
334.771	328.94
334.999	275.94
335.227	259.94
335.455	235.94
335.684	250.94
335.912	244.94
336.14	230.94
336.369	238.94
336.597	225.94
336.825	249.94
337.053	216.94
337.281	233.94
337.51	231.94
337.738	232.94
337.966	211.94
338.194	196.94
338.422	220.94
338.65	199.94
338.878	215.94
339.106	214.94
339.334	209.94
339.562	229.94
339.79	214.94
340.018	196.94
340.246	195.94
340.474	211.94
340.702	218.94
340.93	210.94
341.158	197.94
341.386	205.94
341.614	200.94
341.842	211.94
342.07	216.94
342.298	216.94
342.526	202.94
342.754	186.94
342.981	221.94
343.209	222.94
343.437	250.94
343.665	226.94
343.893	245.94
344.12	246.94
344.348	230.94
344.576	221.94
344.804	207.94
345.031	213.94
345.259	204.94
345.487	215.94
345.714	202.94
345.942	196.94
346.17	204.94
346.397	199.94
346.625	209.94
346.853	215.94
347.08	203.94
347.308	202.94
347.535	201.94
347.763	219.94
347.99	208.94
348.218	213.94
348.445	206.94
348.673	211.94
348.9	202.94
349.128	222.94
349.355	190.94
349.583	242.94
349.81	210.94
350.037	200.94
350.265	208.94
350.492	199.94
350.72	201.94
350.947	189.94
351.174	192.94
351.402	209.94
351.629	201.94
351.856	212.94
352.083	205.94
352.311	199.94
352.538	181.94
352.765	187.94
352.992	207.94
353.22	202.94
353.447	208.94
353.674	209.94
353.901	205.94
354.128	207.94
354.355	202.94
354.583	205.94
354.81	200.94
355.037	207.94
355.264	202.94
355.491	195.94
355.718	202.94
355.945	221.94
356.172	196.94
356.399	190.94
356.626	221.94
356.853	192.94
357.08	198.94
357.307	219.94
357.534	216.94
357.761	225.94
357.988	220.94
358.215	213.94
358.441	191.94
358.668	218.94
358.895	209.94
359.122	194.94
359.349	199.94
359.576	206.94
359.802	192.94
360.029	206.94
360.256	194.94
360.483	191.94
360.709	206.94
360.936	207.94
361.163	210.94
361.39	186.94
361.616	221.94
361.843	202.94
362.07	210.94
362.296	217.94
362.523	209.94
362.749	206.94
362.976	218.94
363.203	221.94
363.429	196.94
363.656	212.94
363.882	180.94
364.109	198.94
364.335	186.94
364.562	205.94
364.788	180.94
365.015	201.94
365.241	186.94
365.468	196.94
365.694	200.94
365.92	215.94
366.147	196.94
366.373	191.94
366.599	202.94
366.826	188.94
367.052	205.94
367.278	199.94
367.505	210.94
367.731	220.94
367.957	191.94
368.184	198.94
368.41	230.94
368.636	210.94
368.862	195.94
369.089	199.94
369.315	217.94
369.541	208.94
369.767	214.94
369.993	214.94
370.219	224.94
370.445	210.94
370.672	201.94
370.898	237.94
371.124	219.94
371.35	213.94
371.576	217.94
371.802	211.94
372.028	203.94
372.254	223.94
372.48	218.94
372.706	229.94
372.932	230.94
373.158	218.94
373.384	232.94
373.61	229.94
373.835	223.94
374.061	208.94
374.287	219.94
374.513	233.94
374.739	230.94
374.965	231.94
375.191	218.94
375.416	231.94
375.642	235.94
375.868	238.94
376.094	235.94
376.319	216.94
376.545	220.94
376.771	227.94
376.997	219.94
377.222	219.94
377.448	216.94
377.674	228.94
377.899	236.94
378.125	230.94
378.35	222.94
378.576	221.94
378.802	213.94
379.027	217.94
379.253	224.94
379.478	214.94
379.704	208.94
379.929	227.94
380.155	221.94
380.38	217.94
380.606	215.94
380.831	222.94
381.057	231.94
381.282	233.94
381.507	224.94
381.733	224.94
381.958	226.94
382.184	216.94
382.409	228.94
382.634	244.94
382.86	243.94
383.085	260.94
383.31	268.94
383.535	255.94
383.761	242.94
383.986	253.94
384.211	245.94
384.436	253.94
384.662	265.94
384.887	269.94
385.112	263.94
385.337	250.94
385.562	254.94
385.787	252.94
386.013	281.94
386.238	270.94
386.463	241.94
386.688	302.94
386.913	246.94
387.138	260.94
387.363	266.94
387.588	254.94
387.813	247.94
388.038	262.94
388.263	270.94
388.488	258.94
388.713	261.94
388.938	263.94
389.163	262.94
389.387	260.94
389.612	262.94
389.837	260.94
390.062	276.94
390.287	275.94
390.512	268.94
390.736	246.94
390.961	265.94
391.186	255.94
391.411	286.94
391.636	282.94
391.86	276.94
392.085	299.94
392.31	299.94
392.534	267.94
392.759	279.94
392.984	266.94
393.208	279.94
393.433	292.94
393.658	262.94
393.882	286.94
394.107	275.94
394.331	274.94
394.556	278.94
394.78	269.94
395.005	294.94
395.229	299.94
395.454	303.94
395.678	295.94
395.903	291.94
396.127	281.94
396.352	312.94
396.576	280.94
396.801	287.94
397.025	296.94
397.249	306.94
397.474	306.94
397.698	292.94
397.922	302.94
398.147	306.94
398.371	299.94
398.595	317.94
398.82	315.94
399.044	355.94
399.268	392.94
399.492	438.94
399.717	458.94
399.941	443.94
400.165	387.94
400.389	354.94
400.613	328.94
400.837	333.94
401.062	323.94
401.286	335.94
401.51	315.94
401.734	324.94
401.958	323.94
402.182	315.94
402.406	349.94
402.63	322.94
402.854	357.94
403.078	344.94
403.302	333.94
403.526	358.94
403.75	362.94
403.974	368.94
404.198	363.94
404.422	369.94
404.645	365.94
404.869	347.94
405.093	346.94
405.317	377.94
405.541	374.94
405.765	354.94
405.988	329.94
406.212	339.94
406.436	352.94
406.66	377.94
406.883	378.94
407.107	397.94
407.331	398.94
407.555	403.94
407.778	402.94
408.002	376.94
408.226	370.94
408.449	380.94
408.673	357.94
408.896	354.94
409.12	361.94
409.344	367.94
409.567	355.94
409.791	365.94
410.014	365.94
410.238	373.94
410.461	363.94
410.685	349.94
410.908	361.94
411.132	365.94
411.355	351.94
411.578	348.94
411.802	341.94
412.025	315.94
412.249	347.94
412.472	335.94
412.695	339.94
412.919	339.94
413.142	339.94
413.365	309.94
413.589	317.94
413.812	303.94
414.035	327.94
414.258	333.94
414.482	356.94
414.705	353.94
414.928	359.94
415.151	333.94
415.374	335.94
415.597	317.94
415.821	334.94
416.044	322.94
416.267	333.94
416.49	321.94
416.713	334.94
416.936	324.94
417.159	307.94
417.382	335.94
417.605	330.94
417.828	342.94
418.051	331.94
418.274	351.94
418.497	327.94
418.72	353.94
418.943	359.94
419.166	350.94
419.389	375.94
419.611	369.94
419.834	324.94
420.057	339.94
420.28	327.94
420.503	328.94
420.726	323.94
420.948	349.94
421.171	343.94
421.394	329.94
421.617	339.94
421.839	335.94
422.062	336.94
422.285	355.94
422.507	340.94
422.73	353.94
422.953	369.94
423.175	349.94
423.398	354.94
423.621	349.94
423.843	336.94
424.066	359.94
424.288	334.94
424.511	346.94
424.733	352.94
424.956	347.94
425.178	352.94
425.401	324.94
425.623	334.94
425.846	315.94
426.068	320.94
426.291	326.94
426.513	310.94
426.735	328.94
426.958	307.94
427.18	315.94
427.402	319.94
427.625	304.94
427.847	308.94
428.069	320.94
428.292	324.94
428.514	312.94
428.736	289.94
428.958	303.94
429.181	299.94
429.403	284.94
429.625	304.94
429.847	291.94
430.069	317.94
430.292	306.94
430.514	310.94
430.736	306.94
430.958	288.94
431.18	310.94
431.402	307.94
431.624	294.94
431.846	295.94
432.068	280.94
432.29	307.94
432.512	316.94
432.734	292.94
432.956	296.94
433.178	315.94
433.4	320.94
433.622	308.94
433.844	315.94
434.066	302.94
434.287	313.94
434.509	313.94
434.731	328.94
434.953	318.94
435.175	316.94
435.397	314.94
435.618	298.94
435.84	296.94
436.062	300.94
436.284	299.94
436.505	299.94
436.727	308.94
436.949	322.94
437.17	299.94
437.392	284.94
437.614	288.94
437.835	282.94
438.057	294.94
438.278	295.94
438.5	288.94
438.721	301.94
438.943	311.94
439.165	305.94
439.386	287.94
439.608	297.94
439.829	294.94
440.05	289.94
440.272	305.94
440.493	329.94
440.715	303.94
440.936	330.94
441.158	329.94
441.379	336.94
441.6	343.94
441.822	352.94
442.043	332.94
442.264	348.94
442.486	325.94
442.707	336.94
442.928	338.94
443.149	338.94
443.371	349.94
443.592	306.94
443.813	329.94
444.034	350.94
444.255	363.94
444.476	362.94
444.698	379.94
444.919	390.94
445.14	568.94
445.361	448.94
445.582	352.94
445.803	330.94
446.024	338.94
446.245	324.94
446.466	335.94
446.687	319.94
446.908	325.94
447.129	313.94
447.35	304.94
447.571	314.94
447.792	324.94
448.013	290.94
448.234	297.94
448.455	279.94
448.675	284.94
448.896	285.94
449.117	293.94
449.338	290.94
449.559	283.94
449.779	291.94
450	289.94
450.221	269.94
450.442	285.94
450.662	283.94
450.883	289.94
451.104	296.94
451.324	286.94
451.545	274.94
451.766	298.94
451.986	286.94
452.207	309.94
452.428	290.94
452.648	274.94
452.869	283.94
453.089	275.94
453.31	270.94
453.53	277.94
453.751	276.94
453.971	270.94
454.192	245.94
454.412	262.94
454.633	280.94
454.853	267.94
455.073	268.94
455.294	266.94
455.514	247.94
455.734	248.94
455.955	274.94
456.175	260.94
456.395	240.94
456.616	262.94
456.836	240.94
457.056	237.94
457.276	246.94
457.497	262.94
457.717	260.94
457.937	259.94
458.157	266.94
458.377	272.94
458.598	270.94
458.818	275.94
459.038	287.94
459.258	295.94
459.478	280.94
459.698	299.94
459.918	306.94
460.138	294.94
460.358	311.94
460.578	330.94
460.798	336.94
461.018	328.94
461.238	340.94
461.458	337.94
461.678	338.94
461.898	342.94
462.118	330.94
462.338	351.94
462.558	361.94
462.777	362.94
462.997	421.94
463.217	425.94
463.437	411.94
463.657	381.94
463.876	373.94
464.096	370.94
464.316	370.94
464.536	396.94
464.755	377.94
464.975	339.94
465.195	338.94
465.414	338.94
465.634	309.94
465.854	290.94
466.073	305.94
466.293	302.94
466.512	302.94
466.732	292.94
466.951	309.94
467.171	291.94
467.391	313.94
467.61	302.94
467.829	343.94
468.049	352.94
468.268	349.94
468.488	305.94
468.707	306.94
468.927	287.94
469.146	313.94
469.365	311.94
469.585	298.94
469.804	332.94
470.023	316.94
470.243	316.94
470.462	312.94
470.681	308.94
470.901	293.94
471.12	302.94
471.339	309.94
471.558	299.94
471.777	303.94
471.997	314.94
472.216	352.94
472.435	447.94
472.654	347.94
472.873	304.94
473.092	301.94
473.311	296.94
473.53	298.94
473.749	278.94
473.968	290.94
474.187	275.94
474.406	274.94
474.625	280.94
474.844	283.94
475.063	269.94
475.282	279.94
475.501	284.94
475.72	302.94
475.939	266.94
476.158	286.94
476.377	285.94
476.596	291.94
476.814	286.94
477.033	276.94
477.252	275.94
477.471	312.94
477.69	317.94
477.908	318.94
478.127	326.94
478.346	322.94
478.564	336.94
478.783	326.94
479.002	338.94
479.22	335.94
479.439	338.94
479.658	317.94
479.876	338.94
480.095	337.94
480.313	356.94
480.532	392.94
480.751	360.94
480.969	407.94
481.188	540.94
481.406	510.94
481.624	371.94
481.843	326.94
482.061	303.94
482.28	314.94
482.498	330.94
482.717	325.94
482.935	316.94
483.153	329.94
483.372	338.94
483.59	322.94
483.808	299.94
484.027	314.94
484.245	319.94
484.463	321.94
484.681	350.94
484.9	343.94
485.118	345.94
485.336	292.94
485.554	318.94
485.772	312.94
485.99	333.94
486.209	319.94
486.427	314.94
486.645	329.94
486.863	316.94
487.081	331.94
487.299	313.94
487.517	334.94
487.735	366.94
487.953	350.94
488.171	355.94
488.389	344.94
488.607	341.94
488.825	323.94
489.043	334.94
489.261	339.94
489.479	331.94
489.696	339.94
489.914	331.94
490.132	344.94
490.35	367.94
490.568	355.94
490.786	351.94
491.003	340.94
491.221	349.94
491.439	342.94
491.657	363.94
491.874	367.94
492.092	371.94
492.31	395.94
492.527	381.94
492.745	376.94
492.963	374.94
493.18	375.94
493.398	366.94
493.615	356.94
493.833	364.94
494.05	370.94
494.268	355.94
494.485	375.94
494.703	355.94
494.92	371.94
495.138	360.94
495.355	368.94
495.573	360.94
495.79	374.94
496.008	389.94
496.225	365.94
496.442	384.94
496.66	369.94
496.877	367.94
497.094	387.94
497.312	386.94
497.529	392.94
497.746	400.94
497.963	404.94
498.181	398.94
498.398	409.94
498.615	459.94
498.832	452.94
499.049	484.94
499.267	529.94
499.484	588.94
499.701	621.94
499.918	672.94
500.135	764.94
500.352	826.94
500.569	833.94
500.786	832.94
501.003	779.94
501.22	703.94
501.437	634.94
501.654	548.94
501.871	516.94
502.088	502.94
502.305	463.94
502.522	453.94
502.739	439.94
502.956	415.94
503.172	408.94
503.389	390.94
503.606	366.94
503.823	386.94
