Data from SampB_HRD10591_00017.txt Node
Date: Mon Jan 19 11:33:34 EST 2026
User: Yrep
Spectrometer: HR+D1059
Trigger mode: 0
Integration Time (sec): 3.443000E-1
Scans to average: 1
Electric dark correction enabled: true
Nonlinearity correction enabled: false
Boxcar width: 0
XAxis mode: Wavelengths
Number of Pixels in Spectrum: 2048
>>>>>Begin Spectral Data<<<<<
223.165	-19.81
223.4	-19.81
223.635	-19.81
223.869	-21.81
224.104	-19.81
224.338	-4.81
224.573	-22.81
224.808	-17.81
225.042	-10.81
225.277	-8.81
225.511	-16.81
225.746	18.19
225.98	7.19
226.215	13.19
226.449	22.19
226.683	22.19
226.918	21.19
227.152	39.19
227.387	28.19
227.621	49.19
227.856	52.19
228.09	45.19
228.324	43.19
228.559	64.19
228.793	56.19
229.027	57.19
229.262	74.19
229.496	78.19
229.73	77.19
229.964	83.19
230.199	96.19
230.433	85.19
230.667	87.19
230.901	74.19
231.136	82.19
231.37	73.19
231.604	84.19
231.838	89.19
232.072	81.19
232.306	97.19
232.541	87.19
232.775	91.19
233.009	96.19
233.243	97.19
233.477	86.19
233.711	92.19
233.945	87.19
234.179	89.19
234.413	82.19
234.647	102.19
234.881	77.19
235.115	88.19
235.349	96.19
235.583	90.19
235.817	88.19
236.051	87.19
236.285	69.19
236.519	88.19
236.753	108.19
236.987	92.19
237.221	59.19
237.455	76.19
237.689	93.19
237.922	87.19
238.156	89.19
238.39	88.19
238.624	88.19
238.858	94.19
239.091	89.19
239.325	98.19
239.559	84.19
239.793	88.19
240.027	102.19
240.26	106.19
240.494	89.19
240.728	78.19
240.961	108.19
241.195	98.19
241.429	96.19
241.662	94.19
241.896	88.19
242.13	90.19
242.363	80.19
242.597	98.19
242.83	80.19
243.064	92.19
243.298	102.19
243.531	87.19
243.765	82.19
243.998	97.19
244.232	112.19
244.465	108.19
244.699	98.19
244.932	84.19
245.166	99.19
245.399	93.19
245.633	92.19
245.866	102.19
246.099	87.19
246.333	94.19
246.566	95.19
246.8	111.19
247.033	80.19
247.266	93.19
247.5	98.19
247.733	88.19
247.966	111.19
248.2	114.19
248.433	90.19
248.666	102.19
248.899	112.19
249.133	93.19
249.366	110.19
249.599	97.19
249.832	106.19
250.066	108.19
250.299	100.19
250.532	109.19
250.765	108.19
250.998	92.19
251.231	102.19
251.465	118.19
251.698	93.19
251.931	102.19
252.164	120.19
252.397	92.19
252.63	106.19
252.863	99.19
253.096	112.19
253.329	112.19
253.562	85.19
253.795	101.19
254.028	113.19
254.261	118.19
254.494	115.19
254.727	94.19
254.96	98.19
255.193	113.19
255.426	107.19
255.659	115.19
255.892	134.19
256.124	119.19
256.357	122.19
256.59	118.19
256.823	117.19
257.056	128.19
257.289	108.19
257.521	100.19
257.754	98.19
257.987	112.19
258.22	125.19
258.452	104.19
258.685	113.19
258.918	126.19
259.151	101.19
259.383	126.19
259.616	104.19
259.849	117.19
260.081	115.19
260.314	129.19
260.547	109.19
260.779	129.19
261.012	126.19
261.244	112.19
261.477	137.19
261.71	111.19
261.942	108.19
262.175	124.19
262.407	106.19
262.64	117.19
262.872	136.19
263.105	120.19
263.337	140.19
263.57	129.19
263.802	119.19
264.035	112.19
264.267	118.19
264.499	104.19
264.732	121.19
264.964	116.19
265.197	118.19
265.429	113.19
265.661	108.19
265.894	123.19
266.126	120.19
266.358	119.19
266.591	137.19
266.823	111.19
267.055	121.19
267.287	108.19
267.52	103.19
267.752	132.19
267.984	114.19
268.216	117.19
268.448	127.19
268.681	116.19
268.913	117.19
269.145	113.19
269.377	119.19
269.609	115.19
269.841	126.19
270.073	132.19
270.306	123.19
270.538	127.19
270.77	132.19
271.002	139.19
271.234	127.19
271.466	120.19
271.698	133.19
271.93	118.19
272.162	128.19
272.394	118.19
272.626	133.19
272.858	132.19
273.09	119.19
273.322	139.19
273.553	133.19
273.785	139.19
274.017	133.19
274.249	146.19
274.481	140.19
274.713	142.19
274.945	157.19
275.176	140.19
275.408	149.19
275.64	139.19
275.872	139.19
276.104	137.19
276.335	127.19
276.567	143.19
276.799	123.19
277.031	145.19
277.262	141.19
277.494	138.19
277.726	149.19
277.957	126.19
278.189	135.19
278.421	123.19
278.652	135.19
278.884	148.19
279.115	144.19
279.347	137.19
279.579	160.19
279.81	169.19
280.042	140.19
280.273	155.19
280.505	165.19
280.736	168.19
280.968	142.19
281.199	160.19
281.431	154.19
281.662	139.19
281.894	146.19
282.125	125.19
282.356	121.19
282.588	137.19
282.819	136.19
283.051	134.19
283.282	150.19
283.513	158.19
283.745	149.19
283.976	144.19
284.207	144.19
284.439	149.19
284.67	136.19
284.901	148.19
285.132	150.19
285.364	153.19
285.595	154.19
285.826	153.19
286.057	149.19
286.288	143.19
286.52	141.19
286.751	142.19
286.982	151.19
287.213	146.19
287.444	140.19
287.675	148.19
287.906	144.19
288.138	149.19
288.369	154.19
288.6	146.19
288.831	130.19
289.062	162.19
289.293	148.19
289.524	148.19
289.755	148.19
289.986	133.19
290.217	126.19
290.448	136.19
290.679	140.19
290.91	146.19
291.141	144.19
291.371	159.19
291.602	165.19
291.833	150.19
292.064	153.19
292.295	136.19
292.526	149.19
292.757	146.19
292.987	152.19
293.218	162.19
293.449	148.19
293.68	130.19
293.91	149.19
294.141	150.19
294.372	140.19
294.603	146.19
294.833	140.19
295.064	142.19
295.295	159.19
295.525	149.19
295.756	155.19
295.987	149.19
296.217	150.19
296.448	145.19
296.679	156.19
296.909	152.19
297.14	158.19
297.37	163.19
297.601	154.19
297.831	136.19
298.062	171.19
298.292	153.19
298.523	164.19
298.753	164.19
298.984	158.19
299.214	158.19
299.445	143.19
299.675	166.19
299.905	177.19
300.136	166.19
300.366	150.19
300.597	154.19
300.827	158.19
301.057	173.19
301.288	139.19
301.518	154.19
301.748	158.19
301.979	205.19
302.209	162.19
302.439	162.19
302.669	154.19
302.9	159.19
303.13	166.19
303.36	156.19
303.59	151.19
303.82	152.19
304.051	161.19
304.281	165.19
304.511	178.19
304.741	161.19
304.971	159.19
305.201	174.19
305.431	156.19
305.661	162.19
305.891	161.19
306.121	157.19
306.352	168.19
306.582	158.19
306.812	173.19
307.042	162.19
307.272	178.19
307.502	182.19
307.731	169.19
307.961	165.19
308.191	156.19
308.421	165.19
308.651	154.19
308.881	170.19
309.111	174.19
309.341	161.19
309.571	157.19
309.8	177.19
310.03	161.19
310.26	172.19
310.49	161.19
310.72	148.19
310.949	173.19
311.179	170.19
311.409	154.19
311.639	168.19
311.868	175.19
312.098	188.19
312.328	167.19
312.557	175.19
312.787	162.19
313.017	182.19
313.246	171.19
313.476	154.19
313.706	160.19
313.935	161.19
314.165	177.19
314.394	160.19
314.624	174.19
314.853	177.19
315.083	161.19
315.312	162.19
315.542	174.19
315.771	167.19
316.001	182.19
316.23	178.19
316.46	188.19
316.689	168.19
316.919	161.19
317.148	177.19
317.377	170.19
317.607	169.19
317.836	170.19
318.065	185.19
318.295	181.19
318.524	165.19
318.753	167.19
318.983	174.19
319.212	174.19
319.441	157.19
319.67	157.19
319.9	159.19
320.129	183.19
320.358	183.19
320.587	162.19
320.816	161.19
321.046	165.19
321.275	182.19
321.504	185.19
321.733	195.19
321.962	177.19
322.191	176.19
322.42	182.19
322.649	193.19
322.878	193.19
323.108	196.19
323.337	189.19
323.566	216.19
323.795	220.19
324.024	194.19
324.253	194.19
324.482	199.19
324.71	178.19
324.939	187.19
325.168	197.19
325.397	198.19
325.626	178.19
325.855	189.19
326.084	186.19
326.313	198.19
326.542	184.19
326.77	172.19
326.999	185.19
327.228	185.19
327.457	197.19
327.686	194.19
327.914	196.19
328.143	217.19
328.372	216.19
328.6	204.19
328.829	203.19
329.058	197.19
329.287	196.19
329.515	199.19
329.744	216.19
329.972	243.19
330.201	267.19
330.43	250.19
330.658	236.19
330.887	202.19
331.115	196.19
331.344	191.19
331.572	215.19
331.801	211.19
332.03	212.19
332.258	214.19
332.486	215.19
332.715	224.19
332.943	224.19
333.172	229.19
333.4	225.19
333.629	249.19
333.857	270.19
334.085	299.19
334.314	332.19
334.542	329.19
334.771	324.19
334.999	297.19
335.227	267.19
335.455	223.19
335.684	236.19
335.912	241.19
336.14	219.19
336.369	224.19
336.597	213.19
336.825	194.19
337.053	230.19
337.281	225.19
337.51	218.19
337.738	220.19
337.966	212.19
338.194	222.19
338.422	211.19
338.65	205.19
338.878	184.19
339.106	192.19
339.334	193.19
339.562	202.19
339.79	184.19
340.018	180.19
340.246	177.19
340.474	178.19
340.702	191.19
340.93	178.19
341.158	188.19
341.386	177.19
341.614	182.19
341.842	190.19
342.07	169.19
342.298	189.19
342.526	171.19
342.754	196.19
342.981	192.19
343.209	182.19
343.437	210.19
343.665	190.19
343.893	217.19
344.12	234.19
344.348	201.19
344.576	199.19
344.804	197.19
345.031	194.19
345.259	180.19
345.487	198.19
345.714	183.19
345.942	180.19
346.17	178.19
346.397	193.19
346.625	172.19
346.853	185.19
347.08	166.19
347.308	174.19
347.535	187.19
347.763	188.19
347.99	207.19
348.218	188.19
348.445	145.19
348.673	170.19
348.9	193.19
349.128	186.19
349.355	181.19
349.583	191.19
349.81	178.19
350.037	179.19
350.265	172.19
350.492	187.19
350.72	188.19
350.947	177.19
351.174	179.19
351.402	180.19
351.629	182.19
351.856	185.19
352.083	161.19
352.311	170.19
352.538	153.19
352.765	173.19
352.992	194.19
353.22	196.19
353.447	169.19
353.674	178.19
353.901	179.19
354.128	182.19
354.355	179.19
354.583	148.19
354.81	183.19
355.037	186.19
355.264	192.19
355.491	168.19
355.718	191.19
355.945	175.19
356.172	181.19
356.399	197.19
356.626	178.19
356.853	193.19
357.08	176.19
357.307	183.19
357.534	182.19
357.761	182.19
357.988	174.19
358.215	194.19
358.441	182.19
358.668	190.19
358.895	168.19
359.122	189.19
359.349	164.19
359.576	171.19
359.802	178.19
360.029	190.19
360.256	175.19
360.483	170.19
360.709	178.19
360.936	197.19
361.163	177.19
361.39	172.19
361.616	181.19
361.843	185.19
362.07	192.19
362.296	170.19
362.523	172.19
362.749	168.19
362.976	182.19
363.203	182.19
363.429	197.19
363.656	182.19
363.882	182.19
364.109	189.19
364.335	189.19
364.562	189.19
364.788	191.19
365.015	189.19
365.241	190.19
365.468	185.19
365.694	185.19
365.92	184.19
366.147	185.19
366.373	173.19
366.599	167.19
366.826	184.19
367.052	178.19
367.278	190.19
367.505	173.19
367.731	203.19
367.957	186.19
368.184	198.19
368.41	193.19
368.636	208.19
368.862	185.19
369.089	185.19
369.315	177.19
369.541	183.19
369.767	189.19
369.993	191.19
370.219	177.19
370.445	175.19
370.672	176.19
370.898	181.19
371.124	195.19
371.35	196.19
371.576	186.19
371.802	193.19
372.028	199.19
372.254	193.19
372.48	192.19
372.706	201.19
372.932	216.19
373.158	214.19
373.384	214.19
373.61	204.19
373.835	212.19
374.061	205.19
374.287	208.19
374.513	210.19
374.739	205.19
374.965	220.19
375.191	223.19
375.416	233.19
375.642	228.19
375.868	239.19
376.094	222.19
376.319	223.19
376.545	213.19
376.771	194.19
376.997	185.19
377.222	202.19
377.448	201.19
377.674	187.19
377.899	200.19
378.125	191.19
378.35	188.19
378.576	198.19
378.802	192.19
379.027	206.19
379.253	190.19
379.478	184.19
379.704	207.19
379.929	186.19
380.155	200.19
380.38	204.19
380.606	196.19
380.831	201.19
381.057	224.19
381.282	186.19
381.507	186.19
381.733	217.19
381.958	215.19
382.184	207.19
382.409	202.19
382.634	207.19
382.86	206.19
383.085	246.19
383.31	228.19
383.535	236.19
383.761	230.19
383.986	232.19
384.211	209.19
384.436	219.19
384.662	203.19
384.887	233.19
385.112	225.19
385.337	228.19
385.562	246.19
385.787	241.19
386.013	241.19
386.238	245.19
386.463	249.19
386.688	273.19
386.913	245.19
387.138	234.19
387.363	233.19
387.588	234.19
387.813	245.19
388.038	244.19
388.263	226.19
388.488	220.19
388.713	211.19
388.938	231.19
389.163	244.19
389.387	221.19
389.612	230.19
389.837	233.19
390.062	236.19
390.287	220.19
390.512	226.19
390.736	239.19
390.961	233.19
391.186	253.19
391.411	246.19
391.636	247.19
391.86	234.19
392.085	264.19
392.31	231.19
392.534	255.19
392.759	265.19
392.984	283.19
393.208	334.19
393.433	389.19
393.658	332.19
393.882	261.19
394.107	249.19
394.331	250.19
394.556	244.19
394.78	260.19
395.005	262.19
395.229	226.19
395.454	272.19
395.678	266.19
395.903	266.19
396.127	270.19
396.352	284.19
396.576	280.19
396.801	327.19
397.025	349.19
397.249	274.19
397.474	267.19
397.698	254.19
397.922	246.19
398.147	274.19
398.371	272.19
398.595	293.19
398.82	286.19
399.044	309.19
399.268	345.19
399.492	376.19
399.717	391.19
399.941	372.19
400.165	329.19
400.389	302.19
400.613	304.19
400.837	296.19
401.062	278.19
401.286	283.19
401.51	282.19
401.734	270.19
401.958	288.19
402.182	300.19
402.406	289.19
402.63	283.19
402.854	314.19
403.078	317.19
403.302	308.19
403.526	293.19
403.75	298.19
403.974	296.19
404.198	299.19
404.422	316.19
404.645	304.19
404.869	311.19
405.093	315.19
405.317	305.19
405.541	291.19
405.765	299.19
405.988	304.19
406.212	296.19
406.436	293.19
406.66	334.19
406.883	311.19
407.107	321.19
407.331	327.19
407.555	344.19
407.778	347.19
408.002	324.19
408.226	335.19
408.449	326.19
408.673	306.19
408.896	316.19
409.12	311.19
409.344	312.19
409.567	298.19
409.791	319.19
410.014	300.19
410.238	293.19
410.461	305.19
410.685	291.19
410.908	299.19
411.132	319.19
411.355	266.19
411.578	306.19
411.802	280.19
412.025	289.19
412.249	294.19
412.472	312.19
412.695	288.19
412.919	280.19
413.142	294.19
413.365	282.19
413.589	297.19
413.812	290.19
414.035	283.19
414.258	295.19
414.482	286.19
414.705	280.19
414.928	305.19
415.151	289.19
415.374	296.19
415.597	287.19
415.821	278.19
416.044	270.19
416.267	276.19
416.49	279.19
416.713	289.19
416.936	299.19
417.159	294.19
417.382	283.19
417.605	265.19
417.828	318.19
418.051	284.19
418.274	286.19
418.497	290.19
418.72	296.19
418.943	296.19
419.166	298.19
419.389	308.19
419.611	308.19
419.834	301.19
420.057	288.19
420.28	295.19
420.503	280.19
420.726	264.19
420.948	273.19
421.171	282.19
421.394	296.19
421.617	308.19
421.839	301.19
422.062	299.19
422.285	299.19
422.507	333.19
422.73	357.19
422.953	334.19
423.175	301.19
423.398	301.19
423.621	296.19
423.843	310.19
424.066	280.19
424.288	312.19
424.511	318.19
424.733	317.19
424.956	288.19
425.178	294.19
425.401	301.19
425.623	281.19
425.846	285.19
426.068	286.19
426.291	278.19
426.513	284.19
426.735	276.19
426.958	281.19
427.18	273.19
427.402	268.19
427.625	270.19
427.847	255.19
428.069	275.19
428.292	292.19
428.514	252.19
428.736	264.19
428.958	270.19
429.181	287.19
429.403	278.19
429.625	270.19
429.847	285.19
430.069	301.19
430.292	306.19
430.514	268.19
430.736	278.19
430.958	273.19
431.18	256.19
431.402	253.19
431.624	280.19
431.846	262.19
432.068	256.19
432.29	259.19
432.512	281.19
432.734	267.19
432.956	267.19
433.178	270.19
433.4	265.19
433.622	287.19
433.844	270.19
434.066	264.19
434.287	257.19
434.509	253.19
434.731	268.19
434.953	270.19
435.175	293.19
435.397	277.19
435.618	266.19
435.84	261.19
436.062	265.19
436.284	270.19
436.505	272.19
436.727	262.19
436.949	260.19
437.17	260.19
437.392	234.19
437.614	256.19
437.835	253.19
438.057	244.19
438.278	250.19
438.5	247.19
438.721	274.19
438.943	264.19
439.165	251.19
439.386	272.19
439.608	284.19
439.829	282.19
440.05	280.19
440.272	277.19
440.493	278.19
440.715	269.19
440.936	277.19
441.158	269.19
441.379	280.19
441.6	284.19
441.822	290.19
442.043	283.19
442.264	284.19
442.486	298.19
442.707	295.19
442.928	293.19
443.149	286.19
443.371	294.19
443.592	307.19
443.813	295.19
444.034	301.19
444.255	295.19
444.476	318.19
444.698	345.19
444.919	319.19
445.14	506.19
445.361	408.19
445.582	313.19
445.803	314.19
446.024	289.19
446.245	294.19
446.466	285.19
446.687	298.19
446.908	276.19
447.129	275.19
447.35	270.19
447.571	284.19
447.792	266.19
448.013	263.19
448.234	263.19
448.455	270.19
448.675	276.19
448.896	254.19
449.117	252.19
449.338	240.19
449.559	248.19
449.779	267.19
450	248.19
450.221	260.19
450.442	257.19
450.662	272.19
450.883	264.19
451.104	264.19
451.324	270.19
451.545	261.19
451.766	264.19
451.986	266.19
452.207	255.19
452.428	264.19
452.648	268.19
452.869	249.19
453.089	238.19
453.31	262.19
453.53	312.19
453.751	300.19
453.971	241.19
454.192	222.19
454.412	226.19
454.633	222.19
454.853	247.19
455.073	236.19
455.294	250.19
455.514	248.19
455.734	255.19
455.955	231.19
456.175	232.19
456.395	225.19
456.616	234.19
456.836	217.19
457.056	230.19
457.276	236.19
457.497	222.19
457.717	227.19
457.937	237.19
458.157	223.19
458.377	209.19
458.598	230.19
458.818	221.19
459.038	222.19
459.258	239.19
459.478	260.19
459.698	255.19
459.918	267.19
460.138	276.19
460.358	294.19
460.578	287.19
460.798	255.19
461.018	269.19
461.238	286.19
461.458	285.19
461.678	274.19
461.898	284.19
462.118	287.19
462.338	293.19
462.558	302.19
462.777	318.19
462.997	338.19
463.217	383.19
463.437	337.19
463.657	330.19
463.876	319.19
464.096	308.19
464.316	301.19
464.536	313.19
464.755	313.19
464.975	282.19
465.195	285.19
465.414	271.19
465.634	288.19
465.854	269.19
466.073	262.19
466.293	261.19
466.512	267.19
466.732	270.19
466.951	282.19
467.171	265.19
467.391	261.19
467.61	282.19
467.829	287.19
468.049	300.19
468.268	317.19
468.488	288.19
468.707	264.19
468.927	249.19
469.146	253.19
469.365	258.19
469.585	270.19
469.804	265.19
470.023	285.19
470.243	264.19
470.462	285.19
470.681	281.19
470.901	265.19
471.12	266.19
471.339	280.19
471.558	266.19
471.777	268.19
471.997	278.19
472.216	329.19
472.435	363.19
472.654	291.19
472.873	295.19
473.092	277.19
473.311	264.19
473.53	278.19
473.749	267.19
473.968	270.19
474.187	262.19
474.406	263.19
474.625	265.19
474.844	251.19
475.063	241.19
475.282	249.19
475.501	246.19
475.72	272.19
475.939	256.19
476.158	262.19
476.377	266.19
476.596	258.19
476.814	257.19
477.033	236.19
477.252	264.19
477.471	278.19
477.69	290.19
477.908	297.19
478.127	282.19
478.346	278.19
478.564	291.19
478.783	313.19
479.002	309.19
479.22	281.19
479.439	288.19
479.658	295.19
479.876	281.19
480.095	297.19
480.313	321.19
480.532	328.19
480.751	324.19
480.969	354.19
481.188	482.19
481.406	455.19
481.624	340.19
481.843	277.19
482.061	294.19
482.28	284.19
482.498	287.19
482.717	272.19
482.935	293.19
483.153	281.19
483.372	288.19
483.59	290.19
483.808	291.19
484.027	288.19
484.245	303.19
484.463	294.19
484.681	296.19
484.9	300.19
485.118	283.19
485.336	297.19
485.554	271.19
485.772	266.19
485.99	281.19
486.209	296.19
486.427	275.19
486.645	280.19
486.863	299.19
487.081	320.19
487.299	288.19
487.517	293.19
487.735	296.19
487.953	308.19
488.171	305.19
488.389	308.19
488.607	294.19
488.825	289.19
489.043	302.19
489.261	286.19
489.479	302.19
489.696	298.19
489.914	301.19
490.132	317.19
490.35	298.19
490.568	280.19
490.786	324.19
491.003	339.19
491.221	316.19
491.439	329.19
491.657	320.19
491.874	344.19
492.092	349.19
492.31	353.19
492.527	336.19
492.745	336.19
492.963	340.19
493.18	344.19
493.398	346.19
493.615	330.19
493.833	329.19
494.05	336.19
494.268	336.19
494.485	322.19
494.703	331.19
494.92	338.19
495.138	319.19
495.355	328.19
495.573	337.19
495.79	297.19
496.008	344.19
496.225	328.19
496.442	323.19
496.66	336.19
496.877	325.19
497.094	344.19
497.312	334.19
497.529	332.19
497.746	338.19
497.963	329.19
498.181	376.19
498.398	420.19
498.615	384.19
498.832	414.19
499.049	418.19
499.267	501.19
499.484	495.19
499.701	520.19
499.918	585.19
500.135	689.19
500.352	704.19
500.569	721.19
500.786	720.19
501.003	653.19
501.22	581.19
501.437	538.19
501.654	516.19
501.871	492.19
502.088	446.19
502.305	424.19
502.522	401.19
502.739	397.19
502.956	355.19
503.172	352.19
503.389	322.19
503.606	336.19
503.823	378.19
