Data from SampB_HRD10591_00068.txt Node
Date: Mon Jan 19 11:33:51 EST 2026
User: Yrep
Spectrometer: HR+D1059
Trigger mode: 0
Integration Time (sec): 3.443000E-1
Scans to average: 1
Electric dark correction enabled: true
Nonlinearity correction enabled: false
Boxcar width: 0
XAxis mode: Wavelengths
Number of Pixels in Spectrum: 2048
>>>>>Begin Spectral Data<<<<<
223.165	-19.69
223.4	-19.69
223.635	-19.69
223.869	-14.69
224.104	-28.69
224.338	-22.69
224.573	-31.69
224.808	-7.69
225.042	-8.69
225.277	5.31
225.511	-11.69
225.746	24.31
225.98	9.31
226.215	17.31
226.449	20.31
226.683	25.31
226.918	12.31
227.152	31.31
227.387	34.31
227.621	39.31
227.856	34.31
228.09	53.31
228.324	41.31
228.559	69.31
228.793	73.31
229.027	72.31
229.262	63.31
229.496	66.31
229.73	78.31
229.964	69.31
230.199	85.31
230.433	82.31
230.667	96.31
230.901	88.31
231.136	76.31
231.37	85.31
231.604	91.31
231.838	79.31
232.072	99.31
232.306	94.31
232.541	93.31
232.775	83.31
233.009	109.31
233.243	93.31
233.477	104.31
233.711	105.31
233.945	103.31
234.179	90.31
234.413	95.31
234.647	103.31
234.881	98.31
235.115	96.31
235.349	93.31
235.583	98.31
235.817	97.31
236.051	78.31
236.285	82.31
236.519	95.31
236.753	90.31
236.987	90.31
237.221	84.31
237.455	86.31
237.689	90.31
237.922	82.31
238.156	82.31
238.39	82.31
238.624	95.31
238.858	80.31
239.091	93.31
239.325	77.31
239.559	80.31
239.793	105.31
240.027	96.31
240.26	99.31
240.494	84.31
240.728	98.31
240.961	102.31
241.195	101.31
241.429	102.31
241.662	105.31
241.896	99.31
242.13	102.31
242.363	100.31
242.597	88.31
242.83	88.31
243.064	92.31
243.298	84.31
243.531	96.31
243.765	106.31
243.998	104.31
244.232	94.31
244.465	105.31
244.699	115.31
244.932	111.31
245.166	101.31
245.399	92.31
245.633	96.31
245.866	98.31
246.099	116.31
246.333	109.31
246.566	102.31
246.8	93.31
247.033	106.31
247.266	111.31
247.5	97.31
247.733	104.31
247.966	107.31
248.2	102.31
248.433	105.31
248.666	105.31
248.899	114.31
249.133	125.31
249.366	119.31
249.599	116.31
249.832	126.31
250.066	118.31
250.299	119.31
250.532	123.31
250.765	99.31
250.998	91.31
251.231	102.31
251.465	115.31
251.698	99.31
251.931	110.31
252.164	105.31
252.397	125.31
252.63	106.31
252.863	115.31
253.096	114.31
253.329	119.31
253.562	108.31
253.795	121.31
254.028	134.31
254.261	131.31
254.494	123.31
254.727	120.31
254.96	114.31
255.193	111.31
255.426	108.31
255.659	106.31
255.892	121.31
256.124	117.31
256.357	110.31
256.59	134.31
256.823	116.31
257.056	117.31
257.289	133.31
257.521	127.31
257.754	123.31
257.987	110.31
258.22	123.31
258.452	98.31
258.685	114.31
258.918	127.31
259.151	129.31
259.383	113.31
259.616	122.31
259.849	127.31
260.081	137.31
260.314	122.31
260.547	122.31
260.779	131.31
261.012	132.31
261.244	127.31
261.477	151.31
261.71	118.31
261.942	121.31
262.175	130.31
262.407	128.31
262.64	122.31
262.872	115.31
263.105	137.31
263.337	138.31
263.57	118.31
263.802	126.31
264.035	129.31
264.267	134.31
264.499	130.31
264.732	119.31
264.964	119.31
265.197	114.31
265.429	113.31
265.661	136.31
265.894	112.31
266.126	128.31
266.358	120.31
266.591	135.31
266.823	137.31
267.055	119.31
267.287	136.31
267.52	140.31
267.752	125.31
267.984	127.31
268.216	116.31
268.448	129.31
268.681	134.31
268.913	143.31
269.145	128.31
269.377	139.31
269.609	113.31
269.841	128.31
270.073	129.31
270.306	116.31
270.538	127.31
270.77	130.31
271.002	142.31
271.234	152.31
271.466	159.31
271.698	142.31
271.93	135.31
272.162	133.31
272.394	135.31
272.626	138.31
272.858	127.31
273.09	143.31
273.322	149.31
273.553	139.31
273.785	147.31
274.017	153.31
274.249	145.31
274.481	158.31
274.713	169.31
274.945	175.31
275.176	148.31
275.408	155.31
275.64	171.31
275.872	154.31
276.104	150.31
276.335	139.31
276.567	137.31
276.799	149.31
277.031	151.31
277.262	153.31
277.494	146.31
277.726	140.31
277.957	122.31
278.189	149.31
278.421	139.31
278.652	149.31
278.884	153.31
279.115	143.31
279.347	139.31
279.579	152.31
279.81	151.31
280.042	137.31
280.273	137.31
280.505	153.31
280.736	155.31
280.968	148.31
281.199	160.31
281.431	134.31
281.662	140.31
281.894	141.31
282.125	143.31
282.356	135.31
282.588	159.31
282.819	155.31
283.051	147.31
283.282	141.31
283.513	164.31
283.745	154.31
283.976	148.31
284.207	163.31
284.439	175.31
284.67	148.31
284.901	158.31
285.132	160.31
285.364	162.31
285.595	155.31
285.826	154.31
286.057	163.31
286.288	159.31
286.52	165.31
286.751	166.31
286.982	158.31
287.213	149.31
287.444	161.31
287.675	169.31
287.906	157.31
288.138	157.31
288.369	158.31
288.6	146.31
288.831	169.31
289.062	179.31
289.293	146.31
289.524	161.31
289.755	171.31
289.986	153.31
290.217	161.31
290.448	167.31
290.679	153.31
290.91	162.31
291.141	177.31
291.371	170.31
291.602	161.31
291.833	160.31
292.064	170.31
292.295	161.31
292.526	154.31
292.757	165.31
292.987	167.31
293.218	150.31
293.449	150.31
293.68	173.31
293.91	167.31
294.141	154.31
294.372	162.31
294.603	170.31
294.833	171.31
295.064	178.31
295.295	166.31
295.525	167.31
295.756	170.31
295.987	165.31
296.217	167.31
296.448	183.31
296.679	163.31
296.909	181.31
297.14	185.31
297.37	175.31
297.601	166.31
297.831	181.31
298.062	183.31
298.292	170.31
298.523	179.31
298.753	178.31
298.984	171.31
299.214	181.31
299.445	174.31
299.675	182.31
299.905	178.31
300.136	178.31
300.366	145.31
300.597	164.31
300.827	150.31
301.057	171.31
301.288	175.31
301.518	183.31
301.748	177.31
301.979	204.31
302.209	194.31
302.439	195.31
302.669	190.31
302.9	193.31
303.13	174.31
303.36	182.31
303.59	175.31
303.82	180.31
304.051	192.31
304.281	177.31
304.511	186.31
304.741	165.31
304.971	187.31
305.201	175.31
305.431	173.31
305.661	186.31
305.891	178.31
306.121	185.31
306.352	171.31
306.582	172.31
306.812	178.31
307.042	181.31
307.272	167.31
307.502	184.31
307.731	188.31
307.961	188.31
308.191	186.31
308.421	177.31
308.651	174.31
308.881	192.31
309.111	189.31
309.341	163.31
309.571	183.31
309.8	179.31
310.03	171.31
310.26	179.31
310.49	177.31
310.72	169.31
310.949	174.31
311.179	177.31
311.409	178.31
311.639	186.31
311.868	178.31
312.098	197.31
312.328	180.31
312.557	186.31
312.787	181.31
313.017	188.31
313.246	190.31
313.476	180.31
313.706	179.31
313.935	182.31
314.165	203.31
314.394	185.31
314.624	200.31
314.853	194.31
315.083	176.31
315.312	193.31
315.542	184.31
315.771	174.31
316.001	187.31
316.23	178.31
316.46	185.31
316.689	193.31
316.919	183.31
317.148	185.31
317.377	193.31
317.607	186.31
317.836	175.31
318.065	179.31
318.295	185.31
318.524	186.31
318.753	193.31
318.983	202.31
319.212	195.31
319.441	205.31
319.67	180.31
319.9	163.31
320.129	192.31
320.358	215.31
320.587	200.31
320.816	208.31
321.046	197.31
321.275	213.31
321.504	200.31
321.733	198.31
321.962	188.31
322.191	189.31
322.42	208.31
322.649	222.31
322.878	202.31
323.108	194.31
323.337	190.31
323.566	222.31
323.795	209.31
324.024	192.31
324.253	193.31
324.482	205.31
324.71	216.31
324.939	203.31
325.168	219.31
325.397	202.31
325.626	197.31
325.855	197.31
326.084	214.31
326.313	199.31
326.542	210.31
326.77	202.31
326.999	202.31
327.228	201.31
327.457	230.31
327.686	225.31
327.914	225.31
328.143	238.31
328.372	233.31
328.6	210.31
328.829	195.31
329.058	219.31
329.287	212.31
329.515	222.31
329.744	231.31
329.972	246.31
330.201	246.31
330.43	249.31
330.658	233.31
330.887	235.31
331.115	215.31
331.344	219.31
331.572	233.31
331.801	230.31
332.03	220.31
332.258	243.31
332.486	241.31
332.715	235.31
332.943	239.31
333.172	249.31
333.4	277.31
333.629	252.31
333.857	263.31
334.085	285.31
334.314	294.31
334.542	320.31
334.771	294.31
334.999	268.31
335.227	266.31
335.455	270.31
335.684	256.31
335.912	239.31
336.14	231.31
336.369	240.31
336.597	239.31
336.825	235.31
337.053	242.31
337.281	232.31
337.51	231.31
337.738	230.31
337.966	226.31
338.194	225.31
338.422	220.31
338.65	213.31
338.878	221.31
339.106	211.31
339.334	224.31
339.562	215.31
339.79	208.31
340.018	201.31
340.246	193.31
340.474	225.31
340.702	205.31
340.93	215.31
341.158	214.31
341.386	235.31
341.614	204.31
341.842	199.31
342.07	199.31
342.298	210.31
342.526	227.31
342.754	213.31
342.981	208.31
343.209	213.31
343.437	231.31
343.665	227.31
343.893	235.31
344.12	242.31
344.348	221.31
344.576	234.31
344.804	219.31
345.031	202.31
345.259	210.31
345.487	214.31
345.714	209.31
345.942	199.31
346.17	206.31
346.397	208.31
346.625	202.31
346.853	207.31
347.08	209.31
347.308	219.31
347.535	216.31
347.763	209.31
347.99	213.31
348.218	215.31
348.445	184.31
348.673	219.31
348.9	219.31
349.128	216.31
349.355	185.31
349.583	218.31
349.81	206.31
350.037	232.31
350.265	208.31
350.492	200.31
350.72	202.31
350.947	201.31
351.174	211.31
351.402	204.31
351.629	191.31
351.856	195.31
352.083	206.31
352.311	208.31
352.538	205.31
352.765	199.31
352.992	211.31
353.22	200.31
353.447	202.31
353.674	202.31
353.901	206.31
354.128	203.31
354.355	204.31
354.583	209.31
354.81	202.31
355.037	202.31
355.264	221.31
355.491	203.31
355.718	201.31
355.945	193.31
356.172	223.31
356.399	222.31
356.626	207.31
356.853	224.31
357.08	224.31
357.307	200.31
357.534	206.31
357.761	207.31
357.988	217.31
358.215	215.31
358.441	222.31
358.668	217.31
358.895	205.31
359.122	214.31
359.349	222.31
359.576	204.31
359.802	211.31
360.029	210.31
360.256	212.31
360.483	194.31
360.709	176.31
360.936	241.31
361.163	213.31
361.39	210.31
361.616	223.31
361.843	212.31
362.07	213.31
362.296	221.31
362.523	205.31
362.749	213.31
362.976	215.31
363.203	224.31
363.429	206.31
363.656	192.31
363.882	201.31
364.109	208.31
364.335	216.31
364.562	216.31
364.788	211.31
365.015	206.31
365.241	218.31
365.468	191.31
365.694	214.31
365.92	219.31
366.147	194.31
366.373	210.31
366.599	193.31
366.826	194.31
367.052	208.31
367.278	209.31
367.505	206.31
367.731	229.31
367.957	203.31
368.184	209.31
368.41	209.31
368.636	222.31
368.862	222.31
369.089	233.31
369.315	192.31
369.541	221.31
369.767	208.31
369.993	221.31
370.219	213.31
370.445	215.31
370.672	215.31
370.898	217.31
371.124	219.31
371.35	225.31
371.576	211.31
371.802	224.31
372.028	225.31
372.254	230.31
372.48	223.31
372.706	242.31
372.932	228.31
373.158	234.31
373.384	249.31
373.61	244.31
373.835	234.31
374.061	225.31
374.287	234.31
374.513	235.31
374.739	255.31
374.965	256.31
375.191	234.31
375.416	237.31
375.642	247.31
375.868	234.31
376.094	250.31
376.319	230.31
376.545	207.31
376.771	224.31
376.997	223.31
377.222	221.31
377.448	213.31
377.674	222.31
377.899	225.31
378.125	208.31
378.35	217.31
378.576	227.31
378.802	214.31
379.027	227.31
379.253	225.31
379.478	224.31
379.704	225.31
379.929	216.31
380.155	210.31
380.38	218.31
380.606	218.31
380.831	222.31
381.057	216.31
381.282	207.31
381.507	219.31
381.733	252.31
381.958	230.31
382.184	241.31
382.409	236.31
382.634	249.31
382.86	249.31
383.085	224.31
383.31	217.31
383.535	252.31
383.761	230.31
383.986	261.31
384.211	251.31
384.436	252.31
384.662	246.31
384.887	271.31
385.112	235.31
385.337	240.31
385.562	249.31
385.787	263.31
386.013	258.31
386.238	256.31
386.463	279.31
386.688	279.31
386.913	256.31
387.138	257.31
387.363	267.31
387.588	267.31
387.813	265.31
388.038	263.31
388.263	268.31
388.488	253.31
388.713	266.31
388.938	250.31
389.163	245.31
389.387	263.31
389.612	239.31
389.837	277.31
390.062	262.31
390.287	269.31
390.512	258.31
390.736	267.31
390.961	269.31
391.186	271.31
391.411	269.31
391.636	259.31
391.86	297.31
392.085	281.31
392.31	284.31
392.534	301.31
392.759	283.31
392.984	280.31
393.208	273.31
393.433	311.31
393.658	297.31
393.882	275.31
394.107	285.31
394.331	279.31
394.556	290.31
394.78	278.31
395.005	281.31
395.229	269.31
395.454	295.31
395.678	283.31
395.903	295.31
396.127	305.31
396.352	315.31
396.576	291.31
396.801	303.31
397.025	293.31
397.249	283.31
397.474	288.31
397.698	277.31
397.922	307.31
398.147	289.31
398.371	288.31
398.595	312.31
398.82	306.31
399.044	323.31
399.268	365.31
399.492	409.31
399.717	432.31
399.941	418.31
400.165	373.31
400.389	340.31
400.613	341.31
400.837	323.31
401.062	334.31
401.286	328.31
401.51	319.31
401.734	303.31
401.958	317.31
402.182	322.31
402.406	335.31
402.63	328.31
402.854	336.31
403.078	331.31
403.302	354.31
403.526	354.31
403.75	364.31
403.974	374.31
404.198	354.31
404.422	365.31
404.645	352.31
404.869	361.31
405.093	357.31
405.317	341.31
405.541	350.31
405.765	346.31
405.988	326.31
406.212	372.31
406.436	351.31
406.66	378.31
406.883	381.31
407.107	391.31
407.331	383.31
407.555	383.31
407.778	398.31
408.002	356.31
408.226	371.31
408.449	371.31
408.673	350.31
408.896	345.31
409.12	345.31
409.344	357.31
409.567	342.31
409.791	346.31
410.014	356.31
410.238	342.31
410.461	359.31
410.685	358.31
410.908	332.31
411.132	367.31
411.355	345.31
411.578	346.31
411.802	317.31
412.025	327.31
412.249	343.31
412.472	346.31
412.695	333.31
412.919	329.31
413.142	325.31
413.365	334.31
413.589	342.31
413.812	323.31
414.035	327.31
414.258	325.31
414.482	326.31
414.705	327.31
414.928	325.31
415.151	335.31
415.374	311.31
415.597	335.31
415.821	313.31
416.044	312.31
416.267	309.31
416.49	304.31
416.713	312.31
416.936	325.31
417.159	323.31
417.382	309.31
417.605	338.31
417.828	334.31
418.051	323.31
418.274	343.31
418.497	319.31
418.72	310.31
418.943	341.31
419.166	350.31
419.389	353.31
419.611	341.31
419.834	343.31
420.057	336.31
420.28	329.31
420.503	320.31
420.726	329.31
420.948	338.31
421.171	317.31
421.394	323.31
421.617	329.31
421.839	339.31
422.062	319.31
422.285	332.31
422.507	345.31
422.73	333.31
422.953	317.31
423.175	347.31
423.398	342.31
423.621	338.31
423.843	355.31
424.066	354.31
424.288	342.31
424.511	341.31
424.733	357.31
424.956	341.31
425.178	345.31
425.401	326.31
425.623	317.31
425.846	321.31
426.068	320.31
426.291	317.31
426.513	330.31
426.735	303.31
426.958	277.31
427.18	322.31
427.402	322.31
427.625	335.31
427.847	306.31
428.069	295.31
428.292	309.31
428.514	312.31
428.736	310.31
428.958	311.31
429.181	300.31
429.403	293.31
429.625	287.31
429.847	278.31
430.069	301.31
430.292	323.31
430.514	301.31
430.736	307.31
430.958	319.31
431.18	289.31
431.402	287.31
431.624	307.31
431.846	279.31
432.068	266.31
432.29	295.31
432.512	306.31
432.734	316.31
432.956	305.31
433.178	311.31
433.4	319.31
433.622	311.31
433.844	303.31
434.066	297.31
434.287	292.31
434.509	283.31
434.731	316.31
434.953	316.31
435.175	332.31
435.397	309.31
435.618	317.31
435.84	291.31
436.062	284.31
436.284	302.31
436.505	284.31
436.727	315.31
436.949	283.31
437.17	296.31
437.392	272.31
437.614	270.31
437.835	273.31
438.057	270.31
438.278	287.31
438.5	313.31
438.721	290.31
438.943	311.31
439.165	286.31
439.386	306.31
439.608	294.31
439.829	316.31
440.05	322.31
440.272	306.31
440.493	309.31
440.715	314.31
440.936	298.31
441.158	331.31
441.379	343.31
441.6	313.31
441.822	337.31
442.043	326.31
442.264	321.31
442.486	316.31
442.707	321.31
442.928	325.31
443.149	331.31
443.371	331.31
443.592	327.31
443.813	336.31
444.034	331.31
444.255	328.31
444.476	352.31
444.698	367.31
444.919	359.31
445.14	529.31
445.361	445.31
445.582	355.31
445.803	328.31
446.024	316.31
446.245	317.31
446.466	311.31
446.687	315.31
446.908	312.31
447.129	304.31
447.35	297.31
447.571	303.31
447.792	303.31
448.013	290.31
448.234	313.31
448.455	279.31
448.675	290.31
448.896	283.31
449.117	278.31
449.338	291.31
449.559	312.31
449.779	286.31
450	299.31
450.221	282.31
450.442	299.31
450.662	277.31
450.883	274.31
451.104	283.31
451.324	275.31
451.545	277.31
451.766	289.31
451.986	299.31
452.207	286.31
452.428	272.31
452.648	274.31
452.869	271.31
453.089	284.31
453.31	268.31
453.53	280.31
453.751	275.31
453.971	267.31
454.192	248.31
454.412	238.31
454.633	250.31
454.853	273.31
455.073	271.31
455.294	271.31
455.514	277.31
455.734	264.31
455.955	272.31
456.175	241.31
456.395	265.31
456.616	257.31
456.836	240.31
457.056	252.31
457.276	248.31
457.497	255.31
457.717	246.31
457.937	268.31
458.157	261.31
458.377	245.31
458.598	263.31
458.818	251.31
459.038	243.31
459.258	287.31
459.478	288.31
459.698	288.31
459.918	279.31
460.138	301.31
460.358	327.31
460.578	344.31
460.798	313.31
461.018	296.31
461.238	318.31
461.458	315.31
461.678	311.31
461.898	328.31
462.118	356.31
462.338	330.31
462.558	370.31
462.777	346.31
462.997	378.31
463.217	395.31
463.437	392.31
463.657	376.31
463.876	379.31
464.096	350.31
464.316	355.31
464.536	367.31
464.755	360.31
464.975	353.31
465.195	341.31
465.414	314.31
465.634	298.31
465.854	302.31
466.073	298.31
466.293	305.31
466.512	300.31
466.732	286.31
466.951	298.31
467.171	289.31
467.391	310.31
467.61	293.31
467.829	298.31
468.049	327.31
468.268	303.31
468.488	300.31
468.707	298.31
468.927	297.31
469.146	294.31
469.365	291.31
469.585	300.31
469.804	313.31
470.023	310.31
470.243	306.31
470.462	289.31
470.681	291.31
470.901	288.31
471.12	289.31
471.339	286.31
471.558	307.31
471.777	289.31
471.997	316.31
472.216	353.31
472.435	378.31
472.654	322.31
472.873	305.31
473.092	296.31
473.311	283.31
473.53	285.31
473.749	292.31
473.968	292.31
474.187	288.31
474.406	260.31
474.625	289.31
474.844	282.31
475.063	298.31
475.282	290.31
475.501	276.31
475.72	267.31
475.939	287.31
476.158	277.31
476.377	274.31
476.596	268.31
476.814	292.31
477.033	288.31
477.252	281.31
477.471	289.31
477.69	299.31
477.908	312.31
478.127	322.31
478.346	323.31
478.564	315.31
478.783	322.31
479.002	341.31
479.22	333.31
479.439	357.31
479.658	330.31
479.876	311.31
480.095	318.31
480.313	351.31
480.532	374.31
480.751	349.31
480.969	349.31
481.188	441.31
481.406	431.31
481.624	338.31
481.843	313.31
482.061	320.31
482.28	329.31
482.498	337.31
482.717	308.31
482.935	306.31
483.153	316.31
483.372	329.31
483.59	341.31
483.808	305.31
484.027	306.31
484.245	311.31
484.463	323.31
484.681	332.31
484.9	325.31
485.118	313.31
485.336	318.31
485.554	318.31
485.772	302.31
485.99	301.31
486.209	304.31
486.427	339.31
486.645	327.31
486.863	334.31
487.081	322.31
487.299	322.31
487.517	325.31
487.735	335.31
487.953	337.31
488.171	355.31
488.389	322.31
488.607	324.31
488.825	336.31
489.043	303.31
489.261	329.31
489.479	328.31
489.696	339.31
489.914	333.31
490.132	325.31
490.35	301.31
490.568	316.31
490.786	348.31
491.003	339.31
491.221	358.31
491.439	349.31
491.657	365.31
491.874	375.31
492.092	392.31
492.31	399.31
492.527	386.31
492.745	358.31
492.963	376.31
493.18	376.31
493.398	366.31
493.615	361.31
493.833	352.31
494.05	342.31
494.268	373.31
494.485	346.31
494.703	363.31
494.92	363.31
495.138	362.31
495.355	367.31
495.573	371.31
495.79	373.31
496.008	356.31
496.225	344.31
496.442	374.31
496.66	365.31
496.877	366.31
497.094	386.31
497.312	362.31
497.529	391.31
497.746	382.31
497.963	377.31
498.181	399.31
498.398	431.31
498.615	415.31
498.832	415.31
499.049	472.31
499.267	512.31
499.484	543.31
499.701	600.31
499.918	620.31
500.135	719.31
500.352	778.31
500.569	815.31
500.786	780.31
501.003	707.31
501.22	653.31
501.437	604.31
501.654	542.31
501.871	488.31
502.088	477.31
502.305	471.31
502.522	450.31
502.739	431.31
502.956	409.31
503.172	409.31
503.389	376.31
503.606	368.31
