Data from SampB_HRD10591_00018.txt Node
Date: Mon Jan 19 11:33:34 EST 2026
User: Yrep
Spectrometer: HR+D1059
Trigger mode: 0
Integration Time (sec): 3.443000E-1
Scans to average: 1
Electric dark correction enabled: true
Nonlinearity correction enabled: false
Boxcar width: 0
XAxis mode: Wavelengths
Number of Pixels in Spectrum: 2048
>>>>>Begin Spectral Data<<<<<
223.165	-15.69
223.4	-15.69
223.635	-15.69
223.869	-24.69
224.104	-25.69
224.338	-25.69
224.573	-15.69
224.808	-15.69
225.042	1.31
225.277	-7.69
225.511	-17.69
225.746	2.31
225.98	14.31
226.215	18.31
226.449	29.31
226.683	20.31
226.918	19.31
227.152	43.31
227.387	52.31
227.621	43.31
227.856	53.31
228.09	46.31
228.324	49.31
228.559	63.31
228.793	80.31
229.027	86.31
229.262	75.31
229.496	73.31
229.73	68.31
229.964	65.31
230.199	84.31
230.433	89.31
230.667	88.31
230.901	85.31
231.136	84.31
231.37	91.31
231.604	102.31
231.838	91.31
232.072	90.31
232.306	83.31
232.541	89.31
232.775	88.31
233.009	84.31
233.243	100.31
233.477	76.31
233.711	91.31
233.945	92.31
234.179	83.31
234.413	93.31
234.647	82.31
234.881	91.31
235.115	91.31
235.349	102.31
235.583	83.31
235.817	89.31
236.051	94.31
236.285	84.31
236.519	97.31
236.753	89.31
236.987	97.31
237.221	77.31
237.455	77.31
237.689	95.31
237.922	84.31
238.156	91.31
238.39	66.31
238.624	90.31
238.858	83.31
239.091	81.31
239.325	84.31
239.559	94.31
239.793	86.31
240.027	85.31
240.26	97.31
240.494	93.31
240.728	97.31
240.961	91.31
241.195	86.31
241.429	103.31
241.662	73.31
241.896	86.31
242.13	86.31
242.363	95.31
242.597	85.31
242.83	78.31
243.064	70.31
243.298	97.31
243.531	80.31
243.765	90.31
243.998	90.31
244.232	94.31
244.465	87.31
244.699	82.31
244.932	97.31
245.166	86.31
245.399	94.31
245.633	85.31
245.866	79.31
246.099	95.31
246.333	78.31
246.566	110.31
246.8	95.31
247.033	98.31
247.266	94.31
247.5	80.31
247.733	102.31
247.966	104.31
248.2	91.31
248.433	62.31
248.666	100.31
248.899	90.31
249.133	91.31
249.366	113.31
249.599	117.31
249.832	89.31
250.066	110.31
250.299	103.31
250.532	108.31
250.765	101.31
250.998	95.31
251.231	87.31
251.465	100.31
251.698	92.31
251.931	114.31
252.164	100.31
252.397	93.31
252.63	98.31
252.863	92.31
253.096	102.31
253.329	108.31
253.562	99.31
253.795	99.31
254.028	110.31
254.261	99.31
254.494	93.31
254.727	101.31
254.96	97.31
255.193	84.31
255.426	95.31
255.659	113.31
255.892	129.31
256.124	100.31
256.357	103.31
256.59	108.31
256.823	95.31
257.056	103.31
257.289	113.31
257.521	104.31
257.754	108.31
257.987	103.31
258.22	103.31
258.452	89.31
258.685	92.31
258.918	96.31
259.151	100.31
259.383	114.31
259.616	96.31
259.849	91.31
260.081	114.31
260.314	111.31
260.547	109.31
260.779	98.31
261.012	110.31
261.244	106.31
261.477	125.31
261.71	89.31
261.942	110.31
262.175	100.31
262.407	108.31
262.64	92.31
262.872	113.31
263.105	114.31
263.337	105.31
263.57	99.31
263.802	102.31
264.035	110.31
264.267	106.31
264.499	95.31
264.732	88.31
264.964	97.31
265.197	95.31
265.429	99.31
265.661	114.31
265.894	100.31
266.126	114.31
266.358	115.31
266.591	109.31
266.823	90.31
267.055	98.31
267.287	109.31
267.52	108.31
267.752	111.31
267.984	111.31
268.216	108.31
268.448	103.31
268.681	116.31
268.913	106.31
269.145	114.31
269.377	109.31
269.609	118.31
269.841	105.31
270.073	120.31
270.306	105.31
270.538	116.31
270.77	107.31
271.002	102.31
271.234	119.31
271.466	125.31
271.698	123.31
271.93	123.31
272.162	117.31
272.394	124.31
272.626	105.31
272.858	119.31
273.09	113.31
273.322	113.31
273.553	99.31
273.785	111.31
274.017	103.31
274.249	115.31
274.481	114.31
274.713	112.31
274.945	104.31
275.176	107.31
275.408	119.31
275.64	117.31
275.872	123.31
276.104	116.31
276.335	123.31
276.567	112.31
276.799	107.31
277.031	118.31
277.262	117.31
277.494	123.31
277.726	115.31
277.957	116.31
278.189	122.31
278.421	108.31
278.652	122.31
278.884	114.31
279.115	105.31
279.347	117.31
279.579	122.31
279.81	120.31
280.042	131.31
280.273	126.31
280.505	136.31
280.736	116.31
280.968	108.31
281.199	118.31
281.431	113.31
281.662	134.31
281.894	122.31
282.125	123.31
282.356	115.31
282.588	125.31
282.819	127.31
283.051	115.31
283.282	109.31
283.513	118.31
283.745	116.31
283.976	119.31
284.207	123.31
284.439	111.31
284.67	122.31
284.901	101.31
285.132	116.31
285.364	124.31
285.595	133.31
285.826	115.31
286.057	128.31
286.288	117.31
286.52	138.31
286.751	124.31
286.982	134.31
287.213	125.31
287.444	114.31
287.675	129.31
287.906	116.31
288.138	119.31
288.369	117.31
288.6	117.31
288.831	107.31
289.062	116.31
289.293	116.31
289.524	112.31
289.755	119.31
289.986	130.31
290.217	135.31
290.448	135.31
290.679	114.31
290.91	128.31
291.141	128.31
291.371	132.31
291.602	122.31
291.833	130.31
292.064	133.31
292.295	121.31
292.526	126.31
292.757	130.31
292.987	111.31
293.218	134.31
293.449	126.31
293.68	130.31
293.91	126.31
294.141	139.31
294.372	128.31
294.603	116.31
294.833	118.31
295.064	143.31
295.295	121.31
295.525	126.31
295.756	125.31
295.987	137.31
296.217	127.31
296.448	122.31
296.679	142.31
296.909	153.31
297.14	114.31
297.37	128.31
297.601	125.31
297.831	129.31
298.062	127.31
298.292	124.31
298.523	130.31
298.753	138.31
298.984	130.31
299.214	128.31
299.445	133.31
299.675	121.31
299.905	127.31
300.136	137.31
300.366	150.31
300.597	117.31
300.827	129.31
301.057	134.31
301.288	120.31
301.518	123.31
301.748	136.31
301.979	176.31
302.209	145.31
302.439	133.31
302.669	133.31
302.9	143.31
303.13	116.31
303.36	130.31
303.59	131.31
303.82	137.31
304.051	126.31
304.281	129.31
304.511	139.31
304.741	153.31
304.971	132.31
305.201	125.31
305.431	145.31
305.661	134.31
305.891	127.31
306.121	142.31
306.352	145.31
306.582	155.31
306.812	126.31
307.042	135.31
307.272	135.31
307.502	141.31
307.731	152.31
307.961	130.31
308.191	128.31
308.421	127.31
308.651	141.31
308.881	130.31
309.111	131.31
309.341	132.31
309.571	133.31
309.8	118.31
310.03	121.31
310.26	119.31
310.49	153.31
310.72	129.31
310.949	141.31
311.179	137.31
311.409	136.31
311.639	129.31
311.868	135.31
312.098	133.31
312.328	140.31
312.557	142.31
312.787	132.31
313.017	153.31
313.246	127.31
313.476	137.31
313.706	141.31
313.935	139.31
314.165	143.31
314.394	139.31
314.624	130.31
314.853	120.31
315.083	144.31
315.312	146.31
315.542	136.31
315.771	126.31
316.001	149.31
316.23	134.31
316.46	126.31
316.689	140.31
316.919	135.31
317.148	131.31
317.377	139.31
317.607	153.31
317.836	130.31
318.065	154.31
318.295	148.31
318.524	142.31
318.753	153.31
318.983	125.31
319.212	147.31
319.441	131.31
319.67	144.31
319.9	139.31
320.129	159.31
320.358	131.31
320.587	136.31
320.816	133.31
321.046	141.31
321.275	134.31
321.504	138.31
321.733	141.31
321.962	134.31
322.191	133.31
322.42	133.31
322.649	146.31
322.878	154.31
323.108	160.31
323.337	150.31
323.566	160.31
323.795	137.31
324.024	157.31
324.253	150.31
324.482	143.31
324.71	148.31
324.939	144.31
325.168	140.31
325.397	132.31
325.626	136.31
325.855	132.31
326.084	137.31
326.313	154.31
326.542	150.31
326.77	146.31
326.999	146.31
327.228	146.31
327.457	155.31
327.686	161.31
327.914	159.31
328.143	181.31
328.372	170.31
328.6	161.31
328.829	161.31
329.058	135.31
329.287	135.31
329.515	142.31
329.744	151.31
329.972	162.31
330.201	191.31
330.43	212.31
330.658	206.31
330.887	157.31
331.115	151.31
331.344	148.31
331.572	149.31
331.801	147.31
332.03	153.31
332.258	158.31
332.486	154.31
332.715	161.31
332.943	173.31
333.172	181.31
333.4	180.31
333.629	198.31
333.857	185.31
334.085	215.31
334.314	239.31
334.542	247.31
334.771	241.31
334.999	210.31
335.227	177.31
335.455	175.31
335.684	175.31
335.912	158.31
336.14	163.31
336.369	171.31
336.597	131.31
336.825	173.31
337.053	170.31
337.281	156.31
337.51	160.31
337.738	165.31
337.966	141.31
338.194	158.31
338.422	168.31
338.65	175.31
338.878	159.31
339.106	139.31
339.334	164.31
339.562	150.31
339.79	140.31
340.018	137.31
340.246	158.31
340.474	156.31
340.702	142.31
340.93	158.31
341.158	145.31
341.386	141.31
341.614	147.31
341.842	145.31
342.07	134.31
342.298	133.31
342.526	155.31
342.754	147.31
342.981	147.31
343.209	144.31
343.437	185.31
343.665	141.31
343.893	157.31
344.12	163.31
344.348	150.31
344.576	153.31
344.804	155.31
345.031	151.31
345.259	143.31
345.487	135.31
345.714	154.31
345.942	133.31
346.17	130.31
346.397	123.31
346.625	133.31
346.853	143.31
347.08	142.31
347.308	153.31
347.535	153.31
347.763	140.31
347.99	146.31
348.218	147.31
348.445	157.31
348.673	137.31
348.9	131.31
349.128	133.31
349.355	134.31
349.583	138.31
349.81	143.31
350.037	151.31
350.265	134.31
350.492	147.31
350.72	147.31
350.947	146.31
351.174	133.31
351.402	144.31
351.629	134.31
351.856	146.31
352.083	133.31
352.311	131.31
352.538	145.31
352.765	151.31
352.992	155.31
353.22	157.31
353.447	148.31
353.674	139.31
353.901	143.31
354.128	151.31
354.355	137.31
354.583	142.31
354.81	129.31
355.037	150.31
355.264	146.31
355.491	124.31
355.718	142.31
355.945	155.31
356.172	150.31
356.399	149.31
356.626	141.31
356.853	152.31
357.08	161.31
357.307	142.31
357.534	137.31
357.761	134.31
357.988	135.31
358.215	139.31
358.441	147.31
358.668	138.31
358.895	143.31
359.122	155.31
359.349	154.31
359.576	139.31
359.802	144.31
360.029	129.31
360.256	147.31
360.483	162.31
360.709	150.31
360.936	166.31
361.163	159.31
361.39	147.31
361.616	145.31
361.843	135.31
362.07	135.31
362.296	154.31
362.523	137.31
362.749	132.31
362.976	128.31
363.203	167.31
363.429	128.31
363.656	148.31
363.882	153.31
364.109	152.31
364.335	157.31
364.562	161.31
364.788	151.31
365.015	155.31
365.241	154.31
365.468	162.31
365.694	157.31
365.92	160.31
366.147	143.31
366.373	132.31
366.599	126.31
366.826	151.31
367.052	131.31
367.278	156.31
367.505	131.31
367.731	154.31
367.957	142.31
368.184	156.31
368.41	148.31
368.636	158.31
368.862	157.31
369.089	156.31
369.315	130.31
369.541	150.31
369.767	143.31
369.993	140.31
370.219	134.31
370.445	151.31
370.672	155.31
370.898	149.31
371.124	126.31
371.35	157.31
371.576	145.31
371.802	142.31
372.028	143.31
372.254	146.31
372.48	163.31
372.706	164.31
372.932	160.31
373.158	156.31
373.384	165.31
373.61	171.31
373.835	151.31
374.061	153.31
374.287	158.31
374.513	166.31
374.739	153.31
374.965	165.31
375.191	155.31
375.416	160.31
375.642	174.31
375.868	175.31
376.094	170.31
376.319	162.31
376.545	148.31
376.771	151.31
376.997	156.31
377.222	169.31
377.448	158.31
377.674	148.31
377.899	157.31
378.125	141.31
378.35	159.31
378.576	163.31
378.802	162.31
379.027	153.31
379.253	151.31
379.478	157.31
379.704	152.31
379.929	159.31
380.155	155.31
380.38	152.31
380.606	159.31
380.831	157.31
381.057	167.31
381.282	164.31
381.507	142.31
381.733	151.31
381.958	163.31
382.184	151.31
382.409	164.31
382.634	146.31
382.86	164.31
383.085	162.31
383.31	156.31
383.535	162.31
383.761	172.31
383.986	173.31
384.211	183.31
384.436	183.31
384.662	166.31
384.887	191.31
385.112	160.31
385.337	185.31
385.562	173.31
385.787	187.31
386.013	173.31
386.238	181.31
386.463	171.31
386.688	203.31
386.913	168.31
387.138	171.31
387.363	185.31
387.588	181.31
387.813	173.31
388.038	173.31
388.263	191.31
388.488	173.31
388.713	170.31
388.938	166.31
389.163	166.31
389.387	159.31
389.612	163.31
389.837	163.31
390.062	188.31
390.287	181.31
390.512	169.31
390.736	177.31
390.961	168.31
391.186	162.31
391.411	181.31
391.636	185.31
391.86	185.31
392.085	203.31
392.31	190.31
392.534	185.31
392.759	190.31
392.984	195.31
393.208	225.31
393.433	227.31
393.658	218.31
393.882	173.31
394.107	165.31
394.331	187.31
394.556	183.31
394.78	186.31
395.005	187.31
395.229	179.31
395.454	179.31
395.678	198.31
395.903	201.31
396.127	209.31
396.352	190.31
396.576	192.31
396.801	217.31
397.025	221.31
397.249	203.31
397.474	199.31
397.698	166.31
397.922	190.31
398.147	207.31
398.371	179.31
398.595	197.31
398.82	190.31
399.044	207.31
399.268	229.31
399.492	234.31
399.717	273.31
399.941	270.31
400.165	235.31
400.389	221.31
400.613	199.31
400.837	197.31
401.062	213.31
401.286	207.31
401.51	204.31
401.734	199.31
401.958	207.31
402.182	206.31
402.406	208.31
402.63	208.31
402.854	202.31
403.078	202.31
403.302	213.31
403.526	208.31
403.75	210.31
403.974	225.31
404.198	233.31
404.422	225.31
404.645	228.31
404.869	219.31
405.093	219.31
405.317	223.31
405.541	225.31
405.765	203.31
405.988	215.31
406.212	220.31
406.436	213.31
406.66	224.31
406.883	229.31
407.107	233.31
407.331	222.31
407.555	230.31
407.778	236.31
408.002	209.31
408.226	237.31
408.449	208.31
408.673	211.31
408.896	214.31
409.12	207.31
409.344	220.31
409.567	215.31
409.791	213.31
410.014	209.31
410.238	228.31
410.461	215.31
410.685	205.31
410.908	214.31
411.132	197.31
411.355	201.31
411.578	198.31
411.802	197.31
412.025	201.31
412.249	187.31
412.472	215.31
412.695	212.31
412.919	201.31
413.142	189.31
413.365	203.31
413.589	207.31
413.812	209.31
414.035	193.31
414.258	201.31
414.482	199.31
414.705	197.31
414.928	207.31
415.151	183.31
415.374	205.31
415.597	203.31
415.821	203.31
416.044	194.31
416.267	198.31
416.49	207.31
416.713	209.31
416.936	203.31
417.159	198.31
417.382	212.31
417.605	207.31
417.828	214.31
418.051	199.31
418.274	198.31
418.497	205.31
418.72	196.31
418.943	207.31
419.166	221.31
419.389	233.31
419.611	212.31
419.834	223.31
420.057	222.31
420.28	222.31
420.503	212.31
420.726	210.31
420.948	198.31
421.171	207.31
421.394	203.31
421.617	213.31
421.839	214.31
422.062	210.31
422.285	191.31
422.507	229.31
422.73	242.31
422.953	223.31
423.175	212.31
423.398	219.31
423.621	210.31
423.843	235.31
424.066	231.31
424.288	212.31
424.511	215.31
424.733	219.31
424.956	205.31
425.178	208.31
425.401	202.31
425.623	198.31
425.846	197.31
426.068	214.31
426.291	198.31
426.513	215.31
426.735	205.31
426.958	202.31
427.18	208.31
427.402	195.31
427.625	198.31
427.847	192.31
428.069	202.31
428.292	196.31
428.514	193.31
428.736	191.31
428.958	194.31
429.181	208.31
429.403	197.31
429.625	196.31
429.847	204.31
430.069	201.31
430.292	212.31
430.514	198.31
430.736	192.31
430.958	192.31
431.18	202.31
431.402	190.31
431.624	186.31
431.846	189.31
432.068	199.31
432.29	196.31
432.512	196.31
432.734	190.31
432.956	185.31
433.178	190.31
433.4	214.31
433.622	192.31
433.844	214.31
434.066	212.31
434.287	200.31
434.509	173.31
434.731	193.31
434.953	195.31
435.175	204.31
435.397	205.31
435.618	192.31
435.84	187.31
436.062	187.31
436.284	195.31
436.505	174.31
436.727	206.31
436.949	182.31
437.17	203.31
437.392	186.31
437.614	187.31
437.835	177.31
438.057	183.31
438.278	175.31
438.5	180.31
438.721	183.31
438.943	194.31
439.165	188.31
439.386	201.31
439.608	197.31
439.829	176.31
440.05	179.31
440.272	189.31
440.493	183.31
440.715	194.31
440.936	201.31
441.158	198.31
441.379	198.31
441.6	209.31
441.822	209.31
442.043	224.31
442.264	208.31
442.486	213.31
442.707	189.31
442.928	218.31
443.149	206.31
443.371	194.31
443.592	215.31
443.813	211.31
444.034	221.31
444.255	236.31
444.476	210.31
444.698	242.31
444.919	225.31
445.14	429.31
445.361	313.31
445.582	205.31
445.803	212.31
446.024	205.31
446.245	202.31
446.466	187.31
446.687	178.31
446.908	195.31
447.129	202.31
447.35	191.31
447.571	187.31
447.792	189.31
448.013	180.31
448.234	182.31
448.455	185.31
448.675	185.31
448.896	172.31
449.117	185.31
449.338	185.31
449.559	181.31
449.779	183.31
450	173.31
450.221	183.31
450.442	198.31
450.662	181.31
450.883	199.31
451.104	191.31
451.324	177.31
451.545	188.31
451.766	185.31
451.986	186.31
452.207	186.31
452.428	177.31
452.648	186.31
452.869	181.31
453.089	192.31
453.31	198.31
453.53	199.31
453.751	208.31
453.971	176.31
454.192	171.31
454.412	167.31
454.633	174.31
454.853	179.31
455.073	176.31
455.294	190.31
455.514	193.31
455.734	178.31
455.955	180.31
456.175	180.31
456.395	164.31
456.616	162.31
456.836	177.31
457.056	171.31
457.276	182.31
457.497	168.31
457.717	167.31
457.937	159.31
458.157	169.31
458.377	168.31
458.598	156.31
458.818	182.31
459.038	181.31
459.258	180.31
459.478	178.31
459.698	181.31
459.918	183.31
460.138	188.31
460.358	205.31
460.578	217.31
460.798	194.31
461.018	204.31
461.238	205.31
461.458	207.31
461.678	198.31
461.898	197.31
462.118	203.31
462.338	216.31
462.558	219.31
462.777	227.31
462.997	246.31
463.217	251.31
463.437	261.31
463.657	229.31
463.876	234.31
464.096	223.31
464.316	214.31
464.536	212.31
464.755	233.31
464.975	228.31
465.195	207.31
465.414	213.31
465.634	193.31
465.854	204.31
466.073	181.31
466.293	192.31
466.512	191.31
466.732	179.31
466.951	191.31
467.171	174.31
467.391	202.31
467.61	186.31
467.829	188.31
468.049	203.31
468.268	212.31
468.488	179.31
468.707	179.31
468.927	180.31
469.146	185.31
469.365	186.31
469.585	208.31
469.804	185.31
470.023	210.31
470.243	197.31
470.462	205.31
470.681	192.31
470.901	213.31
471.12	193.31
471.339	210.31
471.558	181.31
471.777	195.31
471.997	217.31
472.216	224.31
472.435	260.31
472.654	196.31
472.873	209.31
473.092	199.31
473.311	179.31
473.53	198.31
473.749	193.31
473.968	174.31
474.187	184.31
474.406	173.31
474.625	171.31
474.844	203.31
475.063	191.31
475.282	174.31
475.501	164.31
475.72	202.31
475.939	185.31
476.158	181.31
476.377	191.31
476.596	187.31
476.814	193.31
477.033	203.31
477.252	193.31
477.471	192.31
477.69	203.31
477.908	191.31
478.127	195.31
478.346	217.31
478.564	211.31
478.783	196.31
479.002	196.31
479.22	221.31
479.439	212.31
479.658	210.31
479.876	199.31
480.095	205.31
480.313	213.31
480.532	215.31
480.751	228.31
480.969	252.31
481.188	320.31
481.406	296.31
481.624	231.31
481.843	217.31
482.061	205.31
482.28	209.31
482.498	203.31
482.717	191.31
482.935	213.31
483.153	187.31
483.372	218.31
483.59	202.31
483.808	192.31
484.027	206.31
484.245	206.31
484.463	208.31
484.681	221.31
484.9	211.31
485.118	199.31
485.336	196.31
485.554	195.31
485.772	178.31
485.99	211.31
486.209	193.31
486.427	189.31
486.645	189.31
486.863	211.31
487.081	209.31
487.299	205.31
487.517	199.31
487.735	214.31
487.953	225.31
488.171	222.31
488.389	208.31
488.607	204.31
488.825	191.31
489.043	195.31
489.261	195.31
489.479	213.31
489.696	208.31
489.914	198.31
490.132	222.31
490.35	221.31
490.568	216.31
490.786	207.31
491.003	203.31
491.221	223.31
491.439	233.31
491.657	214.31
491.874	221.31
492.092	249.31
492.31	237.31
492.527	233.31
492.745	235.31
492.963	235.31
493.18	231.31
493.398	237.31
493.615	265.31
493.833	226.31
494.05	230.31
494.268	231.31
494.485	214.31
494.703	241.31
494.92	213.31
495.138	225.31
495.355	216.31
495.573	220.31
495.79	231.31
496.008	243.31
496.225	222.31
496.442	198.31
496.66	235.31
496.877	228.31
497.094	243.31
497.312	216.31
497.529	243.31
497.746	226.31
497.963	231.31
498.181	270.31
498.398	289.31
498.615	274.31
498.832	277.31
499.049	286.31
499.267	345.31
499.484	324.31
499.701	341.31
499.918	373.31
500.135	439.31
500.352	439.31
500.569	431.31
500.786	455.31
501.003	427.31
501.22	378.31
501.437	362.31
501.654	339.31
501.871	307.31
502.088	292.31
502.305	289.31
502.522	267.31
502.739	267.31
502.956	255.31
503.172	244.31
503.389	224.31
503.606	224.31
503.823	262.31
504.04	226.31
504.256	239.31
