Data from SampB_HRD10591_00099.txt Node
Date: Mon Jan 19 11:34:02 EST 2026
User: Yrep
Spectrometer: HR+D1059
Trigger mode: 0
Integration Time (sec): 3.443000E-1
Scans to average: 1
Electric dark correction enabled: true
Nonlinearity correction enabled: false
Boxcar width: 0
XAxis mode: Wavelengths
Number of Pixels in Spectrum: 2048
>>>>>Begin Spectral Data<<<<<
223.165	-29.5
223.4	-29.5
223.635	-29.5
223.869	-29.5
224.104	-26.5
224.338	-14.5
224.573	-14.5
224.808	-6.5
225.042	-12.5
225.277	-13.5
225.511	4.5
225.746	-0.5
225.98	-2.5
226.215	16.5
226.449	25.5
226.683	22.5
226.918	31.5
227.152	49.5
227.387	45.5
227.621	43.5
227.856	47.5
228.09	47.5
228.324	50.5
228.559	63.5
228.793	60.5
229.027	87.5
229.262	67.5
229.496	78.5
229.73	68.5
229.964	69.5
230.199	71.5
230.433	83.5
230.667	81.5
230.901	75.5
231.136	75.5
231.37	77.5
231.604	98.5
231.838	79.5
232.072	83.5
232.306	98.5
232.541	78.5
232.775	64.5
233.009	95.5
233.243	85.5
233.477	83.5
233.711	66.5
233.945	79.5
234.179	83.5
234.413	97.5
234.647	70.5
234.881	87.5
235.115	76.5
235.349	83.5
235.583	87.5
235.817	76.5
236.051	87.5
236.285	83.5
236.519	63.5
236.753	75.5
236.987	95.5
237.221	87.5
237.455	78.5
237.689	71.5
237.922	80.5
238.156	83.5
238.39	56.5
238.624	79.5
238.858	76.5
239.091	73.5
239.325	87.5
239.559	72.5
239.793	80.5
240.027	100.5
240.26	81.5
240.494	79.5
240.728	69.5
240.961	73.5
241.195	80.5
241.429	97.5
241.662	73.5
241.896	77.5
242.13	74.5
242.363	54.5
242.597	61.5
242.83	79.5
243.064	77.5
243.298	89.5
243.531	92.5
243.765	83.5
243.998	79.5
244.232	82.5
244.465	75.5
244.699	71.5
244.932	98.5
245.166	75.5
245.399	67.5
245.633	76.5
245.866	78.5
246.099	79.5
246.333	76.5
246.566	85.5
246.8	88.5
247.033	77.5
247.266	86.5
247.5	69.5
247.733	90.5
247.966	85.5
248.2	83.5
248.433	90.5
248.666	72.5
248.899	84.5
249.133	85.5
249.366	94.5
249.599	88.5
249.832	62.5
250.066	78.5
250.299	82.5
250.532	80.5
250.765	82.5
250.998	63.5
251.231	76.5
251.465	83.5
251.698	95.5
251.931	84.5
252.164	90.5
252.397	74.5
252.63	78.5
252.863	84.5
253.096	80.5
253.329	75.5
253.562	81.5
253.795	84.5
254.028	89.5
254.261	73.5
254.494	71.5
254.727	85.5
254.96	79.5
255.193	81.5
255.426	75.5
255.659	79.5
255.892	83.5
256.124	91.5
256.357	72.5
256.59	87.5
256.823	87.5
257.056	77.5
257.289	81.5
257.521	84.5
257.754	75.5
257.987	88.5
258.22	81.5
258.452	69.5
258.685	90.5
258.918	80.5
259.151	84.5
259.383	92.5
259.616	80.5
259.849	88.5
260.081	80.5
260.314	78.5
260.547	88.5
260.779	58.5
261.012	88.5
261.244	88.5
261.477	89.5
261.71	74.5
261.942	73.5
262.175	75.5
262.407	85.5
262.64	79.5
262.872	81.5
263.105	96.5
263.337	81.5
263.57	83.5
263.802	80.5
264.035	74.5
264.267	89.5
264.499	83.5
264.732	87.5
264.964	85.5
265.197	86.5
265.429	80.5
265.661	87.5
265.894	97.5
266.126	94.5
266.358	77.5
266.591	85.5
266.823	77.5
267.055	82.5
267.287	89.5
267.52	86.5
267.752	93.5
267.984	90.5
268.216	96.5
268.448	104.5
268.681	85.5
268.913	90.5
269.145	78.5
269.377	89.5
269.609	73.5
269.841	84.5
270.073	94.5
270.306	89.5
270.538	89.5
270.77	73.5
271.002	77.5
271.234	84.5
271.466	89.5
271.698	100.5
271.93	85.5
272.162	79.5
272.394	93.5
272.626	80.5
272.858	86.5
273.09	100.5
273.322	85.5
273.553	77.5
273.785	86.5
274.017	72.5
274.249	89.5
274.481	80.5
274.713	80.5
274.945	83.5
275.176	86.5
275.408	87.5
275.64	74.5
275.872	83.5
276.104	76.5
276.335	77.5
276.567	90.5
276.799	81.5
277.031	87.5
277.262	87.5
277.494	98.5
277.726	79.5
277.957	81.5
278.189	82.5
278.421	83.5
278.652	82.5
278.884	83.5
279.115	86.5
279.347	88.5
279.579	81.5
279.81	87.5
280.042	91.5
280.273	83.5
280.505	97.5
280.736	68.5
280.968	87.5
281.199	81.5
281.431	89.5
281.662	95.5
281.894	87.5
282.125	79.5
282.356	77.5
282.588	89.5
282.819	96.5
283.051	94.5
283.282	79.5
283.513	88.5
283.745	92.5
283.976	81.5
284.207	91.5
284.439	83.5
284.67	84.5
284.901	70.5
285.132	76.5
285.364	81.5
285.595	76.5
285.826	74.5
286.057	91.5
286.288	83.5
286.52	89.5
286.751	80.5
286.982	88.5
287.213	85.5
287.444	79.5
287.675	91.5
287.906	103.5
288.138	96.5
288.369	96.5
288.6	99.5
288.831	88.5
289.062	92.5
289.293	78.5
289.524	82.5
289.755	75.5
289.986	85.5
290.217	73.5
290.448	95.5
290.679	96.5
290.91	98.5
291.141	91.5
291.371	88.5
291.602	82.5
291.833	80.5
292.064	57.5
292.295	84.5
292.526	88.5
292.757	75.5
292.987	87.5
293.218	84.5
293.449	88.5
293.68	82.5
293.91	85.5
294.141	88.5
294.372	88.5
294.603	77.5
294.833	105.5
295.064	92.5
295.295	76.5
295.525	83.5
295.756	95.5
295.987	81.5
296.217	94.5
296.448	93.5
296.679	79.5
296.909	93.5
297.14	93.5
297.37	92.5
297.601	66.5
297.831	80.5
298.062	79.5
298.292	88.5
298.523	87.5
298.753	72.5
298.984	87.5
299.214	78.5
299.445	83.5
299.675	100.5
299.905	79.5
300.136	86.5
300.366	76.5
300.597	91.5
300.827	81.5
301.057	84.5
301.288	77.5
301.518	72.5
301.748	85.5
301.979	113.5
302.209	84.5
302.439	79.5
302.669	98.5
302.9	66.5
303.13	73.5
303.36	88.5
303.59	83.5
303.82	93.5
304.051	91.5
304.281	87.5
304.511	93.5
304.741	91.5
304.971	90.5
305.201	101.5
305.431	95.5
305.661	76.5
305.891	79.5
306.121	86.5
306.352	91.5
306.582	75.5
306.812	84.5
307.042	89.5
307.272	73.5
307.502	76.5
307.731	89.5
307.961	81.5
308.191	90.5
308.421	83.5
308.651	69.5
308.881	83.5
309.111	82.5
309.341	83.5
309.571	77.5
309.8	79.5
310.03	75.5
310.26	76.5
310.49	85.5
310.72	86.5
310.949	90.5
311.179	75.5
311.409	80.5
311.639	85.5
311.868	88.5
312.098	99.5
312.328	79.5
312.557	87.5
312.787	92.5
313.017	98.5
313.246	81.5
313.476	87.5
313.706	85.5
313.935	76.5
314.165	96.5
314.394	80.5
314.624	83.5
314.853	90.5
315.083	89.5
315.312	85.5
315.542	90.5
315.771	97.5
316.001	83.5
316.23	77.5
316.46	78.5
316.689	77.5
316.919	89.5
317.148	95.5
317.377	107.5
317.607	83.5
317.836	91.5
318.065	82.5
318.295	83.5
318.524	91.5
318.753	84.5
318.983	83.5
319.212	91.5
319.441	89.5
319.67	77.5
319.9	88.5
320.129	75.5
320.358	105.5
320.587	91.5
320.816	86.5
321.046	82.5
321.275	93.5
321.504	87.5
321.733	82.5
321.962	92.5
322.191	85.5
322.42	71.5
322.649	93.5
322.878	90.5
323.108	77.5
323.337	73.5
323.566	90.5
323.795	86.5
324.024	83.5
324.253	77.5
324.482	84.5
324.71	82.5
324.939	96.5
325.168	78.5
325.397	76.5
325.626	85.5
325.855	76.5
326.084	88.5
326.313	80.5
326.542	80.5
326.77	88.5
326.999	75.5
327.228	83.5
327.457	91.5
327.686	92.5
327.914	96.5
328.143	77.5
328.372	91.5
328.6	93.5
328.829	91.5
329.058	79.5
329.287	80.5
329.515	91.5
329.744	89.5
329.972	87.5
330.201	77.5
330.43	90.5
330.658	75.5
330.887	96.5
331.115	97.5
331.344	85.5
331.572	90.5
331.801	99.5
332.03	84.5
332.258	80.5
332.486	88.5
332.715	78.5
332.943	81.5
333.172	99.5
333.4	88.5
333.629	88.5
333.857	87.5
334.085	81.5
334.314	69.5
334.542	87.5
334.771	83.5
334.999	105.5
335.227	80.5
335.455	93.5
335.684	84.5
335.912	81.5
336.14	72.5
336.369	91.5
336.597	92.5
336.825	81.5
337.053	67.5
337.281	84.5
337.51	91.5
337.738	95.5
337.966	81.5
338.194	67.5
338.422	83.5
338.65	87.5
338.878	91.5
339.106	80.5
339.334	101.5
339.562	95.5
339.79	83.5
340.018	87.5
340.246	84.5
340.474	82.5
340.702	80.5
340.93	64.5
341.158	83.5
341.386	75.5
341.614	84.5
341.842	73.5
342.07	83.5
342.298	82.5
342.526	97.5
342.754	91.5
342.981	91.5
343.209	82.5
343.437	116.5
343.665	82.5
343.893	80.5
344.12	108.5
344.348	90.5
344.576	79.5
344.804	77.5
345.031	80.5
345.259	87.5
345.487	99.5
345.714	85.5
345.942	99.5
346.17	80.5
346.397	76.5
346.625	89.5
346.853	88.5
347.08	82.5
347.308	99.5
347.535	82.5
347.763	76.5
347.99	95.5
348.218	86.5
348.445	79.5
348.673	82.5
348.9	82.5
349.128	82.5
349.355	93.5
349.583	89.5
349.81	76.5
350.037	77.5
350.265	81.5
350.492	80.5
350.72	93.5
350.947	86.5
351.174	74.5
351.402	88.5
351.629	85.5
351.856	84.5
352.083	87.5
352.311	85.5
352.538	79.5
352.765	89.5
352.992	98.5
353.22	86.5
353.447	76.5
353.674	91.5
353.901	87.5
354.128	90.5
354.355	95.5
354.583	79.5
354.81	94.5
355.037	96.5
355.264	95.5
355.491	90.5
355.718	77.5
355.945	79.5
356.172	86.5
356.399	74.5
356.626	80.5
356.853	80.5
357.08	90.5
357.307	80.5
357.534	66.5
357.761	82.5
357.988	87.5
358.215	85.5
358.441	81.5
358.668	85.5
358.895	88.5
359.122	80.5
359.349	88.5
359.576	75.5
359.802	87.5
360.029	86.5
360.256	80.5
360.483	88.5
360.709	88.5
360.936	94.5
361.163	84.5
361.39	95.5
361.616	90.5
361.843	96.5
362.07	93.5
362.296	85.5
362.523	69.5
362.749	76.5
362.976	79.5
363.203	94.5
363.429	76.5
363.656	83.5
363.882	76.5
364.109	88.5
364.335	83.5
364.562	80.5
364.788	80.5
365.015	94.5
365.241	81.5
365.468	82.5
365.694	80.5
365.92	85.5
366.147	90.5
366.373	83.5
366.599	78.5
366.826	89.5
367.052	90.5
367.278	84.5
367.505	87.5
367.731	101.5
367.957	86.5
368.184	80.5
368.41	81.5
368.636	92.5
368.862	68.5
369.089	96.5
369.315	89.5
369.541	83.5
369.767	87.5
369.993	85.5
370.219	77.5
370.445	88.5
370.672	83.5
370.898	69.5
371.124	92.5
371.35	91.5
371.576	83.5
371.802	96.5
372.028	88.5
372.254	94.5
372.48	98.5
372.706	96.5
372.932	90.5
373.158	105.5
373.384	95.5
373.61	88.5
373.835	80.5
374.061	83.5
374.287	97.5
374.513	97.5
374.739	96.5
374.965	89.5
375.191	80.5
375.416	78.5
375.642	85.5
375.868	90.5
376.094	81.5
376.319	92.5
376.545	91.5
376.771	79.5
376.997	83.5
377.222	86.5
377.448	91.5
377.674	79.5
377.899	89.5
378.125	92.5
378.35	90.5
378.576	91.5
378.802	81.5
379.027	80.5
379.253	84.5
379.478	91.5
379.704	87.5
379.929	85.5
380.155	87.5
380.38	82.5
380.606	85.5
380.831	81.5
381.057	92.5
381.282	73.5
381.507	79.5
381.733	79.5
381.958	92.5
382.184	83.5
382.409	77.5
382.634	96.5
382.86	89.5
383.085	93.5
383.31	84.5
383.535	82.5
383.761	84.5
383.986	75.5
384.211	75.5
384.436	92.5
384.662	81.5
384.887	89.5
385.112	95.5
385.337	90.5
385.562	86.5
385.787	69.5
386.013	84.5
386.238	65.5
386.463	73.5
386.688	123.5
386.913	98.5
387.138	85.5
387.363	82.5
387.588	111.5
387.813	97.5
388.038	98.5
388.263	102.5
388.488	92.5
388.713	77.5
388.938	89.5
389.163	95.5
389.387	75.5
389.612	93.5
389.837	87.5
390.062	95.5
390.287	99.5
390.512	90.5
390.736	94.5
390.961	86.5
391.186	102.5
391.411	82.5
391.636	100.5
391.86	76.5
392.085	87.5
392.31	81.5
392.534	98.5
392.759	93.5
392.984	79.5
393.208	92.5
393.433	105.5
393.658	81.5
393.882	95.5
394.107	89.5
394.331	81.5
394.556	98.5
394.78	85.5
395.005	92.5
395.229	87.5
395.454	87.5
395.678	95.5
395.903	90.5
396.127	98.5
396.352	83.5
396.576	87.5
396.801	109.5
397.025	80.5
397.249	96.5
397.474	99.5
397.698	91.5
397.922	98.5
398.147	75.5
398.371	71.5
398.595	93.5
398.82	86.5
399.044	95.5
399.268	84.5
399.492	78.5
399.717	92.5
399.941	105.5
400.165	99.5
400.389	101.5
400.613	91.5
400.837	89.5
401.062	97.5
401.286	97.5
401.51	96.5
401.734	92.5
401.958	97.5
402.182	91.5
402.406	95.5
402.63	104.5
402.854	107.5
403.078	102.5
403.302	86.5
403.526	96.5
403.75	95.5
403.974	91.5
404.198	87.5
404.422	102.5
404.645	89.5
404.869	100.5
405.093	99.5
405.317	89.5
405.541	96.5
405.765	101.5
405.988	110.5
406.212	96.5
406.436	87.5
406.66	112.5
406.883	92.5
407.107	100.5
407.331	99.5
407.555	98.5
407.778	87.5
408.002	89.5
408.226	85.5
408.449	108.5
408.673	99.5
408.896	101.5
409.12	106.5
409.344	105.5
409.567	98.5
409.791	105.5
410.014	99.5
410.238	103.5
410.461	106.5
410.685	108.5
410.908	105.5
411.132	101.5
411.355	93.5
411.578	111.5
411.802	97.5
412.025	97.5
412.249	107.5
412.472	103.5
412.695	105.5
412.919	89.5
413.142	100.5
413.365	101.5
413.589	96.5
413.812	97.5
414.035	97.5
414.258	110.5
414.482	103.5
414.705	104.5
414.928	102.5
415.151	103.5
415.374	101.5
415.597	95.5
415.821	95.5
416.044	107.5
416.267	109.5
416.49	105.5
416.713	89.5
416.936	106.5
417.159	95.5
417.382	99.5
417.605	92.5
417.828	102.5
418.051	95.5
418.274	100.5
418.497	102.5
418.72	103.5
418.943	110.5
419.166	107.5
419.389	102.5
419.611	100.5
419.834	91.5
420.057	92.5
420.28	115.5
420.503	96.5
420.726	91.5
420.948	112.5
421.171	103.5
421.394	97.5
421.617	103.5
421.839	106.5
422.062	102.5
422.285	94.5
422.507	104.5
422.73	79.5
422.953	97.5
423.175	98.5
423.398	90.5
423.621	108.5
423.843	98.5
424.066	92.5
424.288	108.5
424.511	113.5
424.733	105.5
424.956	97.5
425.178	107.5
425.401	97.5
425.623	110.5
425.846	109.5
426.068	109.5
426.291	95.5
426.513	108.5
426.735	97.5
426.958	99.5
427.18	105.5
427.402	105.5
427.625	112.5
427.847	103.5
428.069	105.5
428.292	100.5
428.514	99.5
428.736	97.5
428.958	101.5
429.181	113.5
429.403	96.5
429.625	107.5
429.847	106.5
430.069	112.5
430.292	107.5
430.514	95.5
430.736	94.5
430.958	100.5
431.18	94.5
431.402	92.5
431.624	100.5
431.846	81.5
432.068	89.5
432.29	89.5
432.512	104.5
432.734	95.5
432.956	106.5
433.178	121.5
433.4	109.5
433.622	116.5
433.844	107.5
434.066	101.5
434.287	100.5
434.509	83.5
434.731	76.5
434.953	107.5
435.175	102.5
435.397	105.5
435.618	105.5
435.84	99.5
436.062	98.5
436.284	100.5
436.505	103.5
436.727	90.5
436.949	100.5
437.17	93.5
437.392	97.5
437.614	95.5
437.835	91.5
438.057	95.5
438.278	88.5
438.5	91.5
438.721	86.5
438.943	124.5
439.165	101.5
439.386	111.5
439.608	122.5
439.829	113.5
440.05	91.5
440.272	97.5
440.493	108.5
440.715	98.5
440.936	105.5
441.158	107.5
441.379	108.5
441.6	106.5
441.822	108.5
442.043	116.5
442.264	116.5
442.486	90.5
442.707	93.5
442.928	87.5
443.149	105.5
443.371	113.5
443.592	99.5
443.813	114.5
444.034	97.5
444.255	111.5
444.476	96.5
444.698	99.5
444.919	101.5
445.14	300.5
445.361	184.5
445.582	103.5
445.803	104.5
446.024	121.5
446.245	112.5
446.466	128.5
446.687	114.5
446.908	124.5
447.129	113.5
447.35	104.5
447.571	128.5
447.792	111.5
448.013	92.5
448.234	111.5
448.455	105.5
448.675	105.5
448.896	99.5
449.117	85.5
449.338	106.5
449.559	113.5
449.779	93.5
450	100.5
450.221	95.5
450.442	98.5
450.662	104.5
450.883	99.5
451.104	114.5
451.324	106.5
451.545	91.5
451.766	108.5
451.986	93.5
452.207	95.5
452.428	95.5
452.648	99.5
452.869	104.5
453.089	94.5
453.31	92.5
453.53	97.5
453.751	91.5
453.971	92.5
454.192	77.5
454.412	97.5
454.633	97.5
454.853	97.5
455.073	100.5
455.294	91.5
455.514	104.5
455.734	85.5
455.955	99.5
456.175	88.5
456.395	83.5
456.616	90.5
456.836	95.5
457.056	91.5
457.276	93.5
457.497	74.5
457.717	85.5
457.937	94.5
458.157	90.5
458.377	81.5
458.598	85.5
458.818	67.5
459.038	85.5
459.258	82.5
459.478	83.5
459.698	89.5
459.918	88.5
460.138	82.5
460.358	84.5
460.578	99.5
460.798	108.5
461.018	94.5
461.238	100.5
461.458	86.5
461.678	80.5
461.898	90.5
462.118	94.5
462.338	87.5
462.558	100.5
462.777	97.5
462.997	93.5
463.217	96.5
463.437	98.5
463.657	97.5
463.876	82.5
464.096	78.5
464.316	93.5
464.536	93.5
464.755	98.5
464.975	98.5
465.195	100.5
465.414	116.5
465.634	90.5
465.854	101.5
466.073	92.5
466.293	100.5
466.512	95.5
466.732	94.5
466.951	89.5
467.171	98.5
467.391	87.5
467.61	92.5
467.829	96.5
468.049	100.5
468.268	95.5
468.488	116.5
468.707	109.5
468.927	116.5
469.146	97.5
469.365	103.5
469.585	103.5
469.804	93.5
470.023	109.5
470.243	109.5
470.462	109.5
470.681	107.5
470.901	107.5
471.12	103.5
471.339	103.5
471.558	107.5
471.777	99.5
471.997	101.5
472.216	83.5
472.435	98.5
472.654	87.5
472.873	90.5
473.092	94.5
473.311	108.5
473.53	77.5
473.749	104.5
473.968	88.5
474.187	98.5
474.406	89.5
474.625	102.5
474.844	104.5
475.063	100.5
475.282	91.5
475.501	84.5
475.72	116.5
475.939	105.5
476.158	105.5
476.377	105.5
476.596	96.5
476.814	88.5
477.033	93.5
477.252	98.5
477.471	89.5
477.69	101.5
477.908	113.5
478.127	107.5
478.346	100.5
478.564	100.5
478.783	93.5
479.002	90.5
479.22	100.5
479.439	88.5
479.658	91.5
479.876	74.5
480.095	89.5
480.313	100.5
480.532	98.5
480.751	74.5
480.969	83.5
481.188	95.5
481.406	76.5
481.624	99.5
481.843	83.5
482.061	87.5
482.28	89.5
482.498	88.5
482.717	89.5
482.935	109.5
483.153	101.5
483.372	105.5
483.59	100.5
483.808	91.5
484.027	106.5
484.245	99.5
484.463	102.5
484.681	122.5
484.9	101.5
485.118	99.5
485.336	97.5
485.554	89.5
485.772	95.5
485.99	99.5
486.209	110.5
486.427	82.5
486.645	82.5
486.863	100.5
487.081	96.5
487.299	96.5
487.517	99.5
487.735	106.5
487.953	104.5
488.171	115.5
488.389	121.5
488.607	105.5
488.825	106.5
489.043	93.5
489.261	90.5
489.479	100.5
489.696	105.5
489.914	96.5
490.132	101.5
490.35	117.5
490.568	114.5
490.786	91.5
491.003	108.5
491.221	100.5
491.439	110.5
491.657	116.5
491.874	140.5
492.092	130.5
492.31	138.5
492.527	123.5
492.745	127.5
492.963	118.5
493.18	120.5
493.398	125.5
493.615	133.5
493.833	118.5
494.05	112.5
494.268	112.5
494.485	99.5
494.703	107.5
494.92	107.5
495.138	121.5
495.355	113.5
495.573	125.5
495.79	117.5
496.008	114.5
496.225	115.5
496.442	107.5
496.66	109.5
496.877	97.5
497.094	114.5
497.312	112.5
497.529	105.5
497.746	107.5
497.963	107.5
498.181	94.5
498.398	97.5
498.615	99.5
498.832	99.5
499.049	102.5
499.267	111.5
499.484	96.5
499.701	105.5
499.918	97.5
500.135	111.5
500.352	90.5
500.569	101.5
500.786	110.5
501.003	114.5
501.22	89.5
501.437	101.5
501.654	112.5
501.871	97.5
502.088	90.5
502.305	107.5
502.522	116.5
502.739	105.5
502.956	96.5
503.172	93.5
503.389	105.5
503.606	92.5
503.823	96.5
504.04	103.5
504.256	110.5
504.473	92.5
504.69	96.5
504.907	96.5
505.123	99.5
505.34	93.5
505.557	93.5
505.773	94.5
505.99	92.5
506.207	90.5
506.423	98.5
506.64	93.5
506.856	90.5
507.073	102.5
507.289	113.5
507.506	86.5
507.722	92.5
507.939	79.5
508.155	92.5
508.372	89.5
508.588	101.5
508.805	99.5
509.021	92.5
509.238	83.5
509.454	91.5
509.67	88.5
509.887	76.5
510.103	81.5
510.319	76.5
510.536	101.5
510.752	88.5
510.968	82.5
511.184	79.5
511.401	83.5
511.617	108.5
511.833	87.5
512.049	81.5
512.265	74.5
512.481	95.5
512.698	92.5
512.914	88.5
513.13	88.5
513.346	76.5
513.562	90.5
513.778	96.5
513.994	92.5
514.21	81.5
514.426	81.5
514.642	79.5
514.858	85.5
515.074	79.5
515.29	106.5
515.506	72.5
515.721	88.5
515.937	92.5
516.153	67.5
516.369	73.5
516.585	100.5
516.801	69.5
517.016	88.5
517.232	81.5
517.448	96.5
517.664	77.5
517.879	79.5
518.095	92.5
518.311	90.5
518.527	89.5
518.742	86.5
518.958	83.5
519.173	95.5
519.389	110.5
519.605	93.5
519.82	75.5
520.036	98.5
520.251	90.5
520.467	83.5
520.682	86.5
520.898	87.5
521.113	77.5
521.329	81.5
521.544	71.5
521.76	89.5
521.975	70.5
522.19	92.5
522.406	87.5
522.621	95.5
522.836	82.5
523.052	80.5
523.267	95.5
523.482	101.5
523.698	103.5
523.913	91.5
524.128	97.5
524.343	89.5
524.559	107.5
524.774	93.5
524.989	80.5
525.204	105.5
525.419	93.5
525.634	77.5
525.849	94.5
526.064	85.5
526.28	104.5
526.495	86.5
526.71	76.5
526.925	59.5
527.14	79.5
527.355	93.5
527.57	95.5
527.785	87.5
527.999	93.5
528.214	99.5
528.429	88.5
528.644	93.5
528.859	83.5
529.074	108.5
529.289	106.5
529.503	76.5
529.718	94.5
529.933	99.5
530.148	78.5
530.363	95.5
530.577	86.5
530.792	76.5
531.007	85.5
531.221	82.5
531.436	97.5
531.651	75.5
531.865	93.5
532.08	87.5
532.295	91.5
532.509	67.5
532.724	95.5
532.938	82.5
533.153	91.5
533.367	98.5
533.582	105.5
533.796	87.5
534.011	94.5
534.225	87.5
534.44	92.5
534.654	99.5
534.868	82.5
535.083	88.5
535.297	83.5
535.511	84.5
535.726	96.5
535.94	86.5
536.154	71.5
536.369	91.5
