Data from SampB_HRD10591_00073.txt Node
Date: Mon Jan 19 11:33:53 EST 2026
User: Yrep
Spectrometer: HR+D1059
Trigger mode: 0
Integration Time (sec): 3.443000E-1
Scans to average: 1
Electric dark correction enabled: true
Nonlinearity correction enabled: false
Boxcar width: 0
XAxis mode: Wavelengths
Number of Pixels in Spectrum: 2048
>>>>>Begin Spectral Data<<<<<
223.165	-21.44
223.4	-21.44
223.635	-21.44
223.869	-18.44
224.104	-18.44
224.338	-19.44
224.573	-18.44
224.808	-16.44
225.042	-2.44
225.277	-11.44
225.511	-8.44
225.746	13.56
225.98	11.56
226.215	25.56
226.449	6.56
226.683	23.56
226.918	18.56
227.152	35.56
227.387	41.56
227.621	45.56
227.856	38.56
228.09	53.56
228.324	47.56
228.559	69.56
228.793	66.56
229.027	73.56
229.262	79.56
229.496	85.56
229.73	53.56
229.964	68.56
230.199	82.56
230.433	90.56
230.667	92.56
230.901	85.56
231.136	70.56
231.37	73.56
231.604	83.56
231.838	85.56
232.072	84.56
232.306	90.56
232.541	93.56
232.775	97.56
233.009	86.56
233.243	91.56
233.477	100.56
233.711	95.56
233.945	99.56
234.179	99.56
234.413	98.56
234.647	102.56
234.881	104.56
235.115	96.56
235.349	104.56
235.583	89.56
235.817	85.56
236.051	96.56
236.285	99.56
236.519	90.56
236.753	113.56
236.987	91.56
237.221	87.56
237.455	104.56
237.689	85.56
237.922	99.56
238.156	96.56
238.39	88.56
238.624	108.56
238.858	94.56
239.091	102.56
239.325	92.56
239.559	96.56
239.793	97.56
240.027	108.56
240.26	95.56
240.494	107.56
240.728	105.56
240.961	119.56
241.195	112.56
241.429	109.56
241.662	107.56
241.896	96.56
242.13	87.56
242.363	99.56
242.597	97.56
242.83	95.56
243.064	95.56
243.298	118.56
243.531	99.56
243.765	108.56
243.998	106.56
244.232	112.56
244.465	99.56
244.699	103.56
244.932	106.56
245.166	122.56
245.399	108.56
245.633	92.56
245.866	106.56
246.099	114.56
246.333	107.56
246.566	102.56
246.8	110.56
247.033	101.56
247.266	93.56
247.5	108.56
247.733	105.56
247.966	122.56
248.2	117.56
248.433	116.56
248.666	115.56
248.899	117.56
249.133	109.56
249.366	128.56
249.599	128.56
249.832	118.56
250.066	125.56
250.299	120.56
250.532	128.56
250.765	129.56
250.998	122.56
251.231	118.56
251.465	118.56
251.698	94.56
251.931	111.56
252.164	122.56
252.397	117.56
252.63	136.56
252.863	117.56
253.096	133.56
253.329	131.56
253.562	128.56
253.795	148.56
254.028	142.56
254.261	123.56
254.494	137.56
254.727	139.56
254.96	129.56
255.193	121.56
255.426	123.56
255.659	136.56
255.892	127.56
256.124	133.56
256.357	148.56
256.59	143.56
256.823	131.56
257.056	123.56
257.289	114.56
257.521	127.56
257.754	121.56
257.987	124.56
258.22	128.56
258.452	121.56
258.685	119.56
258.918	133.56
259.151	133.56
259.383	131.56
259.616	135.56
259.849	139.56
260.081	162.56
260.314	175.56
260.547	143.56
260.779	130.56
261.012	149.56
261.244	135.56
261.477	176.56
261.71	150.56
261.942	157.56
262.175	148.56
262.407	142.56
262.64	147.56
262.872	147.56
263.105	166.56
263.337	152.56
263.57	140.56
263.802	126.56
264.035	119.56
264.267	126.56
264.499	111.56
264.732	119.56
264.964	126.56
265.197	121.56
265.429	131.56
265.661	132.56
265.894	126.56
266.126	143.56
266.358	128.56
266.591	151.56
266.823	135.56
267.055	123.56
267.287	109.56
267.52	130.56
267.752	128.56
267.984	130.56
268.216	122.56
268.448	128.56
268.681	128.56
268.913	123.56
269.145	133.56
269.377	128.56
269.609	135.56
269.841	126.56
270.073	132.56
270.306	126.56
270.538	125.56
270.77	119.56
271.002	147.56
271.234	137.56
271.466	126.56
271.698	146.56
271.93	115.56
272.162	138.56
272.394	134.56
272.626	147.56
272.858	143.56
273.09	164.56
273.322	155.56
273.553	167.56
273.785	167.56
274.017	193.56
274.249	203.56
274.481	193.56
274.713	205.56
274.945	217.56
275.176	217.56
275.408	202.56
275.64	190.56
275.872	186.56
276.104	158.56
276.335	148.56
276.567	153.56
276.799	160.56
277.031	160.56
277.262	152.56
277.494	141.56
277.726	157.56
277.957	175.56
278.189	172.56
278.421	162.56
278.652	133.56
278.884	146.56
279.115	143.56
279.347	144.56
279.579	149.56
279.81	163.56
280.042	159.56
280.273	157.56
280.505	153.56
280.736	165.56
280.968	139.56
281.199	165.56
281.431	149.56
281.662	136.56
281.894	158.56
282.125	150.56
282.356	159.56
282.588	148.56
282.819	139.56
283.051	152.56
283.282	157.56
283.513	172.56
283.745	148.56
283.976	158.56
284.207	154.56
284.439	153.56
284.67	161.56
284.901	164.56
285.132	135.56
285.364	150.56
285.595	157.56
285.826	161.56
286.057	153.56
286.288	136.56
286.52	149.56
286.751	142.56
286.982	162.56
287.213	166.56
287.444	149.56
287.675	167.56
287.906	166.56
288.138	151.56
288.369	163.56
288.6	153.56
288.831	149.56
289.062	160.56
289.293	146.56
289.524	158.56
289.755	175.56
289.986	136.56
290.217	153.56
290.448	159.56
290.679	150.56
290.91	176.56
291.141	149.56
291.371	147.56
291.602	149.56
291.833	155.56
292.064	139.56
292.295	159.56
292.526	157.56
292.757	163.56
292.987	155.56
293.218	167.56
293.449	150.56
293.68	146.56
293.91	143.56
294.141	178.56
294.372	157.56
294.603	157.56
294.833	159.56
295.064	172.56
295.295	138.56
295.525	158.56
295.756	165.56
295.987	162.56
296.217	151.56
296.448	147.56
296.679	169.56
296.909	172.56
297.14	181.56
297.37	166.56
297.601	164.56
297.831	159.56
298.062	161.56
298.292	174.56
298.523	203.56
298.753	181.56
298.984	178.56
299.214	166.56
299.445	170.56
299.675	154.56
299.905	177.56
300.136	167.56
300.366	172.56
300.597	179.56
300.827	181.56
301.057	167.56
301.288	173.56
301.518	165.56
301.748	174.56
301.979	206.56
302.209	191.56
302.439	174.56
302.669	178.56
302.9	176.56
303.13	164.56
303.36	153.56
303.59	165.56
303.82	184.56
304.051	174.56
304.281	170.56
304.511	184.56
304.741	171.56
304.971	184.56
305.201	172.56
305.431	171.56
305.661	170.56
305.891	170.56
306.121	166.56
306.352	167.56
306.582	177.56
306.812	179.56
307.042	175.56
307.272	174.56
307.502	179.56
307.731	178.56
307.961	172.56
308.191	162.56
308.421	168.56
308.651	186.56
308.881	181.56
309.111	167.56
309.341	166.56
309.571	184.56
309.8	180.56
310.03	183.56
310.26	166.56
310.49	177.56
310.72	173.56
310.949	157.56
311.179	163.56
311.409	169.56
311.639	181.56
311.868	168.56
312.098	190.56
312.328	183.56
312.557	189.56
312.787	184.56
313.017	173.56
313.246	190.56
313.476	154.56
313.706	175.56
313.935	163.56
314.165	161.56
314.394	182.56
314.624	165.56
314.853	169.56
315.083	174.56
315.312	169.56
315.542	175.56
315.771	194.56
316.001	171.56
316.23	187.56
316.46	183.56
316.689	178.56
316.919	179.56
317.148	171.56
317.377	174.56
317.607	179.56
317.836	190.56
318.065	169.56
318.295	184.56
318.524	173.56
318.753	163.56
318.983	170.56
319.212	176.56
319.441	183.56
319.67	182.56
319.9	169.56
320.129	180.56
320.358	160.56
320.587	189.56
320.816	169.56
321.046	174.56
321.275	174.56
321.504	173.56
321.733	183.56
321.962	182.56
322.191	190.56
322.42	190.56
322.649	176.56
322.878	181.56
323.108	206.56
323.337	190.56
323.566	177.56
323.795	194.56
324.024	186.56
324.253	184.56
324.482	182.56
324.71	200.56
324.939	177.56
325.168	192.56
325.397	183.56
325.626	189.56
325.855	189.56
326.084	187.56
326.313	183.56
326.542	203.56
326.77	204.56
326.999	197.56
327.228	195.56
327.457	195.56
327.686	213.56
327.914	226.56
328.143	279.56
328.372	277.56
328.6	236.56
328.829	217.56
329.058	212.56
329.287	227.56
329.515	237.56
329.744	251.56
329.972	303.56
330.201	338.56
330.43	359.56
330.658	281.56
330.887	224.56
331.115	224.56
331.344	215.56
331.572	203.56
331.801	206.56
332.03	221.56
332.258	219.56
332.486	210.56
332.715	231.56
332.943	246.56
333.172	238.56
333.4	249.56
333.629	261.56
333.857	297.56
334.085	351.56
334.314	430.56
334.542	483.56
334.771	429.56
334.999	323.56
335.227	277.56
335.455	246.56
335.684	244.56
335.912	235.56
336.14	211.56
336.369	223.56
336.597	214.56
336.825	216.56
337.053	230.56
337.281	229.56
337.51	210.56
337.738	220.56
337.966	215.56
338.194	199.56
338.422	201.56
338.65	214.56
338.878	198.56
339.106	199.56
339.334	197.56
339.562	177.56
339.79	193.56
340.018	175.56
340.246	193.56
340.474	174.56
340.702	194.56
340.93	177.56
341.158	186.56
341.386	187.56
341.614	190.56
341.842	188.56
342.07	164.56
342.298	185.56
342.526	197.56
342.754	199.56
342.981	205.56
343.209	202.56
343.437	226.56
343.665	195.56
343.893	228.56
344.12	237.56
344.348	231.56
344.576	216.56
344.804	199.56
345.031	177.56
345.259	197.56
345.487	193.56
345.714	184.56
345.942	183.56
346.17	210.56
346.397	194.56
346.625	185.56
346.853	177.56
347.08	187.56
347.308	194.56
347.535	180.56
347.763	193.56
347.99	189.56
348.218	199.56
348.445	177.56
348.673	176.56
348.9	192.56
349.128	198.56
349.355	193.56
349.583	177.56
349.81	186.56
350.037	192.56
350.265	198.56
350.492	190.56
350.72	182.56
350.947	182.56
351.174	178.56
351.402	186.56
351.629	169.56
351.856	178.56
352.083	190.56
352.311	188.56
352.538	202.56
352.765	201.56
352.992	200.56
353.22	194.56
353.447	181.56
353.674	194.56
353.901	200.56
354.128	188.56
354.355	181.56
354.583	187.56
354.81	194.56
355.037	199.56
355.264	188.56
355.491	177.56
355.718	193.56
355.945	198.56
356.172	191.56
356.399	216.56
356.626	225.56
356.853	210.56
357.08	219.56
357.307	212.56
357.534	188.56
357.761	193.56
357.988	207.56
358.215	225.56
358.441	219.56
358.668	210.56
358.895	191.56
359.122	175.56
359.349	182.56
359.576	208.56
359.802	185.56
360.029	197.56
360.256	187.56
360.483	191.56
360.709	202.56
360.936	231.56
361.163	202.56
361.39	206.56
361.616	189.56
361.843	214.56
362.07	199.56
362.296	209.56
362.523	187.56
362.749	203.56
362.976	194.56
363.203	214.56
363.429	197.56
363.656	187.56
363.882	193.56
364.109	193.56
364.335	187.56
364.562	189.56
364.788	207.56
365.015	209.56
365.241	195.56
365.468	192.56
365.694	195.56
365.92	190.56
366.147	178.56
366.373	182.56
366.599	175.56
366.826	206.56
367.052	190.56
367.278	186.56
367.505	193.56
367.731	192.56
367.957	206.56
368.184	204.56
368.41	205.56
368.636	183.56
368.862	199.56
369.089	183.56
369.315	181.56
369.541	206.56
369.767	188.56
369.993	184.56
370.219	197.56
370.445	204.56
370.672	211.56
370.898	214.56
371.124	206.56
371.35	188.56
371.576	204.56
371.802	221.56
372.028	214.56
372.254	238.56
372.48	217.56
372.706	215.56
372.932	223.56
373.158	234.56
373.384	241.56
373.61	272.56
373.835	247.56
374.061	209.56
374.287	243.56
374.513	239.56
374.739	264.56
374.965	256.56
375.191	257.56
375.416	228.56
375.642	239.56
375.868	264.56
376.094	264.56
376.319	231.56
376.545	233.56
376.771	216.56
376.997	217.56
377.222	204.56
377.448	205.56
377.674	204.56
377.899	209.56
378.125	216.56
378.35	216.56
378.576	212.56
378.802	202.56
379.027	195.56
379.253	224.56
379.478	183.56
379.704	208.56
379.929	200.56
380.155	203.56
380.38	205.56
380.606	209.56
380.831	215.56
381.057	213.56
381.282	221.56
381.507	240.56
381.733	229.56
381.958	240.56
382.184	267.56
382.409	239.56
382.634	265.56
382.86	251.56
383.085	233.56
383.31	233.56
383.535	246.56
383.761	236.56
383.986	236.56
384.211	247.56
384.436	241.56
384.662	237.56
384.887	221.56
385.112	223.56
385.337	237.56
385.562	252.56
385.787	238.56
386.013	266.56
386.238	254.56
386.463	242.56
386.688	278.56
386.913	263.56
387.138	214.56
387.363	235.56
387.588	234.56
387.813	251.56
388.038	254.56
388.263	249.56
388.488	256.56
388.713	250.56
388.938	232.56
389.163	217.56
389.387	246.56
389.612	235.56
389.837	239.56
390.062	255.56
390.287	252.56
390.512	244.56
390.736	238.56
390.961	231.56
391.186	234.56
391.411	257.56
391.636	256.56
391.86	268.56
392.085	281.56
392.31	265.56
392.534	270.56
392.759	267.56
392.984	270.56
393.208	265.56
393.433	302.56
393.658	263.56
393.882	261.56
394.107	269.56
394.331	266.56
394.556	269.56
394.78	269.56
395.005	264.56
395.229	261.56
395.454	270.56
395.678	280.56
395.903	288.56
396.127	303.56
396.352	269.56
396.576	282.56
396.801	297.56
397.025	272.56
397.249	262.56
397.474	267.56
397.698	275.56
397.922	282.56
398.147	280.56
398.371	285.56
398.595	272.56
398.82	295.56
399.044	332.56
399.268	354.56
399.492	382.56
399.717	421.56
399.941	384.56
400.165	354.56
400.389	350.56
400.613	313.56
400.837	300.56
401.062	299.56
401.286	286.56
401.51	285.56
401.734	305.56
401.958	283.56
402.182	303.56
402.406	301.56
402.63	288.56
402.854	304.56
403.078	315.56
403.302	329.56
403.526	328.56
403.75	335.56
403.974	336.56
404.198	320.56
404.422	344.56
404.645	378.56
404.869	336.56
405.093	347.56
405.317	333.56
405.541	345.56
405.765	331.56
405.988	326.56
406.212	334.56
406.436	355.56
406.66	341.56
406.883	333.56
407.107	359.56
407.331	392.56
407.555	374.56
407.778	362.56
408.002	335.56
408.226	331.56
408.449	332.56
408.673	337.56
408.896	315.56
409.12	314.56
409.344	330.56
409.567	316.56
409.791	329.56
410.014	314.56
410.238	328.56
410.461	320.56
410.685	315.56
410.908	302.56
411.132	325.56
411.355	323.56
411.578	320.56
411.802	314.56
412.025	314.56
412.249	314.56
412.472	321.56
412.695	327.56
412.919	319.56
413.142	320.56
413.365	311.56
413.589	311.56
413.812	299.56
414.035	311.56
414.258	314.56
414.482	327.56
414.705	300.56
414.928	303.56
415.151	305.56
415.374	303.56
415.597	325.56
415.821	299.56
416.044	298.56
416.267	301.56
416.49	313.56
416.713	303.56
416.936	319.56
417.159	299.56
417.382	298.56
417.605	302.56
417.828	313.56
418.051	316.56
418.274	315.56
418.497	318.56
418.72	312.56
418.943	313.56
419.166	313.56
419.389	336.56
419.611	334.56
419.834	342.56
420.057	324.56
420.28	331.56
420.503	319.56
420.726	315.56
420.948	284.56
421.171	320.56
421.394	303.56
421.617	300.56
421.839	329.56
422.062	302.56
422.285	304.56
422.507	319.56
422.73	313.56
422.953	321.56
423.175	326.56
423.398	305.56
423.621	327.56
423.843	325.56
424.066	320.56
424.288	332.56
424.511	325.56
424.733	319.56
424.956	329.56
425.178	324.56
425.401	329.56
425.623	295.56
425.846	298.56
426.068	304.56
426.291	310.56
426.513	319.56
426.735	300.56
426.958	312.56
427.18	310.56
427.402	338.56
427.625	300.56
427.847	289.56
428.069	299.56
428.292	301.56
428.514	288.56
428.736	279.56
428.958	291.56
429.181	279.56
429.403	269.56
429.625	289.56
429.847	267.56
430.069	297.56
430.292	295.56
430.514	252.56
430.736	292.56
430.958	296.56
431.18	289.56
431.402	270.56
431.624	276.56
431.846	269.56
432.068	256.56
432.29	252.56
432.512	280.56
432.734	305.56
432.956	285.56
433.178	290.56
433.4	288.56
433.622	277.56
433.844	278.56
434.066	281.56
434.287	267.56
434.509	280.56
434.731	277.56
434.953	284.56
435.175	321.56
435.397	299.56
435.618	275.56
435.84	285.56
436.062	284.56
436.284	267.56
436.505	285.56
436.727	281.56
436.949	280.56
437.17	285.56
437.392	270.56
437.614	278.56
437.835	273.56
438.057	250.56
438.278	270.56
438.5	297.56
438.721	287.56
438.943	276.56
439.165	279.56
439.386	282.56
439.608	284.56
439.829	285.56
440.05	300.56
440.272	280.56
440.493	303.56
440.715	285.56
440.936	290.56
441.158	292.56
441.379	312.56
441.6	333.56
441.822	298.56
442.043	317.56
442.264	338.56
442.486	313.56
442.707	309.56
442.928	300.56
443.149	319.56
443.371	300.56
443.592	305.56
443.813	312.56
444.034	291.56
444.255	325.56
444.476	322.56
444.698	341.56
444.919	357.56
445.14	527.56
445.361	415.56
445.582	318.56
445.803	309.56
446.024	309.56
446.245	295.56
446.466	308.56
446.687	308.56
446.908	304.56
447.129	271.56
447.35	271.56
447.571	291.56
447.792	273.56
448.013	267.56
448.234	260.56
448.455	275.56
448.675	272.56
448.896	274.56
449.117	271.56
449.338	257.56
449.559	267.56
449.779	268.56
450	247.56
450.221	286.56
450.442	256.56
450.662	265.56
450.883	269.56
451.104	266.56
451.324	251.56
451.545	263.56
451.766	273.56
451.986	265.56
452.207	256.56
452.428	261.56
452.648	247.56
452.869	255.56
453.089	246.56
453.31	265.56
453.53	251.56
453.751	256.56
453.971	248.56
454.192	217.56
454.412	239.56
454.633	248.56
454.853	233.56
455.073	248.56
455.294	246.56
455.514	251.56
455.734	233.56
455.955	243.56
456.175	266.56
456.395	225.56
456.616	237.56
456.836	248.56
457.056	234.56
457.276	237.56
457.497	225.56
457.717	233.56
457.937	246.56
458.157	241.56
458.377	233.56
458.598	248.56
458.818	238.56
459.038	251.56
459.258	255.56
459.478	271.56
459.698	247.56
459.918	269.56
460.138	269.56
460.358	286.56
460.578	309.56
460.798	301.56
461.018	289.56
461.238	322.56
461.458	334.56
461.678	308.56
461.898	314.56
462.118	305.56
462.338	334.56
462.558	321.56
462.777	330.56
462.997	364.56
463.217	367.56
463.437	342.56
463.657	357.56
463.876	323.56
464.096	347.56
464.316	333.56
464.536	340.56
464.755	330.56
464.975	309.56
465.195	311.56
465.414	298.56
465.634	281.56
465.854	275.56
466.073	259.56
466.293	275.56
466.512	282.56
466.732	273.56
466.951	288.56
467.171	287.56
467.391	269.56
467.61	292.56
467.829	280.56
468.049	333.56
468.268	365.56
468.488	313.56
468.707	292.56
468.927	280.56
469.146	290.56
469.365	278.56
469.585	296.56
469.804	293.56
470.023	278.56
470.243	291.56
470.462	302.56
470.681	305.56
470.901	311.56
471.12	286.56
471.339	300.56
471.558	285.56
471.777	287.56
471.997	329.56
472.216	413.56
472.435	527.56
472.654	391.56
472.873	319.56
473.092	303.56
473.311	288.56
473.53	273.56
473.749	268.56
473.968	287.56
474.187	278.56
474.406	275.56
474.625	285.56
474.844	287.56
475.063	263.56
475.282	272.56
475.501	252.56
475.72	277.56
475.939	258.56
476.158	281.56
476.377	287.56
476.596	286.56
476.814	284.56
477.033	271.56
477.252	279.56
477.471	279.56
477.69	308.56
477.908	285.56
478.127	316.56
478.346	322.56
478.564	307.56
478.783	293.56
479.002	313.56
479.22	313.56
479.439	320.56
479.658	328.56
479.876	297.56
480.095	335.56
480.313	341.56
480.532	351.56
480.751	359.56
480.969	438.56
481.188	716.56
481.406	650.56
481.624	424.56
481.843	352.56
482.061	308.56
482.28	313.56
482.498	302.56
482.717	309.56
482.935	300.56
483.153	313.56
483.372	322.56
483.59	304.56
483.808	292.56
484.027	310.56
484.245	305.56
484.463	304.56
484.681	321.56
484.9	309.56
485.118	299.56
485.336	294.56
485.554	289.56
485.772	303.56
485.99	289.56
486.209	287.56
486.427	305.56
486.645	299.56
486.863	305.56
487.081	300.56
487.299	304.56
487.517	333.56
487.735	332.56
487.953	341.56
488.171	345.56
488.389	342.56
488.607	304.56
488.825	313.56
489.043	297.56
489.261	325.56
489.479	313.56
489.696	297.56
489.914	310.56
490.132	319.56
490.35	310.56
490.568	339.56
490.786	337.56
491.003	337.56
491.221	338.56
491.439	365.56
491.657	364.56
491.874	384.56
492.092	395.56
492.31	401.56
492.527	370.56
492.745	366.56
492.963	386.56
493.18	376.56
493.398	363.56
493.615	353.56
493.833	354.56
494.05	342.56
494.268	349.56
494.485	354.56
494.703	362.56
494.92	361.56
495.138	354.56
495.355	334.56
495.573	330.56
495.79	363.56
496.008	368.56
496.225	348.56
496.442	338.56
496.66	340.56
496.877	357.56
497.094	375.56
497.312	364.56
497.529	353.56
497.746	368.56
497.963	347.56
498.181	383.56
498.398	421.56
498.615	402.56
498.832	448.56
499.049	472.56
499.267	492.56
499.484	527.56
499.701	571.56
499.918	606.56
500.135	696.56
500.352	765.56
500.569	761.56
500.786	762.56
501.003	686.56
501.22	632.56
501.437	587.56
501.654	528.56
501.871	466.56
502.088	449.56
502.305	421.56
502.522	420.56
502.739	396.56
502.956	375.56
503.172	360.56
503.389	373.56
