Data from SampB_HRD10591_00065.txt Node
Date: Mon Jan 19 11:33:50 EST 2026
User: Yrep
Spectrometer: HR+D1059
Trigger mode: 0
Integration Time (sec): 3.443000E-1
Scans to average: 1
Electric dark correction enabled: true
Nonlinearity correction enabled: false
Boxcar width: 0
XAxis mode: Wavelengths
Number of Pixels in Spectrum: 2048
>>>>>Begin Spectral Data<<<<<
223.165	-22
223.4	-22
223.635	-22
223.869	-23
224.104	-10
224.338	-18
224.573	-16
224.808	-9
225.042	5
225.277	-9
225.511	-11
225.746	14
225.98	-9
226.215	5
226.449	15
226.683	26
226.918	13
227.152	49
227.387	23
227.621	39
227.856	30
228.09	32
228.324	41
228.559	69
228.793	48
229.027	49
229.262	84
229.496	75
229.73	75
229.964	76
230.199	86
230.433	70
230.667	83
230.901	70
231.136	68
231.37	77
231.604	72
231.838	92
232.072	89
232.306	86
232.541	95
232.775	93
233.009	86
233.243	69
233.477	74
233.711	78
233.945	76
234.179	89
234.413	89
234.647	81
234.881	85
235.115	100
235.349	101
235.583	98
235.817	80
236.051	83
236.285	82
236.519	91
236.753	77
236.987	80
237.221	90
237.455	97
237.689	94
237.922	87
238.156	103
238.39	84
238.624	81
238.858	82
239.091	93
239.325	92
239.559	93
239.793	94
240.027	105
240.26	94
240.494	92
240.728	97
240.961	86
241.195	99
241.429	82
241.662	85
241.896	89
242.13	83
242.363	83
242.597	89
242.83	98
243.064	89
243.298	87
243.531	113
243.765	82
243.998	77
244.232	86
244.465	86
244.699	78
244.932	91
245.166	95
245.399	94
245.633	110
245.866	105
246.099	90
246.333	96
246.566	87
246.8	87
247.033	92
247.266	95
247.5	91
247.733	87
247.966	98
248.2	97
248.433	95
248.666	91
248.899	111
249.133	109
249.366	125
249.599	100
249.832	103
250.066	110
250.299	83
250.532	96
250.765	88
250.998	99
251.231	97
251.465	101
251.698	99
251.931	105
252.164	90
252.397	99
252.63	106
252.863	86
253.096	103
253.329	110
253.562	99
253.795	91
254.028	103
254.261	111
254.494	97
254.727	99
254.96	96
255.193	99
255.426	99
255.659	97
255.892	98
256.124	121
256.357	106
256.59	102
256.823	121
257.056	106
257.289	100
257.521	111
257.754	104
257.987	101
258.22	105
258.452	105
258.685	113
258.918	122
259.151	107
259.383	110
259.616	90
259.849	110
260.081	113
260.314	119
260.547	106
260.779	102
261.012	113
261.244	97
261.477	128
261.71	120
261.942	120
262.175	115
262.407	98
262.64	109
262.872	111
263.105	102
263.337	121
263.57	117
263.802	103
264.035	115
264.267	118
264.499	115
264.732	117
264.964	104
265.197	98
265.429	97
265.661	101
265.894	104
266.126	107
266.358	101
266.591	85
266.823	107
267.055	107
267.287	91
267.52	104
267.752	123
267.984	102
268.216	113
268.448	102
268.681	117
268.913	101
269.145	107
269.377	98
269.609	99
269.841	112
270.073	98
270.306	114
270.538	98
270.77	83
271.002	112
271.234	114
271.466	112
271.698	108
271.93	117
272.162	118
272.394	110
272.626	113
272.858	117
273.09	119
273.322	117
273.553	110
273.785	105
274.017	125
274.249	136
274.481	129
274.713	130
274.945	154
275.176	157
275.408	141
275.64	145
275.872	128
276.104	115
276.335	119
276.567	112
276.799	116
277.031	117
277.262	123
277.494	126
277.726	130
277.957	113
278.189	125
278.421	109
278.652	123
278.884	117
279.115	136
279.347	105
279.579	115
279.81	120
280.042	124
280.273	129
280.505	104
280.736	125
280.968	127
281.199	115
281.431	113
281.662	123
281.894	106
282.125	118
282.356	123
282.588	111
282.819	116
283.051	116
283.282	109
283.513	121
283.745	123
283.976	128
284.207	109
284.439	121
284.67	129
284.901	107
285.132	116
285.364	130
285.595	127
285.826	118
286.057	129
286.288	110
286.52	131
286.751	110
286.982	119
287.213	109
287.444	117
287.675	128
287.906	116
288.138	99
288.369	118
288.6	120
288.831	116
289.062	130
289.293	123
289.524	144
289.755	122
289.986	116
290.217	121
290.448	115
290.679	109
290.91	126
291.141	117
291.371	126
291.602	120
291.833	125
292.064	140
292.295	122
292.526	128
292.757	119
292.987	116
293.218	107
293.449	119
293.68	125
293.91	121
294.141	128
294.372	113
294.603	127
294.833	121
295.064	120
295.295	110
295.525	122
295.756	133
295.987	118
296.217	119
296.448	129
296.679	130
296.909	130
297.14	148
297.37	121
297.601	121
297.831	123
298.062	123
298.292	126
298.523	142
298.753	146
298.984	129
299.214	129
299.445	135
299.675	127
299.905	139
300.136	146
300.366	136
300.597	141
300.827	118
301.057	109
301.288	137
301.518	122
301.748	117
301.979	168
302.209	138
302.439	141
302.669	129
302.9	119
303.13	137
303.36	122
303.59	120
303.82	140
304.051	139
304.281	120
304.511	122
304.741	117
304.971	133
305.201	130
305.431	125
305.661	113
305.891	134
306.121	137
306.352	129
306.582	133
306.812	135
307.042	128
307.272	115
307.502	144
307.731	152
307.961	144
308.191	131
308.421	146
308.651	136
308.881	137
309.111	135
309.341	154
309.571	142
309.8	116
310.03	125
310.26	137
310.49	135
310.72	119
310.949	118
311.179	125
311.409	114
311.639	120
311.868	131
312.098	123
312.328	129
312.557	134
312.787	133
313.017	133
313.246	129
313.476	151
313.706	124
313.935	125
314.165	123
314.394	135
314.624	137
314.853	134
315.083	148
315.312	125
315.542	123
315.771	134
316.001	128
316.23	149
316.46	159
316.689	132
316.919	147
317.148	129
317.377	137
317.607	138
317.836	142
318.065	133
318.295	123
318.524	135
318.753	149
318.983	149
319.212	145
319.441	135
319.67	138
319.9	144
320.129	134
320.358	151
320.587	138
320.816	131
321.046	133
321.275	147
321.504	131
321.733	133
321.962	140
322.191	145
322.42	134
322.649	161
322.878	151
323.108	132
323.337	160
323.566	139
323.795	140
324.024	166
324.253	161
324.482	159
324.71	156
324.939	138
325.168	141
325.397	138
325.626	133
325.855	140
326.084	141
326.313	157
326.542	135
326.77	144
326.999	149
327.228	151
327.457	142
327.686	166
327.914	186
328.143	186
328.372	193
328.6	178
328.829	135
329.058	149
329.287	164
329.515	155
329.744	181
329.972	197
330.201	238
330.43	250
330.658	191
330.887	181
331.115	152
331.344	152
331.572	137
331.801	151
332.03	153
332.258	157
332.486	164
332.715	187
332.943	154
333.172	166
333.4	166
333.629	197
333.857	208
334.085	219
334.314	275
334.542	327
334.771	302
334.999	235
335.227	186
335.455	186
335.684	182
335.912	173
336.14	171
336.369	161
336.597	161
336.825	146
337.053	154
337.281	150
337.51	167
337.738	150
337.966	147
338.194	170
338.422	152
338.65	155
338.878	160
339.106	138
339.334	162
339.562	154
339.79	149
340.018	136
340.246	133
340.474	143
340.702	134
340.93	134
341.158	119
341.386	121
341.614	122
341.842	143
342.07	133
342.298	150
342.526	152
342.754	144
342.981	151
343.209	137
343.437	176
343.665	158
343.893	149
344.12	166
344.348	165
344.576	146
344.804	160
345.031	142
345.259	134
345.487	139
345.714	133
345.942	126
346.17	138
346.397	134
346.625	138
346.853	129
347.08	145
347.308	140
347.535	130
347.763	144
347.99	138
348.218	156
348.445	134
348.673	140
348.9	146
349.128	146
349.355	127
349.583	140
349.81	138
350.037	135
350.265	137
350.492	129
350.72	130
350.947	130
351.174	133
351.402	149
351.629	125
351.856	135
352.083	138
352.311	147
352.538	122
352.765	140
352.992	150
353.22	139
353.447	137
353.674	147
353.901	137
354.128	142
354.355	124
354.583	137
354.81	127
355.037	147
355.264	145
355.491	141
355.718	139
355.945	139
356.172	129
356.399	149
356.626	152
356.853	169
357.08	152
357.307	143
357.534	151
357.761	146
357.988	149
358.215	177
358.441	145
358.668	145
358.895	140
359.122	117
359.349	128
359.576	158
359.802	126
360.029	137
360.256	151
360.483	133
360.709	128
360.936	156
361.163	143
361.39	133
361.616	142
361.843	146
362.07	171
362.296	143
362.523	127
362.749	143
362.976	152
363.203	158
363.429	150
363.656	141
363.882	146
364.109	134
364.335	154
364.562	156
364.788	139
365.015	156
365.241	147
365.468	142
365.694	126
365.92	127
366.147	124
366.373	129
366.599	149
366.826	146
367.052	138
367.278	140
367.505	121
367.731	151
367.957	152
368.184	142
368.41	153
368.636	155
368.862	144
369.089	128
369.315	135
369.541	147
369.767	141
369.993	147
370.219	141
370.445	145
370.672	157
370.898	157
371.124	151
371.35	130
371.576	133
371.802	149
372.028	149
372.254	161
372.48	147
372.706	159
372.932	176
373.158	160
373.384	182
373.61	188
373.835	176
374.061	152
374.287	173
374.513	171
374.739	186
374.965	178
375.191	174
375.416	160
375.642	168
375.868	179
376.094	162
376.319	173
376.545	153
376.771	143
376.997	149
377.222	136
377.448	145
377.674	144
377.899	150
378.125	151
378.35	159
378.576	141
378.802	153
379.027	142
379.253	149
379.478	143
379.704	162
379.929	156
380.155	157
380.38	153
380.606	151
380.831	163
381.057	160
381.282	150
381.507	164
381.733	172
381.958	181
382.184	200
382.409	149
382.634	177
382.86	168
383.085	175
383.31	151
383.535	154
383.761	161
383.986	177
384.211	175
384.436	159
384.662	164
384.887	176
385.112	167
385.337	171
385.562	154
385.787	157
386.013	181
386.238	188
386.463	164
386.688	190
386.913	175
387.138	152
387.363	185
387.588	165
387.813	179
388.038	182
388.263	181
388.488	163
388.713	169
388.938	169
389.163	160
389.387	157
389.612	158
389.837	165
390.062	165
390.287	164
390.512	178
390.736	170
390.961	185
391.186	179
391.411	165
391.636	150
391.86	172
392.085	175
392.31	188
392.534	188
392.759	199
392.984	188
393.208	205
393.433	237
393.658	223
393.882	168
394.107	175
394.331	186
394.556	185
394.78	197
395.005	183
395.229	186
395.454	176
395.678	192
395.903	209
396.127	209
396.352	212
396.576	190
396.801	220
397.025	217
397.249	186
397.474	166
397.698	181
397.922	184
398.147	192
398.371	191
398.595	188
398.82	190
399.044	217
399.268	212
399.492	231
399.717	250
399.941	250
400.165	222
400.389	214
400.613	194
400.837	205
401.062	174
401.286	194
401.51	190
401.734	181
401.958	200
402.182	204
402.406	192
402.63	207
402.854	196
403.078	199
403.302	205
403.526	202
403.75	205
403.974	207
404.198	213
404.422	214
404.645	221
404.869	228
405.093	186
405.317	186
405.541	190
405.765	201
405.988	198
406.212	218
406.436	215
406.66	217
406.883	217
407.107	221
407.331	250
407.555	248
407.778	219
408.002	224
408.226	224
408.449	215
408.673	206
408.896	221
409.12	215
409.344	201
409.567	187
409.791	217
410.014	213
410.238	205
410.461	224
410.685	214
410.908	213
411.132	216
411.355	209
411.578	186
411.802	199
412.025	208
412.249	190
412.472	202
412.695	216
412.919	198
413.142	214
413.365	198
413.589	212
413.812	206
414.035	199
414.258	204
414.482	200
414.705	186
414.928	205
415.151	192
415.374	200
415.597	198
415.821	205
416.044	204
416.267	200
416.49	183
416.713	183
416.936	200
417.159	195
417.382	197
417.605	212
417.828	208
418.051	188
418.274	202
418.497	200
418.72	197
418.943	198
419.166	219
419.389	227
419.611	213
419.834	201
420.057	197
420.28	205
420.503	202
420.726	197
420.948	186
421.171	195
421.394	194
421.617	202
421.839	208
422.062	211
422.285	201
422.507	209
422.73	229
422.953	222
423.175	206
423.398	219
423.621	217
423.843	206
424.066	213
424.288	206
424.511	199
424.733	192
424.956	207
425.178	213
425.401	204
425.623	189
425.846	212
426.068	193
426.291	191
426.513	195
426.735	206
426.958	192
427.18	182
427.402	204
427.625	193
427.847	197
428.069	200
428.292	209
428.514	177
428.736	193
428.958	197
429.181	200
429.403	183
429.625	197
429.847	195
430.069	202
430.292	203
430.514	214
430.736	197
430.958	197
431.18	175
431.402	173
431.624	188
431.846	181
432.068	177
432.29	179
432.512	193
432.734	202
432.956	205
433.178	188
433.4	186
433.622	195
433.844	207
434.066	181
434.287	183
434.509	182
434.731	186
434.953	186
435.175	193
435.397	195
435.618	193
435.84	206
436.062	191
436.284	176
436.505	184
436.727	203
436.949	187
437.17	176
437.392	191
437.614	178
437.835	174
438.057	161
438.278	170
438.5	197
438.721	184
438.943	189
439.165	194
439.386	198
439.608	178
439.829	176
440.05	189
440.272	187
440.493	193
440.715	194
440.936	185
441.158	203
441.379	195
441.6	205
441.822	200
442.043	204
442.264	209
442.486	185
442.707	216
442.928	191
443.149	198
443.371	200
443.592	204
443.813	200
444.034	183
444.255	213
444.476	216
444.698	225
444.919	213
445.14	421
445.361	288
445.582	219
445.803	201
446.024	173
446.245	185
446.466	195
446.687	198
446.908	179
447.129	186
447.35	189
447.571	186
447.792	185
448.013	180
448.234	183
448.455	185
448.675	171
448.896	177
449.117	191
449.338	175
449.559	181
449.779	175
450	172
450.221	162
450.442	181
450.662	185
450.883	185
451.104	170
451.324	184
451.545	171
451.766	171
451.986	182
452.207	184
452.428	165
452.648	185
452.869	171
453.089	174
453.31	194
453.53	198
453.751	200
453.971	169
454.192	166
454.412	162
454.633	175
454.853	171
455.073	170
455.294	179
455.514	189
455.734	170
455.955	175
456.175	139
456.395	153
456.616	156
456.836	171
457.056	168
457.276	154
457.497	169
457.717	151
457.937	169
458.157	156
458.377	167
458.598	177
458.818	182
459.038	167
459.258	169
459.478	193
459.698	179
459.918	182
460.138	167
460.358	200
460.578	203
460.798	189
461.018	199
461.238	206
461.458	207
461.678	192
461.898	210
462.118	201
462.338	217
462.558	215
462.777	216
462.997	230
463.217	232
463.437	222
463.657	220
463.876	216
464.096	203
464.316	207
464.536	206
464.755	197
464.975	207
465.195	218
465.414	192
465.634	176
465.854	187
466.073	199
466.293	193
466.512	188
466.732	195
466.951	193
467.171	187
467.391	184
467.61	177
467.829	197
468.049	233
468.268	245
468.488	201
468.707	186
468.927	186
469.146	177
469.365	193
469.585	173
469.804	178
470.023	195
470.243	201
470.462	196
470.681	191
470.901	196
471.12	186
471.339	192
471.558	181
471.777	202
471.997	215
472.216	280
472.435	343
472.654	251
472.873	202
473.092	179
473.311	207
473.53	183
473.749	194
473.968	182
474.187	184
474.406	170
474.625	173
474.844	178
475.063	174
475.282	181
475.501	183
475.72	184
475.939	186
476.158	183
476.377	179
476.596	182
476.814	176
477.033	171
477.252	195
477.471	178
477.69	179
477.908	193
478.127	210
478.346	207
478.564	202
478.783	197
479.002	193
479.22	218
479.439	191
479.658	205
479.876	198
480.095	209
480.313	208
480.532	221
480.751	240
480.969	277
481.188	485
481.406	416
481.624	271
481.843	233
482.061	221
482.28	210
482.498	205
482.717	207
482.935	189
483.153	200
483.372	210
483.59	200
483.808	187
484.027	203
484.245	194
484.463	193
484.681	219
484.9	201
485.118	203
485.336	194
485.554	189
485.772	213
485.99	222
486.209	202
486.427	211
486.645	195
486.863	209
487.081	193
487.299	202
487.517	208
487.735	217
487.953	234
488.171	209
488.389	209
488.607	215
488.825	184
489.043	198
489.261	196
489.479	207
489.696	198
489.914	200
490.132	204
490.35	218
490.568	193
490.786	212
491.003	225
491.221	239
491.439	230
491.657	218
491.874	226
492.092	232
492.31	254
492.527	229
492.745	231
492.963	243
493.18	217
493.398	222
493.615	226
493.833	216
494.05	231
494.268	225
494.485	213
494.703	221
494.92	224
495.138	212
495.355	231
495.573	231
495.79	211
496.008	231
496.225	214
496.442	216
496.66	228
496.877	235
497.094	228
497.312	224
497.529	225
497.746	242
497.963	235
498.181	259
498.398	278
498.615	254
498.832	277
499.049	274
499.267	319
499.484	317
499.701	338
499.918	373
500.135	418
500.352	445
500.569	431
500.786	455
501.003	439
501.22	361
501.437	344
501.654	335
501.871	289
502.088	287
502.305	287
502.522	275
502.739	253
502.956	244
503.172	225
503.389	230
503.606	228
503.823	257
504.04	243
504.256	244
504.473	230
504.69	232
504.907	236
505.123	213
505.34	209
505.557	226
505.773	202
505.99	188
506.207	186
506.423	197
506.64	209
506.856	186
507.073	188
507.289	196
507.506	209
507.722	199
507.939	183
508.155	190
508.372	191
508.588	190
508.805	209
509.021	180
509.238	186
509.454	168
509.67	161
509.887	187
510.103	174
510.319	178
510.536	187
510.752	169
510.968	161
511.184	173
511.401	170
511.617	182
511.833	171
512.049	189
512.265	173
512.481	189
512.698	180
512.914	163
513.13	187
513.346	159
513.562	167
513.778	165
513.994	166
514.21	164
514.426	175
514.642	183
514.858	188
515.074	193
515.29	178
515.506	184
515.721	172
515.937	179
516.153	183
516.369	202
516.585	205
516.801	203
517.016	235
517.232	221
517.448	226
517.664	222
517.879	218
518.095	240
518.311	204
518.527	203
518.742	211
518.958	195
519.173	189
519.389	210
519.605	185
519.82	179
520.036	193
520.251	200
520.467	186
520.682	181
520.898	178
521.113	189
521.329	201
521.544	185
521.76	174
521.975	194
522.19	187
522.406	186
522.621	191
522.836	168
523.052	177
523.267	167
523.482	186
523.698	163
523.913	167
524.128	193
524.343	192
524.559	181
524.774	173
524.989	185
525.204	167
525.419	167
525.634	166
525.849	165
526.064	169
526.28	184
526.495	187
526.71	171
526.925	158
527.14	171
527.355	168
527.57	182
527.785	169
527.999	167
528.214	166
528.429	179
528.644	187
528.859	190
529.074	188
529.289	186
529.503	170
529.718	178
529.933	176
530.148	167
530.363	167
530.577	170
530.792	173
531.007	171
531.221	176
531.436	167
531.651	160
531.865	170
532.08	166
532.295	168
532.509	179
532.724	166
532.938	175
533.153	169
533.367	183
533.582	181
533.796	167
534.011	183
534.225	173
534.44	164
534.654	183
534.868	163
535.083	179
535.297	166
535.511	166
535.726	181
535.94	170
536.154	172
536.369	160
536.583	174
536.797	167
537.011	161
537.225	173
537.44	164
537.654	178
537.868	147
538.082	162
538.296	154
538.51	168
538.724	170
538.938	164
539.153	160
539.367	182
539.581	178
539.795	158
540.009	166
540.222	161
540.436	163
540.65	173
540.864	168
541.078	168
541.292	180
541.506	183
541.72	198
541.934	183
542.147	181
542.361	194
542.575	159
542.789	185
543.002	177
543.216	177
543.43	172
543.644	181
543.857	166
544.071	187
544.285	191
544.498	172
544.712	174
544.925	188
545.139	171
545.352	188
545.566	190
545.779	183
545.993	182
546.206	190
546.42	179
546.633	184
546.847	193
547.06	185
547.274	171
547.487	201
547.7	185
547.914	197
548.127	186
548.34	192
548.554	186
548.767	189
548.98	208
549.193	190
549.407	184
549.62	206
549.833	182
550.046	199
550.259	191
550.473	182
550.686	191
550.899	174
551.112	161
551.325	188
551.538	172
551.751	176
551.964	178
552.177	182
552.39	175
552.603	187
552.816	187
553.029	189
553.242	189
553.455	188
553.667	213
553.88	181
554.093	176
554.306	173
554.519	182
554.732	181
554.944	161
555.157	155
555.37	170
555.583	165
555.795	174
556.008	168
556.221	166
556.433	171
556.646	177
556.859	175
557.071	174
557.284	168
557.496	179
557.709	170
557.921	165
558.134	166
558.346	171
558.559	167
558.771	156
558.984	167
559.196	169
559.409	161
559.621	167
559.833	159
560.046	153
560.258	178
560.47	172
560.683	187
560.895	157
561.107	170
561.32	157
561.532	145
561.744	159
561.956	167
562.168	155
562.381	169
562.593	154
562.805	159
563.017	181
563.229	178
563.441	158
563.653	161
563.865	179
564.077	169
564.289	162
564.501	165
564.713	163
564.925	159
565.137	172
565.349	162
565.561	181
565.773	171
565.985	178
566.197	175
566.408	197
