Data from SampB_HRD10591_00091.txt Node
Date: Mon Jan 19 11:33:59 EST 2026
User: Yrep
Spectrometer: HR+D1059
Trigger mode: 0
Integration Time (sec): 3.443000E-1
Scans to average: 1
Electric dark correction enabled: true
Nonlinearity correction enabled: false
Boxcar width: 0
XAxis mode: Wavelengths
Number of Pixels in Spectrum: 2048
>>>>>Begin Spectral Data<<<<<
223.165	-15.75
223.4	-15.75
223.635	-15.75
223.869	-23.75
224.104	-23.75
224.338	-11.75
224.573	-15.75
224.808	-11.75
225.042	-7.75
225.277	4.25
225.511	-6.75
225.746	1.25
225.98	-3.75
226.215	6.25
226.449	30.25
226.683	22.25
226.918	22.25
227.152	34.25
227.387	37.25
227.621	42.25
227.856	37.25
228.09	40.25
228.324	52.25
228.559	49.25
228.793	62.25
229.027	60.25
229.262	57.25
229.496	67.25
229.73	64.25
229.964	66.25
230.199	76.25
230.433	70.25
230.667	70.25
230.901	63.25
231.136	79.25
231.37	78.25
231.604	78.25
231.838	82.25
232.072	72.25
232.306	75.25
232.541	68.25
232.775	75.25
233.009	83.25
233.243	87.25
233.477	86.25
233.711	84.25
233.945	89.25
234.179	71.25
234.413	88.25
234.647	88.25
234.881	66.25
235.115	76.25
235.349	94.25
235.583	81.25
235.817	70.25
236.051	72.25
236.285	64.25
236.519	82.25
236.753	88.25
236.987	80.25
237.221	80.25
237.455	91.25
237.689	80.25
237.922	86.25
238.156	71.25
238.39	65.25
238.624	85.25
238.858	79.25
239.091	80.25
239.325	83.25
239.559	92.25
239.793	80.25
240.027	86.25
240.26	70.25
240.494	86.25
240.728	63.25
240.961	65.25
241.195	71.25
241.429	65.25
241.662	71.25
241.896	66.25
242.13	68.25
242.363	76.25
242.597	59.25
242.83	70.25
243.064	77.25
243.298	78.25
243.531	86.25
243.765	81.25
243.998	76.25
244.232	78.25
244.465	80.25
244.699	65.25
244.932	74.25
245.166	70.25
245.399	83.25
245.633	75.25
245.866	68.25
246.099	77.25
246.333	74.25
246.566	71.25
246.8	75.25
247.033	81.25
247.266	71.25
247.5	79.25
247.733	70.25
247.966	74.25
248.2	79.25
248.433	82.25
248.666	71.25
248.899	88.25
249.133	78.25
249.366	88.25
249.599	76.25
249.832	80.25
250.066	68.25
250.299	74.25
250.532	77.25
250.765	70.25
250.998	73.25
251.231	72.25
251.465	84.25
251.698	87.25
251.931	80.25
252.164	72.25
252.397	69.25
252.63	63.25
252.863	82.25
253.096	72.25
253.329	76.25
253.562	68.25
253.795	83.25
254.028	81.25
254.261	77.25
254.494	65.25
254.727	94.25
254.96	69.25
255.193	87.25
255.426	80.25
255.659	72.25
255.892	92.25
256.124	59.25
256.357	64.25
256.59	84.25
256.823	80.25
257.056	82.25
257.289	76.25
257.521	81.25
257.754	70.25
257.987	72.25
258.22	88.25
258.452	88.25
258.685	84.25
258.918	87.25
259.151	82.25
259.383	72.25
259.616	88.25
259.849	82.25
260.081	74.25
260.314	78.25
260.547	83.25
260.779	57.25
261.012	72.25
261.244	74.25
261.477	87.25
261.71	86.25
261.942	66.25
262.175	76.25
262.407	90.25
262.64	63.25
262.872	74.25
263.105	82.25
263.337	71.25
263.57	84.25
263.802	78.25
264.035	81.25
264.267	78.25
264.499	81.25
264.732	84.25
264.964	84.25
265.197	75.25
265.429	71.25
265.661	85.25
265.894	78.25
266.126	85.25
266.358	64.25
266.591	70.25
266.823	78.25
267.055	75.25
267.287	89.25
267.52	98.25
267.752	88.25
267.984	83.25
268.216	70.25
268.448	72.25
268.681	90.25
268.913	80.25
269.145	73.25
269.377	81.25
269.609	87.25
269.841	77.25
270.073	81.25
270.306	82.25
270.538	72.25
270.77	74.25
271.002	82.25
271.234	83.25
271.466	88.25
271.698	82.25
271.93	77.25
272.162	72.25
272.394	78.25
272.626	78.25
272.858	85.25
273.09	88.25
273.322	90.25
273.553	90.25
273.785	87.25
274.017	82.25
274.249	74.25
274.481	79.25
274.713	76.25
274.945	88.25
275.176	81.25
275.408	73.25
275.64	86.25
275.872	78.25
276.104	70.25
276.335	86.25
276.567	75.25
276.799	71.25
277.031	85.25
277.262	85.25
277.494	79.25
277.726	84.25
277.957	78.25
278.189	78.25
278.421	94.25
278.652	78.25
278.884	65.25
279.115	76.25
279.347	90.25
279.579	83.25
279.81	73.25
280.042	75.25
280.273	67.25
280.505	79.25
280.736	80.25
280.968	76.25
281.199	93.25
281.431	84.25
281.662	76.25
281.894	72.25
282.125	85.25
282.356	88.25
282.588	74.25
282.819	77.25
283.051	81.25
283.282	76.25
283.513	82.25
283.745	92.25
283.976	88.25
284.207	92.25
284.439	84.25
284.67	92.25
284.901	77.25
285.132	65.25
285.364	68.25
285.595	75.25
285.826	85.25
286.057	85.25
286.288	80.25
286.52	88.25
286.751	75.25
286.982	74.25
287.213	86.25
287.444	86.25
287.675	85.25
287.906	91.25
288.138	89.25
288.369	89.25
288.6	93.25
288.831	79.25
289.062	88.25
289.293	86.25
289.524	87.25
289.755	84.25
289.986	75.25
290.217	84.25
290.448	72.25
290.679	75.25
290.91	90.25
291.141	70.25
291.371	88.25
291.602	90.25
291.833	87.25
292.064	76.25
292.295	86.25
292.526	79.25
292.757	73.25
292.987	80.25
293.218	81.25
293.449	76.25
293.68	91.25
293.91	90.25
294.141	81.25
294.372	69.25
294.603	99.25
294.833	87.25
295.064	69.25
295.295	88.25
295.525	89.25
295.756	79.25
295.987	78.25
296.217	69.25
296.448	78.25
296.679	85.25
296.909	97.25
297.14	72.25
297.37	81.25
297.601	76.25
297.831	84.25
298.062	80.25
298.292	83.25
298.523	84.25
298.753	74.25
298.984	77.25
299.214	74.25
299.445	89.25
299.675	88.25
299.905	83.25
300.136	103.25
300.366	78.25
300.597	84.25
300.827	93.25
301.057	62.25
301.288	71.25
301.518	87.25
301.748	80.25
301.979	109.25
302.209	85.25
302.439	84.25
302.669	74.25
302.9	90.25
303.13	86.25
303.36	82.25
303.59	91.25
303.82	88.25
304.051	80.25
304.281	70.25
304.511	77.25
304.741	66.25
304.971	98.25
305.201	82.25
305.431	76.25
305.661	81.25
305.891	92.25
306.121	87.25
306.352	89.25
306.582	85.25
306.812	80.25
307.042	93.25
307.272	71.25
307.502	79.25
307.731	76.25
307.961	83.25
308.191	72.25
308.421	76.25
308.651	86.25
308.881	80.25
309.111	76.25
309.341	85.25
309.571	69.25
309.8	72.25
310.03	79.25
310.26	81.25
310.49	74.25
310.72	92.25
310.949	87.25
311.179	70.25
311.409	69.25
311.639	84.25
311.868	87.25
312.098	82.25
312.328	88.25
312.557	70.25
312.787	76.25
313.017	88.25
313.246	82.25
313.476	78.25
313.706	74.25
313.935	88.25
314.165	85.25
314.394	93.25
314.624	87.25
314.853	88.25
315.083	87.25
315.312	74.25
315.542	75.25
315.771	92.25
316.001	88.25
316.23	86.25
316.46	86.25
316.689	72.25
316.919	90.25
317.148	81.25
317.377	88.25
317.607	98.25
317.836	90.25
318.065	86.25
318.295	80.25
318.524	102.25
318.753	83.25
318.983	85.25
319.212	80.25
319.441	73.25
319.67	78.25
319.9	73.25
320.129	97.25
320.358	83.25
320.587	86.25
320.816	71.25
321.046	74.25
321.275	87.25
321.504	74.25
321.733	90.25
321.962	90.25
322.191	97.25
322.42	75.25
322.649	93.25
322.878	97.25
323.108	88.25
323.337	78.25
323.566	86.25
323.795	88.25
324.024	80.25
324.253	70.25
324.482	82.25
324.71	84.25
324.939	88.25
325.168	98.25
325.397	76.25
325.626	72.25
325.855	81.25
326.084	85.25
326.313	87.25
326.542	83.25
326.77	79.25
326.999	90.25
327.228	78.25
327.457	75.25
327.686	76.25
327.914	78.25
328.143	80.25
328.372	75.25
328.6	72.25
328.829	82.25
329.058	79.25
329.287	59.25
329.515	68.25
329.744	79.25
329.972	76.25
330.201	87.25
330.43	83.25
330.658	79.25
330.887	94.25
331.115	88.25
331.344	72.25
331.572	83.25
331.801	86.25
332.03	85.25
332.258	74.25
332.486	77.25
332.715	87.25
332.943	71.25
333.172	78.25
333.4	84.25
333.629	84.25
333.857	80.25
334.085	88.25
334.314	70.25
334.542	79.25
334.771	81.25
334.999	76.25
335.227	83.25
335.455	87.25
335.684	89.25
335.912	88.25
336.14	84.25
336.369	81.25
336.597	82.25
336.825	75.25
337.053	82.25
337.281	82.25
337.51	69.25
337.738	89.25
337.966	73.25
338.194	61.25
338.422	73.25
338.65	91.25
338.878	70.25
339.106	78.25
339.334	100.25
339.562	69.25
339.79	93.25
340.018	87.25
340.246	77.25
340.474	73.25
340.702	87.25
340.93	86.25
341.158	80.25
341.386	76.25
341.614	70.25
341.842	78.25
342.07	74.25
342.298	84.25
342.526	82.25
342.754	81.25
342.981	84.25
343.209	69.25
343.437	109.25
343.665	75.25
343.893	96.25
344.12	89.25
344.348	81.25
344.576	79.25
344.804	75.25
345.031	85.25
345.259	81.25
345.487	78.25
345.714	73.25
345.942	74.25
346.17	84.25
346.397	69.25
346.625	88.25
346.853	84.25
347.08	65.25
347.308	72.25
347.535	74.25
347.763	73.25
347.99	90.25
348.218	84.25
348.445	76.25
348.673	76.25
348.9	81.25
349.128	84.25
349.355	78.25
349.583	86.25
349.81	85.25
350.037	77.25
350.265	91.25
350.492	73.25
350.72	78.25
350.947	75.25
351.174	82.25
351.402	83.25
351.629	88.25
351.856	82.25
352.083	70.25
352.311	76.25
352.538	73.25
352.765	82.25
352.992	99.25
353.22	79.25
353.447	82.25
353.674	79.25
353.901	89.25
354.128	82.25
354.355	81.25
354.583	81.25
354.81	82.25
355.037	86.25
355.264	73.25
355.491	71.25
355.718	92.25
355.945	84.25
356.172	84.25
356.399	86.25
356.626	85.25
356.853	78.25
357.08	81.25
357.307	87.25
357.534	82.25
357.761	69.25
357.988	81.25
358.215	68.25
358.441	76.25
358.668	82.25
358.895	82.25
359.122	74.25
359.349	81.25
359.576	74.25
359.802	74.25
360.029	73.25
360.256	82.25
360.483	78.25
360.709	73.25
360.936	93.25
361.163	87.25
361.39	62.25
361.616	81.25
361.843	92.25
362.07	79.25
362.296	71.25
362.523	87.25
362.749	89.25
362.976	92.25
363.203	79.25
363.429	86.25
363.656	85.25
363.882	86.25
364.109	78.25
364.335	94.25
364.562	81.25
364.788	86.25
365.015	73.25
365.241	79.25
365.468	80.25
365.694	71.25
365.92	96.25
366.147	64.25
366.373	73.25
366.599	68.25
366.826	87.25
367.052	82.25
367.278	90.25
367.505	89.25
367.731	95.25
367.957	96.25
368.184	81.25
368.41	94.25
368.636	79.25
368.862	82.25
369.089	84.25
369.315	78.25
369.541	84.25
369.767	84.25
369.993	73.25
370.219	73.25
370.445	76.25
370.672	69.25
370.898	89.25
371.124	81.25
371.35	83.25
371.576	88.25
371.802	85.25
372.028	90.25
372.254	89.25
372.48	69.25
372.706	94.25
372.932	68.25
373.158	82.25
373.384	74.25
373.61	77.25
373.835	86.25
374.061	89.25
374.287	85.25
374.513	98.25
374.739	65.25
374.965	86.25
375.191	88.25
375.416	75.25
375.642	94.25
375.868	86.25
376.094	75.25
376.319	89.25
376.545	84.25
376.771	80.25
376.997	82.25
377.222	78.25
377.448	65.25
377.674	76.25
377.899	64.25
378.125	82.25
378.35	92.25
378.576	89.25
378.802	89.25
379.027	77.25
379.253	98.25
379.478	83.25
379.704	70.25
379.929	101.25
380.155	85.25
380.38	81.25
380.606	89.25
380.831	74.25
381.057	104.25
381.282	84.25
381.507	89.25
381.733	86.25
381.958	67.25
382.184	63.25
382.409	84.25
382.634	75.25
382.86	71.25
383.085	91.25
383.31	95.25
383.535	79.25
383.761	119.25
383.986	87.25
384.211	73.25
384.436	76.25
384.662	77.25
384.887	90.25
385.112	85.25
385.337	94.25
385.562	83.25
385.787	65.25
386.013	101.25
386.238	87.25
386.463	89.25
386.688	132.25
386.913	85.25
387.138	92.25
387.363	76.25
387.588	92.25
387.813	85.25
388.038	93.25
388.263	83.25
388.488	78.25
388.713	92.25
388.938	99.25
389.163	92.25
389.387	93.25
389.612	89.25
389.837	94.25
390.062	87.25
390.287	101.25
390.512	82.25
390.736	93.25
390.961	76.25
391.186	95.25
391.411	79.25
391.636	88.25
391.86	75.25
392.085	94.25
392.31	101.25
392.534	88.25
392.759	101.25
392.984	106.25
393.208	87.25
393.433	98.25
393.658	100.25
393.882	83.25
394.107	79.25
394.331	100.25
394.556	88.25
394.78	92.25
395.005	94.25
395.229	84.25
395.454	74.25
395.678	98.25
395.903	94.25
396.127	91.25
396.352	96.25
396.576	90.25
396.801	87.25
397.025	101.25
397.249	98.25
397.474	94.25
397.698	103.25
397.922	100.25
398.147	93.25
398.371	102.25
398.595	103.25
398.82	85.25
399.044	84.25
399.268	87.25
399.492	97.25
399.717	95.25
399.941	101.25
400.165	100.25
400.389	93.25
400.613	86.25
400.837	100.25
401.062	110.25
401.286	95.25
401.51	104.25
401.734	102.25
401.958	98.25
402.182	105.25
402.406	94.25
402.63	102.25
402.854	95.25
403.078	92.25
403.302	97.25
403.526	99.25
403.75	98.25
403.974	93.25
404.198	123.25
404.422	114.25
404.645	92.25
404.869	106.25
405.093	90.25
405.317	90.25
405.541	110.25
405.765	101.25
405.988	106.25
406.212	109.25
406.436	90.25
406.66	110.25
406.883	115.25
407.107	98.25
407.331	99.25
407.555	94.25
407.778	120.25
408.002	97.25
408.226	112.25
408.449	92.25
408.673	96.25
408.896	98.25
409.12	117.25
409.344	105.25
409.567	87.25
409.791	96.25
410.014	111.25
410.238	100.25
410.461	110.25
410.685	107.25
410.908	92.25
411.132	101.25
411.355	85.25
411.578	102.25
411.802	98.25
412.025	103.25
412.249	96.25
412.472	96.25
412.695	106.25
412.919	109.25
413.142	107.25
413.365	106.25
413.589	102.25
413.812	106.25
414.035	112.25
414.258	98.25
414.482	115.25
414.705	116.25
414.928	115.25
415.151	110.25
415.374	114.25
415.597	95.25
415.821	97.25
416.044	96.25
416.267	115.25
416.49	95.25
416.713	117.25
416.936	99.25
417.159	96.25
417.382	100.25
417.605	105.25
417.828	104.25
418.051	109.25
418.274	105.25
418.497	106.25
418.72	113.25
418.943	102.25
419.166	120.25
419.389	116.25
419.611	100.25
419.834	111.25
420.057	110.25
420.28	113.25
420.503	113.25
420.726	113.25
420.948	106.25
421.171	108.25
421.394	100.25
421.617	115.25
421.839	104.25
422.062	102.25
422.285	107.25
422.507	106.25
422.73	105.25
422.953	114.25
423.175	97.25
423.398	111.25
423.621	109.25
423.843	106.25
424.066	108.25
424.288	117.25
424.511	87.25
424.733	116.25
424.956	110.25
425.178	124.25
425.401	116.25
425.623	99.25
425.846	112.25
426.068	99.25
426.291	112.25
426.513	97.25
426.735	102.25
426.958	101.25
427.18	104.25
427.402	118.25
427.625	89.25
427.847	103.25
428.069	108.25
428.292	117.25
428.514	104.25
428.736	100.25
428.958	102.25
429.181	103.25
429.403	106.25
429.625	100.25
429.847	107.25
430.069	98.25
430.292	106.25
430.514	102.25
430.736	125.25
430.958	120.25
431.18	105.25
431.402	104.25
431.624	98.25
431.846	93.25
432.068	83.25
432.29	90.25
432.512	102.25
432.734	95.25
432.956	111.25
433.178	118.25
433.4	110.25
433.622	109.25
433.844	98.25
434.066	100.25
434.287	103.25
434.509	89.25
434.731	89.25
434.953	95.25
435.175	94.25
435.397	103.25
435.618	95.25
435.84	92.25
436.062	86.25
436.284	98.25
436.505	103.25
436.727	108.25
436.949	105.25
437.17	99.25
437.392	107.25
437.614	102.25
437.835	91.25
438.057	80.25
438.278	90.25
438.5	106.25
438.721	110.25
438.943	103.25
439.165	107.25
439.386	115.25
439.608	115.25
439.829	126.25
440.05	111.25
440.272	97.25
440.493	107.25
440.715	103.25
440.936	114.25
441.158	108.25
441.379	112.25
441.6	116.25
441.822	96.25
442.043	107.25
442.264	107.25
442.486	103.25
442.707	107.25
442.928	114.25
443.149	108.25
443.371	109.25
443.592	121.25
443.813	104.25
444.034	106.25
444.255	104.25
444.476	104.25
444.698	108.25
444.919	104.25
445.14	367.25
445.361	224.25
445.582	106.25
445.803	125.25
446.024	126.25
446.245	125.25
446.466	120.25
446.687	119.25
446.908	120.25
447.129	119.25
447.35	121.25
447.571	118.25
447.792	117.25
448.013	102.25
448.234	119.25
448.455	100.25
448.675	122.25
448.896	116.25
449.117	106.25
449.338	101.25
449.559	119.25
449.779	116.25
450	105.25
450.221	101.25
450.442	119.25
450.662	114.25
450.883	101.25
451.104	102.25
451.324	116.25
451.545	100.25
451.766	98.25
451.986	101.25
452.207	95.25
452.428	99.25
452.648	104.25
452.869	92.25
453.089	92.25
453.31	89.25
453.53	92.25
453.751	79.25
453.971	88.25
454.192	91.25
454.412	90.25
454.633	95.25
454.853	93.25
455.073	113.25
455.294	101.25
455.514	108.25
455.734	100.25
455.955	102.25
456.175	86.25
456.395	88.25
456.616	91.25
456.836	90.25
457.056	99.25
457.276	91.25
457.497	85.25
457.717	96.25
457.937	81.25
458.157	90.25
458.377	90.25
458.598	74.25
458.818	83.25
459.038	85.25
459.258	87.25
459.478	80.25
459.698	60.25
459.918	74.25
460.138	84.25
460.358	109.25
460.578	107.25
460.798	93.25
461.018	104.25
461.238	83.25
461.458	93.25
461.678	85.25
461.898	103.25
462.118	108.25
462.338	116.25
462.558	110.25
462.777	80.25
462.997	91.25
463.217	90.25
463.437	95.25
463.657	93.25
463.876	95.25
464.096	93.25
464.316	93.25
464.536	98.25
464.755	105.25
464.975	98.25
465.195	102.25
465.414	96.25
465.634	101.25
465.854	85.25
466.073	99.25
466.293	103.25
466.512	110.25
466.732	103.25
466.951	107.25
467.171	107.25
467.391	89.25
467.61	101.25
467.829	106.25
468.049	110.25
468.268	105.25
468.488	111.25
468.707	120.25
468.927	109.25
469.146	104.25
469.365	97.25
469.585	107.25
469.804	100.25
470.023	105.25
470.243	114.25
470.462	129.25
470.681	101.25
470.901	109.25
471.12	112.25
471.339	111.25
471.558	96.25
471.777	109.25
471.997	106.25
472.216	97.25
472.435	94.25
472.654	93.25
472.873	103.25
473.092	112.25
473.311	99.25
473.53	93.25
473.749	102.25
473.968	110.25
474.187	111.25
474.406	103.25
474.625	97.25
474.844	102.25
475.063	94.25
475.282	96.25
475.501	97.25
475.72	101.25
475.939	86.25
476.158	92.25
476.377	104.25
476.596	97.25
476.814	85.25
477.033	102.25
477.252	105.25
477.471	98.25
477.69	91.25
477.908	97.25
478.127	110.25
478.346	100.25
478.564	103.25
478.783	108.25
479.002	110.25
479.22	108.25
479.439	102.25
479.658	103.25
479.876	83.25
480.095	90.25
480.313	97.25
480.532	96.25
480.751	87.25
480.969	100.25
481.188	74.25
481.406	78.25
481.624	91.25
481.843	82.25
482.061	87.25
482.28	92.25
482.498	89.25
482.717	121.25
482.935	96.25
483.153	93.25
483.372	108.25
483.59	105.25
483.808	95.25
484.027	104.25
484.245	108.25
484.463	106.25
484.681	129.25
484.9	103.25
485.118	104.25
485.336	98.25
485.554	94.25
485.772	92.25
485.99	89.25
486.209	86.25
486.427	87.25
486.645	104.25
486.863	117.25
487.081	90.25
487.299	87.25
487.517	108.25
487.735	117.25
487.953	123.25
488.171	130.25
488.389	108.25
488.607	115.25
488.825	104.25
489.043	95.25
489.261	112.25
489.479	102.25
489.696	116.25
489.914	108.25
490.132	109.25
490.35	114.25
490.568	110.25
490.786	132.25
491.003	135.25
491.221	136.25
491.439	126.25
491.657	152.25
491.874	145.25
492.092	146.25
492.31	160.25
492.527	161.25
492.745	150.25
492.963	142.25
493.18	136.25
493.398	138.25
493.615	128.25
493.833	125.25
494.05	134.25
494.268	130.25
494.485	120.25
494.703	126.25
494.92	135.25
495.138	132.25
495.355	122.25
495.573	138.25
495.79	124.25
496.008	130.25
496.225	136.25
496.442	125.25
496.66	127.25
496.877	144.25
497.094	133.25
497.312	125.25
497.529	119.25
497.746	121.25
497.963	96.25
498.181	102.25
498.398	93.25
498.615	93.25
498.832	97.25
499.049	98.25
499.267	110.25
499.484	92.25
499.701	95.25
499.918	98.25
500.135	111.25
500.352	104.25
500.569	113.25
500.786	124.25
501.003	102.25
501.22	93.25
501.437	86.25
501.654	94.25
501.871	112.25
502.088	106.25
502.305	103.25
502.522	97.25
502.739	98.25
502.956	88.25
503.172	105.25
503.389	104.25
503.606	101.25
503.823	108.25
504.04	93.25
504.256	100.25
504.473	100.25
504.69	95.25
504.907	90.25
505.123	93.25
505.34	97.25
505.557	96.25
505.773	97.25
505.99	108.25
506.207	74.25
506.423	94.25
506.64	97.25
506.856	99.25
507.073	104.25
507.289	105.25
507.506	93.25
507.722	98.25
507.939	96.25
508.155	88.25
508.372	82.25
508.588	101.25
508.805	89.25
509.021	87.25
509.238	90.25
509.454	79.25
509.67	80.25
509.887	81.25
510.103	82.25
510.319	70.25
510.536	86.25
510.752	80.25
510.968	86.25
511.184	83.25
511.401	72.25
511.617	74.25
511.833	88.25
512.049	93.25
512.265	90.25
512.481	99.25
512.698	89.25
512.914	92.25
513.13	90.25
513.346	85.25
513.562	91.25
513.778	85.25
513.994	81.25
514.21	103.25
514.426	102.25
514.642	93.25
514.858	99.25
515.074	85.25
515.29	95.25
515.506	75.25
