Data from SampB_HRD10591_00050.txt Node
Date: Mon Jan 19 11:33:45 EST 2026
User: Yrep
Spectrometer: HR+D1059
Trigger mode: 0
Integration Time (sec): 3.443000E-1
Scans to average: 1
Electric dark correction enabled: true
Nonlinearity correction enabled: false
Boxcar width: 0
XAxis mode: Wavelengths
Number of Pixels in Spectrum: 2048
>>>>>Begin Spectral Data<<<<<
223.165	-32
223.4	-32
223.635	-32
223.869	-21
224.104	-22
224.338	-13
224.573	-4
224.808	-22
225.042	5
225.277	7
225.511	5
225.746	17
225.98	8
226.215	6
226.449	10
226.683	11
226.918	26
227.152	19
227.387	28
227.621	45
227.856	46
228.09	48
228.324	57
228.559	66
228.793	59
229.027	63
229.262	73
229.496	81
229.73	67
229.964	89
230.199	99
230.433	94
230.667	82
230.901	78
231.136	86
231.37	70
231.604	86
231.838	89
232.072	88
232.306	95
232.541	94
232.775	95
233.009	90
233.243	106
233.477	86
233.711	90
233.945	114
234.179	104
234.413	86
234.647	102
234.881	105
235.115	113
235.349	109
235.583	93
235.817	86
236.051	97
236.285	89
236.519	108
236.753	97
236.987	102
237.221	90
237.455	96
237.689	89
237.922	91
238.156	110
238.39	103
238.624	93
238.858	95
239.091	104
239.325	102
239.559	96
239.793	117
240.027	121
240.26	92
240.494	107
240.728	113
240.961	98
241.195	111
241.429	110
241.662	106
241.896	89
242.13	107
242.363	113
242.597	96
242.83	90
243.064	102
243.298	99
243.531	109
243.765	108
243.998	124
244.232	121
244.465	108
244.699	112
244.932	99
245.166	119
245.399	107
245.633	97
245.866	102
246.099	113
246.333	109
246.566	121
246.8	117
247.033	118
247.266	108
247.5	104
247.733	117
247.966	119
248.2	103
248.433	113
248.666	110
248.899	121
249.133	122
249.366	141
249.599	124
249.832	103
250.066	119
250.299	119
250.532	146
250.765	114
250.998	117
251.231	126
251.465	120
251.698	130
251.931	119
252.164	127
252.397	120
252.63	141
252.863	130
253.096	141
253.329	127
253.562	128
253.795	143
254.028	156
254.261	139
254.494	158
254.727	126
254.96	137
255.193	157
255.426	137
255.659	131
255.892	127
256.124	137
256.357	151
256.59	162
256.823	145
257.056	130
257.289	123
257.521	135
257.754	137
257.987	138
258.22	136
258.452	124
258.685	134
258.918	139
259.151	140
259.383	167
259.616	161
259.849	159
260.081	171
260.314	162
260.547	150
260.779	145
261.012	171
261.244	158
261.477	167
261.71	138
261.942	136
262.175	144
262.407	126
262.64	133
262.872	151
263.105	147
263.337	185
263.57	153
263.802	134
264.035	133
264.267	128
264.499	133
264.732	149
264.964	119
265.197	135
265.429	118
265.661	135
265.894	129
266.126	129
266.358	126
266.591	143
266.823	128
267.055	143
267.287	129
267.52	155
267.752	127
267.984	139
268.216	147
268.448	137
268.681	154
268.913	139
269.145	131
269.377	155
269.609	142
269.841	141
270.073	136
270.306	134
270.538	158
270.77	130
271.002	126
271.234	127
271.466	152
271.698	161
271.93	163
272.162	151
272.394	151
272.626	144
272.858	171
273.09	168
273.322	156
273.553	163
273.785	185
274.017	181
274.249	207
274.481	187
274.713	185
274.945	224
275.176	217
275.408	197
275.64	187
275.872	185
276.104	170
276.335	167
276.567	182
276.799	151
277.031	148
277.262	183
277.494	158
277.726	169
277.957	153
278.189	149
278.421	136
278.652	155
278.884	154
279.115	178
279.347	186
279.579	218
279.81	221
280.042	210
280.273	193
280.505	211
280.736	175
280.968	153
281.199	158
281.431	162
281.662	144
281.894	162
282.125	163
282.356	161
282.588	161
282.819	175
283.051	169
283.282	186
283.513	174
283.745	158
283.976	175
284.207	159
284.439	173
284.67	158
284.901	151
285.132	155
285.364	171
285.595	169
285.826	169
286.057	159
286.288	158
286.52	186
286.751	162
286.982	177
287.213	161
287.444	183
287.675	177
287.906	166
288.138	176
288.369	169
288.6	170
288.831	154
289.062	167
289.293	156
289.524	170
289.755	181
289.986	173
290.217	158
290.448	175
290.679	181
290.91	179
291.141	170
291.371	173
291.602	169
291.833	164
292.064	165
292.295	178
292.526	169
292.757	162
292.987	176
293.218	144
293.449	182
293.68	168
293.91	167
294.141	181
294.372	183
294.603	178
294.833	183
295.064	184
295.295	164
295.525	185
295.756	191
295.987	170
296.217	164
296.448	170
296.679	171
296.909	165
297.14	171
297.37	181
297.601	171
297.831	186
298.062	172
298.292	186
298.523	196
298.753	177
298.984	184
299.214	170
299.445	164
299.675	187
299.905	180
300.136	179
300.366	168
300.597	172
300.827	186
301.057	176
301.288	187
301.518	187
301.748	188
301.979	226
302.209	217
302.439	179
302.669	173
302.9	178
303.13	182
303.36	178
303.59	177
303.82	205
304.051	198
304.281	182
304.511	193
304.741	191
304.971	189
305.201	172
305.431	183
305.661	201
305.891	187
306.121	204
306.352	173
306.582	187
306.812	191
307.042	193
307.272	183
307.502	196
307.731	193
307.961	206
308.191	183
308.421	195
308.651	194
308.881	197
309.111	205
309.341	194
309.571	187
309.8	190
310.03	190
310.26	169
310.49	162
310.72	179
310.949	183
311.179	183
311.409	185
311.639	190
311.868	185
312.098	182
312.328	203
312.557	193
312.787	189
313.017	192
313.246	186
313.476	178
313.706	181
313.935	183
314.165	191
314.394	209
314.624	171
314.853	190
315.083	185
315.312	214
315.542	183
315.771	191
316.001	201
316.23	210
316.46	197
316.689	206
316.919	192
317.148	186
317.377	187
317.607	186
317.836	195
318.065	205
318.295	207
318.524	207
318.753	200
318.983	203
319.212	216
319.441	211
319.67	195
319.9	205
320.129	205
320.358	206
320.587	205
320.816	201
321.046	187
321.275	199
321.504	188
321.733	197
321.962	189
322.191	214
322.42	194
322.649	212
322.878	218
323.108	232
323.337	224
323.566	253
323.795	255
324.024	250
324.253	214
324.482	218
324.71	218
324.939	238
325.168	233
325.397	231
325.626	210
325.855	217
326.084	240
326.313	225
326.542	214
326.77	219
326.999	230
327.228	239
327.457	225
327.686	235
327.914	262
328.143	278
328.372	308
328.6	271
328.829	255
329.058	238
329.287	245
329.515	242
329.744	267
329.972	298
330.201	358
330.43	359
330.658	315
330.887	263
331.115	258
331.344	239
331.572	236
331.801	235
332.03	247
332.258	257
332.486	255
332.715	252
332.943	284
333.172	291
333.4	280
333.629	320
333.857	303
334.085	369
334.314	431
334.542	475
334.771	439
334.999	377
335.227	315
335.455	281
335.684	300
335.912	271
336.14	271
336.369	265
336.597	241
336.825	233
337.053	250
337.281	274
337.51	262
337.738	242
337.966	237
338.194	228
338.422	242
338.65	240
338.878	238
339.106	222
339.334	231
339.562	208
339.79	234
340.018	200
340.246	218
340.474	216
340.702	207
340.93	194
341.158	215
341.386	203
341.614	211
341.842	205
342.07	207
342.298	222
342.526	185
342.754	218
342.981	219
343.209	214
343.437	263
343.665	242
343.893	234
344.12	262
344.348	245
344.576	214
344.804	209
345.031	228
345.259	210
345.487	207
345.714	205
345.942	199
346.17	203
346.397	204
346.625	216
346.853	202
347.08	207
347.308	219
347.535	215
347.763	222
347.99	222
348.218	219
348.445	219
348.673	206
348.9	211
349.128	204
349.355	205
349.583	219
349.81	211
350.037	186
350.265	206
350.492	211
350.72	190
350.947	203
351.174	198
351.402	209
351.629	201
351.856	201
352.083	202
352.311	187
352.538	211
352.765	190
352.992	219
353.22	204
353.447	210
353.674	216
353.901	203
354.128	190
354.355	207
354.583	197
354.81	209
355.037	200
355.264	193
355.491	213
355.718	209
355.945	225
356.172	204
356.399	213
356.626	215
356.853	221
357.08	222
357.307	234
357.534	207
357.761	223
357.988	230
358.215	233
358.441	247
358.668	229
358.895	194
359.122	209
359.349	195
359.576	203
359.802	202
360.029	203
360.256	197
360.483	211
360.709	217
360.936	223
361.163	201
361.39	215
361.616	222
361.843	205
362.07	196
362.296	209
362.523	192
362.749	206
362.976	217
363.203	215
363.429	199
363.656	201
363.882	215
364.109	225
364.335	211
364.562	241
364.788	225
365.015	221
365.241	211
365.468	211
365.694	212
365.92	206
366.147	208
366.373	205
366.599	198
366.826	201
367.052	190
367.278	221
367.505	219
367.731	219
367.957	213
368.184	211
368.41	215
368.636	229
368.862	224
369.089	205
369.315	222
369.541	198
369.767	211
369.993	222
370.219	204
370.445	201
370.672	221
370.898	216
371.124	221
371.35	214
371.576	203
371.802	220
372.028	245
372.254	237
372.48	241
372.706	209
372.932	232
373.158	236
373.384	249
373.61	255
373.835	271
374.061	244
374.287	238
374.513	240
374.739	263
374.965	266
375.191	269
375.416	256
375.642	233
375.868	278
376.094	262
376.319	244
376.545	245
376.771	233
376.997	221
377.222	222
377.448	219
377.674	217
377.899	224
378.125	193
378.35	202
378.576	221
378.802	223
379.027	228
379.253	219
379.478	223
379.704	229
379.929	213
380.155	214
380.38	215
380.606	207
380.831	226
381.057	232
381.282	230
381.507	230
381.733	236
381.958	246
382.184	261
382.409	249
382.634	267
382.86	246
383.085	256
383.31	259
383.535	253
383.761	252
383.986	268
384.211	265
384.436	247
384.662	261
384.887	266
385.112	243
385.337	274
385.562	259
385.787	251
386.013	279
386.238	273
386.463	254
386.688	274
386.913	243
387.138	266
387.363	266
387.588	263
387.813	277
388.038	244
388.263	259
388.488	256
388.713	254
388.938	265
389.163	253
389.387	259
389.612	270
389.837	270
390.062	280
390.287	266
390.512	251
390.736	248
390.961	250
391.186	262
391.411	265
391.636	277
391.86	286
392.085	285
392.31	280
392.534	287
392.759	300
392.984	314
393.208	381
393.433	423
393.658	390
393.882	290
394.107	285
394.331	300
394.556	291
394.78	279
395.005	279
395.229	282
395.454	300
395.678	297
395.903	301
396.127	317
396.352	318
396.576	344
396.801	378
397.025	401
397.249	325
397.474	273
397.698	300
397.922	285
398.147	297
398.371	296
398.595	312
398.82	310
399.044	336
399.268	367
399.492	416
399.717	431
399.941	411
400.165	369
400.389	353
400.613	339
400.837	330
401.062	336
401.286	301
401.51	322
401.734	317
401.958	331
402.182	315
402.406	315
402.63	325
402.854	331
403.078	363
403.302	325
403.526	349
403.75	358
403.974	326
404.198	351
404.422	355
404.645	374
404.869	366
405.093	344
405.317	361
405.541	363
405.765	335
405.988	345
406.212	354
406.436	354
406.66	365
406.883	375
407.107	386
407.331	387
407.555	401
407.778	392
408.002	364
408.226	366
408.449	345
408.673	342
408.896	347
409.12	350
409.344	329
409.567	337
409.791	352
410.014	357
410.238	349
410.461	344
410.685	342
410.908	325
411.132	346
411.355	331
411.578	336
411.802	321
412.025	333
412.249	334
412.472	347
412.695	343
412.919	321
413.142	331
413.365	330
413.589	337
413.812	320
414.035	319
414.258	318
414.482	323
414.705	330
414.928	327
415.151	312
415.374	353
415.597	299
415.821	322
416.044	317
416.267	308
416.49	303
416.713	310
416.936	315
417.159	327
417.382	328
417.605	323
417.828	338
418.051	329
418.274	316
418.497	303
418.72	322
418.943	334
419.166	344
419.389	365
419.611	343
419.834	317
420.057	336
420.28	328
420.503	309
420.726	311
420.948	312
421.171	329
421.394	329
421.617	336
421.839	329
422.062	331
422.285	345
422.507	346
422.73	375
422.953	352
423.175	326
423.398	330
423.621	336
423.843	335
424.066	340
424.288	357
424.511	361
424.733	354
424.956	343
425.178	326
425.401	335
425.623	316
425.846	300
426.068	331
426.291	325
426.513	303
426.735	308
426.958	305
427.18	305
427.402	319
427.625	318
427.847	317
428.069	313
428.292	322
428.514	309
428.736	295
428.958	325
429.181	305
429.403	306
429.625	289
429.847	314
430.069	300
430.292	322
430.514	301
430.736	318
430.958	319
431.18	301
431.402	280
431.624	272
431.846	269
432.068	270
432.29	297
432.512	297
432.734	283
432.956	307
433.178	307
433.4	282
433.622	315
433.844	294
434.066	304
434.287	294
434.509	305
434.731	307
434.953	306
435.175	306
435.397	295
435.618	301
435.84	297
436.062	271
436.284	280
436.505	278
436.727	300
436.949	285
437.17	298
437.392	285
437.614	288
437.835	281
438.057	293
438.278	292
438.5	312
438.721	311
438.943	301
439.165	297
439.386	297
439.608	301
439.829	310
440.05	303
440.272	311
440.493	306
440.715	328
440.936	314
441.158	309
441.379	314
441.6	342
441.822	341
442.043	323
442.264	322
442.486	310
442.707	316
442.928	332
443.149	321
443.371	329
443.592	317
443.813	341
444.034	316
444.255	349
444.476	361
444.698	349
444.919	358
445.14	543
445.361	431
445.582	365
445.803	330
446.024	314
446.245	317
446.466	302
446.687	291
446.908	307
447.129	311
447.35	290
447.571	306
447.792	291
448.013	312
448.234	281
448.455	301
448.675	296
448.896	284
449.117	285
449.338	279
449.559	298
449.779	260
450	267
450.221	275
450.442	280
450.662	271
450.883	283
451.104	298
451.324	271
451.545	292
451.766	283
451.986	284
452.207	286
452.428	274
452.648	267
452.869	271
453.089	266
453.31	301
453.53	303
453.751	294
453.971	273
454.192	258
454.412	269
454.633	262
454.853	265
455.073	252
455.294	270
455.514	283
455.734	278
455.955	266
456.175	255
456.395	261
456.616	251
456.836	237
457.056	245
457.276	233
457.497	246
457.717	266
457.937	272
458.157	262
458.377	256
458.598	243
458.818	271
459.038	261
459.258	240
459.478	265
459.698	288
459.918	282
460.138	293
460.358	317
460.578	333
460.798	329
461.018	317
461.238	329
461.458	312
461.678	305
461.898	349
462.118	330
462.338	345
462.558	359
462.777	352
462.997	373
463.217	407
463.437	377
463.657	363
463.876	363
464.096	353
464.316	354
464.536	350
464.755	337
464.975	334
465.195	325
465.414	317
465.634	301
465.854	287
466.073	305
466.293	292
466.512	278
466.732	309
466.951	310
467.171	303
467.391	286
467.61	319
467.829	330
468.049	365
468.268	408
468.488	330
468.707	305
468.927	299
469.146	292
469.365	314
469.585	309
469.804	322
470.023	328
470.243	304
470.462	310
470.681	309
470.901	303
471.12	309
471.339	306
471.558	314
471.777	302
471.997	347
472.216	433
472.435	546
472.654	407
472.873	337
473.092	303
473.311	308
473.53	320
473.749	312
473.968	298
474.187	284
474.406	285
474.625	310
474.844	298
475.063	291
475.282	307
475.501	294
475.72	297
475.939	268
476.158	286
476.377	296
476.596	284
476.814	313
477.033	290
477.252	295
477.471	303
477.69	312
477.908	326
478.127	347
478.346	328
478.564	335
478.783	351
479.002	353
479.22	358
479.439	382
479.658	335
479.876	324
480.095	343
480.313	371
480.532	388
480.751	411
480.969	491
481.188	754
481.406	647
481.624	426
481.843	362
482.061	349
482.28	369
482.498	363
482.717	331
482.935	333
483.153	348
483.372	339
483.59	352
483.808	324
484.027	331
484.245	326
484.463	329
484.681	340
484.9	331
485.118	344
485.336	337
485.554	326
485.772	327
485.99	317
486.209	312
486.427	311
486.645	327
486.863	362
487.081	355
487.299	321
487.517	318
487.735	347
487.953	327
488.171	365
488.389	345
488.607	326
488.825	345
489.043	323
489.261	329
489.479	320
489.696	337
489.914	329
490.132	330
490.35	351
490.568	355
490.786	355
491.003	367
491.221	330
491.439	378
491.657	390
491.874	414
492.092	415
492.31	425
492.527	417
492.745	391
492.963	387
493.18	377
493.398	379
493.615	373
493.833	380
494.05	369
494.268	360
494.485	368
494.703	368
494.92	360
495.138	363
495.355	368
495.573	375
495.79	398
496.008	382
496.225	377
496.442	360
496.66	389
496.877	370
497.094	393
497.312	368
497.529	400
497.746	397
497.963	395
498.181	414
498.398	469
498.615	446
498.832	447
499.049	514
499.267	545
499.484	563
499.701	602
499.918	655
500.135	749
500.352	777
500.569	818
500.786	821
501.003	766
501.22	646
501.437	620
501.654	562
501.871	511
502.088	461
502.305	472
502.522	438
502.739	447
502.956	427
503.172	396
503.389	373
503.606	389
503.823	420
504.04	372
504.256	389
504.473	380
504.69	382
504.907	364
505.123	354
505.34	353
505.557	331
505.773	330
505.99	325
506.207	331
506.423	303
506.64	328
506.856	319
507.073	318
507.289	314
507.506	312
507.722	303
507.939	303
508.155	315
508.372	287
508.588	281
508.805	293
509.021	282
509.238	290
509.454	271
509.67	290
509.887	282
510.103	278
510.319	289
510.536	293
510.752	265
510.968	256
511.184	274
511.401	268
511.617	288
511.833	256
512.049	271
512.265	280
512.481	262
512.698	283
512.914	290
513.13	283
513.346	274
513.562	273
513.778	257
513.994	269
514.21	275
514.426	285
514.642	294
514.858	295
515.074	292
515.29	282
515.506	294
515.721	273
515.937	299
516.153	296
516.369	298
516.585	296
516.801	318
517.016	363
517.232	360
517.448	384
517.664	370
517.879	341
518.095	345
518.311	353
518.527	369
518.742	329
518.958	321
519.173	315
519.389	310
519.605	339
519.82	313
520.036	340
520.251	299
520.467	293
520.682	280
520.898	279
521.113	295
521.329	283
521.544	261
521.76	265
521.975	288
522.19	289
522.406	291
522.621	284
522.836	305
523.052	297
523.267	263
523.482	273
523.698	278
523.913	300
524.128	253
524.343	256
524.559	267
524.774	261
524.989	262
525.204	278
525.419	276
525.634	267
525.849	265
526.064	271
526.28	282
526.495	275
526.71	268
526.925	251
527.14	256
527.355	269
527.57	264
527.785	263
527.999	247
528.214	257
528.429	265
528.644	277
528.859	272
529.074	288
529.289	266
529.503	271
529.718	275
529.933	265
530.148	268
530.363	250
530.577	241
530.792	257
531.007	247
531.221	266
531.436	257
531.651	269
531.865	247
532.08	261
532.295	271
532.509	262
532.724	248
532.938	263
533.153	246
533.367	259
533.582	268
533.796	266
534.011	250
534.225	242
534.44	245
534.654	243
534.868	250
535.083	257
535.297	267
535.511	271
535.726	248
535.94	247
536.154	245
536.369	237
536.583	229
536.797	249
537.011	243
537.225	242
537.44	246
537.654	242
537.868	227
538.082	240
538.296	235
538.51	236
538.724	238
538.938	245
539.153	255
539.367	256
539.581	264
539.795	225
540.009	241
540.222	242
540.436	244
540.65	240
540.864	262
541.078	248
541.292	249
541.506	273
541.72	274
541.934	242
542.147	271
542.361	273
542.575	267
542.789	260
543.002	256
543.216	261
543.43	256
543.644	261
543.857	273
544.071	272
544.285	282
544.498	279
544.712	272
544.925	283
545.139	273
545.352	269
545.566	265
545.779	294
545.993	278
546.206	270
546.42	275
546.633	287
546.847	285
547.06	279
547.274	289
547.487	273
547.7	298
547.914	285
548.127	285
548.34	300
548.554	276
548.767	296
548.98	293
549.193	272
549.407	272
549.62	280
549.833	273
550.046	285
550.259	292
550.473	274
550.686	279
550.899	258
551.112	283
551.325	271
551.538	280
551.751	256
551.964	250
552.177	271
552.39	269
552.603	281
552.816	272
553.029	284
553.242	295
553.455	290
553.667	331
553.88	310
554.093	283
554.306	254
554.519	273
554.732	268
554.944	289
555.157	271
555.37	248
555.583	267
555.795	258
556.008	246
556.221	249
556.433	244
556.646	250
556.859	245
557.071	245
557.284	256
557.496	251
557.709	250
557.921	240
558.134	262
558.346	235
558.559	251
558.771	237
558.984	250
559.196	246
559.409	234
559.621	240
559.833	249
560.046	228
560.258	233
560.47	234
560.683	230
560.895	259
561.107	266
561.32	244
561.532	239
561.744	234
561.956	222
562.168	234
562.381	236
562.593	237
562.805	217
563.017	235
563.229	239
563.441	226
563.653	232
563.865	222
564.077	237
564.289	227
564.501	244
564.713	254
564.925	223
565.137	240
565.349	256
