Data from SampB_HRD10591_00045.txt Node
Date: Mon Jan 19 11:33:43 EST 2026
User: Yrep
Spectrometer: HR+D1059
Trigger mode: 0
Integration Time (sec): 3.443000E-1
Scans to average: 1
Electric dark correction enabled: true
Nonlinearity correction enabled: false
Boxcar width: 0
XAxis mode: Wavelengths
Number of Pixels in Spectrum: 2048
>>>>>Begin Spectral Data<<<<<
223.165	-24.62
223.4	-24.62
223.635	-24.62
223.869	-16.62
224.104	-38.62
224.338	0.38
224.573	-8.62
224.808	-14.62
225.042	-1.62
225.277	-13.62
225.511	-7.62
225.746	6.38
225.98	15.38
226.215	10.38
226.449	24.38
226.683	19.38
226.918	11.38
227.152	38.38
227.387	39.38
227.621	52.38
227.856	61.38
228.09	45.38
228.324	61.38
228.559	56.38
228.793	60.38
229.027	62.38
229.262	78.38
229.496	78.38
229.73	77.38
229.964	84.38
230.199	92.38
230.433	92.38
230.667	96.38
230.901	97.38
231.136	69.38
231.37	79.38
231.604	88.38
231.838	90.38
232.072	88.38
232.306	91.38
232.541	75.38
232.775	73.38
233.009	97.38
233.243	93.38
233.477	85.38
233.711	104.38
233.945	104.38
234.179	89.38
234.413	102.38
234.647	84.38
234.881	92.38
235.115	105.38
235.349	86.38
235.583	90.38
235.817	81.38
236.051	85.38
236.285	81.38
236.519	89.38
236.753	100.38
236.987	90.38
237.221	79.38
237.455	87.38
237.689	105.38
237.922	86.38
238.156	93.38
238.39	111.38
238.624	98.38
238.858	97.38
239.091	98.38
239.325	98.38
239.559	96.38
239.793	87.38
240.027	93.38
240.26	92.38
240.494	85.38
240.728	97.38
240.961	86.38
241.195	110.38
241.429	98.38
241.662	97.38
241.896	91.38
242.13	94.38
242.363	84.38
242.597	95.38
242.83	103.38
243.064	89.38
243.298	94.38
243.531	103.38
243.765	101.38
243.998	106.38
244.232	124.38
244.465	105.38
244.699	95.38
244.932	103.38
245.166	102.38
245.399	86.38
245.633	97.38
245.866	93.38
246.099	104.38
246.333	104.38
246.566	103.38
246.8	102.38
247.033	102.38
247.266	95.38
247.5	97.38
247.733	112.38
247.966	112.38
248.2	104.38
248.433	97.38
248.666	104.38
248.899	110.38
249.133	103.38
249.366	105.38
249.599	119.38
249.832	119.38
250.066	121.38
250.299	112.38
250.532	119.38
250.765	105.38
250.998	85.38
251.231	111.38
251.465	112.38
251.698	108.38
251.931	112.38
252.164	106.38
252.397	107.38
252.63	112.38
252.863	111.38
253.096	112.38
253.329	114.38
253.562	114.38
253.795	102.38
254.028	122.38
254.261	107.38
254.494	114.38
254.727	129.38
254.96	125.38
255.193	110.38
255.426	102.38
255.659	111.38
255.892	125.38
256.124	119.38
256.357	134.38
256.59	117.38
256.823	134.38
257.056	112.38
257.289	115.38
257.521	121.38
257.754	119.38
257.987	122.38
258.22	135.38
258.452	127.38
258.685	129.38
258.918	113.38
259.151	124.38
259.383	115.38
259.616	105.38
259.849	122.38
260.081	121.38
260.314	146.38
260.547	127.38
260.779	120.38
261.012	116.38
261.244	136.38
261.477	150.38
261.71	129.38
261.942	142.38
262.175	120.38
262.407	136.38
262.64	134.38
262.872	136.38
263.105	133.38
263.337	138.38
263.57	134.38
263.802	121.38
264.035	137.38
264.267	115.38
264.499	111.38
264.732	132.38
264.964	125.38
265.197	122.38
265.429	117.38
265.661	111.38
265.894	133.38
266.126	130.38
266.358	137.38
266.591	126.38
266.823	124.38
267.055	124.38
267.287	134.38
267.52	129.38
267.752	124.38
267.984	129.38
268.216	152.38
268.448	128.38
268.681	147.38
268.913	139.38
269.145	127.38
269.377	146.38
269.609	144.38
269.841	150.38
270.073	128.38
270.306	125.38
270.538	136.38
270.77	142.38
271.002	142.38
271.234	134.38
271.466	148.38
271.698	143.38
271.93	139.38
272.162	149.38
272.394	144.38
272.626	127.38
272.858	137.38
273.09	138.38
273.322	142.38
273.553	141.38
273.785	141.38
274.017	162.38
274.249	168.38
274.481	153.38
274.713	159.38
274.945	162.38
275.176	151.38
275.408	150.38
275.64	157.38
275.872	169.38
276.104	155.38
276.335	145.38
276.567	143.38
276.799	148.38
277.031	159.38
277.262	143.38
277.494	158.38
277.726	143.38
277.957	148.38
278.189	150.38
278.421	157.38
278.652	148.38
278.884	148.38
279.115	152.38
279.347	163.38
279.579	185.38
279.81	170.38
280.042	167.38
280.273	174.38
280.505	178.38
280.736	165.38
280.968	158.38
281.199	157.38
281.431	163.38
281.662	169.38
281.894	155.38
282.125	146.38
282.356	156.38
282.588	156.38
282.819	153.38
283.051	155.38
283.282	150.38
283.513	172.38
283.745	168.38
283.976	141.38
284.207	162.38
284.439	159.38
284.67	166.38
284.901	151.38
285.132	157.38
285.364	161.38
285.595	174.38
285.826	182.38
286.057	167.38
286.288	153.38
286.52	166.38
286.751	155.38
286.982	168.38
287.213	152.38
287.444	169.38
287.675	158.38
287.906	183.38
288.138	177.38
288.369	165.38
288.6	167.38
288.831	159.38
289.062	172.38
289.293	161.38
289.524	164.38
289.755	172.38
289.986	161.38
290.217	152.38
290.448	178.38
290.679	154.38
290.91	174.38
291.141	153.38
291.371	167.38
291.602	152.38
291.833	167.38
292.064	172.38
292.295	166.38
292.526	165.38
292.757	160.38
292.987	173.38
293.218	168.38
293.449	170.38
293.68	169.38
293.91	176.38
294.141	177.38
294.372	175.38
294.603	164.38
294.833	166.38
295.064	170.38
295.295	166.38
295.525	188.38
295.756	172.38
295.987	157.38
296.217	182.38
296.448	197.38
296.679	178.38
296.909	184.38
297.14	179.38
297.37	185.38
297.601	173.38
297.831	166.38
298.062	178.38
298.292	173.38
298.523	174.38
298.753	173.38
298.984	175.38
299.214	153.38
299.445	181.38
299.675	197.38
299.905	192.38
300.136	176.38
300.366	183.38
300.597	184.38
300.827	177.38
301.057	194.38
301.288	183.38
301.518	184.38
301.748	176.38
301.979	222.38
302.209	203.38
302.439	176.38
302.669	191.38
302.9	178.38
303.13	180.38
303.36	192.38
303.59	203.38
303.82	192.38
304.051	198.38
304.281	170.38
304.511	176.38
304.741	202.38
304.971	179.38
305.201	180.38
305.431	189.38
305.661	191.38
305.891	170.38
306.121	214.38
306.352	173.38
306.582	167.38
306.812	180.38
307.042	193.38
307.272	181.38
307.502	199.38
307.731	198.38
307.961	188.38
308.191	186.38
308.421	180.38
308.651	178.38
308.881	200.38
309.111	192.38
309.341	175.38
309.571	200.38
309.8	190.38
310.03	182.38
310.26	190.38
310.49	185.38
310.72	183.38
310.949	177.38
311.179	182.38
311.409	180.38
311.639	190.38
311.868	173.38
312.098	187.38
312.328	192.38
312.557	175.38
312.787	167.38
313.017	197.38
313.246	187.38
313.476	189.38
313.706	188.38
313.935	173.38
314.165	195.38
314.394	188.38
314.624	191.38
314.853	193.38
315.083	187.38
315.312	191.38
315.542	191.38
315.771	183.38
316.001	197.38
316.23	191.38
316.46	194.38
316.689	204.38
316.919	199.38
317.148	204.38
317.377	204.38
317.607	177.38
317.836	196.38
318.065	182.38
318.295	186.38
318.524	194.38
318.753	196.38
318.983	196.38
319.212	181.38
319.441	196.38
319.67	203.38
319.9	191.38
320.129	196.38
320.358	196.38
320.587	192.38
320.816	206.38
321.046	192.38
321.275	203.38
321.504	196.38
321.733	208.38
321.962	200.38
322.191	214.38
322.42	193.38
322.649	200.38
322.878	208.38
323.108	218.38
323.337	210.38
323.566	210.38
323.795	201.38
324.024	199.38
324.253	218.38
324.482	198.38
324.71	205.38
324.939	204.38
325.168	200.38
325.397	198.38
325.626	199.38
325.855	209.38
326.084	224.38
326.313	224.38
326.542	210.38
326.77	226.38
326.999	220.38
327.228	214.38
327.457	217.38
327.686	214.38
327.914	221.38
328.143	248.38
328.372	234.38
328.6	232.38
328.829	205.38
329.058	212.38
329.287	204.38
329.515	240.38
329.744	231.38
329.972	264.38
330.201	257.38
330.43	291.38
330.658	247.38
330.887	228.38
331.115	231.38
331.344	206.38
331.572	218.38
331.801	225.38
332.03	237.38
332.258	240.38
332.486	242.38
332.715	250.38
332.943	256.38
333.172	271.38
333.4	270.38
333.629	289.38
333.857	280.38
334.085	324.38
334.314	313.38
334.542	312.38
334.771	339.38
334.999	295.38
335.227	266.38
335.455	245.38
335.684	251.38
335.912	264.38
336.14	270.38
336.369	239.38
336.597	224.38
336.825	237.38
337.053	237.38
337.281	241.38
337.51	234.38
337.738	232.38
337.966	225.38
338.194	221.38
338.422	234.38
338.65	225.38
338.878	219.38
339.106	233.38
339.334	229.38
339.562	205.38
339.79	211.38
340.018	205.38
340.246	214.38
340.474	223.38
340.702	212.38
340.93	203.38
341.158	213.38
341.386	222.38
341.614	233.38
341.842	221.38
342.07	218.38
342.298	216.38
342.526	211.38
342.754	211.38
342.981	216.38
343.209	230.38
343.437	257.38
343.665	244.38
343.893	250.38
344.12	255.38
344.348	247.38
344.576	220.38
344.804	226.38
345.031	210.38
345.259	227.38
345.487	213.38
345.714	197.38
345.942	201.38
346.17	207.38
346.397	213.38
346.625	202.38
346.853	217.38
347.08	216.38
347.308	216.38
347.535	197.38
347.763	207.38
347.99	212.38
348.218	229.38
348.445	203.38
348.673	202.38
348.9	202.38
349.128	209.38
349.355	218.38
349.583	214.38
349.81	209.38
350.037	207.38
350.265	202.38
350.492	200.38
350.72	213.38
350.947	194.38
351.174	214.38
351.402	212.38
351.629	213.38
351.856	220.38
352.083	205.38
352.311	212.38
352.538	201.38
352.765	216.38
352.992	220.38
353.22	205.38
353.447	207.38
353.674	219.38
353.901	217.38
354.128	232.38
354.355	206.38
354.583	194.38
354.81	202.38
355.037	219.38
355.264	206.38
355.491	192.38
355.718	192.38
355.945	216.38
356.172	216.38
356.399	196.38
356.626	215.38
356.853	220.38
357.08	215.38
357.307	208.38
357.534	238.38
357.761	222.38
357.988	249.38
358.215	223.38
358.441	222.38
358.668	203.38
358.895	200.38
359.122	185.38
359.349	214.38
359.576	201.38
359.802	189.38
360.029	186.38
360.256	219.38
360.483	220.38
360.709	203.38
360.936	226.38
361.163	219.38
361.39	205.38
361.616	209.38
361.843	223.38
362.07	205.38
362.296	220.38
362.523	207.38
362.749	211.38
362.976	212.38
363.203	222.38
363.429	200.38
363.656	196.38
363.882	204.38
364.109	210.38
364.335	211.38
364.562	208.38
364.788	206.38
365.015	208.38
365.241	214.38
365.468	219.38
365.694	194.38
365.92	212.38
366.147	205.38
366.373	204.38
366.599	221.38
366.826	214.38
367.052	198.38
367.278	214.38
367.505	219.38
367.731	216.38
367.957	197.38
368.184	210.38
368.41	212.38
368.636	226.38
368.862	212.38
369.089	216.38
369.315	224.38
369.541	200.38
369.767	223.38
369.993	221.38
370.219	231.38
370.445	211.38
370.672	235.38
370.898	213.38
371.124	240.38
371.35	234.38
371.576	225.38
371.802	211.38
372.028	237.38
372.254	231.38
372.48	238.38
372.706	227.38
372.932	237.38
373.158	208.38
373.384	245.38
373.61	249.38
373.835	249.38
374.061	234.38
374.287	234.38
374.513	229.38
374.739	244.38
374.965	266.38
375.191	245.38
375.416	253.38
375.642	227.38
375.868	247.38
376.094	231.38
376.319	215.38
376.545	234.38
376.771	208.38
376.997	229.38
377.222	237.38
377.448	216.38
377.674	219.38
377.899	236.38
378.125	214.38
378.35	219.38
378.576	216.38
378.802	217.38
379.027	236.38
379.253	226.38
379.478	228.38
379.704	224.38
379.929	233.38
380.155	228.38
380.38	236.38
380.606	223.38
380.831	218.38
381.057	230.38
381.282	236.38
381.507	245.38
381.733	241.38
381.958	243.38
382.184	246.38
382.409	245.38
382.634	249.38
382.86	242.38
383.085	250.38
383.31	254.38
383.535	264.38
383.761	263.38
383.986	244.38
384.211	260.38
384.436	264.38
384.662	256.38
384.887	270.38
385.112	254.38
385.337	251.38
385.562	263.38
385.787	267.38
386.013	273.38
386.238	276.38
386.463	268.38
386.688	313.38
386.913	266.38
387.138	263.38
387.363	251.38
387.588	268.38
387.813	276.38
388.038	290.38
388.263	272.38
388.488	277.38
388.713	254.38
388.938	284.38
389.163	263.38
389.387	278.38
389.612	262.38
389.837	249.38
390.062	254.38
390.287	269.38
390.512	267.38
390.736	266.38
390.961	280.38
391.186	270.38
391.411	273.38
391.636	304.38
391.86	283.38
392.085	306.38
392.31	292.38
392.534	292.38
392.759	269.38
392.984	302.38
393.208	316.38
393.433	371.38
393.658	319.38
393.882	281.38
394.107	299.38
394.331	305.38
394.556	293.38
394.78	315.38
395.005	285.38
395.229	302.38
395.454	309.38
395.678	300.38
395.903	318.38
396.127	308.38
396.352	308.38
396.576	309.38
396.801	338.38
397.025	328.38
397.249	314.38
397.474	307.38
397.698	295.38
397.922	297.38
398.147	313.38
398.371	303.38
398.595	306.38
398.82	330.38
399.044	360.38
399.268	378.38
399.492	462.38
399.717	469.38
399.941	456.38
400.165	414.38
400.389	369.38
400.613	348.38
400.837	341.38
401.062	341.38
401.286	329.38
401.51	330.38
401.734	339.38
401.958	328.38
402.182	320.38
402.406	330.38
402.63	353.38
402.854	370.38
403.078	374.38
403.302	367.38
403.526	391.38
403.75	384.38
403.974	374.38
404.198	375.38
404.422	374.38
404.645	379.38
404.869	377.38
405.093	370.38
405.317	375.38
405.541	380.38
405.765	353.38
405.988	341.38
406.212	375.38
406.436	362.38
406.66	388.38
406.883	398.38
407.107	393.38
407.331	394.38
407.555	417.38
407.778	409.38
408.002	379.38
408.226	369.38
408.449	373.38
408.673	362.38
408.896	373.38
409.12	376.38
409.344	371.38
409.567	366.38
409.791	375.38
410.014	360.38
410.238	373.38
410.461	349.38
410.685	352.38
410.908	375.38
411.132	375.38
411.355	349.38
411.578	351.38
411.802	336.38
412.025	362.38
412.249	340.38
412.472	348.38
412.695	349.38
412.919	343.38
413.142	336.38
413.365	366.38
413.589	355.38
413.812	354.38
414.035	344.38
414.258	354.38
414.482	337.38
414.705	352.38
414.928	344.38
415.151	346.38
415.374	349.38
415.597	336.38
415.821	344.38
416.044	321.38
416.267	325.38
416.49	334.38
416.713	328.38
416.936	345.38
417.159	343.38
417.382	344.38
417.605	344.38
417.828	338.38
418.051	334.38
418.274	362.38
418.497	352.38
418.72	361.38
418.943	358.38
419.166	366.38
419.389	369.38
419.611	377.38
419.834	350.38
420.057	334.38
420.28	369.38
420.503	344.38
420.726	323.38
420.948	355.38
421.171	351.38
421.394	345.38
421.617	347.38
421.839	359.38
422.062	354.38
422.285	342.38
422.507	355.38
422.73	380.38
422.953	358.38
423.175	342.38
423.398	367.38
423.621	380.38
423.843	363.38
424.066	374.38
424.288	348.38
424.511	360.38
424.733	350.38
424.956	349.38
425.178	358.38
425.401	348.38
425.623	349.38
425.846	331.38
426.068	339.38
426.291	308.38
426.513	333.38
426.735	329.38
426.958	317.38
427.18	326.38
427.402	315.38
427.625	305.38
427.847	329.38
428.069	320.38
428.292	315.38
428.514	329.38
428.736	316.38
428.958	302.38
429.181	335.38
429.403	312.38
429.625	301.38
429.847	289.38
430.069	298.38
430.292	320.38
430.514	297.38
430.736	292.38
430.958	306.38
431.18	301.38
431.402	300.38
431.624	280.38
431.846	288.38
432.068	286.38
432.29	309.38
432.512	327.38
432.734	317.38
432.956	309.38
433.178	332.38
433.4	326.38
433.622	312.38
433.844	304.38
434.066	295.38
434.287	292.38
434.509	304.38
434.731	318.38
434.953	328.38
435.175	338.38
435.397	335.38
435.618	308.38
435.84	321.38
436.062	296.38
436.284	298.38
436.505	309.38
436.727	309.38
436.949	312.38
437.17	300.38
437.392	296.38
437.614	287.38
437.835	285.38
438.057	287.38
438.278	302.38
438.5	303.38
438.721	310.38
438.943	309.38
439.165	318.38
439.386	319.38
439.608	324.38
439.829	322.38
440.05	315.38
440.272	305.38
440.493	337.38
440.715	316.38
440.936	324.38
441.158	351.38
441.379	342.38
441.6	356.38
441.822	351.38
442.043	355.38
442.264	348.38
442.486	329.38
442.707	324.38
442.928	331.38
443.149	328.38
443.371	358.38
443.592	351.38
443.813	349.38
444.034	378.38
444.255	368.38
444.476	367.38
444.698	388.38
444.919	400.38
445.14	573.38
445.361	432.38
445.582	342.38
445.803	329.38
446.024	319.38
446.245	313.38
446.466	314.38
446.687	314.38
446.908	299.38
447.129	346.38
447.35	321.38
447.571	308.38
447.792	305.38
448.013	289.38
448.234	294.38
448.455	296.38
448.675	290.38
448.896	290.38
449.117	291.38
449.338	289.38
449.559	307.38
449.779	291.38
450	304.38
450.221	287.38
450.442	310.38
450.662	298.38
450.883	295.38
451.104	285.38
451.324	284.38
451.545	293.38
451.766	296.38
451.986	289.38
452.207	283.38
452.428	294.38
452.648	294.38
452.869	285.38
453.089	260.38
453.31	267.38
453.53	278.38
453.751	282.38
453.971	273.38
454.192	255.38
454.412	261.38
454.633	278.38
454.853	268.38
455.073	280.38
455.294	277.38
455.514	271.38
455.734	266.38
455.955	264.38
456.175	269.38
456.395	268.38
456.616	268.38
456.836	274.38
457.056	278.38
457.276	261.38
457.497	247.38
457.717	266.38
457.937	272.38
458.157	286.38
458.377	272.38
458.598	264.38
458.818	275.38
459.038	274.38
459.258	276.38
459.478	291.38
459.698	305.38
459.918	308.38
460.138	326.38
460.358	356.38
460.578	344.38
460.798	344.38
461.018	335.38
461.238	338.38
461.458	349.38
461.678	353.38
461.898	349.38
462.118	356.38
462.338	354.38
462.558	382.38
462.777	386.38
462.997	393.38
463.217	424.38
463.437	419.38
463.657	383.38
463.876	383.38
464.096	402.38
464.316	383.38
464.536	381.38
464.755	380.38
464.975	352.38
465.195	344.38
465.414	317.38
465.634	314.38
465.854	312.38
466.073	309.38
466.293	320.38
466.512	316.38
466.732	314.38
466.951	303.38
467.171	319.38
467.391	294.38
467.61	321.38
467.829	310.38
468.049	329.38
468.268	338.38
468.488	314.38
468.707	310.38
468.927	297.38
469.146	292.38
469.365	316.38
469.585	307.38
469.804	306.38
470.023	320.38
470.243	309.38
470.462	320.38
470.681	317.38
470.901	308.38
471.12	306.38
471.339	313.38
471.558	309.38
471.777	304.38
471.997	308.38
472.216	345.38
472.435	369.38
472.654	339.38
472.873	316.38
473.092	297.38
473.311	297.38
473.53	288.38
473.749	282.38
473.968	302.38
474.187	283.38
474.406	267.38
474.625	286.38
474.844	290.38
475.063	297.38
475.282	285.38
475.501	294.38
475.72	280.38
475.939	288.38
476.158	287.38
476.377	281.38
476.596	294.38
476.814	284.38
477.033	300.38
477.252	289.38
477.471	299.38
477.69	324.38
477.908	340.38
478.127	333.38
478.346	337.38
478.564	340.38
478.783	353.38
479.002	354.38
479.22	344.38
479.439	340.38
479.658	341.38
479.876	344.38
480.095	360.38
480.313	373.38
480.532	384.38
480.751	353.38
480.969	397.38
481.188	464.38
481.406	455.38
481.624	365.38
481.843	343.38
482.061	321.38
482.28	344.38
482.498	314.38
482.717	319.38
482.935	329.38
483.153	327.38
483.372	338.38
483.59	327.38
483.808	318.38
484.027	320.38
484.245	319.38
484.463	317.38
484.681	358.38
484.9	336.38
485.118	330.38
485.336	327.38
485.554	305.38
485.772	321.38
485.99	321.38
486.209	324.38
486.427	321.38
486.645	334.38
486.863	335.38
487.081	329.38
487.299	362.38
487.517	348.38
487.735	333.38
487.953	348.38
488.171	358.38
488.389	328.38
488.607	352.38
488.825	319.38
489.043	318.38
489.261	358.38
489.479	319.38
489.696	340.38
489.914	346.38
490.132	342.38
490.35	347.38
490.568	353.38
490.786	360.38
491.003	353.38
491.221	355.38
491.439	358.38
491.657	358.38
491.874	386.38
492.092	394.38
492.31	383.38
492.527	384.38
492.745	362.38
492.963	379.38
493.18	392.38
493.398	379.38
493.615	386.38
493.833	388.38
494.05	356.38
494.268	364.38
494.485	375.38
494.703	383.38
494.92	371.38
495.138	369.38
495.355	368.38
495.573	361.38
495.79	348.38
496.008	360.38
496.225	376.38
496.442	382.38
496.66	389.38
496.877	378.38
497.094	386.38
497.312	377.38
497.529	401.38
497.746	400.38
497.963	398.38
498.181	412.38
498.398	422.38
498.615	437.38
498.832	471.38
499.049	496.38
499.267	555.38
499.484	599.38
499.701	604.38
499.918	720.38
500.135	784.38
500.352	865.38
500.569	850.38
500.786	860.38
501.003	783.38
501.22	730.38
501.437	620.38
501.654	563.38
501.871	528.38
502.088	508.38
502.305	485.38
502.522	452.38
502.739	446.38
502.956	433.38
503.172	414.38
503.389	374.38
503.606	373.38
