Data from SampB_HRD10591_00102.txt Node
Date: Mon Jan 19 11:37:00 EST 2026
User: Yrep
Spectrometer: HR+D1059
Trigger mode: 0
Integration Time (sec): 3.443000E-1
Scans to average: 1
Electric dark correction enabled: true
Nonlinearity correction enabled: false
Boxcar width: 0
XAxis mode: Wavelengths
Number of Pixels in Spectrum: 2048
>>>>>Begin Spectral Data<<<<<
223.165	-25.81
223.4	-25.81
223.635	-25.81
223.869	-30.81
224.104	-21.81
224.338	-13.81
224.573	-17.81
224.808	3.19
225.042	-3.81
225.277	-11.81
225.511	-1.81
225.746	15.19
225.98	15.19
226.215	15.19
226.449	10.19
226.683	22.19
226.918	27.19
227.152	19.19
227.387	34.19
227.621	49.19
227.856	54.19
228.09	50.19
228.324	58.19
228.559	61.19
228.793	82.19
229.027	94.19
229.262	92.19
229.496	112.19
229.73	104.19
229.964	126.19
230.199	110.19
230.433	114.19
230.667	127.19
230.901	126.19
231.136	122.19
231.37	129.19
231.604	133.19
231.838	145.19
232.072	142.19
232.306	148.19
232.541	129.19
232.775	128.19
233.009	137.19
233.243	139.19
233.477	144.19
233.711	131.19
233.945	139.19
234.179	156.19
234.413	125.19
234.647	138.19
234.881	144.19
235.115	138.19
235.349	138.19
235.583	149.19
235.817	156.19
236.051	166.19
236.285	177.19
236.519	184.19
236.753	220.19
236.987	252.19
237.221	290.19
237.455	296.19
237.689	287.19
237.922	253.19
238.156	200.19
238.39	183.19
238.624	172.19
238.858	166.19
239.091	137.19
239.325	141.19
239.559	164.19
239.793	150.19
240.027	167.19
240.26	153.19
240.494	147.19
240.728	164.19
240.961	148.19
241.195	155.19
241.429	133.19
241.662	152.19
241.896	167.19
242.13	172.19
242.363	149.19
242.597	161.19
242.83	156.19
243.064	140.19
243.298	174.19
243.531	161.19
243.765	166.19
243.998	169.19
244.232	172.19
244.465	169.19
244.699	165.19
244.932	169.19
245.166	176.19
245.399	187.19
245.633	175.19
245.866	188.19
246.099	195.19
246.333	198.19
246.566	175.19
246.8	184.19
247.033	194.19
247.266	193.19
247.5	178.19
247.733	176.19
247.966	184.19
248.2	183.19
248.433	192.19
248.666	185.19
248.899	203.19
249.133	206.19
249.366	205.19
249.599	210.19
249.832	195.19
250.066	206.19
250.299	197.19
250.532	212.19
250.765	193.19
250.998	212.19
251.231	221.19
251.465	193.19
251.698	219.19
251.931	208.19
252.164	190.19
252.397	220.19
252.63	212.19
252.863	208.19
253.096	206.19
253.329	227.19
253.562	208.19
253.795	206.19
254.028	201.19
254.261	218.19
254.494	214.19
254.727	222.19
254.96	229.19
255.193	240.19
255.426	225.19
255.659	241.19
255.892	242.19
256.124	253.19
256.357	262.19
256.59	272.19
256.823	311.19
257.056	358.19
257.289	392.19
257.521	380.19
257.754	431.19
257.987	419.19
258.22	329.19
258.452	288.19
258.685	294.19
258.918	261.19
259.151	246.19
259.383	264.19
259.616	258.19
259.849	267.19
260.081	272.19
260.314	274.19
260.547	263.19
260.779	262.19
261.012	270.19
261.244	242.19
261.477	262.19
261.71	276.19
261.942	268.19
262.175	284.19
262.407	294.19
262.64	276.19
262.872	300.19
263.105	355.19
263.337	372.19
263.57	382.19
263.802	367.19
264.035	337.19
264.267	338.19
264.499	341.19
264.732	313.19
264.964	328.19
265.197	330.19
265.429	367.19
265.661	370.19
265.894	369.19
266.126	405.19
266.358	417.19
266.591	357.19
266.823	332.19
267.055	312.19
267.287	318.19
267.52	302.19
267.752	307.19
267.984	302.19
268.216	294.19
268.448	305.19
268.681	293.19
268.913	303.19
269.145	321.19
269.377	302.19
269.609	309.19
269.841	305.19
270.073	284.19
270.306	286.19
270.538	281.19
270.77	297.19
271.002	282.19
271.234	303.19
271.466	300.19
271.698	296.19
271.93	303.19
272.162	307.19
272.394	304.19
272.626	304.19
272.858	310.19
273.09	313.19
273.322	329.19
273.553	332.19
273.785	322.19
274.017	309.19
274.249	343.19
274.481	322.19
274.713	328.19
274.945	349.19
275.176	344.19
275.408	350.19
275.64	349.19
275.872	323.19
276.104	336.19
276.335	357.19
276.567	337.19
276.799	347.19
277.031	356.19
277.262	358.19
277.494	359.19
277.726	402.19
277.957	420.19
278.189	430.19
278.421	443.19
278.652	486.19
278.884	530.19
279.115	692.19
279.347	1022.19
279.579	1376.19
279.81	1568.19
280.042	1255.19
280.273	1167.19
280.505	1130.19
280.736	760.19
280.968	574.19
281.199	549.19
281.431	632.19
281.662	782.19
281.894	865.19
282.125	747.19
282.356	599.19
282.588	531.19
282.819	482.19
283.051	456.19
283.282	437.19
283.513	444.19
283.745	442.19
283.976	428.19
284.207	397.19
284.439	432.19
284.67	452.19
284.901	464.19
285.132	514.19
285.364	605.19
285.595	532.19
285.826	430.19
286.057	410.19
286.288	390.19
286.52	399.19
286.751	408.19
286.982	407.19
287.213	412.19
287.444	411.19
287.675	398.19
287.906	418.19
288.138	439.19
288.369	440.19
288.6	429.19
288.831	420.19
289.062	420.19
289.293	419.19
289.524	429.19
289.755	396.19
289.986	432.19
290.217	412.19
290.448	425.19
290.679	428.19
290.91	432.19
291.141	432.19
291.371	428.19
291.602	428.19
291.833	462.19
292.064	440.19
292.295	464.19
292.526	484.19
292.757	473.19
292.987	493.19
293.218	466.19
293.449	485.19
293.68	494.19
293.91	520.19
294.141	482.19
294.372	465.19
294.603	442.19
294.833	459.19
295.064	462.19
295.295	449.19
295.525	443.19
295.756	460.19
295.987	468.19
296.217	432.19
296.448	435.19
296.679	411.19
296.909	454.19
297.14	444.19
297.37	474.19
297.601	447.19
297.831	464.19
298.062	462.19
298.292	458.19
298.523	462.19
298.753	460.19
298.984	470.19
299.214	469.19
299.445	457.19
299.675	451.19
299.905	476.19
300.136	479.19
300.366	479.19
300.597	469.19
300.827	483.19
301.057	484.19
301.288	504.19
301.518	514.19
301.748	503.19
301.979	552.19
302.209	517.19
302.439	502.19
302.669	524.19
302.9	550.19
303.13	561.19
303.36	551.19
303.59	546.19
303.82	556.19
304.051	562.19
304.281	596.19
304.511	610.19
304.741	636.19
304.971	716.19
305.201	798.19
305.431	844.19
305.661	996.19
305.891	1059.19
306.121	952.19
306.352	897.19
306.582	885.19
306.812	890.19
307.042	835.19
307.272	798.19
307.502	880.19
307.731	1150.19
307.961	1568.19
308.191	2196.19
308.421	2526.19
308.651	2072.19
308.881	1905.19
309.111	2452.19
309.341	3148.19
309.571	3001.19
309.8	1842.19
310.03	1243.19
310.26	960.19
310.49	835.19
310.72	777.19
310.949	718.19
311.179	679.19
311.409	651.19
311.639	634.19
311.868	627.19
312.098	630.19
312.328	625.19
312.557	598.19
312.787	578.19
313.017	613.19
313.246	586.19
313.476	562.19
313.706	558.19
313.935	567.19
314.165	573.19
314.394	574.19
314.624	562.19
314.853	560.19
315.083	553.19
315.312	578.19
315.542	520.19
315.771	580.19
316.001	563.19
316.23	566.19
316.46	530.19
316.689	534.19
316.919	570.19
317.148	558.19
317.377	543.19
317.607	538.19
317.836	547.19
318.065	544.19
318.295	540.19
318.524	539.19
318.753	535.19
318.983	520.19
319.212	530.19
319.441	540.19
319.67	539.19
319.9	535.19
320.129	524.19
320.358	518.19
320.587	532.19
320.816	525.19
321.046	510.19
321.275	530.19
321.504	508.19
321.733	540.19
321.962	538.19
322.191	541.19
322.42	538.19
322.649	530.19
322.878	536.19
323.108	547.19
323.337	532.19
323.566	563.19
323.795	565.19
324.024	547.19
324.253	536.19
324.482	557.19
324.71	559.19
324.939	550.19
325.168	604.19
325.397	586.19
325.626	578.19
325.855	580.19
326.084	562.19
326.313	578.19
326.542	575.19
326.77	592.19
326.999	576.19
327.228	556.19
327.457	581.19
327.686	569.19
327.914	582.19
328.143	577.19
328.372	571.19
328.6	568.19
328.829	548.19
329.058	586.19
329.287	594.19
329.515	572.19
329.744	590.19
329.972	589.19
330.201	592.19
330.43	600.19
330.658	591.19
330.887	610.19
331.115	598.19
331.344	612.19
331.572	596.19
331.801	631.19
332.03	619.19
332.258	634.19
332.486	647.19
332.715	673.19
332.943	669.19
333.172	699.19
333.4	738.19
333.629	730.19
333.857	744.19
334.085	741.19
334.314	709.19
334.542	718.19
334.771	694.19
334.999	704.19
335.227	658.19
335.455	677.19
335.684	695.19
335.912	670.19
336.14	657.19
336.369	678.19
336.597	653.19
336.825	650.19
337.053	632.19
337.281	632.19
337.51	626.19
337.738	657.19
337.966	638.19
338.194	606.19
338.422	610.19
338.65	638.19
338.878	636.19
339.106	629.19
339.334	633.19
339.562	618.19
339.79	614.19
340.018	631.19
340.246	598.19
340.474	608.19
340.702	621.19
340.93	596.19
341.158	599.19
341.386	593.19
341.614	606.19
341.842	592.19
342.07	616.19
342.298	581.19
342.526	621.19
342.754	604.19
342.981	636.19
343.209	635.19
343.437	696.19
343.665	703.19
343.893	726.19
344.12	729.19
344.348	685.19
344.576	658.19
344.804	644.19
345.031	610.19
345.259	635.19
345.487	642.19
345.714	624.19
345.942	606.19
346.17	600.19
346.397	594.19
346.625	582.19
346.853	598.19
347.08	603.19
347.308	616.19
347.535	586.19
347.763	592.19
347.99	599.19
348.218	598.19
348.445	589.19
348.673	599.19
348.9	613.19
349.128	618.19
349.355	596.19
349.583	597.19
349.81	628.19
350.037	598.19
350.265	598.19
350.492	610.19
350.72	606.19
350.947	608.19
351.174	614.19
351.402	627.19
351.629	602.19
351.856	633.19
352.083	585.19
352.311	624.19
352.538	624.19
352.765	622.19
352.992	653.19
353.22	647.19
353.447	631.19
353.674	632.19
353.901	645.19
354.128	654.19
354.355	641.19
354.583	668.19
354.81	670.19
355.037	692.19
355.264	709.19
355.491	712.19
355.718	736.19
355.945	707.19
356.172	744.19
356.399	787.19
356.626	790.19
356.853	841.19
357.08	852.19
357.307	887.19
357.534	960.19
357.761	994.19
357.988	1135.19
358.215	1289.19
358.441	1452.19
358.668	1558.19
358.895	1568.19
359.122	1329.19
359.349	1147.19
359.576	1053.19
359.802	956.19
360.029	892.19
360.256	866.19
360.483	865.19
360.709	847.19
360.936	841.19
361.163	822.19
361.39	803.19
361.616	792.19
361.843	762.19
362.07	750.19
362.296	708.19
362.523	693.19
362.749	701.19
362.976	683.19
363.203	701.19
363.429	669.19
363.656	690.19
363.882	679.19
364.109	683.19
364.335	693.19
364.562	667.19
364.788	658.19
365.015	654.19
365.241	653.19
365.468	661.19
365.694	646.19
365.92	645.19
366.147	627.19
366.373	668.19
366.599	648.19
366.826	604.19
367.052	618.19
367.278	659.19
367.505	646.19
367.731	664.19
367.957	622.19
368.184	638.19
368.41	639.19
368.636	629.19
368.862	669.19
369.089	661.19
369.315	606.19
369.541	653.19
369.767	629.19
369.993	631.19
370.219	621.19
370.445	630.19
370.672	662.19
370.898	677.19
371.124	668.19
371.35	679.19
371.576	684.19
371.802	686.19
372.028	689.19
372.254	708.19
372.48	683.19
372.706	704.19
372.932	690.19
373.158	696.19
373.384	683.19
373.61	678.19
373.835	662.19
374.061	679.19
374.287	707.19
374.513	677.19
374.739	709.19
374.965	733.19
375.191	696.19
375.416	722.19
375.642	683.19
375.868	709.19
376.094	687.19
376.319	686.19
376.545	672.19
376.771	636.19
376.997	638.19
377.222	637.19
377.448	627.19
377.674	637.19
377.899	656.19
378.125	636.19
378.35	641.19
378.576	657.19
378.802	658.19
379.027	651.19
379.253	651.19
379.478	641.19
379.704	678.19
379.929	657.19
380.155	690.19
380.38	662.19
380.606	697.19
380.831	670.19
381.057	691.19
381.282	690.19
381.507	698.19
381.733	733.19
381.958	725.19
382.184	725.19
382.409	732.19
382.634	774.19
382.86	816.19
383.085	850.19
383.31	897.19
383.535	871.19
383.761	905.19
383.986	920.19
384.211	833.19
384.436	794.19
384.662	774.19
384.887	798.19
385.112	804.19
385.337	793.19
385.562	798.19
385.787	813.19
386.013	835.19
386.238	817.19
386.463	821.19
386.688	847.19
386.913	813.19
387.138	819.19
387.363	798.19
387.588	824.19
387.813	808.19
388.038	801.19
388.263	828.19
388.488	828.19
388.713	798.19
388.938	794.19
389.163	785.19
389.387	782.19
389.612	795.19
389.837	800.19
390.062	819.19
390.287	836.19
390.512	820.19
390.736	822.19
390.961	816.19
391.186	832.19
391.411	864.19
391.636	897.19
391.86	879.19
392.085	931.19
392.31	918.19
392.534	886.19
392.759	911.19
392.984	986.19
393.208	1132.19
393.433	1291.19
393.658	1320.19
393.882	1350.19
394.107	2090.19
394.331	3573.19
394.556	4675.19
394.78	3173.19
395.005	1848.19
395.229	1509.19
395.454	1580.19
395.678	1873.19
395.903	3052.19
396.127	5296.19
396.352	6082.19
396.576	3568.19
396.801	2190.19
397.025	1696.19
397.249	1421.19
397.474	1277.19
397.698	1151.19
397.922	1124.19
398.147	1081.19
398.371	1094.19
398.595	1102.19
398.82	1057.19
399.044	1134.19
399.268	1214.19
399.492	1294.19
399.717	1294.19
399.941	1284.19
400.165	1172.19
400.389	1099.19
400.613	1054.19
400.837	1035.19
401.062	1009.19
401.286	992.19
401.51	977.19
401.734	976.19
401.958	1011.19
402.182	1013.19
402.406	1008.19
402.63	978.19
402.854	993.19
403.078	1021.19
403.302	1025.19
403.526	1046.19
403.75	1033.19
403.974	1021.19
404.198	1062.19
404.422	1068.19
404.645	1055.19
404.869	1023.19
405.093	1032.19
405.317	1020.19
405.541	1039.19
405.765	1001.19
405.988	1029.19
406.212	998.19
406.436	1049.19
406.66	1053.19
406.883	1068.19
407.107	1102.19
407.331	1129.19
407.555	1138.19
407.778	1157.19
408.002	1105.19
408.226	1059.19
408.449	1092.19
408.673	1035.19
408.896	1028.19
409.12	1010.19
409.344	1024.19
409.567	993.19
409.791	1016.19
410.014	1020.19
410.238	1002.19
410.461	985.19
410.685	1012.19
410.908	990.19
411.132	977.19
411.355	974.19
411.578	987.19
411.802	990.19
412.025	983.19
412.249	972.19
412.472	988.19
412.695	938.19
412.919	909.19
413.142	950.19
413.365	957.19
413.589	939.19
413.812	948.19
414.035	968.19
414.258	959.19
414.482	964.19
414.705	968.19
414.928	984.19
415.151	944.19
415.374	921.19
415.597	929.19
415.821	938.19
416.044	915.19
416.267	917.19
416.49	920.19
416.713	932.19
416.936	936.19
417.159	930.19
417.382	918.19
417.605	901.19
417.828	948.19
418.051	944.19
418.274	950.19
418.497	934.19
418.72	977.19
418.943	960.19
419.166	1016.19
419.389	1059.19
419.611	1052.19
419.834	1020.19
420.057	971.19
420.28	937.19
420.503	933.19
420.726	927.19
420.948	921.19
421.171	926.19
421.394	958.19
421.617	966.19
421.839	973.19
422.062	964.19
422.285	944.19
422.507	986.19
422.73	997.19
422.953	1012.19
423.175	986.19
423.398	948.19
423.621	980.19
423.843	1016.19
424.066	984.19
424.288	985.19
424.511	964.19
424.733	989.19
424.956	996.19
425.178	1002.19
425.401	981.19
425.623	956.19
425.846	938.19
426.068	917.19
426.291	919.19
426.513	930.19
426.735	918.19
426.958	932.19
427.18	902.19
427.402	909.19
427.625	900.19
427.847	871.19
428.069	876.19
428.292	863.19
428.514	845.19
428.736	874.19
428.958	880.19
429.181	865.19
429.403	846.19
429.625	847.19
429.847	852.19
430.069	851.19
430.292	870.19
430.514	858.19
430.736	853.19
430.958	843.19
431.18	848.19
431.402	851.19
431.624	806.19
431.846	833.19
432.068	803.19
432.29	859.19
432.512	838.19
432.734	854.19
432.956	870.19
433.178	891.19
433.4	890.19
433.622	876.19
433.844	883.19
434.066	843.19
434.287	844.19
434.509	831.19
434.731	878.19
434.953	910.19
435.175	924.19
435.397	901.19
435.618	888.19
435.84	860.19
436.062	869.19
436.284	848.19
436.505	856.19
436.727	866.19
436.949	876.19
437.17	872.19
437.392	857.19
437.614	835.19
437.835	784.19
438.057	817.19
438.278	835.19
438.5	812.19
438.721	829.19
438.943	851.19
439.165	842.19
439.386	866.19
439.608	883.19
439.829	869.19
440.05	907.19
440.272	892.19
440.493	873.19
440.715	906.19
440.936	936.19
441.158	940.19
441.379	929.19
441.6	956.19
441.822	974.19
442.043	978.19
442.264	971.19
442.486	932.19
442.707	974.19
442.928	930.19
443.149	951.19
443.371	972.19
443.592	955.19
443.813	961.19
444.034	980.19
444.255	985.19
444.476	1035.19
444.698	1044.19
444.919	1094.19
445.14	1324.19
445.361	1116.19
445.582	980.19
445.803	932.19
446.024	964.19
446.245	962.19
446.466	918.19
446.687	918.19
446.908	927.19
447.129	908.19
447.35	892.19
447.571	890.19
447.792	862.19
448.013	881.19
448.234	876.19
448.455	869.19
448.675	861.19
448.896	848.19
449.117	843.19
449.338	846.19
449.559	848.19
449.779	814.19
450	835.19
450.221	834.19
450.442	822.19
450.662	803.19
450.883	852.19
451.104	830.19
451.324	797.19
451.545	808.19
451.766	811.19
451.986	793.19
452.207	834.19
452.428	825.19
452.648	828.19
452.869	823.19
453.089	808.19
453.31	820.19
453.53	808.19
453.751	800.19
453.971	794.19
454.192	792.19
454.412	796.19
454.633	779.19
454.853	796.19
455.073	763.19
455.294	768.19
455.514	777.19
455.734	755.19
455.955	757.19
456.175	748.19
456.395	752.19
456.616	728.19
456.836	742.19
457.056	767.19
457.276	720.19
457.497	719.19
457.717	763.19
457.937	739.19
458.157	735.19
458.377	760.19
458.598	756.19
458.818	747.19
459.038	769.19
459.258	764.19
459.478	808.19
459.698	834.19
459.918	861.19
460.138	888.19
460.358	918.19
460.578	977.19
460.798	969.19
461.018	964.19
461.238	938.19
461.458	961.19
461.678	964.19
461.898	981.19
462.118	972.19
462.338	1046.19
462.558	1053.19
462.777	1075.19
462.997	1117.19
463.217	1177.19
463.437	1172.19
463.657	1071.19
463.876	1057.19
464.096	1064.19
464.316	1052.19
464.536	1066.19
464.755	1040.19
464.975	1021.19
465.195	978.19
465.414	935.19
465.634	926.19
465.854	930.19
466.073	961.19
466.293	998.19
466.512	1034.19
466.732	1009.19
466.951	1008.19
467.171	964.19
467.391	943.19
467.61	894.19
467.829	890.19
468.049	898.19
468.268	860.19
468.488	866.19
468.707	857.19
468.927	842.19
469.146	835.19
469.365	863.19
469.585	865.19
469.804	873.19
470.023	904.19
470.243	880.19
470.462	866.19
470.681	906.19
470.901	908.19
471.12	876.19
471.339	875.19
471.558	854.19
471.777	871.19
471.997	843.19
472.216	839.19
472.435	802.19
472.654	820.19
472.873	822.19
473.092	842.19
473.311	876.19
473.53	899.19
473.749	968.19
473.968	956.19
474.187	899.19
474.406	916.19
474.625	976.19
474.844	987.19
475.063	961.19
475.282	904.19
475.501	874.19
475.72	882.19
475.939	867.19
476.158	842.19
476.377	873.19
476.596	852.19
476.814	852.19
477.033	833.19
477.252	846.19
477.471	875.19
477.69	920.19
477.908	908.19
478.127	946.19
478.346	931.19
478.564	962.19
478.783	952.19
479.002	1015.19
479.22	969.19
479.439	976.19
479.658	895.19
479.876	923.19
480.095	973.19
480.313	985.19
480.532	1001.19
480.751	957.19
480.969	941.19
481.188	895.19
481.406	874.19
481.624	888.19
481.843	866.19
482.061	859.19
482.28	908.19
482.498	886.19
482.717	875.19
482.935	897.19
483.153	896.19
483.372	914.19
483.59	929.19
483.808	895.19
484.027	883.19
484.245	920.19
484.463	962.19
484.681	992.19
484.9	986.19
485.118	973.19
485.336	976.19
485.554	942.19
485.772	964.19
485.99	940.19
486.209	958.19
486.427	982.19
486.645	970.19
486.863	1008.19
487.081	1010.19
487.299	992.19
487.517	1013.19
487.735	1036.19
487.953	1044.19
488.171	1006.19
488.389	1019.19
488.607	991.19
488.825	984.19
489.043	966.19
489.261	962.19
489.479	975.19
489.696	975.19
489.914	993.19
490.132	1002.19
490.35	992.19
490.568	984.19
490.786	1045.19
491.003	1002.19
491.221	1026.19
491.439	1050.19
491.657	1081.19
491.874	1080.19
492.092	1104.19
492.31	1126.19
492.527	1101.19
492.745	1070.19
492.963	1095.19
493.18	1071.19
493.398	1063.19
493.615	1076.19
493.833	1070.19
494.05	1061.19
494.268	1054.19
494.485	1058.19
494.703	1046.19
494.92	1061.19
495.138	1038.19
495.355	1055.19
495.573	1072.19
495.79	1022.19
496.008	1066.19
496.225	1089.19
496.442	1070.19
496.66	1083.19
496.877	1105.19
497.094	1075.19
497.312	1120.19
497.529	1100.19
497.746	1108.19
497.963	1135.19
498.181	1164.19
498.398	1179.19
498.615	1285.19
498.832	1325.19
499.049	1376.19
499.267	1503.19
499.484	1594.19
499.701	1714.19
499.918	1854.19
500.135	2028.19
500.352	2189.19
