Data from SampB_HRD10591_00003.txt Node
Date: Mon Jan 19 11:33:29 EST 2026
User: Yrep
Spectrometer: HR+D1059
Trigger mode: 0
Integration Time (sec): 3.443000E-1
Scans to average: 1
Electric dark correction enabled: true
Nonlinearity correction enabled: false
Boxcar width: 0
XAxis mode: Wavelengths
Number of Pixels in Spectrum: 2048
>>>>>Begin Spectral Data<<<<<
223.165	-12.56
223.4	-12.56
223.635	-12.56
223.869	-26.56
224.104	-37.56
224.338	-23.56
224.573	-26.56
224.808	-2.56
225.042	3.44
225.277	-1.56
225.511	0.44
225.746	0.44
225.98	16.44
226.215	-3.56
226.449	17.44
226.683	25.44
226.918	30.44
227.152	40.44
227.387	48.44
227.621	30.44
227.856	48.44
228.09	56.44
228.324	44.44
228.559	68.44
228.793	61.44
229.027	77.44
229.262	65.44
229.496	74.44
229.73	96.44
229.964	89.44
230.199	71.44
230.433	74.44
230.667	80.44
230.901	90.44
231.136	82.44
231.37	90.44
231.604	79.44
231.838	90.44
232.072	87.44
232.306	92.44
232.541	86.44
232.775	94.44
233.009	88.44
233.243	71.44
233.477	96.44
233.711	92.44
233.945	96.44
234.179	101.44
234.413	94.44
234.647	97.44
234.881	91.44
235.115	88.44
235.349	77.44
235.583	95.44
235.817	93.44
236.051	93.44
236.285	81.44
236.519	107.44
236.753	82.44
236.987	94.44
237.221	89.44
237.455	92.44
237.689	95.44
237.922	106.44
238.156	88.44
238.39	95.44
238.624	95.44
238.858	89.44
239.091	82.44
239.325	84.44
239.559	84.44
239.793	98.44
240.027	107.44
240.26	91.44
240.494	105.44
240.728	82.44
240.961	89.44
241.195	101.44
241.429	111.44
241.662	75.44
241.896	82.44
242.13	103.44
242.363	96.44
242.597	79.44
242.83	94.44
243.064	94.44
243.298	101.44
243.531	98.44
243.765	104.44
243.998	104.44
244.232	107.44
244.465	97.44
244.699	89.44
244.932	95.44
245.166	94.44
245.399	109.44
245.633	98.44
245.866	100.44
246.099	95.44
246.333	97.44
246.566	90.44
246.8	103.44
247.033	99.44
247.266	92.44
247.5	83.44
247.733	95.44
247.966	106.44
248.2	106.44
248.433	90.44
248.666	108.44
248.899	108.44
249.133	93.44
249.366	112.44
249.599	102.44
249.832	96.44
250.066	131.44
250.299	106.44
250.532	113.44
250.765	99.44
250.998	84.44
251.231	92.44
251.465	102.44
251.698	107.44
251.931	102.44
252.164	109.44
252.397	113.44
252.63	105.44
252.863	112.44
253.096	105.44
253.329	118.44
253.562	123.44
253.795	115.44
254.028	125.44
254.261	111.44
254.494	102.44
254.727	114.44
254.96	117.44
255.193	121.44
255.426	113.44
255.659	120.44
255.892	130.44
256.124	119.44
256.357	153.44
256.59	133.44
256.823	118.44
257.056	111.44
257.289	108.44
257.521	112.44
257.754	108.44
257.987	114.44
258.22	107.44
258.452	119.44
258.685	131.44
258.918	114.44
259.151	131.44
259.383	120.44
259.616	113.44
259.849	114.44
260.081	122.44
260.314	121.44
260.547	111.44
260.779	110.44
261.012	124.44
261.244	128.44
261.477	123.44
261.71	121.44
261.942	117.44
262.175	120.44
262.407	119.44
262.64	130.44
262.872	136.44
263.105	128.44
263.337	131.44
263.57	120.44
263.802	119.44
264.035	130.44
264.267	130.44
264.499	119.44
264.732	129.44
264.964	128.44
265.197	116.44
265.429	129.44
265.661	132.44
265.894	137.44
266.126	131.44
266.358	112.44
266.591	130.44
266.823	142.44
267.055	119.44
267.287	126.44
267.52	123.44
267.752	129.44
267.984	120.44
268.216	135.44
268.448	130.44
268.681	131.44
268.913	127.44
269.145	146.44
269.377	132.44
269.609	137.44
269.841	123.44
270.073	124.44
270.306	133.44
270.538	141.44
270.77	136.44
271.002	139.44
271.234	130.44
271.466	137.44
271.698	128.44
271.93	132.44
272.162	132.44
272.394	138.44
272.626	124.44
272.858	140.44
273.09	149.44
273.322	132.44
273.553	132.44
273.785	140.44
274.017	137.44
274.249	135.44
274.481	136.44
274.713	139.44
274.945	148.44
275.176	151.44
275.408	144.44
275.64	140.44
275.872	131.44
276.104	137.44
276.335	132.44
276.567	145.44
276.799	155.44
277.031	122.44
277.262	159.44
277.494	145.44
277.726	142.44
277.957	140.44
278.189	132.44
278.421	141.44
278.652	165.44
278.884	126.44
279.115	138.44
279.347	152.44
279.579	162.44
279.81	165.44
280.042	182.44
280.273	190.44
280.505	177.44
280.736	165.44
280.968	144.44
281.199	151.44
281.431	141.44
281.662	152.44
281.894	141.44
282.125	156.44
282.356	128.44
282.588	154.44
282.819	140.44
283.051	154.44
283.282	138.44
283.513	155.44
283.745	139.44
283.976	153.44
284.207	142.44
284.439	152.44
284.67	170.44
284.901	143.44
285.132	171.44
285.364	147.44
285.595	148.44
285.826	169.44
286.057	139.44
286.288	151.44
286.52	164.44
286.751	164.44
286.982	164.44
287.213	152.44
287.444	151.44
287.675	170.44
287.906	171.44
288.138	167.44
288.369	163.44
288.6	147.44
288.831	148.44
289.062	169.44
289.293	151.44
289.524	165.44
289.755	160.44
289.986	156.44
290.217	161.44
290.448	154.44
290.679	162.44
290.91	162.44
291.141	154.44
291.371	160.44
291.602	154.44
291.833	147.44
292.064	157.44
292.295	154.44
292.526	145.44
292.757	160.44
292.987	161.44
293.218	157.44
293.449	164.44
293.68	157.44
293.91	148.44
294.141	161.44
294.372	168.44
294.603	157.44
294.833	162.44
295.064	161.44
295.295	158.44
295.525	153.44
295.756	166.44
295.987	172.44
296.217	166.44
296.448	156.44
296.679	150.44
296.909	143.44
297.14	165.44
297.37	180.44
297.601	167.44
297.831	163.44
298.062	171.44
298.292	172.44
298.523	168.44
298.753	155.44
298.984	161.44
299.214	168.44
299.445	157.44
299.675	167.44
299.905	159.44
300.136	153.44
300.366	156.44
300.597	166.44
300.827	163.44
301.057	157.44
301.288	156.44
301.518	164.44
301.748	161.44
301.979	216.44
302.209	187.44
302.439	164.44
302.669	168.44
302.9	171.44
303.13	185.44
303.36	177.44
303.59	164.44
303.82	159.44
304.051	160.44
304.281	164.44
304.511	181.44
304.741	175.44
304.971	172.44
305.201	175.44
305.431	166.44
305.661	163.44
305.891	168.44
306.121	177.44
306.352	162.44
306.582	162.44
306.812	184.44
307.042	177.44
307.272	191.44
307.502	173.44
307.731	199.44
307.961	202.44
308.191	186.44
308.421	183.44
308.651	178.44
308.881	190.44
309.111	179.44
309.341	160.44
309.571	165.44
309.8	167.44
310.03	180.44
310.26	163.44
310.49	163.44
310.72	165.44
310.949	171.44
311.179	176.44
311.409	178.44
311.639	189.44
311.868	175.44
312.098	176.44
312.328	184.44
312.557	179.44
312.787	191.44
313.017	198.44
313.246	171.44
313.476	180.44
313.706	175.44
313.935	175.44
314.165	185.44
314.394	177.44
314.624	175.44
314.853	193.44
315.083	163.44
315.312	184.44
315.542	194.44
315.771	181.44
316.001	173.44
316.23	192.44
316.46	184.44
316.689	175.44
316.919	179.44
317.148	175.44
317.377	198.44
317.607	187.44
317.836	178.44
318.065	185.44
318.295	173.44
318.524	168.44
318.753	173.44
318.983	192.44
319.212	181.44
319.441	187.44
319.67	189.44
319.9	184.44
320.129	194.44
320.358	189.44
320.587	194.44
320.816	171.44
321.046	184.44
321.275	199.44
321.504	177.44
321.733	188.44
321.962	185.44
322.191	188.44
322.42	185.44
322.649	203.44
322.878	203.44
323.108	195.44
323.337	220.44
323.566	227.44
323.795	223.44
324.024	217.44
324.253	201.44
324.482	189.44
324.71	200.44
324.939	208.44
325.168	201.44
325.397	191.44
325.626	189.44
325.855	194.44
326.084	196.44
326.313	198.44
326.542	189.44
326.77	197.44
326.999	210.44
327.228	221.44
327.457	206.44
327.686	212.44
327.914	239.44
328.143	262.44
328.372	257.44
328.6	241.44
328.829	218.44
329.058	205.44
329.287	212.44
329.515	205.44
329.744	243.44
329.972	282.44
330.201	325.44
330.43	317.44
330.658	274.44
330.887	245.44
331.115	237.44
331.344	213.44
331.572	220.44
331.801	231.44
332.03	226.44
332.258	236.44
332.486	237.44
332.715	248.44
332.943	256.44
333.172	267.44
333.4	263.44
333.629	271.44
333.857	311.44
334.085	344.44
334.314	399.44
334.542	452.44
334.771	419.44
334.999	344.44
335.227	289.44
335.455	264.44
335.684	248.44
335.912	249.44
336.14	257.44
336.369	248.44
336.597	252.44
336.825	237.44
337.053	230.44
337.281	260.44
337.51	244.44
337.738	244.44
337.966	233.44
338.194	228.44
338.422	223.44
338.65	235.44
338.878	210.44
339.106	206.44
339.334	219.44
339.562	206.44
339.79	206.44
340.018	186.44
340.246	183.44
340.474	219.44
340.702	217.44
340.93	211.44
341.158	201.44
341.386	203.44
341.614	200.44
341.842	189.44
342.07	196.44
342.298	184.44
342.526	192.44
342.754	196.44
342.981	193.44
343.209	211.44
343.437	234.44
343.665	216.44
343.893	231.44
344.12	239.44
344.348	220.44
344.576	221.44
344.804	208.44
345.031	205.44
345.259	211.44
345.487	188.44
345.714	202.44
345.942	191.44
346.17	195.44
346.397	196.44
346.625	195.44
346.853	198.44
347.08	188.44
347.308	181.44
347.535	196.44
347.763	198.44
347.99	208.44
348.218	213.44
348.445	197.44
348.673	208.44
348.9	193.44
349.128	194.44
349.355	212.44
349.583	190.44
349.81	202.44
350.037	184.44
350.265	199.44
350.492	186.44
350.72	201.44
350.947	196.44
351.174	196.44
351.402	187.44
351.629	180.44
351.856	193.44
352.083	175.44
352.311	189.44
352.538	191.44
352.765	195.44
352.992	213.44
353.22	211.44
353.447	201.44
353.674	194.44
353.901	179.44
354.128	173.44
354.355	200.44
354.583	207.44
354.81	191.44
355.037	212.44
355.264	188.44
355.491	196.44
355.718	192.44
355.945	184.44
356.172	181.44
356.399	181.44
356.626	176.44
356.853	201.44
357.08	203.44
357.307	187.44
357.534	169.44
357.761	196.44
357.988	196.44
358.215	202.44
358.441	200.44
358.668	195.44
358.895	194.44
359.122	208.44
359.349	192.44
359.576	195.44
359.802	198.44
360.029	196.44
360.256	197.44
360.483	201.44
360.709	193.44
360.936	211.44
361.163	192.44
361.39	192.44
361.616	188.44
361.843	186.44
362.07	188.44
362.296	201.44
362.523	200.44
362.749	194.44
362.976	187.44
363.203	227.44
363.429	196.44
363.656	202.44
363.882	203.44
364.109	211.44
364.335	200.44
364.562	201.44
364.788	183.44
365.015	206.44
365.241	208.44
365.468	225.44
365.694	205.44
365.92	205.44
366.147	182.44
366.373	183.44
366.599	202.44
366.826	194.44
367.052	203.44
367.278	201.44
367.505	203.44
367.731	201.44
367.957	203.44
368.184	184.44
368.41	210.44
368.636	215.44
368.862	195.44
369.089	188.44
369.315	186.44
369.541	206.44
369.767	196.44
369.993	189.44
370.219	195.44
370.445	222.44
370.672	184.44
370.898	212.44
371.124	206.44
371.35	219.44
371.576	195.44
371.802	200.44
372.028	205.44
372.254	196.44
372.48	209.44
372.706	221.44
372.932	234.44
373.158	227.44
373.384	234.44
373.61	219.44
373.835	202.44
374.061	228.44
374.287	229.44
374.513	204.44
374.739	229.44
374.965	224.44
375.191	232.44
375.416	257.44
375.642	234.44
375.868	232.44
376.094	257.44
376.319	239.44
376.545	219.44
376.771	200.44
376.997	200.44
377.222	203.44
377.448	215.44
377.674	210.44
377.899	213.44
378.125	194.44
378.35	225.44
378.576	216.44
378.802	227.44
379.027	202.44
379.253	213.44
379.478	217.44
379.704	200.44
379.929	200.44
380.155	210.44
380.38	216.44
380.606	194.44
380.831	194.44
381.057	217.44
381.282	209.44
381.507	211.44
381.733	227.44
381.958	211.44
382.184	197.44
382.409	210.44
382.634	224.44
382.86	229.44
383.085	222.44
383.31	240.44
383.535	247.44
383.761	248.44
383.986	253.44
384.211	238.44
384.436	229.44
384.662	267.44
384.887	246.44
385.112	233.44
385.337	267.44
385.562	249.44
385.787	260.44
386.013	264.44
386.238	268.44
386.463	239.44
386.688	281.44
386.913	249.44
387.138	263.44
387.363	252.44
387.588	267.44
387.813	263.44
388.038	251.44
388.263	253.44
388.488	234.44
388.713	244.44
388.938	260.44
389.163	250.44
389.387	227.44
389.612	232.44
389.837	258.44
390.062	255.44
390.287	235.44
390.512	253.44
390.736	243.44
390.961	241.44
391.186	260.44
391.411	274.44
391.636	275.44
391.86	276.44
392.085	277.44
392.31	255.44
392.534	265.44
392.759	265.44
392.984	285.44
393.208	339.44
393.433	397.44
393.658	353.44
393.882	278.44
394.107	277.44
394.331	281.44
394.556	275.44
394.78	270.44
395.005	275.44
395.229	276.44
395.454	283.44
395.678	297.44
395.903	302.44
396.127	299.44
396.352	302.44
396.576	320.44
396.801	354.44
397.025	363.44
397.249	292.44
397.474	271.44
397.698	265.44
397.922	277.44
398.147	277.44
398.371	311.44
398.595	299.44
398.82	324.44
399.044	344.44
399.268	364.44
399.492	409.44
399.717	402.44
399.941	400.44
400.165	370.44
400.389	324.44
400.613	300.44
400.837	308.44
401.062	307.44
401.286	297.44
401.51	299.44
401.734	281.44
401.958	304.44
402.182	289.44
402.406	291.44
402.63	310.44
402.854	324.44
403.078	333.44
403.302	333.44
403.526	327.44
403.75	325.44
403.974	349.44
404.198	330.44
404.422	350.44
404.645	325.44
404.869	333.44
405.093	335.44
405.317	344.44
405.541	341.44
405.765	344.44
405.988	327.44
406.212	337.44
406.436	338.44
406.66	339.44
406.883	339.44
407.107	342.44
407.331	352.44
407.555	372.44
407.778	364.44
408.002	352.44
408.226	345.44
408.449	338.44
408.673	325.44
408.896	322.44
409.12	325.44
409.344	316.44
409.567	323.44
409.791	352.44
410.014	364.44
410.238	331.44
410.461	324.44
410.685	333.44
410.908	330.44
411.132	308.44
411.355	325.44
411.578	334.44
411.802	311.44
412.025	302.44
412.249	308.44
412.472	332.44
412.695	312.44
412.919	311.44
413.142	307.44
413.365	307.44
413.589	307.44
413.812	294.44
414.035	301.44
414.258	310.44
414.482	312.44
414.705	318.44
414.928	317.44
415.151	312.44
415.374	288.44
415.597	314.44
415.821	323.44
416.044	311.44
416.267	304.44
416.49	327.44
416.713	306.44
416.936	305.44
417.159	315.44
417.382	312.44
417.605	319.44
417.828	312.44
418.051	300.44
418.274	317.44
418.497	305.44
418.72	311.44
418.943	345.44
419.166	341.44
419.389	333.44
419.611	324.44
419.834	300.44
420.057	351.44
420.28	319.44
420.503	300.44
420.726	297.44
420.948	309.44
421.171	312.44
421.394	336.44
421.617	317.44
421.839	311.44
422.062	322.44
422.285	313.44
422.507	355.44
422.73	394.44
422.953	381.44
423.175	336.44
423.398	316.44
423.621	330.44
423.843	316.44
424.066	315.44
424.288	319.44
424.511	336.44
424.733	324.44
424.956	336.44
425.178	314.44
425.401	315.44
425.623	325.44
425.846	291.44
426.068	302.44
426.291	301.44
426.513	307.44
426.735	301.44
426.958	290.44
427.18	282.44
427.402	309.44
427.625	288.44
427.847	298.44
428.069	313.44
428.292	316.44
428.514	307.44
428.736	293.44
428.958	313.44
429.181	308.44
429.403	314.44
429.625	283.44
429.847	299.44
430.069	330.44
430.292	346.44
430.514	305.44
430.736	314.44
430.958	293.44
431.18	287.44
431.402	289.44
431.624	296.44
431.846	287.44
432.068	267.44
432.29	271.44
432.512	291.44
432.734	293.44
432.956	277.44
433.178	302.44
433.4	280.44
433.622	293.44
433.844	293.44
434.066	280.44
434.287	280.44
434.509	280.44
434.731	300.44
434.953	300.44
435.175	289.44
435.397	291.44
435.618	276.44
435.84	281.44
436.062	280.44
436.284	288.44
436.505	275.44
436.727	282.44
436.949	282.44
437.17	283.44
437.392	277.44
437.614	265.44
437.835	263.44
438.057	258.44
438.278	262.44
438.5	270.44
438.721	271.44
438.943	283.44
439.165	285.44
439.386	283.44
439.608	271.44
439.829	283.44
440.05	294.44
440.272	294.44
440.493	291.44
440.715	292.44
440.936	284.44
441.158	324.44
441.379	303.44
441.6	317.44
441.822	326.44
442.043	315.44
442.264	301.44
442.486	291.44
442.707	301.44
442.928	321.44
443.149	311.44
443.371	313.44
443.592	307.44
443.813	308.44
444.034	331.44
444.255	319.44
444.476	343.44
444.698	354.44
444.919	357.44
445.14	536.44
445.361	433.44
445.582	350.44
445.803	341.44
446.024	320.44
446.245	329.44
446.466	301.44
446.687	308.44
446.908	300.44
447.129	305.44
447.35	305.44
447.571	292.44
447.792	272.44
448.013	284.44
448.234	260.44
448.455	271.44
448.675	272.44
448.896	272.44
449.117	265.44
449.338	263.44
449.559	267.44
449.779	265.44
450	265.44
450.221	281.44
450.442	256.44
450.662	269.44
450.883	276.44
451.104	273.44
451.324	291.44
451.545	282.44
451.766	272.44
451.986	272.44
452.207	272.44
452.428	270.44
452.648	271.44
452.869	287.44
453.089	265.44
453.31	291.44
453.53	335.44
453.751	358.44
453.971	288.44
454.192	256.44
454.412	240.44
454.633	250.44
454.853	275.44
455.073	280.44
455.294	275.44
455.514	299.44
455.734	251.44
455.955	247.44
456.175	238.44
456.395	247.44
456.616	237.44
456.836	248.44
457.056	249.44
457.276	247.44
457.497	242.44
457.717	233.44
457.937	252.44
458.157	243.44
458.377	243.44
458.598	233.44
458.818	236.44
459.038	253.44
459.258	258.44
459.478	283.44
459.698	267.44
459.918	297.44
460.138	298.44
460.358	303.44
460.578	309.44
460.798	332.44
461.018	319.44
461.238	294.44
461.458	299.44
461.678	308.44
461.898	320.44
462.118	331.44
462.338	333.44
462.558	338.44
462.777	339.44
462.997	371.44
463.217	389.44
463.437	381.44
463.657	350.44
463.876	354.44
464.096	348.44
464.316	339.44
464.536	353.44
464.755	329.44
464.975	293.44
465.195	321.44
465.414	280.44
465.634	286.44
465.854	285.44
466.073	280.44
466.293	263.44
466.512	289.44
466.732	292.44
466.951	279.44
467.171	293.44
467.391	281.44
467.61	258.44
467.829	297.44
468.049	313.44
468.268	358.44
468.488	324.44
468.707	287.44
468.927	272.44
469.146	281.44
469.365	285.44
469.585	259.44
469.804	303.44
470.023	293.44
470.243	294.44
470.462	293.44
470.681	306.44
470.901	291.44
471.12	285.44
471.339	307.44
471.558	289.44
471.777	263.44
471.997	309.44
472.216	384.44
472.435	496.44
472.654	373.44
472.873	314.44
473.092	279.44
473.311	277.44
473.53	283.44
473.749	276.44
473.968	282.44
474.187	269.44
474.406	271.44
474.625	275.44
474.844	278.44
475.063	268.44
475.282	260.44
475.501	270.44
475.72	281.44
475.939	280.44
476.158	267.44
476.377	249.44
476.596	283.44
476.814	283.44
477.033	274.44
477.252	275.44
477.471	273.44
477.69	287.44
477.908	307.44
478.127	325.44
478.346	309.44
478.564	320.44
478.783	307.44
479.002	319.44
479.22	316.44
479.439	324.44
479.658	305.44
479.876	313.44
480.095	325.44
480.313	319.44
480.532	355.44
480.751	367.44
480.969	423.44
481.188	636.44
481.406	580.44
481.624	395.44
481.843	327.44
482.061	312.44
482.28	323.44
482.498	319.44
482.717	298.44
482.935	321.44
483.153	304.44
483.372	309.44
483.59	320.44
483.808	277.44
484.027	308.44
484.245	338.44
484.463	293.44
484.681	315.44
484.9	310.44
485.118	308.44
485.336	300.44
485.554	298.44
485.772	299.44
485.99	294.44
486.209	306.44
486.427	307.44
486.645	317.44
486.863	301.44
487.081	312.44
487.299	316.44
487.517	307.44
487.735	319.44
487.953	328.44
488.171	304.44
488.389	323.44
488.607	319.44
488.825	313.44
489.043	301.44
489.261	294.44
489.479	302.44
489.696	308.44
489.914	314.44
490.132	328.44
490.35	305.44
490.568	320.44
490.786	343.44
491.003	334.44
491.221	337.44
491.439	357.44
491.657	375.44
491.874	362.44
492.092	356.44
492.31	375.44
492.527	367.44
492.745	350.44
492.963	356.44
493.18	364.44
493.398	356.44
493.615	354.44
493.833	356.44
494.05	369.44
494.268	345.44
494.485	339.44
494.703	338.44
494.92	344.44
495.138	333.44
495.355	340.44
495.573	356.44
495.79	343.44
496.008	367.44
496.225	353.44
496.442	335.44
496.66	372.44
496.877	343.44
497.094	376.44
497.312	347.44
497.529	375.44
497.746	375.44
497.963	386.44
498.181	421.44
498.398	467.44
498.615	426.44
498.832	439.44
499.049	481.44
499.267	591.44
499.484	527.44
499.701	575.44
499.918	641.44
500.135	749.44
500.352	796.44
500.569	754.44
500.786	795.44
501.003	738.44
501.22	637.44
501.437	612.44
501.654	591.44
501.871	509.44
502.088	459.44
502.305	465.44
502.522	459.44
502.739	439.44
502.956	385.44
503.172	375.44
503.389	381.44
503.606	358.44
503.823	400.44
