Data from SampB_HRD10591_00058.txt Node
Date: Mon Jan 19 11:33:48 EST 2026
User: Yrep
Spectrometer: HR+D1059
Trigger mode: 0
Integration Time (sec): 3.443000E-1
Scans to average: 1
Electric dark correction enabled: true
Nonlinearity correction enabled: false
Boxcar width: 0
XAxis mode: Wavelengths
Number of Pixels in Spectrum: 2048
>>>>>Begin Spectral Data<<<<<
223.165	-40.56
223.4	-40.56
223.635	-40.56
223.869	-21.56
224.104	-16.56
224.338	-0.56
224.573	-16.56
224.808	-4.56
225.042	-9.56
225.277	1.44
225.511	-14.56
225.746	9.44
225.98	16.44
226.215	5.44
226.449	15.44
226.683	17.44
226.918	25.44
227.152	33.44
227.387	44.44
227.621	41.44
227.856	48.44
228.09	41.44
228.324	42.44
228.559	60.44
228.793	62.44
229.027	71.44
229.262	81.44
229.496	77.44
229.73	65.44
229.964	92.44
230.199	70.44
230.433	59.44
230.667	70.44
230.901	85.44
231.136	83.44
231.37	92.44
231.604	101.44
231.838	92.44
232.072	92.44
232.306	88.44
232.541	81.44
232.775	75.44
233.009	90.44
233.243	91.44
233.477	87.44
233.711	103.44
233.945	95.44
234.179	95.44
234.413	90.44
234.647	89.44
234.881	85.44
235.115	80.44
235.349	100.44
235.583	95.44
235.817	93.44
236.051	91.44
236.285	89.44
236.519	81.44
236.753	81.44
236.987	72.44
237.221	76.44
237.455	92.44
237.689	94.44
237.922	80.44
238.156	82.44
238.39	89.44
238.624	76.44
238.858	91.44
239.091	91.44
239.325	82.44
239.559	92.44
239.793	77.44
240.027	103.44
240.26	99.44
240.494	87.44
240.728	95.44
240.961	96.44
241.195	87.44
241.429	90.44
241.662	93.44
241.896	93.44
242.13	67.44
242.363	75.44
242.597	81.44
242.83	101.44
243.064	83.44
243.298	86.44
243.531	88.44
243.765	86.44
243.998	94.44
244.232	91.44
244.465	88.44
244.699	95.44
244.932	82.44
245.166	93.44
245.399	77.44
245.633	95.44
245.866	91.44
246.099	90.44
246.333	81.44
246.566	79.44
246.8	83.44
247.033	76.44
247.266	75.44
247.5	90.44
247.733	79.44
247.966	111.44
248.2	96.44
248.433	100.44
248.666	88.44
248.899	103.44
249.133	101.44
249.366	101.44
249.599	86.44
249.832	99.44
250.066	112.44
250.299	92.44
250.532	96.44
250.765	92.44
250.998	101.44
251.231	90.44
251.465	77.44
251.698	96.44
251.931	105.44
252.164	89.44
252.397	81.44
252.63	99.44
252.863	94.44
253.096	97.44
253.329	105.44
253.562	90.44
253.795	91.44
254.028	103.44
254.261	85.44
254.494	107.44
254.727	106.44
254.96	95.44
255.193	77.44
255.426	85.44
255.659	102.44
255.892	95.44
256.124	105.44
256.357	105.44
256.59	109.44
256.823	101.44
257.056	99.44
257.289	96.44
257.521	107.44
257.754	107.44
257.987	92.44
258.22	109.44
258.452	113.44
258.685	109.44
258.918	109.44
259.151	95.44
259.383	99.44
259.616	90.44
259.849	88.44
260.081	103.44
260.314	114.44
260.547	102.44
260.779	103.44
261.012	106.44
261.244	119.44
261.477	129.44
261.71	100.44
261.942	94.44
262.175	102.44
262.407	103.44
262.64	100.44
262.872	102.44
263.105	114.44
263.337	91.44
263.57	92.44
263.802	97.44
264.035	103.44
264.267	113.44
264.499	118.44
264.732	101.44
264.964	94.44
265.197	113.44
265.429	107.44
265.661	89.44
265.894	95.44
266.126	98.44
266.358	106.44
266.591	108.44
266.823	109.44
267.055	112.44
267.287	102.44
267.52	100.44
267.752	105.44
267.984	98.44
268.216	103.44
268.448	114.44
268.681	114.44
268.913	109.44
269.145	83.44
269.377	97.44
269.609	100.44
269.841	109.44
270.073	112.44
270.306	101.44
270.538	120.44
270.77	122.44
271.002	101.44
271.234	112.44
271.466	120.44
271.698	110.44
271.93	121.44
272.162	114.44
272.394	98.44
272.626	119.44
272.858	116.44
273.09	107.44
273.322	119.44
273.553	104.44
273.785	114.44
274.017	105.44
274.249	130.44
274.481	122.44
274.713	112.44
274.945	116.44
275.176	125.44
275.408	133.44
275.64	116.44
275.872	111.44
276.104	115.44
276.335	106.44
276.567	130.44
276.799	115.44
277.031	134.44
277.262	105.44
277.494	113.44
277.726	115.44
277.957	113.44
278.189	110.44
278.421	95.44
278.652	109.44
278.884	116.44
279.115	122.44
279.347	126.44
279.579	130.44
279.81	149.44
280.042	133.44
280.273	140.44
280.505	124.44
280.736	136.44
280.968	113.44
281.199	120.44
281.431	126.44
281.662	105.44
281.894	108.44
282.125	121.44
282.356	103.44
282.588	107.44
282.819	106.44
283.051	120.44
283.282	102.44
283.513	130.44
283.745	124.44
283.976	114.44
284.207	115.44
284.439	125.44
284.67	121.44
284.901	124.44
285.132	120.44
285.364	127.44
285.595	133.44
285.826	129.44
286.057	114.44
286.288	123.44
286.52	96.44
286.751	104.44
286.982	140.44
287.213	134.44
287.444	119.44
287.675	124.44
287.906	134.44
288.138	118.44
288.369	123.44
288.6	120.44
288.831	121.44
289.062	139.44
289.293	118.44
289.524	124.44
289.755	118.44
289.986	133.44
290.217	127.44
290.448	115.44
290.679	135.44
290.91	121.44
291.141	121.44
291.371	126.44
291.602	116.44
291.833	136.44
292.064	104.44
292.295	115.44
292.526	132.44
292.757	118.44
292.987	127.44
293.218	120.44
293.449	126.44
293.68	126.44
293.91	129.44
294.141	137.44
294.372	126.44
294.603	123.44
294.833	124.44
295.064	131.44
295.295	128.44
295.525	118.44
295.756	135.44
295.987	128.44
296.217	115.44
296.448	122.44
296.679	134.44
296.909	151.44
297.14	139.44
297.37	138.44
297.601	120.44
297.831	128.44
298.062	127.44
298.292	116.44
298.523	123.44
298.753	120.44
298.984	146.44
299.214	126.44
299.445	138.44
299.675	126.44
299.905	112.44
300.136	110.44
300.366	141.44
300.597	122.44
300.827	133.44
301.057	147.44
301.288	125.44
301.518	119.44
301.748	137.44
301.979	169.44
302.209	133.44
302.439	127.44
302.669	126.44
302.9	133.44
303.13	116.44
303.36	130.44
303.59	138.44
303.82	134.44
304.051	104.44
304.281	125.44
304.511	150.44
304.741	128.44
304.971	133.44
305.201	116.44
305.431	128.44
305.661	109.44
305.891	135.44
306.121	139.44
306.352	132.44
306.582	135.44
306.812	122.44
307.042	128.44
307.272	114.44
307.502	138.44
307.731	133.44
307.961	150.44
308.191	121.44
308.421	137.44
308.651	135.44
308.881	139.44
309.111	127.44
309.341	143.44
309.571	140.44
309.8	134.44
310.03	124.44
310.26	129.44
310.49	126.44
310.72	124.44
310.949	137.44
311.179	123.44
311.409	123.44
311.639	136.44
311.868	137.44
312.098	149.44
312.328	133.44
312.557	134.44
312.787	140.44
313.017	150.44
313.246	139.44
313.476	133.44
313.706	114.44
313.935	137.44
314.165	135.44
314.394	142.44
314.624	128.44
314.853	134.44
315.083	127.44
315.312	133.44
315.542	137.44
315.771	136.44
316.001	123.44
316.23	124.44
316.46	133.44
316.689	137.44
316.919	134.44
317.148	135.44
317.377	140.44
317.607	149.44
317.836	141.44
318.065	134.44
318.295	138.44
318.524	133.44
318.753	133.44
318.983	138.44
319.212	155.44
319.441	130.44
319.67	134.44
319.9	146.44
320.129	144.44
320.358	137.44
320.587	137.44
320.816	136.44
321.046	136.44
321.275	131.44
321.504	123.44
321.733	123.44
321.962	134.44
322.191	124.44
322.42	137.44
322.649	142.44
322.878	145.44
323.108	152.44
323.337	151.44
323.566	163.44
323.795	148.44
324.024	157.44
324.253	143.44
324.482	142.44
324.71	144.44
324.939	143.44
325.168	130.44
325.397	132.44
325.626	128.44
325.855	123.44
326.084	150.44
326.313	151.44
326.542	135.44
326.77	158.44
326.999	134.44
327.228	131.44
327.457	143.44
327.686	150.44
327.914	158.44
328.143	169.44
328.372	154.44
328.6	158.44
328.829	153.44
329.058	138.44
329.287	145.44
329.515	163.44
329.744	154.44
329.972	159.44
330.201	180.44
330.43	174.44
330.658	156.44
330.887	151.44
331.115	155.44
331.344	162.44
331.572	153.44
331.801	155.44
332.03	149.44
332.258	157.44
332.486	165.44
332.715	149.44
332.943	161.44
333.172	181.44
333.4	177.44
333.629	175.44
333.857	188.44
334.085	199.44
334.314	213.44
334.542	215.44
334.771	219.44
334.999	191.44
335.227	171.44
335.455	181.44
335.684	183.44
335.912	168.44
336.14	156.44
336.369	171.44
336.597	143.44
336.825	152.44
337.053	162.44
337.281	161.44
337.51	140.44
337.738	157.44
337.966	146.44
338.194	149.44
338.422	158.44
338.65	165.44
338.878	161.44
339.106	160.44
339.334	172.44
339.562	133.44
339.79	131.44
340.018	125.44
340.246	120.44
340.474	134.44
340.702	151.44
340.93	137.44
341.158	157.44
341.386	134.44
341.614	121.44
341.842	136.44
342.07	132.44
342.298	130.44
342.526	141.44
342.754	142.44
342.981	140.44
343.209	142.44
343.437	175.44
343.665	139.44
343.893	177.44
344.12	168.44
344.348	151.44
344.576	158.44
344.804	144.44
345.031	161.44
345.259	149.44
345.487	122.44
345.714	132.44
345.942	143.44
346.17	138.44
346.397	143.44
346.625	138.44
346.853	146.44
347.08	137.44
347.308	145.44
347.535	133.44
347.763	125.44
347.99	143.44
348.218	145.44
348.445	131.44
348.673	133.44
348.9	132.44
349.128	148.44
349.355	139.44
349.583	145.44
349.81	141.44
350.037	134.44
350.265	135.44
350.492	138.44
350.72	154.44
350.947	140.44
351.174	151.44
351.402	137.44
351.629	155.44
351.856	133.44
352.083	130.44
352.311	138.44
352.538	143.44
352.765	133.44
352.992	166.44
353.22	145.44
353.447	141.44
353.674	127.44
353.901	138.44
354.128	125.44
354.355	139.44
354.583	125.44
354.81	145.44
355.037	149.44
355.264	141.44
355.491	141.44
355.718	142.44
355.945	161.44
356.172	123.44
356.399	140.44
356.626	137.44
356.853	157.44
357.08	149.44
357.307	158.44
357.534	165.44
357.761	147.44
357.988	162.44
358.215	153.44
358.441	142.44
358.668	154.44
358.895	133.44
359.122	136.44
359.349	139.44
359.576	137.44
359.802	144.44
360.029	160.44
360.256	144.44
360.483	151.44
360.709	125.44
360.936	168.44
361.163	130.44
361.39	137.44
361.616	130.44
361.843	149.44
362.07	157.44
362.296	146.44
362.523	123.44
362.749	141.44
362.976	146.44
363.203	144.44
363.429	148.44
363.656	153.44
363.882	141.44
364.109	149.44
364.335	138.44
364.562	138.44
364.788	149.44
365.015	142.44
365.241	149.44
365.468	155.44
365.694	135.44
365.92	155.44
366.147	140.44
366.373	127.44
366.599	130.44
366.826	144.44
367.052	140.44
367.278	150.44
367.505	147.44
367.731	152.44
367.957	137.44
368.184	140.44
368.41	144.44
368.636	156.44
368.862	157.44
369.089	128.44
369.315	152.44
369.541	146.44
369.767	141.44
369.993	142.44
370.219	141.44
370.445	135.44
370.672	140.44
370.898	151.44
371.124	150.44
371.35	159.44
371.576	146.44
371.802	150.44
372.028	161.44
372.254	170.44
372.48	157.44
372.706	155.44
372.932	171.44
373.158	157.44
373.384	189.44
373.61	182.44
373.835	163.44
374.061	163.44
374.287	152.44
374.513	151.44
374.739	145.44
374.965	151.44
375.191	165.44
375.416	156.44
375.642	161.44
375.868	161.44
376.094	173.44
376.319	181.44
376.545	164.44
376.771	174.44
376.997	157.44
377.222	150.44
377.448	153.44
377.674	155.44
377.899	151.44
378.125	143.44
378.35	154.44
378.576	160.44
378.802	140.44
379.027	140.44
379.253	138.44
379.478	170.44
379.704	148.44
379.929	159.44
380.155	148.44
380.38	153.44
380.606	150.44
380.831	161.44
381.057	162.44
381.282	154.44
381.507	170.44
381.733	168.44
381.958	168.44
382.184	149.44
382.409	161.44
382.634	171.44
382.86	173.44
383.085	172.44
383.31	155.44
383.535	181.44
383.761	179.44
383.986	186.44
384.211	180.44
384.436	179.44
384.662	167.44
384.887	170.44
385.112	185.44
385.337	173.44
385.562	160.44
385.787	166.44
386.013	156.44
386.238	176.44
386.463	174.44
386.688	201.44
386.913	168.44
387.138	174.44
387.363	157.44
387.588	169.44
387.813	160.44
388.038	166.44
388.263	188.44
388.488	181.44
388.713	166.44
388.938	176.44
389.163	171.44
389.387	171.44
389.612	165.44
389.837	150.44
390.062	177.44
390.287	184.44
390.512	189.44
390.736	160.44
390.961	173.44
391.186	169.44
391.411	184.44
391.636	168.44
391.86	191.44
392.085	170.44
392.31	179.44
392.534	177.44
392.759	216.44
392.984	218.44
393.208	230.44
393.433	273.44
393.658	244.44
393.882	194.44
394.107	197.44
394.331	193.44
394.556	187.44
394.78	203.44
395.005	165.44
395.229	181.44
395.454	198.44
395.678	191.44
395.903	197.44
396.127	200.44
396.352	200.44
396.576	219.44
396.801	238.44
397.025	228.44
397.249	210.44
397.474	214.44
397.698	185.44
397.922	188.44
398.147	189.44
398.371	178.44
398.595	203.44
398.82	204.44
399.044	199.44
399.268	220.44
399.492	255.44
399.717	284.44
399.941	255.44
400.165	220.44
400.389	201.44
400.613	197.44
400.837	206.44
401.062	213.44
401.286	193.44
401.51	191.44
401.734	191.44
401.958	193.44
402.182	195.44
402.406	202.44
402.63	215.44
402.854	208.44
403.078	218.44
403.302	201.44
403.526	205.44
403.75	224.44
403.974	226.44
404.198	219.44
404.422	219.44
404.645	230.44
404.869	221.44
405.093	201.44
405.317	232.44
405.541	222.44
405.765	225.44
405.988	204.44
406.212	222.44
406.436	214.44
406.66	221.44
406.883	225.44
407.107	238.44
407.331	244.44
407.555	235.44
407.778	226.44
408.002	222.44
408.226	221.44
408.449	226.44
408.673	214.44
408.896	209.44
409.12	210.44
409.344	207.44
409.567	206.44
409.791	225.44
410.014	220.44
410.238	203.44
410.461	215.44
410.685	197.44
410.908	227.44
411.132	223.44
411.355	212.44
411.578	218.44
411.802	197.44
412.025	232.44
412.249	207.44
412.472	198.44
412.695	220.44
412.919	224.44
413.142	199.44
413.365	197.44
413.589	202.44
413.812	214.44
414.035	189.44
414.258	194.44
414.482	215.44
414.705	212.44
414.928	207.44
415.151	213.44
415.374	211.44
415.597	181.44
415.821	190.44
416.044	208.44
416.267	194.44
416.49	198.44
416.713	201.44
416.936	185.44
417.159	201.44
417.382	204.44
417.605	189.44
417.828	204.44
418.051	199.44
418.274	202.44
418.497	209.44
418.72	216.44
418.943	209.44
419.166	223.44
419.389	224.44
419.611	220.44
419.834	218.44
420.057	211.44
420.28	210.44
420.503	212.44
420.726	197.44
420.948	216.44
421.171	213.44
421.394	194.44
421.617	193.44
421.839	194.44
422.062	216.44
422.285	202.44
422.507	208.44
422.73	236.44
422.953	227.44
423.175	210.44
423.398	207.44
423.621	227.44
423.843	206.44
424.066	205.44
424.288	207.44
424.511	209.44
424.733	230.44
424.956	214.44
425.178	217.44
425.401	190.44
425.623	189.44
425.846	180.44
426.068	203.44
426.291	199.44
426.513	189.44
426.735	199.44
426.958	200.44
427.18	177.44
427.402	205.44
427.625	204.44
427.847	178.44
428.069	200.44
428.292	180.44
428.514	206.44
428.736	188.44
428.958	199.44
429.181	201.44
429.403	186.44
429.625	194.44
429.847	198.44
430.069	215.44
430.292	208.44
430.514	198.44
430.736	189.44
430.958	189.44
431.18	185.44
431.402	201.44
431.624	202.44
431.846	191.44
432.068	185.44
432.29	188.44
432.512	188.44
432.734	202.44
432.956	199.44
433.178	199.44
433.4	179.44
433.622	186.44
433.844	185.44
434.066	172.44
434.287	176.44
434.509	205.44
434.731	207.44
434.953	198.44
435.175	204.44
435.397	189.44
435.618	187.44
435.84	192.44
436.062	190.44
436.284	197.44
436.505	190.44
436.727	184.44
436.949	183.44
437.17	192.44
437.392	196.44
437.614	189.44
437.835	167.44
438.057	172.44
438.278	185.44
438.5	191.44
438.721	186.44
438.943	192.44
439.165	176.44
439.386	184.44
439.608	208.44
439.829	186.44
440.05	189.44
440.272	205.44
440.493	192.44
440.715	198.44
440.936	199.44
441.158	195.44
441.379	194.44
441.6	215.44
441.822	202.44
442.043	207.44
442.264	194.44
442.486	211.44
442.707	197.44
442.928	213.44
443.149	202.44
443.371	202.44
443.592	208.44
443.813	206.44
444.034	216.44
444.255	228.44
444.476	217.44
444.698	237.44
444.919	227.44
445.14	411.44
445.361	297.44
445.582	217.44
445.803	213.44
446.024	199.44
446.245	208.44
446.466	205.44
446.687	184.44
446.908	207.44
447.129	201.44
447.35	195.44
447.571	202.44
447.792	190.44
448.013	197.44
448.234	187.44
448.455	192.44
448.675	190.44
448.896	176.44
449.117	187.44
449.338	166.44
449.559	194.44
449.779	176.44
450	173.44
450.221	173.44
450.442	180.44
450.662	161.44
450.883	176.44
451.104	184.44
451.324	189.44
451.545	171.44
451.766	190.44
451.986	187.44
452.207	185.44
452.428	176.44
452.648	174.44
452.869	184.44
453.089	165.44
453.31	185.44
453.53	184.44
453.751	181.44
453.971	171.44
454.192	178.44
454.412	177.44
454.633	165.44
454.853	174.44
455.073	168.44
455.294	169.44
455.514	183.44
455.734	181.44
455.955	167.44
456.175	168.44
456.395	163.44
456.616	173.44
456.836	179.44
457.056	174.44
457.276	159.44
457.497	167.44
457.717	150.44
457.937	175.44
458.157	165.44
458.377	160.44
458.598	162.44
458.818	165.44
459.038	174.44
459.258	168.44
459.478	183.44
459.698	193.44
459.918	192.44
460.138	182.44
460.358	203.44
460.578	208.44
460.798	214.44
461.018	214.44
461.238	223.44
461.458	200.44
461.678	202.44
461.898	217.44
462.118	215.44
462.338	209.44
462.558	223.44
462.777	223.44
462.997	260.44
463.217	249.44
463.437	257.44
463.657	232.44
463.876	217.44
464.096	227.44
464.316	227.44
464.536	215.44
464.755	226.44
464.975	208.44
465.195	209.44
465.414	226.44
465.634	202.44
465.854	193.44
466.073	179.44
466.293	208.44
466.512	194.44
466.732	183.44
466.951	211.44
467.171	191.44
467.391	196.44
467.61	212.44
467.829	178.44
468.049	204.44
468.268	197.44
468.488	199.44
468.707	192.44
468.927	187.44
469.146	191.44
469.365	198.44
469.585	192.44
469.804	206.44
470.023	178.44
470.243	207.44
470.462	197.44
470.681	181.44
470.901	184.44
471.12	199.44
471.339	202.44
471.558	188.44
471.777	169.44
471.997	201.44
472.216	217.44
472.435	237.44
472.654	209.44
472.873	189.44
473.092	183.44
473.311	183.44
473.53	191.44
473.749	184.44
473.968	187.44
474.187	188.44
474.406	170.44
474.625	184.44
474.844	183.44
475.063	178.44
475.282	174.44
475.501	180.44
475.72	204.44
475.939	188.44
476.158	176.44
476.377	194.44
476.596	189.44
476.814	173.44
477.033	172.44
477.252	168.44
477.471	199.44
477.69	203.44
477.908	214.44
478.127	219.44
478.346	210.44
478.564	205.44
478.783	205.44
479.002	205.44
479.22	213.44
479.439	216.44
479.658	212.44
479.876	210.44
480.095	206.44
480.313	221.44
480.532	224.44
480.751	222.44
480.969	240.44
481.188	309.44
481.406	285.44
481.624	224.44
481.843	217.44
482.061	190.44
482.28	200.44
482.498	205.44
482.717	186.44
482.935	209.44
483.153	226.44
483.372	215.44
483.59	200.44
483.808	189.44
484.027	213.44
484.245	205.44
484.463	198.44
484.681	223.44
484.9	219.44
485.118	196.44
485.336	187.44
485.554	208.44
485.772	199.44
485.99	186.44
486.209	198.44
486.427	203.44
486.645	210.44
486.863	203.44
487.081	223.44
487.299	211.44
487.517	214.44
487.735	215.44
487.953	235.44
488.171	221.44
488.389	212.44
488.607	202.44
488.825	195.44
489.043	201.44
489.261	189.44
489.479	206.44
489.696	208.44
489.914	190.44
490.132	205.44
490.35	201.44
490.568	191.44
490.786	209.44
491.003	224.44
491.221	214.44
491.439	232.44
491.657	224.44
491.874	243.44
492.092	239.44
492.31	242.44
492.527	232.44
492.745	210.44
492.963	239.44
493.18	222.44
493.398	237.44
493.615	233.44
493.833	208.44
494.05	215.44
494.268	225.44
494.485	226.44
494.703	222.44
494.92	216.44
495.138	219.44
495.355	224.44
495.573	226.44
495.79	219.44
496.008	222.44
496.225	241.44
496.442	221.44
496.66	227.44
496.877	228.44
497.094	245.44
497.312	236.44
497.529	218.44
497.746	240.44
497.963	248.44
498.181	247.44
498.398	274.44
498.615	269.44
498.832	266.44
499.049	288.44
499.267	325.44
499.484	322.44
499.701	351.44
499.918	384.44
500.135	425.44
500.352	471.44
500.569	451.44
500.786	470.44
501.003	425.44
501.22	370.44
501.437	356.44
501.654	329.44
501.871	319.44
502.088	295.44
502.305	286.44
502.522	262.44
502.739	266.44
502.956	245.44
503.172	230.44
503.389	226.44
503.606	242.44
503.823	235.44
504.04	228.44
504.256	257.44
504.473	231.44
