Data from SampB_HRD10591_00056.txt Node
Date: Mon Jan 19 11:33:47 EST 2026
User: Yrep
Spectrometer: HR+D1059
Trigger mode: 0
Integration Time (sec): 3.443000E-1
Scans to average: 1
Electric dark correction enabled: true
Nonlinearity correction enabled: false
Boxcar width: 0
XAxis mode: Wavelengths
Number of Pixels in Spectrum: 2048
>>>>>Begin Spectral Data<<<<<
223.165	-21.38
223.4	-21.38
223.635	-21.38
223.869	-30.38
224.104	-37.38
224.338	-14.38
224.573	-12.38
224.808	-6.38
225.042	6.62
225.277	10.62
225.511	-2.38
225.746	6.62
225.98	12.62
226.215	1.62
226.449	11.62
226.683	22.62
226.918	22.62
227.152	29.62
227.387	48.62
227.621	46.62
227.856	44.62
228.09	47.62
228.324	59.62
228.559	62.62
228.793	70.62
229.027	80.62
229.262	68.62
229.496	81.62
229.73	65.62
229.964	76.62
230.199	91.62
230.433	83.62
230.667	84.62
230.901	89.62
231.136	84.62
231.37	92.62
231.604	100.62
231.838	87.62
232.072	91.62
232.306	98.62
232.541	92.62
232.775	90.62
233.009	99.62
233.243	97.62
233.477	84.62
233.711	92.62
233.945	103.62
234.179	81.62
234.413	95.62
234.647	99.62
234.881	95.62
235.115	90.62
235.349	99.62
235.583	97.62
235.817	89.62
236.051	97.62
236.285	104.62
236.519	95.62
236.753	96.62
236.987	95.62
237.221	92.62
237.455	111.62
237.689	89.62
237.922	117.62
238.156	110.62
238.39	96.62
238.624	106.62
238.858	91.62
239.091	103.62
239.325	106.62
239.559	104.62
239.793	107.62
240.027	110.62
240.26	105.62
240.494	109.62
240.728	111.62
240.961	107.62
241.195	113.62
241.429	112.62
241.662	107.62
241.896	104.62
242.13	94.62
242.363	111.62
242.597	93.62
242.83	105.62
243.064	101.62
243.298	121.62
243.531	113.62
243.765	109.62
243.998	111.62
244.232	113.62
244.465	114.62
244.699	92.62
244.932	118.62
245.166	99.62
245.399	119.62
245.633	102.62
245.866	119.62
246.099	116.62
246.333	115.62
246.566	118.62
246.8	107.62
247.033	125.62
247.266	95.62
247.5	108.62
247.733	108.62
247.966	114.62
248.2	120.62
248.433	138.62
248.666	113.62
248.899	114.62
249.133	138.62
249.366	125.62
249.599	139.62
249.832	123.62
250.066	128.62
250.299	115.62
250.532	124.62
250.765	113.62
250.998	124.62
251.231	109.62
251.465	121.62
251.698	128.62
251.931	124.62
252.164	115.62
252.397	131.62
252.63	123.62
252.863	150.62
253.096	158.62
253.329	137.62
253.562	122.62
253.795	146.62
254.028	148.62
254.261	150.62
254.494	145.62
254.727	142.62
254.96	142.62
255.193	159.62
255.426	144.62
255.659	127.62
255.892	136.62
256.124	139.62
256.357	173.62
256.59	153.62
256.823	133.62
257.056	138.62
257.289	142.62
257.521	128.62
257.754	124.62
257.987	146.62
258.22	154.62
258.452	135.62
258.685	152.62
258.918	155.62
259.151	121.62
259.383	140.62
259.616	146.62
259.849	134.62
260.081	169.62
260.314	168.62
260.547	139.62
260.779	150.62
261.012	165.62
261.244	170.62
261.477	172.62
261.71	168.62
261.942	153.62
262.175	138.62
262.407	139.62
262.64	158.62
262.872	158.62
263.105	179.62
263.337	174.62
263.57	146.62
263.802	130.62
264.035	137.62
264.267	138.62
264.499	137.62
264.732	139.62
264.964	131.62
265.197	122.62
265.429	131.62
265.661	136.62
265.894	138.62
266.126	129.62
266.358	139.62
266.591	143.62
266.823	133.62
267.055	131.62
267.287	128.62
267.52	137.62
267.752	136.62
267.984	128.62
268.216	129.62
268.448	134.62
268.681	134.62
268.913	154.62
269.145	139.62
269.377	145.62
269.609	119.62
269.841	141.62
270.073	138.62
270.306	146.62
270.538	131.62
270.77	137.62
271.002	132.62
271.234	150.62
271.466	150.62
271.698	152.62
271.93	159.62
272.162	157.62
272.394	168.62
272.626	162.62
272.858	154.62
273.09	160.62
273.322	166.62
273.553	157.62
273.785	183.62
274.017	210.62
274.249	199.62
274.481	232.62
274.713	218.62
274.945	252.62
275.176	232.62
275.408	211.62
275.64	210.62
275.872	205.62
276.104	188.62
276.335	161.62
276.567	155.62
276.799	151.62
277.031	185.62
277.262	165.62
277.494	175.62
277.726	175.62
277.957	154.62
278.189	161.62
278.421	159.62
278.652	162.62
278.884	154.62
279.115	184.62
279.347	160.62
279.579	191.62
279.81	211.62
280.042	197.62
280.273	206.62
280.505	189.62
280.736	172.62
280.968	150.62
281.199	150.62
281.431	162.62
281.662	151.62
281.894	139.62
282.125	152.62
282.356	141.62
282.588	151.62
282.819	156.62
283.051	150.62
283.282	164.62
283.513	168.62
283.745	158.62
283.976	174.62
284.207	154.62
284.439	166.62
284.67	170.62
284.901	181.62
285.132	180.62
285.364	176.62
285.595	160.62
285.826	176.62
286.057	162.62
286.288	163.62
286.52	168.62
286.751	161.62
286.982	150.62
287.213	174.62
287.444	172.62
287.675	165.62
287.906	167.62
288.138	164.62
288.369	158.62
288.6	166.62
288.831	167.62
289.062	178.62
289.293	160.62
289.524	172.62
289.755	164.62
289.986	167.62
290.217	142.62
290.448	166.62
290.679	161.62
290.91	172.62
291.141	172.62
291.371	168.62
291.602	163.62
291.833	160.62
292.064	164.62
292.295	187.62
292.526	163.62
292.757	168.62
292.987	182.62
293.218	167.62
293.449	151.62
293.68	177.62
293.91	163.62
294.141	172.62
294.372	163.62
294.603	175.62
294.833	173.62
295.064	164.62
295.295	159.62
295.525	164.62
295.756	206.62
295.987	178.62
296.217	162.62
296.448	174.62
296.679	163.62
296.909	186.62
297.14	182.62
297.37	174.62
297.601	157.62
297.831	164.62
298.062	161.62
298.292	159.62
298.523	199.62
298.753	187.62
298.984	182.62
299.214	172.62
299.445	168.62
299.675	180.62
299.905	174.62
300.136	161.62
300.366	187.62
300.597	179.62
300.827	167.62
301.057	166.62
301.288	186.62
301.518	176.62
301.748	166.62
301.979	245.62
302.209	201.62
302.439	183.62
302.669	183.62
302.9	174.62
303.13	190.62
303.36	176.62
303.59	195.62
303.82	180.62
304.051	189.62
304.281	177.62
304.511	198.62
304.741	185.62
304.971	164.62
305.201	181.62
305.431	192.62
305.661	186.62
305.891	196.62
306.121	183.62
306.352	170.62
306.582	187.62
306.812	190.62
307.042	198.62
307.272	197.62
307.502	213.62
307.731	215.62
307.961	211.62
308.191	204.62
308.421	192.62
308.651	195.62
308.881	199.62
309.111	206.62
309.341	186.62
309.571	195.62
309.8	193.62
310.03	174.62
310.26	187.62
310.49	184.62
310.72	184.62
310.949	183.62
311.179	187.62
311.409	194.62
311.639	180.62
311.868	190.62
312.098	175.62
312.328	161.62
312.557	206.62
312.787	185.62
313.017	203.62
313.246	176.62
313.476	175.62
313.706	189.62
313.935	189.62
314.165	199.62
314.394	179.62
314.624	186.62
314.853	191.62
315.083	178.62
315.312	192.62
315.542	199.62
315.771	195.62
316.001	210.62
316.23	211.62
316.46	199.62
316.689	176.62
316.919	180.62
317.148	195.62
317.377	184.62
317.607	198.62
317.836	191.62
318.065	195.62
318.295	201.62
318.524	187.62
318.753	189.62
318.983	206.62
319.212	198.62
319.441	225.62
319.67	209.62
319.9	198.62
320.129	200.62
320.358	210.62
320.587	194.62
320.816	202.62
321.046	195.62
321.275	201.62
321.504	201.62
321.733	208.62
321.962	216.62
322.191	226.62
322.42	214.62
322.649	217.62
322.878	228.62
323.108	249.62
323.337	251.62
323.566	252.62
323.795	264.62
324.024	233.62
324.253	218.62
324.482	217.62
324.71	241.62
324.939	234.62
325.168	219.62
325.397	218.62
325.626	218.62
325.855	210.62
326.084	220.62
326.313	224.62
326.542	210.62
326.77	217.62
326.999	211.62
327.228	216.62
327.457	236.62
327.686	252.62
327.914	268.62
328.143	280.62
328.372	281.62
328.6	278.62
328.829	255.62
329.058	232.62
329.287	249.62
329.515	252.62
329.744	273.62
329.972	306.62
330.201	340.62
330.43	378.62
330.658	299.62
330.887	258.62
331.115	235.62
331.344	244.62
331.572	251.62
331.801	233.62
332.03	237.62
332.258	252.62
332.486	262.62
332.715	254.62
332.943	274.62
333.172	296.62
333.4	280.62
333.629	284.62
333.857	323.62
334.085	373.62
334.314	416.62
334.542	494.62
334.771	468.62
334.999	367.62
335.227	298.62
335.455	286.62
335.684	286.62
335.912	267.62
336.14	278.62
336.369	282.62
336.597	253.62
336.825	257.62
337.053	264.62
337.281	275.62
337.51	267.62
337.738	260.62
337.966	237.62
338.194	251.62
338.422	240.62
338.65	262.62
338.878	246.62
339.106	225.62
339.334	228.62
339.562	221.62
339.79	202.62
340.018	189.62
340.246	214.62
340.474	218.62
340.702	221.62
340.93	216.62
341.158	200.62
341.386	188.62
341.614	191.62
341.842	199.62
342.07	195.62
342.298	220.62
342.526	218.62
342.754	209.62
342.981	220.62
343.209	215.62
343.437	242.62
343.665	238.62
343.893	230.62
344.12	252.62
344.348	250.62
344.576	220.62
344.804	211.62
345.031	204.62
345.259	202.62
345.487	188.62
345.714	203.62
345.942	225.62
346.17	214.62
346.397	197.62
346.625	210.62
346.853	190.62
347.08	200.62
347.308	218.62
347.535	188.62
347.763	218.62
347.99	219.62
348.218	209.62
348.445	204.62
348.673	201.62
348.9	206.62
349.128	212.62
349.355	203.62
349.583	216.62
349.81	210.62
350.037	203.62
350.265	214.62
350.492	206.62
350.72	210.62
350.947	197.62
351.174	201.62
351.402	196.62
351.629	196.62
351.856	191.62
352.083	213.62
352.311	199.62
352.538	201.62
352.765	207.62
352.992	206.62
353.22	190.62
353.447	195.62
353.674	198.62
353.901	204.62
354.128	210.62
354.355	206.62
354.583	191.62
354.81	191.62
355.037	208.62
355.264	206.62
355.491	201.62
355.718	224.62
355.945	202.62
356.172	220.62
356.399	204.62
356.626	230.62
356.853	218.62
357.08	227.62
357.307	232.62
357.534	206.62
357.761	224.62
357.988	242.62
358.215	266.62
358.441	233.62
358.668	211.62
358.895	216.62
359.122	209.62
359.349	195.62
359.576	212.62
359.802	213.62
360.029	178.62
360.256	211.62
360.483	205.62
360.709	234.62
360.936	249.62
361.163	234.62
361.39	199.62
361.616	214.62
361.843	209.62
362.07	230.62
362.296	220.62
362.523	208.62
362.749	207.62
362.976	208.62
363.203	235.62
363.429	220.62
363.656	230.62
363.882	225.62
364.109	216.62
364.335	231.62
364.562	239.62
364.788	214.62
365.015	218.62
365.241	229.62
365.468	227.62
365.694	207.62
365.92	206.62
366.147	206.62
366.373	201.62
366.599	202.62
366.826	221.62
367.052	204.62
367.278	215.62
367.505	209.62
367.731	201.62
367.957	214.62
368.184	210.62
368.41	220.62
368.636	247.62
368.862	234.62
369.089	212.62
369.315	207.62
369.541	213.62
369.767	203.62
369.993	205.62
370.219	212.62
370.445	204.62
370.672	228.62
370.898	237.62
371.124	203.62
371.35	215.62
371.576	217.62
371.802	219.62
372.028	258.62
372.254	249.62
372.48	221.62
372.706	230.62
372.932	227.62
373.158	242.62
373.384	266.62
373.61	279.62
373.835	264.62
374.061	225.62
374.287	267.62
374.513	251.62
374.739	258.62
374.965	271.62
375.191	267.62
375.416	268.62
375.642	272.62
375.868	282.62
376.094	301.62
376.319	267.62
376.545	250.62
376.771	234.62
376.997	221.62
377.222	219.62
377.448	222.62
377.674	206.62
377.899	203.62
378.125	208.62
378.35	226.62
378.576	230.62
378.802	221.62
379.027	229.62
379.253	211.62
379.478	207.62
379.704	234.62
379.929	211.62
380.155	211.62
380.38	208.62
380.606	223.62
380.831	227.62
381.057	234.62
381.282	233.62
381.507	239.62
381.733	240.62
381.958	252.62
382.184	253.62
382.409	264.62
382.634	266.62
382.86	256.62
383.085	249.62
383.31	253.62
383.535	272.62
383.761	268.62
383.986	252.62
384.211	274.62
384.436	259.62
384.662	248.62
384.887	265.62
385.112	264.62
385.337	268.62
385.562	276.62
385.787	266.62
386.013	288.62
386.238	280.62
386.463	264.62
386.688	309.62
386.913	260.62
387.138	282.62
387.363	262.62
387.588	267.62
387.813	276.62
388.038	277.62
388.263	292.62
388.488	273.62
388.713	278.62
388.938	250.62
389.163	249.62
389.387	252.62
389.612	243.62
389.837	257.62
390.062	259.62
390.287	269.62
390.512	274.62
390.736	271.62
390.961	242.62
391.186	275.62
391.411	262.62
391.636	265.62
391.86	276.62
392.085	264.62
392.31	280.62
392.534	276.62
392.759	292.62
392.984	315.62
393.208	381.62
393.433	475.62
393.658	412.62
393.882	304.62
394.107	289.62
394.331	289.62
394.556	303.62
394.78	299.62
395.005	299.62
395.229	287.62
395.454	298.62
395.678	316.62
395.903	337.62
396.127	349.62
396.352	345.62
396.576	329.62
396.801	380.62
397.025	428.62
397.249	323.62
397.474	298.62
397.698	271.62
397.922	283.62
398.147	298.62
398.371	306.62
398.595	306.62
398.82	337.62
399.044	356.62
399.268	379.62
399.492	387.62
399.717	407.62
399.941	396.62
400.165	390.62
400.389	352.62
400.613	318.62
400.837	314.62
401.062	319.62
401.286	304.62
401.51	296.62
401.734	298.62
401.958	293.62
402.182	324.62
402.406	317.62
402.63	313.62
402.854	321.62
403.078	323.62
403.302	345.62
403.526	331.62
403.75	323.62
403.974	338.62
404.198	324.62
404.422	361.62
404.645	358.62
404.869	366.62
405.093	335.62
405.317	318.62
405.541	350.62
405.765	321.62
405.988	328.62
406.212	343.62
406.436	351.62
406.66	371.62
406.883	370.62
407.107	346.62
407.331	367.62
407.555	371.62
407.778	366.62
408.002	368.62
408.226	353.62
408.449	359.62
408.673	323.62
408.896	325.62
409.12	337.62
409.344	321.62
409.567	346.62
409.791	333.62
410.014	330.62
410.238	342.62
410.461	329.62
410.685	341.62
410.908	326.62
411.132	332.62
411.355	322.62
411.578	329.62
411.802	320.62
412.025	323.62
412.249	349.62
412.472	333.62
412.695	329.62
412.919	317.62
413.142	301.62
413.365	319.62
413.589	315.62
413.812	300.62
414.035	323.62
414.258	316.62
414.482	327.62
414.705	319.62
414.928	310.62
415.151	316.62
415.374	323.62
415.597	300.62
415.821	308.62
416.044	307.62
416.267	303.62
416.49	303.62
416.713	308.62
416.936	314.62
417.159	318.62
417.382	309.62
417.605	312.62
417.828	307.62
418.051	319.62
418.274	319.62
418.497	327.62
418.72	326.62
418.943	307.62
419.166	342.62
419.389	333.62
419.611	336.62
419.834	320.62
420.057	344.62
420.28	331.62
420.503	322.62
420.726	313.62
420.948	329.62
421.171	318.62
421.394	321.62
421.617	316.62
421.839	305.62
422.062	334.62
422.285	333.62
422.507	391.62
422.73	456.62
422.953	420.62
423.175	336.62
423.398	322.62
423.621	337.62
423.843	328.62
424.066	341.62
424.288	320.62
424.511	334.62
424.733	345.62
424.956	326.62
425.178	312.62
425.401	327.62
425.623	327.62
425.846	317.62
426.068	294.62
426.291	316.62
426.513	297.62
426.735	312.62
426.958	312.62
427.18	304.62
427.402	332.62
427.625	321.62
427.847	320.62
428.069	304.62
428.292	319.62
428.514	331.62
428.736	313.62
428.958	338.62
429.181	331.62
429.403	337.62
429.625	312.62
429.847	342.62
430.069	366.62
430.292	402.62
430.514	336.62
430.736	344.62
430.958	326.62
431.18	279.62
431.402	292.62
431.624	302.62
431.846	269.62
432.068	288.62
432.29	264.62
432.512	290.62
432.734	306.62
432.956	292.62
433.178	289.62
433.4	328.62
433.622	285.62
433.844	290.62
434.066	306.62
434.287	290.62
434.509	280.62
434.731	289.62
434.953	302.62
435.175	306.62
435.397	311.62
435.618	308.62
435.84	278.62
436.062	272.62
436.284	290.62
436.505	292.62
436.727	304.62
436.949	279.62
437.17	278.62
437.392	297.62
437.614	287.62
437.835	270.62
438.057	259.62
438.278	273.62
438.5	290.62
438.721	296.62
438.943	299.62
439.165	307.62
439.386	307.62
439.608	302.62
439.829	312.62
440.05	297.62
440.272	291.62
440.493	315.62
440.715	316.62
440.936	305.62
441.158	322.62
441.379	297.62
441.6	311.62
441.822	344.62
442.043	322.62
442.264	318.62
442.486	315.62
442.707	321.62
442.928	317.62
443.149	326.62
443.371	326.62
443.592	320.62
443.813	331.62
444.034	311.62
444.255	335.62
444.476	339.62
444.698	359.62
444.919	357.62
445.14	563.62
445.361	446.62
445.582	376.62
445.803	361.62
446.024	318.62
446.245	317.62
446.466	308.62
446.687	313.62
446.908	314.62
447.129	302.62
447.35	298.62
447.571	305.62
447.792	292.62
448.013	315.62
448.234	295.62
448.455	292.62
448.675	275.62
448.896	293.62
449.117	279.62
449.338	290.62
449.559	291.62
449.779	268.62
450	258.62
450.221	275.62
450.442	272.62
450.662	286.62
450.883	308.62
451.104	299.62
451.324	313.62
451.545	298.62
451.766	283.62
451.986	299.62
452.207	275.62
452.428	273.62
452.648	300.62
452.869	288.62
453.089	269.62
453.31	322.62
453.53	394.62
453.751	400.62
453.971	303.62
454.192	251.62
454.412	257.62
454.633	281.62
454.853	280.62
455.073	286.62
455.294	290.62
455.514	318.62
455.734	290.62
455.955	265.62
456.175	248.62
456.395	247.62
456.616	259.62
456.836	259.62
457.056	260.62
457.276	255.62
457.497	235.62
457.717	252.62
457.937	252.62
458.157	236.62
458.377	241.62
458.598	264.62
458.818	241.62
459.038	256.62
459.258	261.62
459.478	268.62
459.698	278.62
459.918	293.62
460.138	271.62
460.358	302.62
460.578	299.62
460.798	326.62
461.018	304.62
461.238	314.62
461.458	326.62
461.678	320.62
461.898	332.62
462.118	330.62
462.338	339.62
462.558	340.62
462.777	342.62
462.997	367.62
463.217	395.62
463.437	369.62
463.657	359.62
463.876	358.62
464.096	360.62
464.316	351.62
464.536	345.62
464.755	330.62
464.975	347.62
465.195	324.62
465.414	323.62
465.634	300.62
465.854	303.62
466.073	287.62
466.293	283.62
466.512	288.62
466.732	298.62
466.951	321.62
467.171	296.62
467.391	307.62
467.61	303.62
467.829	306.62
468.049	372.62
468.268	428.62
468.488	327.62
468.707	304.62
468.927	308.62
469.146	333.62
469.365	317.62
469.585	310.62
469.804	306.62
470.023	307.62
470.243	322.62
470.462	295.62
470.681	302.62
470.901	300.62
471.12	306.62
471.339	313.62
471.558	282.62
471.777	310.62
471.997	336.62
472.216	463.62
472.435	553.62
472.654	396.62
472.873	334.62
473.092	302.62
473.311	310.62
473.53	286.62
473.749	282.62
473.968	291.62
474.187	292.62
474.406	279.62
474.625	287.62
474.844	301.62
475.063	300.62
475.282	275.62
475.501	271.62
475.72	302.62
475.939	315.62
476.158	336.62
476.377	292.62
476.596	322.62
476.814	302.62
477.033	291.62
477.252	282.62
477.471	294.62
477.69	302.62
477.908	322.62
478.127	342.62
478.346	337.62
478.564	313.62
478.783	328.62
479.002	340.62
479.22	361.62
479.439	369.62
479.658	340.62
479.876	337.62
480.095	355.62
480.313	375.62
480.532	371.62
480.751	392.62
480.969	485.62
481.188	770.62
481.406	666.62
481.624	436.62
481.843	366.62
482.061	371.62
482.28	355.62
482.498	341.62
482.717	352.62
482.935	318.62
483.153	342.62
483.372	346.62
483.59	336.62
483.808	328.62
484.027	335.62
484.245	339.62
484.463	350.62
484.681	344.62
484.9	336.62
485.118	346.62
485.336	323.62
485.554	330.62
485.772	312.62
485.99	310.62
486.209	329.62
486.427	323.62
486.645	323.62
486.863	358.62
487.081	375.62
487.299	352.62
487.517	335.62
487.735	341.62
487.953	357.62
488.171	369.62
488.389	350.62
488.607	348.62
488.825	356.62
489.043	336.62
489.261	347.62
489.479	335.62
489.696	321.62
489.914	333.62
490.132	351.62
490.35	354.62
490.568	346.62
490.786	369.62
491.003	353.62
491.221	383.62
491.439	371.62
491.657	380.62
491.874	407.62
492.092	409.62
492.31	413.62
492.527	390.62
492.745	399.62
492.963	419.62
493.18	392.62
493.398	408.62
493.615	417.62
493.833	380.62
494.05	379.62
494.268	386.62
494.485	372.62
494.703	374.62
494.92	351.62
495.138	354.62
495.355	357.62
495.573	356.62
495.79	361.62
496.008	402.62
496.225	400.62
496.442	383.62
496.66	400.62
496.877	383.62
497.094	388.62
497.312	416.62
497.529	384.62
497.746	415.62
497.963	413.62
498.181	475.62
498.398	571.62
498.615	463.62
498.832	467.62
499.049	526.62
499.267	609.62
499.484	563.62
499.701	570.62
499.918	647.62
500.135	806.62
500.352	786.62
500.569	763.62
500.786	813.62
501.003	785.62
501.22	654.62
501.437	620.62
501.654	678.62
501.871	567.62
502.088	507.62
502.305	497.62
502.522	521.62
502.739	490.62
502.956	409.62
503.172	406.62
503.389	403.62
