Data from SampB_HRD10591_00021.txt Node
Date: Mon Jan 19 11:33:35 EST 2026
User: Yrep
Spectrometer: HR+D1059
Trigger mode: 0
Integration Time (sec): 3.443000E-1
Scans to average: 1
Electric dark correction enabled: true
Nonlinearity correction enabled: false
Boxcar width: 0
XAxis mode: Wavelengths
Number of Pixels in Spectrum: 2048
>>>>>Begin Spectral Data<<<<<
223.165	-16.25
223.4	-16.25
223.635	-16.25
223.869	-15.25
224.104	-26.25
224.338	-27.25
224.573	-9.25
224.808	-26.25
225.042	10.75
225.277	-4.25
225.511	-12.25
225.746	-8.25
225.98	12.75
226.215	9.75
226.449	14.75
226.683	31.75
226.918	25.75
227.152	39.75
227.387	38.75
227.621	32.75
227.856	66.75
228.09	46.75
228.324	46.75
228.559	57.75
228.793	55.75
229.027	66.75
229.262	71.75
229.496	73.75
229.73	90.75
229.964	68.75
230.199	79.75
230.433	75.75
230.667	77.75
230.901	76.75
231.136	89.75
231.37	94.75
231.604	79.75
231.838	82.75
232.072	92.75
232.306	87.75
232.541	82.75
232.775	87.75
233.009	94.75
233.243	103.75
233.477	85.75
233.711	93.75
233.945	87.75
234.179	92.75
234.413	75.75
234.647	106.75
234.881	95.75
235.115	90.75
235.349	83.75
235.583	99.75
235.817	91.75
236.051	81.75
236.285	89.75
236.519	89.75
236.753	106.75
236.987	86.75
237.221	96.75
237.455	98.75
237.689	89.75
237.922	89.75
238.156	94.75
238.39	93.75
238.624	88.75
238.858	87.75
239.091	93.75
239.325	81.75
239.559	98.75
239.793	92.75
240.027	102.75
240.26	92.75
240.494	108.75
240.728	88.75
240.961	91.75
241.195	102.75
241.429	90.75
241.662	93.75
241.896	92.75
242.13	91.75
242.363	97.75
242.597	81.75
242.83	97.75
243.064	96.75
243.298	101.75
243.531	89.75
243.765	103.75
243.998	89.75
244.232	101.75
244.465	88.75
244.699	88.75
244.932	96.75
245.166	95.75
245.399	97.75
245.633	99.75
245.866	93.75
246.099	83.75
246.333	102.75
246.566	89.75
246.8	87.75
247.033	106.75
247.266	89.75
247.5	102.75
247.733	111.75
247.966	108.75
248.2	115.75
248.433	99.75
248.666	120.75
248.899	108.75
249.133	109.75
249.366	112.75
249.599	96.75
249.832	113.75
250.066	120.75
250.299	132.75
250.532	104.75
250.765	107.75
250.998	104.75
251.231	109.75
251.465	115.75
251.698	107.75
251.931	116.75
252.164	107.75
252.397	119.75
252.63	121.75
252.863	119.75
253.096	108.75
253.329	112.75
253.562	107.75
253.795	116.75
254.028	107.75
254.261	100.75
254.494	106.75
254.727	107.75
254.96	102.75
255.193	107.75
255.426	110.75
255.659	109.75
255.892	118.75
256.124	124.75
256.357	122.75
256.59	121.75
256.823	125.75
257.056	130.75
257.289	111.75
257.521	113.75
257.754	100.75
257.987	99.75
258.22	112.75
258.452	118.75
258.685	101.75
258.918	118.75
259.151	114.75
259.383	128.75
259.616	114.75
259.849	118.75
260.081	118.75
260.314	120.75
260.547	113.75
260.779	105.75
261.012	127.75
261.244	129.75
261.477	126.75
261.71	127.75
261.942	123.75
262.175	120.75
262.407	131.75
262.64	128.75
262.872	116.75
263.105	123.75
263.337	123.75
263.57	126.75
263.802	126.75
264.035	119.75
264.267	107.75
264.499	131.75
264.732	105.75
264.964	111.75
265.197	115.75
265.429	116.75
265.661	124.75
265.894	122.75
266.126	121.75
266.358	120.75
266.591	122.75
266.823	105.75
267.055	115.75
267.287	130.75
267.52	122.75
267.752	115.75
267.984	125.75
268.216	125.75
268.448	125.75
268.681	132.75
268.913	125.75
269.145	139.75
269.377	130.75
269.609	111.75
269.841	116.75
270.073	115.75
270.306	142.75
270.538	134.75
270.77	122.75
271.002	127.75
271.234	131.75
271.466	141.75
271.698	141.75
271.93	135.75
272.162	145.75
272.394	138.75
272.626	140.75
272.858	128.75
273.09	131.75
273.322	129.75
273.553	120.75
273.785	130.75
274.017	151.75
274.249	147.75
274.481	119.75
274.713	133.75
274.945	157.75
275.176	151.75
275.408	161.75
275.64	157.75
275.872	154.75
276.104	143.75
276.335	137.75
276.567	128.75
276.799	131.75
277.031	147.75
277.262	157.75
277.494	143.75
277.726	158.75
277.957	145.75
278.189	131.75
278.421	134.75
278.652	161.75
278.884	145.75
279.115	137.75
279.347	152.75
279.579	168.75
279.81	171.75
280.042	172.75
280.273	145.75
280.505	152.75
280.736	164.75
280.968	163.75
281.199	142.75
281.431	149.75
281.662	152.75
281.894	155.75
282.125	144.75
282.356	160.75
282.588	136.75
282.819	139.75
283.051	118.75
283.282	139.75
283.513	172.75
283.745	159.75
283.976	147.75
284.207	156.75
284.439	154.75
284.67	153.75
284.901	158.75
285.132	146.75
285.364	152.75
285.595	167.75
285.826	145.75
286.057	149.75
286.288	140.75
286.52	159.75
286.751	145.75
286.982	166.75
287.213	151.75
287.444	138.75
287.675	141.75
287.906	172.75
288.138	152.75
288.369	161.75
288.6	146.75
288.831	155.75
289.062	159.75
289.293	133.75
289.524	156.75
289.755	153.75
289.986	155.75
290.217	143.75
290.448	160.75
290.679	179.75
290.91	151.75
291.141	154.75
291.371	163.75
291.602	159.75
291.833	138.75
292.064	160.75
292.295	155.75
292.526	153.75
292.757	162.75
292.987	141.75
293.218	144.75
293.449	161.75
293.68	166.75
293.91	154.75
294.141	167.75
294.372	161.75
294.603	157.75
294.833	165.75
295.064	156.75
295.295	152.75
295.525	151.75
295.756	164.75
295.987	145.75
296.217	156.75
296.448	164.75
296.679	146.75
296.909	166.75
297.14	170.75
297.37	172.75
297.601	158.75
297.831	173.75
298.062	175.75
298.292	160.75
298.523	167.75
298.753	188.75
298.984	148.75
299.214	157.75
299.445	167.75
299.675	150.75
299.905	156.75
300.136	168.75
300.366	172.75
300.597	164.75
300.827	182.75
301.057	165.75
301.288	147.75
301.518	170.75
301.748	175.75
301.979	215.75
302.209	171.75
302.439	167.75
302.669	168.75
302.9	168.75
303.13	170.75
303.36	159.75
303.59	169.75
303.82	169.75
304.051	172.75
304.281	161.75
304.511	191.75
304.741	160.75
304.971	168.75
305.201	166.75
305.431	170.75
305.661	180.75
305.891	184.75
306.121	169.75
306.352	180.75
306.582	162.75
306.812	162.75
307.042	177.75
307.272	180.75
307.502	173.75
307.731	175.75
307.961	174.75
308.191	169.75
308.421	183.75
308.651	178.75
308.881	184.75
309.111	176.75
309.341	164.75
309.571	164.75
309.8	181.75
310.03	165.75
310.26	160.75
310.49	175.75
310.72	178.75
310.949	159.75
311.179	184.75
311.409	157.75
311.639	170.75
311.868	172.75
312.098	172.75
312.328	177.75
312.557	164.75
312.787	161.75
313.017	188.75
313.246	164.75
313.476	167.75
313.706	182.75
313.935	171.75
314.165	187.75
314.394	180.75
314.624	186.75
314.853	180.75
315.083	175.75
315.312	174.75
315.542	181.75
315.771	191.75
316.001	189.75
316.23	181.75
316.46	156.75
316.689	180.75
316.919	170.75
317.148	183.75
317.377	186.75
317.607	165.75
317.836	182.75
318.065	181.75
318.295	197.75
318.524	180.75
318.753	183.75
318.983	172.75
319.212	181.75
319.441	162.75
319.67	172.75
319.9	185.75
320.129	180.75
320.358	175.75
320.587	184.75
320.816	177.75
321.046	186.75
321.275	179.75
321.504	169.75
321.733	155.75
321.962	179.75
322.191	183.75
322.42	164.75
322.649	188.75
322.878	199.75
323.108	180.75
323.337	192.75
323.566	189.75
323.795	199.75
324.024	201.75
324.253	205.75
324.482	191.75
324.71	191.75
324.939	179.75
325.168	191.75
325.397	185.75
325.626	195.75
325.855	189.75
326.084	192.75
326.313	201.75
326.542	183.75
326.77	187.75
326.999	191.75
327.228	187.75
327.457	203.75
327.686	209.75
327.914	220.75
328.143	254.75
328.372	244.75
328.6	219.75
328.829	217.75
329.058	209.75
329.287	211.75
329.515	208.75
329.744	240.75
329.972	263.75
330.201	275.75
330.43	283.75
330.658	240.75
330.887	235.75
331.115	218.75
331.344	209.75
331.572	209.75
331.801	210.75
332.03	196.75
332.258	228.75
332.486	225.75
332.715	225.75
332.943	241.75
333.172	247.75
333.4	233.75
333.629	251.75
333.857	287.75
334.085	311.75
334.314	343.75
334.542	372.75
334.771	311.75
334.999	288.75
335.227	240.75
335.455	239.75
335.684	241.75
335.912	240.75
336.14	224.75
336.369	236.75
336.597	240.75
336.825	204.75
337.053	221.75
337.281	221.75
337.51	198.75
337.738	211.75
337.966	201.75
338.194	203.75
338.422	216.75
338.65	201.75
338.878	211.75
339.106	193.75
339.334	202.75
339.562	201.75
339.79	186.75
340.018	192.75
340.246	192.75
340.474	182.75
340.702	195.75
340.93	207.75
341.158	171.75
341.386	209.75
341.614	196.75
341.842	191.75
342.07	193.75
342.298	201.75
342.526	191.75
342.754	204.75
342.981	193.75
343.209	185.75
343.437	225.75
343.665	222.75
343.893	219.75
344.12	212.75
344.348	201.75
344.576	207.75
344.804	211.75
345.031	200.75
345.259	191.75
345.487	187.75
345.714	186.75
345.942	178.75
346.17	192.75
346.397	185.75
346.625	188.75
346.853	184.75
347.08	175.75
347.308	189.75
347.535	185.75
347.763	192.75
347.99	207.75
348.218	205.75
348.445	186.75
348.673	211.75
348.9	195.75
349.128	194.75
349.355	183.75
349.583	195.75
349.81	174.75
350.037	185.75
350.265	189.75
350.492	171.75
350.72	184.75
350.947	179.75
351.174	184.75
351.402	183.75
351.629	179.75
351.856	195.75
352.083	178.75
352.311	186.75
352.538	180.75
352.765	178.75
352.992	203.75
353.22	189.75
353.447	186.75
353.674	181.75
353.901	205.75
354.128	181.75
354.355	185.75
354.583	192.75
354.81	205.75
355.037	187.75
355.264	179.75
355.491	174.75
355.718	182.75
355.945	187.75
356.172	173.75
356.399	185.75
356.626	206.75
356.853	211.75
357.08	200.75
357.307	188.75
357.534	168.75
357.761	188.75
357.988	183.75
358.215	194.75
358.441	179.75
358.668	191.75
358.895	197.75
359.122	176.75
359.349	184.75
359.576	182.75
359.802	182.75
360.029	189.75
360.256	193.75
360.483	192.75
360.709	171.75
360.936	203.75
361.163	194.75
361.39	187.75
361.616	185.75
361.843	204.75
362.07	188.75
362.296	175.75
362.523	179.75
362.749	180.75
362.976	172.75
363.203	199.75
363.429	185.75
363.656	196.75
363.882	177.75
364.109	208.75
364.335	205.75
364.562	187.75
364.788	180.75
365.015	188.75
365.241	186.75
365.468	188.75
365.694	185.75
365.92	204.75
366.147	193.75
366.373	182.75
366.599	165.75
366.826	196.75
367.052	179.75
367.278	186.75
367.505	185.75
367.731	197.75
367.957	176.75
368.184	186.75
368.41	209.75
368.636	213.75
368.862	195.75
369.089	183.75
369.315	205.75
369.541	215.75
369.767	210.75
369.993	194.75
370.219	194.75
370.445	181.75
370.672	179.75
370.898	195.75
371.124	210.75
371.35	189.75
371.576	208.75
371.802	188.75
372.028	201.75
372.254	219.75
372.48	203.75
372.706	218.75
372.932	190.75
373.158	205.75
373.384	195.75
373.61	219.75
373.835	204.75
374.061	192.75
374.287	234.75
374.513	227.75
374.739	204.75
374.965	217.75
375.191	231.75
375.416	214.75
375.642	203.75
375.868	220.75
376.094	219.75
376.319	200.75
376.545	207.75
376.771	202.75
376.997	205.75
377.222	193.75
377.448	207.75
377.674	205.75
377.899	198.75
378.125	192.75
378.35	205.75
378.576	193.75
378.802	207.75
379.027	204.75
379.253	211.75
379.478	180.75
379.704	196.75
379.929	212.75
380.155	214.75
380.38	189.75
380.606	199.75
380.831	218.75
381.057	219.75
381.282	195.75
381.507	218.75
381.733	221.75
381.958	225.75
382.184	227.75
382.409	216.75
382.634	218.75
382.86	219.75
383.085	220.75
383.31	236.75
383.535	229.75
383.761	234.75
383.986	240.75
384.211	210.75
384.436	222.75
384.662	232.75
384.887	233.75
385.112	240.75
385.337	244.75
385.562	237.75
385.787	242.75
386.013	245.75
386.238	243.75
386.463	223.75
386.688	274.75
386.913	236.75
387.138	238.75
387.363	247.75
387.588	227.75
387.813	236.75
388.038	215.75
388.263	254.75
388.488	230.75
388.713	233.75
388.938	237.75
389.163	222.75
389.387	238.75
389.612	231.75
389.837	241.75
390.062	247.75
390.287	223.75
390.512	233.75
390.736	251.75
390.961	241.75
391.186	238.75
391.411	249.75
391.636	270.75
391.86	271.75
392.085	276.75
392.31	257.75
392.534	263.75
392.759	263.75
392.984	268.75
393.208	292.75
393.433	322.75
393.658	312.75
393.882	266.75
394.107	256.75
394.331	271.75
394.556	264.75
394.78	257.75
395.005	266.75
395.229	245.75
395.454	257.75
395.678	279.75
395.903	273.75
396.127	291.75
396.352	260.75
396.576	287.75
396.801	299.75
397.025	315.75
397.249	281.75
397.474	277.75
397.698	258.75
397.922	254.75
398.147	253.75
398.371	270.75
398.595	279.75
398.82	291.75
399.044	307.75
399.268	345.75
399.492	373.75
399.717	393.75
399.941	385.75
400.165	341.75
400.389	315.75
400.613	313.75
400.837	311.75
401.062	285.75
401.286	281.75
401.51	290.75
401.734	289.75
401.958	276.75
402.182	282.75
402.406	296.75
402.63	301.75
402.854	314.75
403.078	312.75
403.302	296.75
403.526	305.75
403.75	319.75
403.974	339.75
404.198	332.75
404.422	328.75
404.645	330.75
404.869	308.75
405.093	332.75
405.317	331.75
405.541	321.75
405.765	324.75
405.988	304.75
406.212	313.75
406.436	308.75
406.66	340.75
406.883	318.75
407.107	367.75
407.331	341.75
407.555	340.75
407.778	333.75
408.002	327.75
408.226	330.75
408.449	338.75
408.673	327.75
408.896	308.75
409.12	314.75
409.344	301.75
409.567	309.75
409.791	317.75
410.014	308.75
410.238	311.75
410.461	325.75
410.685	313.75
410.908	293.75
411.132	326.75
411.355	292.75
411.578	299.75
411.802	312.75
412.025	311.75
412.249	322.75
412.472	308.75
412.695	293.75
412.919	285.75
413.142	280.75
413.365	294.75
413.589	309.75
413.812	305.75
414.035	286.75
414.258	306.75
414.482	293.75
414.705	319.75
414.928	321.75
415.151	301.75
415.374	287.75
415.597	308.75
415.821	300.75
416.044	296.75
416.267	321.75
416.49	291.75
416.713	296.75
416.936	297.75
417.159	274.75
417.382	275.75
417.605	296.75
417.828	309.75
418.051	300.75
418.274	317.75
418.497	305.75
418.72	327.75
418.943	306.75
419.166	308.75
419.389	330.75
419.611	317.75
419.834	316.75
420.057	321.75
420.28	311.75
420.503	296.75
420.726	313.75
420.948	301.75
421.171	308.75
421.394	317.75
421.617	325.75
421.839	311.75
422.062	312.75
422.285	305.75
422.507	309.75
422.73	313.75
422.953	303.75
423.175	304.75
423.398	318.75
423.621	330.75
423.843	320.75
424.066	319.75
424.288	303.75
424.511	317.75
424.733	317.75
424.956	313.75
425.178	304.75
425.401	308.75
425.623	302.75
425.846	299.75
426.068	280.75
426.291	275.75
426.513	265.75
426.735	282.75
426.958	288.75
427.18	288.75
427.402	304.75
427.625	292.75
427.847	277.75
428.069	279.75
428.292	276.75
428.514	275.75
428.736	271.75
428.958	276.75
429.181	277.75
429.403	281.75
429.625	275.75
429.847	278.75
430.069	279.75
430.292	293.75
430.514	283.75
430.736	277.75
430.958	270.75
431.18	277.75
431.402	261.75
431.624	259.75
431.846	256.75
432.068	239.75
432.29	270.75
432.512	267.75
432.734	253.75
432.956	292.75
433.178	280.75
433.4	276.75
433.622	273.75
433.844	277.75
434.066	273.75
434.287	265.75
434.509	270.75
434.731	279.75
434.953	277.75
435.175	296.75
435.397	280.75
435.618	279.75
435.84	258.75
436.062	254.75
436.284	273.75
436.505	272.75
436.727	251.75
436.949	269.75
437.17	299.75
437.392	259.75
437.614	269.75
437.835	259.75
438.057	257.75
438.278	282.75
438.5	273.75
438.721	286.75
438.943	246.75
439.165	280.75
439.386	274.75
439.608	284.75
439.829	274.75
440.05	266.75
440.272	281.75
440.493	284.75
440.715	276.75
440.936	285.75
441.158	272.75
441.379	277.75
441.6	318.75
441.822	311.75
442.043	280.75
442.264	299.75
442.486	310.75
442.707	290.75
442.928	311.75
443.149	312.75
443.371	309.75
443.592	296.75
443.813	307.75
444.034	310.75
444.255	313.75
444.476	316.75
444.698	343.75
444.919	349.75
445.14	521.75
445.361	399.75
445.582	325.75
445.803	305.75
446.024	275.75
446.245	284.75
446.466	279.75
446.687	308.75
446.908	291.75
447.129	272.75
447.35	277.75
447.571	276.75
447.792	266.75
448.013	252.75
448.234	272.75
448.455	279.75
448.675	255.75
448.896	255.75
449.117	259.75
449.338	239.75
449.559	264.75
449.779	266.75
450	247.75
450.221	250.75
450.442	261.75
450.662	253.75
450.883	246.75
451.104	273.75
451.324	263.75
451.545	260.75
451.766	250.75
451.986	252.75
452.207	247.75
452.428	253.75
452.648	258.75
452.869	257.75
453.089	256.75
453.31	265.75
453.53	268.75
453.751	252.75
453.971	239.75
454.192	251.75
454.412	222.75
454.633	237.75
454.853	229.75
455.073	237.75
455.294	249.75
455.514	254.75
455.734	243.75
455.955	241.75
456.175	219.75
456.395	230.75
456.616	229.75
456.836	236.75
457.056	226.75
457.276	221.75
457.497	229.75
457.717	235.75
457.937	223.75
458.157	228.75
458.377	229.75
458.598	238.75
458.818	229.75
459.038	236.75
459.258	234.75
459.478	279.75
459.698	253.75
459.918	275.75
460.138	269.75
460.358	259.75
460.578	307.75
460.798	325.75
461.018	314.75
461.238	294.75
461.458	311.75
461.678	300.75
461.898	295.75
462.118	316.75
462.338	333.75
462.558	318.75
462.777	342.75
462.997	368.75
463.217	376.75
463.437	355.75
463.657	347.75
463.876	329.75
464.096	330.75
464.316	349.75
464.536	330.75
464.755	326.75
464.975	337.75
465.195	296.75
465.414	299.75
465.634	267.75
465.854	273.75
466.073	275.75
466.293	270.75
466.512	263.75
466.732	256.75
466.951	264.75
467.171	269.75
467.391	263.75
467.61	288.75
467.829	285.75
468.049	313.75
468.268	327.75
468.488	305.75
468.707	266.75
468.927	265.75
469.146	270.75
469.365	258.75
469.585	281.75
469.804	276.75
470.023	279.75
470.243	279.75
470.462	285.75
470.681	269.75
470.901	275.75
471.12	279.75
471.339	270.75
471.558	250.75
471.777	269.75
471.997	289.75
472.216	332.75
472.435	392.75
472.654	314.75
472.873	297.75
473.092	253.75
473.311	255.75
473.53	260.75
473.749	251.75
473.968	264.75
474.187	258.75
474.406	256.75
474.625	261.75
474.844	271.75
475.063	253.75
475.282	252.75
475.501	253.75
475.72	284.75
475.939	267.75
476.158	250.75
476.377	269.75
476.596	272.75
476.814	261.75
477.033	255.75
477.252	274.75
477.471	274.75
477.69	286.75
477.908	284.75
478.127	314.75
478.346	287.75
478.564	281.75
478.783	305.75
479.002	304.75
479.22	305.75
479.439	301.75
479.658	284.75
479.876	292.75
480.095	298.75
480.313	317.75
480.532	350.75
480.751	340.75
480.969	385.75
481.188	509.75
481.406	480.75
481.624	349.75
481.843	301.75
482.061	305.75
482.28	311.75
482.498	302.75
482.717	297.75
482.935	280.75
483.153	282.75
483.372	296.75
483.59	295.75
483.808	270.75
484.027	275.75
484.245	286.75
484.463	268.75
484.681	312.75
484.9	283.75
485.118	298.75
485.336	271.75
485.554	267.75
485.772	282.75
485.99	294.75
486.209	305.75
486.427	281.75
486.645	272.75
486.863	299.75
487.081	298.75
487.299	288.75
487.517	301.75
487.735	328.75
487.953	315.75
488.171	321.75
488.389	324.75
488.607	289.75
488.825	291.75
489.043	268.75
489.261	295.75
489.479	300.75
489.696	301.75
489.914	308.75
490.132	296.75
490.35	297.75
490.568	332.75
490.786	324.75
491.003	303.75
491.221	307.75
491.439	332.75
491.657	337.75
491.874	348.75
492.092	347.75
492.31	368.75
492.527	369.75
492.745	338.75
492.963	345.75
493.18	342.75
493.398	344.75
493.615	342.75
493.833	323.75
494.05	319.75
494.268	317.75
494.485	323.75
494.703	324.75
494.92	335.75
495.138	325.75
495.355	338.75
495.573	336.75
495.79	331.75
496.008	335.75
496.225	311.75
496.442	329.75
496.66	338.75
496.877	352.75
497.094	327.75
497.312	335.75
497.529	356.75
497.746	345.75
497.963	319.75
498.181	387.75
498.398	398.75
498.615	386.75
498.832	375.75
499.049	439.75
499.267	481.75
499.484	495.75
499.701	536.75
499.918	604.75
500.135	661.75
500.352	748.75
500.569	743.75
500.786	739.75
501.003	692.75
501.22	597.75
501.437	554.75
501.654	489.75
501.871	460.75
502.088	449.75
502.305	411.75
502.522	388.75
502.739	384.75
502.956	359.75
503.172	365.75
503.389	344.75
503.606	339.75
