Data from SampB_HRD10591_00014.txt Node
Date: Mon Jan 19 11:33:33 EST 2026
User: Yrep
Spectrometer: HR+D1059
Trigger mode: 0
Integration Time (sec): 3.443000E-1
Scans to average: 1
Electric dark correction enabled: true
Nonlinearity correction enabled: false
Boxcar width: 0
XAxis mode: Wavelengths
Number of Pixels in Spectrum: 2048
>>>>>Begin Spectral Data<<<<<
223.165	-32.5
223.4	-32.5
223.635	-32.5
223.869	-23.5
224.104	-29.5
224.338	-11.5
224.573	-7.5
224.808	-13.5
225.042	-2.5
225.277	-1.5
225.511	-3.5
225.746	4.5
225.98	18.5
226.215	19.5
226.449	10.5
226.683	13.5
226.918	18.5
227.152	40.5
227.387	32.5
227.621	34.5
227.856	48.5
228.09	40.5
228.324	45.5
228.559	58.5
228.793	63.5
229.027	72.5
229.262	60.5
229.496	68.5
229.73	72.5
229.964	85.5
230.199	80.5
230.433	81.5
230.667	84.5
230.901	74.5
231.136	84.5
231.37	95.5
231.604	95.5
231.838	88.5
232.072	82.5
232.306	79.5
232.541	79.5
232.775	80.5
233.009	78.5
233.243	85.5
233.477	92.5
233.711	96.5
233.945	96.5
234.179	97.5
234.413	97.5
234.647	93.5
234.881	104.5
235.115	76.5
235.349	88.5
235.583	102.5
235.817	89.5
236.051	84.5
236.285	97.5
236.519	81.5
236.753	76.5
236.987	105.5
237.221	96.5
237.455	88.5
237.689	79.5
237.922	83.5
238.156	78.5
238.39	94.5
238.624	98.5
238.858	104.5
239.091	89.5
239.325	90.5
239.559	87.5
239.793	97.5
240.027	90.5
240.26	86.5
240.494	93.5
240.728	102.5
240.961	101.5
241.195	98.5
241.429	93.5
241.662	80.5
241.896	100.5
242.13	87.5
242.363	80.5
242.597	91.5
242.83	91.5
243.064	100.5
243.298	95.5
243.531	106.5
243.765	76.5
243.998	86.5
244.232	104.5
244.465	88.5
244.699	96.5
244.932	98.5
245.166	87.5
245.399	96.5
245.633	98.5
245.866	102.5
246.099	90.5
246.333	102.5
246.566	98.5
246.8	90.5
247.033	90.5
247.266	110.5
247.5	108.5
247.733	101.5
247.966	103.5
248.2	105.5
248.433	98.5
248.666	105.5
248.899	94.5
249.133	106.5
249.366	116.5
249.599	104.5
249.832	104.5
250.066	102.5
250.299	111.5
250.532	121.5
250.765	94.5
250.998	107.5
251.231	105.5
251.465	105.5
251.698	96.5
251.931	113.5
252.164	111.5
252.397	114.5
252.63	104.5
252.863	95.5
253.096	104.5
253.329	114.5
253.562	109.5
253.795	118.5
254.028	120.5
254.261	118.5
254.494	113.5
254.727	111.5
254.96	110.5
255.193	113.5
255.426	118.5
255.659	123.5
255.892	130.5
256.124	110.5
256.357	122.5
256.59	111.5
256.823	108.5
257.056	105.5
257.289	110.5
257.521	124.5
257.754	112.5
257.987	98.5
258.22	119.5
258.452	100.5
258.685	91.5
258.918	116.5
259.151	122.5
259.383	111.5
259.616	108.5
259.849	114.5
260.081	124.5
260.314	124.5
260.547	111.5
260.779	101.5
261.012	117.5
261.244	109.5
261.477	127.5
261.71	116.5
261.942	120.5
262.175	110.5
262.407	118.5
262.64	117.5
262.872	125.5
263.105	124.5
263.337	119.5
263.57	120.5
263.802	121.5
264.035	125.5
264.267	127.5
264.499	109.5
264.732	118.5
264.964	109.5
265.197	119.5
265.429	124.5
265.661	102.5
265.894	120.5
266.126	135.5
266.358	119.5
266.591	123.5
266.823	131.5
267.055	117.5
267.287	111.5
267.52	122.5
267.752	121.5
267.984	117.5
268.216	121.5
268.448	121.5
268.681	120.5
268.913	124.5
269.145	126.5
269.377	124.5
269.609	128.5
269.841	130.5
270.073	156.5
270.306	120.5
270.538	116.5
270.77	128.5
271.002	129.5
271.234	128.5
271.466	132.5
271.698	126.5
271.93	127.5
272.162	125.5
272.394	136.5
272.626	132.5
272.858	126.5
273.09	133.5
273.322	121.5
273.553	132.5
273.785	132.5
274.017	144.5
274.249	136.5
274.481	147.5
274.713	140.5
274.945	145.5
275.176	132.5
275.408	138.5
275.64	135.5
275.872	136.5
276.104	138.5
276.335	136.5
276.567	135.5
276.799	130.5
277.031	140.5
277.262	142.5
277.494	141.5
277.726	143.5
277.957	129.5
278.189	129.5
278.421	140.5
278.652	137.5
278.884	144.5
279.115	117.5
279.347	148.5
279.579	135.5
279.81	165.5
280.042	166.5
280.273	150.5
280.505	158.5
280.736	150.5
280.968	132.5
281.199	148.5
281.431	143.5
281.662	132.5
281.894	141.5
282.125	125.5
282.356	143.5
282.588	126.5
282.819	142.5
283.051	146.5
283.282	141.5
283.513	152.5
283.745	144.5
283.976	143.5
284.207	151.5
284.439	169.5
284.67	145.5
284.901	152.5
285.132	152.5
285.364	138.5
285.595	140.5
285.826	121.5
286.057	147.5
286.288	146.5
286.52	154.5
286.751	155.5
286.982	141.5
287.213	147.5
287.444	146.5
287.675	136.5
287.906	165.5
288.138	155.5
288.369	153.5
288.6	157.5
288.831	140.5
289.062	148.5
289.293	141.5
289.524	148.5
289.755	157.5
289.986	141.5
290.217	158.5
290.448	150.5
290.679	156.5
290.91	153.5
291.141	142.5
291.371	162.5
291.602	144.5
291.833	136.5
292.064	150.5
292.295	148.5
292.526	140.5
292.757	135.5
292.987	148.5
293.218	126.5
293.449	153.5
293.68	148.5
293.91	159.5
294.141	153.5
294.372	139.5
294.603	143.5
294.833	145.5
295.064	156.5
295.295	161.5
295.525	141.5
295.756	163.5
295.987	164.5
296.217	177.5
296.448	146.5
296.679	159.5
296.909	156.5
297.14	161.5
297.37	140.5
297.601	156.5
297.831	153.5
298.062	156.5
298.292	150.5
298.523	168.5
298.753	146.5
298.984	167.5
299.214	170.5
299.445	166.5
299.675	171.5
299.905	145.5
300.136	151.5
300.366	155.5
300.597	172.5
300.827	154.5
301.057	174.5
301.288	168.5
301.518	160.5
301.748	169.5
301.979	208.5
302.209	168.5
302.439	164.5
302.669	156.5
302.9	149.5
303.13	161.5
303.36	166.5
303.59	162.5
303.82	170.5
304.051	180.5
304.281	170.5
304.511	169.5
304.741	159.5
304.971	160.5
305.201	159.5
305.431	153.5
305.661	172.5
305.891	172.5
306.121	178.5
306.352	165.5
306.582	168.5
306.812	176.5
307.042	166.5
307.272	158.5
307.502	172.5
307.731	173.5
307.961	190.5
308.191	171.5
308.421	173.5
308.651	175.5
308.881	174.5
309.111	154.5
309.341	146.5
309.571	174.5
309.8	160.5
310.03	146.5
310.26	150.5
310.49	167.5
310.72	159.5
310.949	168.5
311.179	161.5
311.409	178.5
311.639	170.5
311.868	177.5
312.098	179.5
312.328	171.5
312.557	182.5
312.787	168.5
313.017	181.5
313.246	188.5
313.476	185.5
313.706	168.5
313.935	192.5
314.165	160.5
314.394	165.5
314.624	163.5
314.853	179.5
315.083	168.5
315.312	180.5
315.542	159.5
315.771	166.5
316.001	159.5
316.23	174.5
316.46	170.5
316.689	167.5
316.919	161.5
317.148	154.5
317.377	188.5
317.607	173.5
317.836	185.5
318.065	177.5
318.295	178.5
318.524	183.5
318.753	170.5
318.983	171.5
319.212	174.5
319.441	173.5
319.67	158.5
319.9	175.5
320.129	183.5
320.358	188.5
320.587	183.5
320.816	177.5
321.046	165.5
321.275	176.5
321.504	159.5
321.733	172.5
321.962	171.5
322.191	189.5
322.42	187.5
322.649	186.5
322.878	197.5
323.108	188.5
323.337	188.5
323.566	200.5
323.795	202.5
324.024	197.5
324.253	189.5
324.482	204.5
324.71	180.5
324.939	214.5
325.168	173.5
325.397	179.5
325.626	211.5
325.855	165.5
326.084	187.5
326.313	179.5
326.542	194.5
326.77	187.5
326.999	188.5
327.228	193.5
327.457	191.5
327.686	214.5
327.914	216.5
328.143	232.5
328.372	230.5
328.6	215.5
328.829	225.5
329.058	221.5
329.287	217.5
329.515	223.5
329.744	247.5
329.972	248.5
330.201	282.5
330.43	288.5
330.658	239.5
330.887	220.5
331.115	202.5
331.344	217.5
331.572	221.5
331.801	207.5
332.03	193.5
332.258	233.5
332.486	228.5
332.715	237.5
332.943	225.5
333.172	246.5
333.4	250.5
333.629	256.5
333.857	262.5
334.085	296.5
334.314	311.5
334.542	360.5
334.771	359.5
334.999	303.5
335.227	254.5
335.455	236.5
335.684	237.5
335.912	228.5
336.14	216.5
336.369	241.5
336.597	230.5
336.825	205.5
337.053	225.5
337.281	217.5
337.51	214.5
337.738	225.5
337.966	202.5
338.194	212.5
338.422	208.5
338.65	210.5
338.878	206.5
339.106	196.5
339.334	220.5
339.562	192.5
339.79	185.5
340.018	176.5
340.246	206.5
340.474	196.5
340.702	182.5
340.93	190.5
341.158	197.5
341.386	194.5
341.614	180.5
341.842	175.5
342.07	188.5
342.298	196.5
342.526	188.5
342.754	192.5
342.981	215.5
343.209	198.5
343.437	224.5
343.665	204.5
343.893	200.5
344.12	209.5
344.348	193.5
344.576	189.5
344.804	194.5
345.031	201.5
345.259	201.5
345.487	175.5
345.714	198.5
345.942	189.5
346.17	189.5
346.397	187.5
346.625	185.5
346.853	183.5
347.08	189.5
347.308	186.5
347.535	192.5
347.763	177.5
347.99	190.5
348.218	193.5
348.445	173.5
348.673	180.5
348.9	198.5
349.128	186.5
349.355	188.5
349.583	183.5
349.81	181.5
350.037	174.5
350.265	190.5
350.492	183.5
350.72	184.5
350.947	192.5
351.174	194.5
351.402	175.5
351.629	185.5
351.856	192.5
352.083	184.5
352.311	190.5
352.538	180.5
352.765	187.5
352.992	196.5
353.22	152.5
353.447	175.5
353.674	186.5
353.901	178.5
354.128	182.5
354.355	167.5
354.583	193.5
354.81	179.5
355.037	190.5
355.264	176.5
355.491	187.5
355.718	176.5
355.945	191.5
356.172	187.5
356.399	197.5
356.626	191.5
356.853	202.5
357.08	183.5
357.307	190.5
357.534	182.5
357.761	185.5
357.988	189.5
358.215	180.5
358.441	187.5
358.668	174.5
358.895	169.5
359.122	194.5
359.349	168.5
359.576	184.5
359.802	174.5
360.029	191.5
360.256	188.5
360.483	196.5
360.709	208.5
360.936	196.5
361.163	181.5
361.39	184.5
361.616	172.5
361.843	177.5
362.07	182.5
362.296	185.5
362.523	174.5
362.749	180.5
362.976	198.5
363.203	191.5
363.429	177.5
363.656	191.5
363.882	191.5
364.109	186.5
364.335	208.5
364.562	190.5
364.788	189.5
365.015	188.5
365.241	174.5
365.468	208.5
365.694	204.5
365.92	166.5
366.147	185.5
366.373	179.5
366.599	196.5
366.826	182.5
367.052	186.5
367.278	201.5
367.505	187.5
367.731	210.5
367.957	196.5
368.184	185.5
368.41	199.5
368.636	188.5
368.862	208.5
369.089	183.5
369.315	187.5
369.541	193.5
369.767	189.5
369.993	184.5
370.219	198.5
370.445	189.5
370.672	200.5
370.898	204.5
371.124	201.5
371.35	202.5
371.576	200.5
371.802	187.5
372.028	189.5
372.254	199.5
372.48	200.5
372.706	212.5
372.932	211.5
373.158	202.5
373.384	222.5
373.61	194.5
373.835	209.5
374.061	205.5
374.287	205.5
374.513	213.5
374.739	226.5
374.965	211.5
375.191	232.5
375.416	232.5
375.642	216.5
375.868	241.5
376.094	236.5
376.319	209.5
376.545	206.5
376.771	200.5
376.997	212.5
377.222	204.5
377.448	205.5
377.674	187.5
377.899	200.5
378.125	190.5
378.35	201.5
378.576	184.5
378.802	205.5
379.027	189.5
379.253	216.5
379.478	204.5
379.704	187.5
379.929	192.5
380.155	203.5
380.38	205.5
380.606	194.5
380.831	206.5
381.057	230.5
381.282	205.5
381.507	218.5
381.733	217.5
381.958	212.5
382.184	213.5
382.409	231.5
382.634	221.5
382.86	224.5
383.085	221.5
383.31	228.5
383.535	235.5
383.761	237.5
383.986	247.5
384.211	224.5
384.436	233.5
384.662	223.5
384.887	248.5
385.112	241.5
385.337	237.5
385.562	225.5
385.787	223.5
386.013	234.5
386.238	248.5
386.463	247.5
386.688	268.5
386.913	237.5
387.138	225.5
387.363	244.5
387.588	245.5
387.813	259.5
388.038	245.5
388.263	236.5
388.488	252.5
388.713	249.5
388.938	235.5
389.163	230.5
389.387	216.5
389.612	230.5
389.837	221.5
390.062	222.5
390.287	231.5
390.512	227.5
390.736	249.5
390.961	240.5
391.186	232.5
391.411	244.5
391.636	249.5
391.86	265.5
392.085	250.5
392.31	248.5
392.534	252.5
392.759	249.5
392.984	261.5
393.208	305.5
393.433	352.5
393.658	296.5
393.882	262.5
394.107	260.5
394.331	256.5
394.556	248.5
394.78	264.5
395.005	266.5
395.229	274.5
395.454	267.5
395.678	285.5
395.903	272.5
396.127	289.5
396.352	288.5
396.576	287.5
396.801	299.5
397.025	315.5
397.249	272.5
397.474	274.5
397.698	254.5
397.922	261.5
398.147	276.5
398.371	273.5
398.595	285.5
398.82	295.5
399.044	313.5
399.268	341.5
399.492	352.5
399.717	408.5
399.941	385.5
400.165	335.5
400.389	312.5
400.613	298.5
400.837	288.5
401.062	294.5
401.286	284.5
401.51	277.5
401.734	284.5
401.958	300.5
402.182	286.5
402.406	289.5
402.63	296.5
402.854	311.5
403.078	288.5
403.302	308.5
403.526	314.5
403.75	284.5
403.974	330.5
404.198	312.5
404.422	300.5
404.645	314.5
404.869	311.5
405.093	303.5
405.317	321.5
405.541	319.5
405.765	298.5
405.988	294.5
406.212	314.5
406.436	298.5
406.66	336.5
406.883	322.5
407.107	342.5
407.331	354.5
407.555	353.5
407.778	358.5
408.002	336.5
408.226	326.5
408.449	328.5
408.673	318.5
408.896	314.5
409.12	312.5
409.344	317.5
409.567	312.5
409.791	319.5
410.014	338.5
410.238	320.5
410.461	320.5
410.685	305.5
410.908	305.5
411.132	316.5
411.355	309.5
411.578	320.5
411.802	304.5
412.025	304.5
412.249	304.5
412.472	300.5
412.695	303.5
412.919	296.5
413.142	272.5
413.365	289.5
413.589	316.5
413.812	296.5
414.035	303.5
414.258	295.5
414.482	296.5
414.705	275.5
414.928	311.5
415.151	289.5
415.374	300.5
415.597	298.5
415.821	275.5
416.044	276.5
416.267	297.5
416.49	270.5
416.713	273.5
416.936	293.5
417.159	282.5
417.382	300.5
417.605	285.5
417.828	284.5
418.051	281.5
418.274	308.5
418.497	291.5
418.72	292.5
418.943	311.5
419.166	328.5
419.389	325.5
419.611	306.5
419.834	303.5
420.057	300.5
420.28	287.5
420.503	290.5
420.726	296.5
420.948	298.5
421.171	286.5
421.394	303.5
421.617	294.5
421.839	288.5
422.062	303.5
422.285	309.5
422.507	326.5
422.73	363.5
422.953	353.5
423.175	308.5
423.398	300.5
423.621	297.5
423.843	305.5
424.066	310.5
424.288	299.5
424.511	309.5
424.733	299.5
424.956	291.5
425.178	303.5
425.401	302.5
425.623	293.5
425.846	294.5
426.068	281.5
426.291	277.5
426.513	291.5
426.735	288.5
426.958	290.5
427.18	288.5
427.402	289.5
427.625	282.5
427.847	273.5
428.069	290.5
428.292	288.5
428.514	293.5
428.736	284.5
428.958	284.5
429.181	279.5
429.403	265.5
429.625	279.5
429.847	291.5
430.069	298.5
430.292	321.5
430.514	266.5
430.736	282.5
430.958	288.5
431.18	265.5
431.402	276.5
431.624	270.5
431.846	266.5
432.068	256.5
432.29	259.5
432.512	278.5
432.734	275.5
432.956	273.5
433.178	284.5
433.4	285.5
433.622	286.5
433.844	290.5
434.066	263.5
434.287	247.5
434.509	271.5
434.731	260.5
434.953	280.5
435.175	270.5
435.397	277.5
435.618	281.5
435.84	264.5
436.062	259.5
436.284	281.5
436.505	271.5
436.727	271.5
436.949	249.5
437.17	262.5
437.392	252.5
437.614	260.5
437.835	251.5
438.057	243.5
438.278	249.5
438.5	261.5
438.721	257.5
438.943	252.5
439.165	262.5
439.386	272.5
439.608	285.5
439.829	265.5
440.05	266.5
440.272	277.5
440.493	286.5
440.715	273.5
440.936	284.5
441.158	296.5
441.379	298.5
441.6	303.5
441.822	299.5
442.043	306.5
442.264	282.5
442.486	278.5
442.707	302.5
442.928	294.5
443.149	311.5
443.371	294.5
443.592	289.5
443.813	291.5
444.034	293.5
444.255	293.5
444.476	327.5
444.698	329.5
444.919	341.5
445.14	509.5
445.361	401.5
445.582	316.5
445.803	294.5
446.024	306.5
446.245	291.5
446.466	292.5
446.687	294.5
446.908	276.5
447.129	279.5
447.35	270.5
447.571	282.5
447.792	266.5
448.013	267.5
448.234	270.5
448.455	265.5
448.675	238.5
448.896	267.5
449.117	250.5
449.338	262.5
449.559	261.5
449.779	244.5
450	244.5
450.221	254.5
450.442	266.5
450.662	252.5
450.883	274.5
451.104	266.5
451.324	257.5
451.545	256.5
451.766	270.5
451.986	268.5
452.207	254.5
452.428	260.5
452.648	262.5
452.869	246.5
453.089	252.5
453.31	247.5
453.53	284.5
453.751	276.5
453.971	243.5
454.192	224.5
454.412	225.5
454.633	244.5
454.853	255.5
455.073	246.5
455.294	250.5
455.514	266.5
455.734	241.5
455.955	237.5
456.175	227.5
456.395	225.5
456.616	246.5
456.836	234.5
457.056	224.5
457.276	234.5
457.497	226.5
457.717	236.5
457.937	222.5
458.157	229.5
458.377	244.5
458.598	223.5
458.818	236.5
459.038	226.5
459.258	253.5
459.478	254.5
459.698	252.5
459.918	257.5
460.138	267.5
460.358	315.5
460.578	296.5
460.798	286.5
461.018	290.5
461.238	288.5
461.458	289.5
461.678	285.5
461.898	295.5
462.118	295.5
462.338	308.5
462.558	300.5
462.777	310.5
462.997	360.5
463.217	374.5
463.437	354.5
463.657	340.5
463.876	321.5
464.096	298.5
464.316	297.5
464.536	326.5
464.755	304.5
464.975	308.5
465.195	312.5
465.414	302.5
465.634	289.5
465.854	277.5
466.073	283.5
466.293	277.5
466.512	281.5
466.732	271.5
466.951	289.5
467.171	272.5
467.391	270.5
467.61	277.5
467.829	286.5
468.049	314.5
468.268	324.5
468.488	294.5
468.707	297.5
468.927	257.5
469.146	260.5
469.365	263.5
469.585	279.5
469.804	283.5
470.023	265.5
470.243	279.5
470.462	293.5
470.681	272.5
470.901	280.5
471.12	272.5
471.339	272.5
471.558	279.5
471.777	276.5
471.997	309.5
472.216	345.5
472.435	388.5
472.654	353.5
472.873	290.5
473.092	263.5
473.311	275.5
473.53	284.5
473.749	272.5
473.968	275.5
474.187	251.5
474.406	270.5
474.625	268.5
474.844	257.5
475.063	249.5
475.282	244.5
475.501	260.5
475.72	276.5
475.939	276.5
476.158	271.5
476.377	260.5
476.596	257.5
476.814	269.5
477.033	270.5
477.252	269.5
477.471	278.5
477.69	286.5
477.908	297.5
478.127	310.5
478.346	291.5
478.564	300.5
478.783	284.5
479.002	289.5
479.22	282.5
479.439	308.5
479.658	315.5
479.876	295.5
480.095	317.5
480.313	316.5
480.532	337.5
480.751	340.5
480.969	364.5
481.188	514.5
481.406	510.5
481.624	367.5
481.843	327.5
482.061	316.5
482.28	297.5
482.498	290.5
482.717	278.5
482.935	287.5
483.153	294.5
483.372	293.5
483.59	280.5
483.808	300.5
484.027	302.5
484.245	300.5
484.463	295.5
484.681	323.5
484.9	296.5
485.118	312.5
485.336	293.5
485.554	286.5
485.772	293.5
485.99	300.5
486.209	280.5
486.427	272.5
486.645	305.5
486.863	294.5
487.081	299.5
487.299	308.5
487.517	277.5
487.735	328.5
487.953	334.5
488.171	327.5
488.389	333.5
488.607	304.5
488.825	296.5
489.043	316.5
489.261	288.5
489.479	308.5
489.696	310.5
489.914	294.5
490.132	300.5
490.35	310.5
490.568	296.5
490.786	319.5
491.003	302.5
491.221	326.5
491.439	338.5
491.657	337.5
491.874	345.5
492.092	338.5
492.31	348.5
492.527	377.5
492.745	336.5
492.963	344.5
493.18	336.5
493.398	336.5
493.615	341.5
493.833	347.5
494.05	334.5
494.268	342.5
494.485	332.5
494.703	322.5
494.92	342.5
495.138	322.5
495.355	324.5
495.573	346.5
495.79	316.5
496.008	336.5
496.225	327.5
496.442	325.5
496.66	336.5
496.877	333.5
497.094	342.5
497.312	354.5
497.529	349.5
497.746	377.5
497.963	356.5
498.181	388.5
498.398	419.5
498.615	419.5
498.832	402.5
499.049	448.5
499.267	491.5
499.484	513.5
499.701	533.5
499.918	612.5
500.135	712.5
500.352	715.5
500.569	721.5
500.786	716.5
501.003	660.5
501.22	588.5
501.437	552.5
501.654	527.5
501.871	489.5
502.088	410.5
502.305	442.5
502.522	409.5
502.739	405.5
502.956	382.5
503.172	358.5
503.389	351.5
503.606	356.5
503.823	374.5
504.04	373.5
504.256	351.5
504.473	357.5
504.69	343.5
504.907	332.5
505.123	325.5
505.34	304.5
505.557	311.5
505.773	308.5
505.99	312.5
506.207	279.5
506.423	281.5
506.64	298.5
506.856	283.5
507.073	297.5
507.289	274.5
507.506	274.5
507.722	264.5
507.939	268.5
508.155	269.5
508.372	265.5
508.588	255.5
508.805	266.5
509.021	260.5
509.238	254.5
509.454	265.5
509.67	251.5
509.887	249.5
510.103	250.5
510.319	253.5
510.536	278.5
510.752	250.5
510.968	242.5
511.184	232.5
511.401	223.5
511.617	240.5
511.833	242.5
512.049	251.5
512.265	256.5
512.481	258.5
512.698	264.5
512.914	260.5
513.13	265.5
513.346	247.5
513.562	247.5
513.778	261.5
513.994	232.5
514.21	257.5
514.426	266.5
514.642	247.5
514.858	247.5
515.074	272.5
515.29	274.5
515.506	258.5
515.721	260.5
515.937	276.5
516.153	282.5
516.369	270.5
516.585	281.5
516.801	286.5
517.016	292.5
517.232	314.5
517.448	336.5
517.664	341.5
517.879	334.5
518.095	325.5
518.311	319.5
518.527	318.5
518.742	299.5
518.958	316.5
519.173	312.5
519.389	305.5
519.605	292.5
519.82	274.5
520.036	280.5
520.251	281.5
520.467	281.5
520.682	266.5
520.898	274.5
521.113	278.5
521.329	258.5
521.544	245.5
521.76	249.5
