Data from SampB_HRD10591_00035.txt Node
Date: Mon Jan 19 11:33:40 EST 2026
User: Yrep
Spectrometer: HR+D1059
Trigger mode: 0
Integration Time (sec): 3.443000E-1
Scans to average: 1
Electric dark correction enabled: true
Nonlinearity correction enabled: false
Boxcar width: 0
XAxis mode: Wavelengths
Number of Pixels in Spectrum: 2048
>>>>>Begin Spectral Data<<<<<
223.165	-32.56
223.4	-32.56
223.635	-32.56
223.869	-26.56
224.104	-19.56
224.338	-15.56
224.573	-9.56
224.808	1.44
225.042	-12.56
225.277	-13.56
225.511	4.44
225.746	11.44
225.98	11.44
226.215	9.44
226.449	17.44
226.683	25.44
226.918	18.44
227.152	30.44
227.387	43.44
227.621	40.44
227.856	41.44
228.09	54.44
228.324	48.44
228.559	55.44
228.793	63.44
229.027	69.44
229.262	82.44
229.496	68.44
229.73	71.44
229.964	89.44
230.199	82.44
230.433	87.44
230.667	85.44
230.901	88.44
231.136	83.44
231.37	84.44
231.604	82.44
231.838	90.44
232.072	99.44
232.306	85.44
232.541	86.44
232.775	96.44
233.009	95.44
233.243	81.44
233.477	108.44
233.711	103.44
233.945	88.44
234.179	98.44
234.413	95.44
234.647	100.44
234.881	82.44
235.115	104.44
235.349	79.44
235.583	101.44
235.817	90.44
236.051	88.44
236.285	100.44
236.519	102.44
236.753	107.44
236.987	93.44
237.221	91.44
237.455	98.44
237.689	101.44
237.922	90.44
238.156	84.44
238.39	90.44
238.624	108.44
238.858	105.44
239.091	97.44
239.325	103.44
239.559	87.44
239.793	101.44
240.027	99.44
240.26	87.44
240.494	100.44
240.728	91.44
240.961	76.44
241.195	100.44
241.429	90.44
241.662	92.44
241.896	93.44
242.13	105.44
242.363	96.44
242.597	88.44
242.83	96.44
243.064	92.44
243.298	101.44
243.531	97.44
243.765	109.44
243.998	109.44
244.232	108.44
244.465	95.44
244.699	91.44
244.932	107.44
245.166	105.44
245.399	124.44
245.633	92.44
245.866	90.44
246.099	101.44
246.333	108.44
246.566	103.44
246.8	92.44
247.033	101.44
247.266	105.44
247.5	100.44
247.733	115.44
247.966	105.44
248.2	109.44
248.433	111.44
248.666	118.44
248.899	117.44
249.133	94.44
249.366	119.44
249.599	113.44
249.832	108.44
250.066	95.44
250.299	98.44
250.532	105.44
250.765	100.44
250.998	96.44
251.231	105.44
251.465	110.44
251.698	117.44
251.931	119.44
252.164	113.44
252.397	117.44
252.63	129.44
252.863	105.44
253.096	114.44
253.329	108.44
253.562	107.44
253.795	121.44
254.028	120.44
254.261	136.44
254.494	129.44
254.727	113.44
254.96	114.44
255.193	130.44
255.426	124.44
255.659	124.44
255.892	142.44
256.124	114.44
256.357	132.44
256.59	115.44
256.823	120.44
257.056	126.44
257.289	129.44
257.521	118.44
257.754	120.44
257.987	109.44
258.22	130.44
258.452	119.44
258.685	119.44
258.918	123.44
259.151	112.44
259.383	137.44
259.616	113.44
259.849	114.44
260.081	129.44
260.314	140.44
260.547	112.44
260.779	122.44
261.012	122.44
261.244	122.44
261.477	140.44
261.71	130.44
261.942	123.44
262.175	111.44
262.407	121.44
262.64	128.44
262.872	112.44
263.105	126.44
263.337	133.44
263.57	113.44
263.802	127.44
264.035	129.44
264.267	131.44
264.499	118.44
264.732	130.44
264.964	125.44
265.197	126.44
265.429	117.44
265.661	129.44
265.894	138.44
266.126	130.44
266.358	109.44
266.591	146.44
266.823	116.44
267.055	129.44
267.287	132.44
267.52	129.44
267.752	144.44
267.984	136.44
268.216	142.44
268.448	147.44
268.681	132.44
268.913	138.44
269.145	133.44
269.377	128.44
269.609	132.44
269.841	140.44
270.073	142.44
270.306	127.44
270.538	136.44
270.77	144.44
271.002	138.44
271.234	133.44
271.466	147.44
271.698	150.44
271.93	143.44
272.162	131.44
272.394	140.44
272.626	125.44
272.858	153.44
273.09	151.44
273.322	158.44
273.553	139.44
273.785	152.44
274.017	158.44
274.249	154.44
274.481	142.44
274.713	134.44
274.945	156.44
275.176	148.44
275.408	144.44
275.64	145.44
275.872	152.44
276.104	146.44
276.335	150.44
276.567	162.44
276.799	145.44
277.031	170.44
277.262	147.44
277.494	144.44
277.726	155.44
277.957	133.44
278.189	147.44
278.421	144.44
278.652	166.44
278.884	147.44
279.115	140.44
279.347	157.44
279.579	185.44
279.81	176.44
280.042	154.44
280.273	170.44
280.505	159.44
280.736	162.44
280.968	166.44
281.199	153.44
281.431	176.44
281.662	160.44
281.894	156.44
282.125	161.44
282.356	148.44
282.588	136.44
282.819	164.44
283.051	144.44
283.282	151.44
283.513	170.44
283.745	156.44
283.976	163.44
284.207	179.44
284.439	145.44
284.67	174.44
284.901	156.44
285.132	163.44
285.364	162.44
285.595	150.44
285.826	150.44
286.057	160.44
286.288	153.44
286.52	176.44
286.751	156.44
286.982	165.44
287.213	155.44
287.444	143.44
287.675	159.44
287.906	161.44
288.138	165.44
288.369	164.44
288.6	157.44
288.831	170.44
289.062	178.44
289.293	157.44
289.524	189.44
289.755	178.44
289.986	181.44
290.217	149.44
290.448	160.44
290.679	183.44
290.91	165.44
291.141	166.44
291.371	172.44
291.602	162.44
291.833	176.44
292.064	157.44
292.295	172.44
292.526	160.44
292.757	156.44
292.987	173.44
293.218	180.44
293.449	174.44
293.68	168.44
293.91	180.44
294.141	177.44
294.372	177.44
294.603	184.44
294.833	189.44
295.064	171.44
295.295	161.44
295.525	165.44
295.756	171.44
295.987	166.44
296.217	176.44
296.448	180.44
296.679	168.44
296.909	169.44
297.14	168.44
297.37	189.44
297.601	168.44
297.831	182.44
298.062	181.44
298.292	194.44
298.523	181.44
298.753	179.44
298.984	187.44
299.214	196.44
299.445	193.44
299.675	189.44
299.905	182.44
300.136	173.44
300.366	177.44
300.597	179.44
300.827	183.44
301.057	179.44
301.288	176.44
301.518	183.44
301.748	174.44
301.979	221.44
302.209	197.44
302.439	170.44
302.669	187.44
302.9	189.44
303.13	184.44
303.36	190.44
303.59	201.44
303.82	195.44
304.051	203.44
304.281	193.44
304.511	199.44
304.741	190.44
304.971	186.44
305.201	197.44
305.431	186.44
305.661	199.44
305.891	186.44
306.121	187.44
306.352	204.44
306.582	206.44
306.812	178.44
307.042	178.44
307.272	192.44
307.502	189.44
307.731	185.44
307.961	200.44
308.191	184.44
308.421	174.44
308.651	202.44
308.881	177.44
309.111	178.44
309.341	181.44
309.571	179.44
309.8	181.44
310.03	196.44
310.26	186.44
310.49	194.44
310.72	197.44
310.949	190.44
311.179	170.44
311.409	188.44
311.639	179.44
311.868	192.44
312.098	205.44
312.328	193.44
312.557	206.44
312.787	190.44
313.017	197.44
313.246	186.44
313.476	213.44
313.706	203.44
313.935	199.44
314.165	192.44
314.394	193.44
314.624	192.44
314.853	196.44
315.083	187.44
315.312	172.44
315.542	195.44
315.771	193.44
316.001	191.44
316.23	199.44
316.46	209.44
316.689	189.44
316.919	208.44
317.148	204.44
317.377	214.44
317.607	193.44
317.836	202.44
318.065	195.44
318.295	180.44
318.524	185.44
318.753	207.44
318.983	196.44
319.212	206.44
319.441	194.44
319.67	181.44
319.9	203.44
320.129	195.44
320.358	208.44
320.587	184.44
320.816	196.44
321.046	176.44
321.275	201.44
321.504	196.44
321.733	210.44
321.962	195.44
322.191	188.44
322.42	188.44
322.649	189.44
322.878	197.44
323.108	218.44
323.337	194.44
323.566	224.44
323.795	228.44
324.024	196.44
324.253	207.44
324.482	210.44
324.71	221.44
324.939	208.44
325.168	197.44
325.397	193.44
325.626	214.44
325.855	223.44
326.084	220.44
326.313	222.44
326.542	207.44
326.77	224.44
326.999	208.44
327.228	209.44
327.457	219.44
327.686	218.44
327.914	228.44
328.143	261.44
328.372	245.44
328.6	223.44
328.829	236.44
329.058	214.44
329.287	220.44
329.515	226.44
329.744	236.44
329.972	248.44
330.201	279.44
330.43	285.44
330.658	249.44
330.887	245.44
331.115	220.44
331.344	225.44
331.572	243.44
331.801	250.44
332.03	247.44
332.258	250.44
332.486	243.44
332.715	256.44
332.943	261.44
333.172	267.44
333.4	269.44
333.629	309.44
333.857	315.44
334.085	338.44
334.314	336.44
334.542	356.44
334.771	359.44
334.999	311.44
335.227	290.44
335.455	272.44
335.684	274.44
335.912	243.44
336.14	251.44
336.369	237.44
336.597	242.44
336.825	250.44
337.053	255.44
337.281	254.44
337.51	225.44
337.738	244.44
337.966	244.44
338.194	229.44
338.422	234.44
338.65	242.44
338.878	239.44
339.106	221.44
339.334	231.44
339.562	207.44
339.79	209.44
340.018	234.44
340.246	229.44
340.474	197.44
340.702	218.44
340.93	233.44
341.158	212.44
341.386	209.44
341.614	216.44
341.842	226.44
342.07	221.44
342.298	219.44
342.526	232.44
342.754	219.44
342.981	227.44
343.209	229.44
343.437	258.44
343.665	253.44
343.893	271.44
344.12	264.44
344.348	239.44
344.576	236.44
344.804	239.44
345.031	211.44
345.259	202.44
345.487	213.44
345.714	208.44
345.942	230.44
346.17	215.44
346.397	217.44
346.625	222.44
346.853	195.44
347.08	208.44
347.308	217.44
347.535	218.44
347.763	222.44
347.99	227.44
348.218	224.44
348.445	213.44
348.673	214.44
348.9	212.44
349.128	237.44
349.355	206.44
349.583	211.44
349.81	209.44
350.037	202.44
350.265	197.44
350.492	200.44
350.72	221.44
350.947	205.44
351.174	196.44
351.402	197.44
351.629	204.44
351.856	196.44
352.083	214.44
352.311	206.44
352.538	203.44
352.765	218.44
352.992	225.44
353.22	212.44
353.447	213.44
353.674	227.44
353.901	224.44
354.128	223.44
354.355	204.44
354.583	212.44
354.81	229.44
355.037	222.44
355.264	222.44
355.491	197.44
355.718	212.44
355.945	204.44
356.172	209.44
356.399	211.44
356.626	219.44
356.853	209.44
357.08	211.44
357.307	205.44
357.534	212.44
357.761	229.44
357.988	230.44
358.215	221.44
358.441	192.44
358.668	212.44
358.895	205.44
359.122	209.44
359.349	225.44
359.576	203.44
359.802	200.44
360.029	214.44
360.256	201.44
360.483	222.44
360.709	211.44
360.936	222.44
361.163	208.44
361.39	214.44
361.616	219.44
361.843	206.44
362.07	227.44
362.296	200.44
362.523	212.44
362.749	222.44
362.976	225.44
363.203	216.44
363.429	218.44
363.656	215.44
363.882	217.44
364.109	226.44
364.335	197.44
364.562	208.44
364.788	206.44
365.015	215.44
365.241	229.44
365.468	217.44
365.694	208.44
365.92	220.44
366.147	219.44
366.373	211.44
366.599	209.44
366.826	207.44
367.052	224.44
367.278	220.44
367.505	240.44
367.731	220.44
367.957	223.44
368.184	216.44
368.41	213.44
368.636	223.44
368.862	221.44
369.089	225.44
369.315	212.44
369.541	206.44
369.767	218.44
369.993	221.44
370.219	218.44
370.445	216.44
370.672	204.44
370.898	227.44
371.124	234.44
371.35	232.44
371.576	217.44
371.802	236.44
372.028	228.44
372.254	237.44
372.48	224.44
372.706	240.44
372.932	232.44
373.158	238.44
373.384	228.44
373.61	237.44
373.835	260.44
374.061	224.44
374.287	234.44
374.513	235.44
374.739	242.44
374.965	249.44
375.191	253.44
375.416	224.44
375.642	242.44
375.868	246.44
376.094	252.44
376.319	237.44
376.545	232.44
376.771	223.44
376.997	233.44
377.222	229.44
377.448	213.44
377.674	233.44
377.899	230.44
378.125	216.44
378.35	228.44
378.576	236.44
378.802	214.44
379.027	211.44
379.253	235.44
379.478	232.44
379.704	237.44
379.929	230.44
380.155	239.44
380.38	231.44
380.606	223.44
380.831	227.44
381.057	236.44
381.282	240.44
381.507	221.44
381.733	235.44
381.958	233.44
382.184	231.44
382.409	248.44
382.634	262.44
382.86	241.44
383.085	249.44
383.31	256.44
383.535	245.44
383.761	261.44
383.986	255.44
384.211	248.44
384.436	277.44
384.662	268.44
384.887	263.44
385.112	262.44
385.337	286.44
385.562	277.44
385.787	250.44
386.013	284.44
386.238	286.44
386.463	270.44
386.688	300.44
386.913	265.44
387.138	279.44
387.363	273.44
387.588	270.44
387.813	268.44
388.038	257.44
388.263	268.44
388.488	278.44
388.713	284.44
388.938	257.44
389.163	270.44
389.387	280.44
389.612	268.44
389.837	284.44
390.062	249.44
390.287	267.44
390.512	284.44
390.736	250.44
390.961	273.44
391.186	268.44
391.411	278.44
391.636	295.44
391.86	278.44
392.085	296.44
392.31	286.44
392.534	282.44
392.759	308.44
392.984	284.44
393.208	317.44
393.433	323.44
393.658	303.44
393.882	292.44
394.107	293.44
394.331	305.44
394.556	299.44
394.78	292.44
395.005	295.44
395.229	288.44
395.454	305.44
395.678	302.44
395.903	309.44
396.127	305.44
396.352	304.44
396.576	297.44
396.801	316.44
397.025	319.44
397.249	303.44
397.474	312.44
397.698	298.44
397.922	299.44
398.147	315.44
398.371	331.44
398.595	333.44
398.82	344.44
399.044	354.44
399.268	401.44
399.492	445.44
399.717	483.44
399.941	449.44
400.165	429.44
400.389	385.44
400.613	358.44
400.837	337.44
401.062	344.44
401.286	332.44
401.51	337.44
401.734	337.44
401.958	346.44
402.182	321.44
402.406	350.44
402.63	362.44
402.854	343.44
403.078	356.44
403.302	369.44
403.526	377.44
403.75	379.44
403.974	374.44
404.198	383.44
404.422	397.44
404.645	372.44
404.869	377.44
405.093	378.44
405.317	387.44
405.541	366.44
405.765	358.44
405.988	367.44
406.212	378.44
406.436	383.44
406.66	372.44
406.883	378.44
407.107	402.44
407.331	397.44
407.555	400.44
407.778	429.44
408.002	404.44
408.226	376.44
408.449	379.44
408.673	372.44
408.896	360.44
409.12	343.44
409.344	379.44
409.567	367.44
409.791	392.44
410.014	358.44
410.238	368.44
410.461	378.44
410.685	365.44
410.908	346.44
411.132	379.44
411.355	334.44
411.578	366.44
411.802	365.44
412.025	362.44
412.249	368.44
412.472	362.44
412.695	365.44
412.919	342.44
413.142	345.44
413.365	372.44
413.589	352.44
413.812	343.44
414.035	346.44
414.258	332.44
414.482	344.44
414.705	355.44
414.928	359.44
415.151	346.44
415.374	362.44
415.597	350.44
415.821	338.44
416.044	326.44
416.267	341.44
416.49	332.44
416.713	356.44
416.936	345.44
417.159	345.44
417.382	351.44
417.605	344.44
417.828	348.44
418.051	350.44
418.274	359.44
418.497	346.44
418.72	352.44
418.943	353.44
419.166	380.44
419.389	378.44
419.611	373.44
419.834	352.44
420.057	383.44
420.28	346.44
420.503	354.44
420.726	351.44
420.948	337.44
421.171	354.44
421.394	353.44
421.617	353.44
421.839	351.44
422.062	358.44
422.285	356.44
422.507	372.44
422.73	349.44
422.953	381.44
423.175	356.44
423.398	366.44
423.621	346.44
423.843	378.44
424.066	361.44
424.288	368.44
424.511	374.44
424.733	362.44
424.956	356.44
425.178	358.44
425.401	359.44
425.623	357.44
425.846	344.44
426.068	323.44
426.291	340.44
426.513	330.44
426.735	336.44
426.958	320.44
427.18	340.44
427.402	348.44
427.625	332.44
427.847	314.44
428.069	326.44
428.292	318.44
428.514	317.44
428.736	315.44
428.958	301.44
429.181	317.44
429.403	322.44
429.625	306.44
429.847	329.44
430.069	298.44
430.292	319.44
430.514	310.44
430.736	325.44
430.958	302.44
431.18	300.44
431.402	315.44
431.624	321.44
431.846	282.44
432.068	312.44
432.29	283.44
432.512	308.44
432.734	313.44
432.956	316.44
433.178	332.44
433.4	318.44
433.622	330.44
433.844	316.44
434.066	310.44
434.287	295.44
434.509	303.44
434.731	335.44
434.953	328.44
435.175	322.44
435.397	340.44
435.618	340.44
435.84	308.44
436.062	321.44
436.284	300.44
436.505	314.44
436.727	325.44
436.949	308.44
437.17	315.44
437.392	309.44
437.614	307.44
437.835	304.44
438.057	270.44
438.278	296.44
438.5	305.44
438.721	289.44
438.943	315.44
439.165	319.44
439.386	302.44
439.608	332.44
439.829	319.44
440.05	309.44
440.272	310.44
440.493	319.44
440.715	338.44
440.936	350.44
441.158	346.44
441.379	348.44
441.6	346.44
441.822	345.44
442.043	362.44
442.264	360.44
442.486	335.44
442.707	342.44
442.928	345.44
443.149	338.44
443.371	325.44
443.592	332.44
443.813	345.44
444.034	359.44
444.255	350.44
444.476	374.44
444.698	398.44
444.919	385.44
445.14	560.44
445.361	435.44
445.582	344.44
445.803	358.44
446.024	358.44
446.245	353.44
446.466	335.44
446.687	334.44
446.908	332.44
447.129	326.44
447.35	326.44
447.571	314.44
447.792	293.44
448.013	301.44
448.234	318.44
448.455	285.44
448.675	301.44
448.896	287.44
449.117	294.44
449.338	276.44
449.559	298.44
449.779	298.44
450	294.44
450.221	304.44
450.442	290.44
450.662	286.44
450.883	283.44
451.104	292.44
451.324	323.44
451.545	288.44
451.766	292.44
451.986	309.44
452.207	300.44
452.428	301.44
452.648	279.44
452.869	265.44
453.089	261.44
453.31	272.44
453.53	272.44
453.751	274.44
453.971	276.44
454.192	261.44
454.412	269.44
454.633	272.44
454.853	282.44
455.073	274.44
455.294	278.44
455.514	279.44
455.734	285.44
455.955	267.44
456.175	279.44
456.395	264.44
456.616	281.44
456.836	282.44
457.056	276.44
457.276	273.44
457.497	270.44
457.717	267.44
457.937	270.44
458.157	254.44
458.377	272.44
458.598	254.44
458.818	273.44
459.038	280.44
459.258	282.44
459.478	298.44
459.698	301.44
459.918	296.44
460.138	328.44
460.358	345.44
460.578	371.44
460.798	352.44
461.018	341.44
461.238	346.44
461.458	362.44
461.678	331.44
461.898	353.44
462.118	363.44
462.338	357.44
462.558	371.44
462.777	376.44
462.997	438.44
463.217	428.44
463.437	409.44
463.657	379.44
463.876	366.44
464.096	398.44
464.316	381.44
464.536	378.44
464.755	386.44
464.975	357.44
465.195	324.44
465.414	328.44
465.634	318.44
465.854	304.44
466.073	298.44
466.293	301.44
466.512	296.44
466.732	312.44
466.951	307.44
467.171	304.44
467.391	319.44
467.61	305.44
467.829	318.44
468.049	336.44
468.268	317.44
468.488	320.44
468.707	307.44
468.927	312.44
469.146	289.44
469.365	301.44
469.585	312.44
469.804	316.44
470.023	303.44
470.243	320.44
470.462	317.44
470.681	336.44
470.901	313.44
471.12	286.44
471.339	304.44
471.558	309.44
471.777	302.44
471.997	325.44
472.216	370.44
472.435	407.44
472.654	331.44
472.873	314.44
473.092	314.44
473.311	308.44
473.53	312.44
473.749	278.44
473.968	293.44
474.187	305.44
474.406	274.44
474.625	303.44
474.844	284.44
475.063	278.44
475.282	290.44
475.501	276.44
475.72	310.44
475.939	292.44
476.158	301.44
476.377	295.44
476.596	278.44
476.814	295.44
477.033	291.44
477.252	283.44
477.471	296.44
477.69	309.44
477.908	316.44
478.127	329.44
478.346	327.44
478.564	328.44
478.783	353.44
479.002	341.44
479.22	349.44
479.439	323.44
479.658	330.44
479.876	346.44
480.095	344.44
480.313	362.44
480.532	368.44
480.751	393.44
480.969	390.44
481.188	500.44
481.406	490.44
481.624	375.44
481.843	335.44
482.061	341.44
482.28	339.44
482.498	329.44
482.717	307.44
482.935	323.44
483.153	327.44
483.372	330.44
483.59	324.44
483.808	321.44
484.027	333.44
484.245	348.44
484.463	340.44
484.681	343.44
484.9	336.44
485.118	339.44
485.336	339.44
485.554	335.44
485.772	325.44
485.99	312.44
486.209	312.44
486.427	317.44
486.645	301.44
486.863	363.44
487.081	336.44
487.299	339.44
487.517	339.44
487.735	331.44
487.953	369.44
488.171	374.44
488.389	351.44
488.607	335.44
488.825	314.44
489.043	343.44
489.261	314.44
489.479	341.44
489.696	341.44
489.914	347.44
490.132	352.44
490.35	378.44
490.568	344.44
490.786	358.44
491.003	366.44
491.221	352.44
491.439	373.44
491.657	361.44
491.874	380.44
492.092	390.44
492.31	398.44
492.527	390.44
492.745	370.44
492.963	371.44
493.18	386.44
493.398	372.44
493.615	393.44
493.833	387.44
494.05	376.44
494.268	376.44
494.485	393.44
494.703	387.44
494.92	385.44
495.138	369.44
495.355	394.44
495.573	370.44
495.79	378.44
496.008	374.44
496.225	366.44
496.442	375.44
496.66	396.44
496.877	375.44
497.094	399.44
497.312	389.44
497.529	389.44
497.746	401.44
497.963	389.44
498.181	411.44
498.398	438.44
498.615	441.44
498.832	456.44
499.049	493.44
499.267	541.44
499.484	590.44
499.701	638.44
499.918	668.44
500.135	806.44
500.352	867.44
500.569	900.44
500.786	843.44
501.003	771.44
501.22	699.44
501.437	618.44
501.654	600.44
501.871	536.44
502.088	497.44
502.305	501.44
502.522	453.44
502.739	461.44
502.956	420.44
503.172	411.44
503.389	398.44
