Data from SampB_HRD10591_00059.txt Node
Date: Mon Jan 19 11:33:48 EST 2026
User: Yrep
Spectrometer: HR+D1059
Trigger mode: 0
Integration Time (sec): 3.443000E-1
Scans to average: 1
Electric dark correction enabled: true
Nonlinearity correction enabled: false
Boxcar width: 0
XAxis mode: Wavelengths
Number of Pixels in Spectrum: 2048
>>>>>Begin Spectral Data<<<<<
223.165	-26.62
223.4	-26.62
223.635	-26.62
223.869	-16.62
224.104	-32.62
224.338	-4.62
224.573	-10.62
224.808	-7.62
225.042	20.38
225.277	-8.62
225.511	-6.62
225.746	2.38
225.98	-2.62
226.215	19.38
226.449	3.38
226.683	15.38
226.918	18.38
227.152	37.38
227.387	37.38
227.621	40.38
227.856	38.38
228.09	68.38
228.324	57.38
228.559	58.38
228.793	55.38
229.027	83.38
229.262	73.38
229.496	87.38
229.73	89.38
229.964	84.38
230.199	82.38
230.433	86.38
230.667	85.38
230.901	91.38
231.136	92.38
231.37	87.38
231.604	99.38
231.838	97.38
232.072	105.38
232.306	92.38
232.541	81.38
232.775	91.38
233.009	101.38
233.243	88.38
233.477	98.38
233.711	90.38
233.945	92.38
234.179	81.38
234.413	85.38
234.647	102.38
234.881	88.38
235.115	110.38
235.349	95.38
235.583	88.38
235.817	100.38
236.051	92.38
236.285	107.38
236.519	84.38
236.753	102.38
236.987	94.38
237.221	100.38
237.455	106.38
237.689	95.38
237.922	94.38
238.156	88.38
238.39	91.38
238.624	95.38
238.858	91.38
239.091	102.38
239.325	106.38
239.559	113.38
239.793	116.38
240.027	122.38
240.26	98.38
240.494	95.38
240.728	102.38
240.961	99.38
241.195	105.38
241.429	109.38
241.662	110.38
241.896	93.38
242.13	106.38
242.363	94.38
242.597	109.38
242.83	107.38
243.064	91.38
243.298	89.38
243.531	103.38
243.765	109.38
243.998	95.38
244.232	107.38
244.465	110.38
244.699	103.38
244.932	97.38
245.166	124.38
245.399	109.38
245.633	104.38
245.866	115.38
246.099	96.38
246.333	99.38
246.566	118.38
246.8	108.38
247.033	116.38
247.266	110.38
247.5	103.38
247.733	121.38
247.966	107.38
248.2	111.38
248.433	119.38
248.666	112.38
248.899	117.38
249.133	113.38
249.366	124.38
249.599	116.38
249.832	114.38
250.066	132.38
250.299	125.38
250.532	120.38
250.765	121.38
250.998	125.38
251.231	115.38
251.465	111.38
251.698	117.38
251.931	98.38
252.164	116.38
252.397	127.38
252.63	98.38
252.863	124.38
253.096	130.38
253.329	125.38
253.562	132.38
253.795	131.38
254.028	128.38
254.261	129.38
254.494	135.38
254.727	121.38
254.96	127.38
255.193	129.38
255.426	126.38
255.659	119.38
255.892	136.38
256.124	120.38
256.357	129.38
256.59	130.38
256.823	138.38
257.056	132.38
257.289	131.38
257.521	145.38
257.754	136.38
257.987	129.38
258.22	121.38
258.452	123.38
258.685	144.38
258.918	131.38
259.151	126.38
259.383	132.38
259.616	138.38
259.849	154.38
260.081	151.38
260.314	131.38
260.547	135.38
260.779	140.38
261.012	126.38
261.244	135.38
261.477	164.38
261.71	139.38
261.942	132.38
262.175	143.38
262.407	141.38
262.64	156.38
262.872	144.38
263.105	148.38
263.337	140.38
263.57	151.38
263.802	135.38
264.035	137.38
264.267	131.38
264.499	135.38
264.732	153.38
264.964	131.38
265.197	143.38
265.429	144.38
265.661	147.38
265.894	129.38
266.126	151.38
266.358	143.38
266.591	124.38
266.823	151.38
267.055	143.38
267.287	143.38
267.52	123.38
267.752	129.38
267.984	159.38
268.216	144.38
268.448	143.38
268.681	154.38
268.913	159.38
269.145	142.38
269.377	157.38
269.609	135.38
269.841	155.38
270.073	132.38
270.306	138.38
270.538	148.38
270.77	145.38
271.002	140.38
271.234	153.38
271.466	158.38
271.698	156.38
271.93	160.38
272.162	169.38
272.394	157.38
272.626	138.38
272.858	157.38
273.09	151.38
273.322	161.38
273.553	156.38
273.785	168.38
274.017	150.38
274.249	164.38
274.481	172.38
274.713	174.38
274.945	180.38
275.176	179.38
275.408	178.38
275.64	173.38
275.872	164.38
276.104	161.38
276.335	188.38
276.567	151.38
276.799	166.38
277.031	168.38
277.262	148.38
277.494	152.38
277.726	178.38
277.957	151.38
278.189	165.38
278.421	156.38
278.652	178.38
278.884	169.38
279.115	161.38
279.347	175.38
279.579	172.38
279.81	171.38
280.042	183.38
280.273	180.38
280.505	165.38
280.736	188.38
280.968	169.38
281.199	178.38
281.431	179.38
281.662	154.38
281.894	177.38
282.125	185.38
282.356	157.38
282.588	150.38
282.819	151.38
283.051	177.38
283.282	161.38
283.513	176.38
283.745	165.38
283.976	172.38
284.207	168.38
284.439	186.38
284.67	188.38
284.901	162.38
285.132	165.38
285.364	172.38
285.595	179.38
285.826	176.38
286.057	182.38
286.288	185.38
286.52	188.38
286.751	173.38
286.982	183.38
287.213	181.38
287.444	169.38
287.675	177.38
287.906	191.38
288.138	184.38
288.369	188.38
288.6	194.38
288.831	211.38
289.062	192.38
289.293	194.38
289.524	185.38
289.755	186.38
289.986	187.38
290.217	179.38
290.448	184.38
290.679	191.38
290.91	190.38
291.141	191.38
291.371	179.38
291.602	179.38
291.833	181.38
292.064	172.38
292.295	186.38
292.526	155.38
292.757	166.38
292.987	181.38
293.218	181.38
293.449	190.38
293.68	178.38
293.91	177.38
294.141	177.38
294.372	184.38
294.603	180.38
294.833	192.38
295.064	189.38
295.295	173.38
295.525	201.38
295.756	209.38
295.987	195.38
296.217	187.38
296.448	192.38
296.679	204.38
296.909	181.38
297.14	196.38
297.37	214.38
297.601	192.38
297.831	200.38
298.062	191.38
298.292	180.38
298.523	201.38
298.753	212.38
298.984	193.38
299.214	205.38
299.445	188.38
299.675	205.38
299.905	201.38
300.136	200.38
300.366	205.38
300.597	193.38
300.827	204.38
301.057	193.38
301.288	205.38
301.518	188.38
301.748	204.38
301.979	248.38
302.209	204.38
302.439	192.38
302.669	211.38
302.9	199.38
303.13	206.38
303.36	210.38
303.59	188.38
303.82	208.38
304.051	216.38
304.281	215.38
304.511	203.38
304.741	203.38
304.971	205.38
305.201	208.38
305.431	207.38
305.661	205.38
305.891	217.38
306.121	214.38
306.352	201.38
306.582	204.38
306.812	189.38
307.042	205.38
307.272	201.38
307.502	188.38
307.731	203.38
307.961	200.38
308.191	206.38
308.421	215.38
308.651	207.38
308.881	199.38
309.111	195.38
309.341	194.38
309.571	215.38
309.8	206.38
310.03	205.38
310.26	217.38
310.49	203.38
310.72	192.38
310.949	199.38
311.179	202.38
311.409	211.38
311.639	203.38
311.868	228.38
312.098	215.38
312.328	219.38
312.557	209.38
312.787	215.38
313.017	204.38
313.246	212.38
313.476	207.38
313.706	204.38
313.935	218.38
314.165	217.38
314.394	226.38
314.624	211.38
314.853	227.38
315.083	212.38
315.312	215.38
315.542	212.38
315.771	217.38
316.001	218.38
316.23	213.38
316.46	208.38
316.689	215.38
316.919	229.38
317.148	215.38
317.377	220.38
317.607	220.38
317.836	219.38
318.065	210.38
318.295	220.38
318.524	206.38
318.753	214.38
318.983	221.38
319.212	205.38
319.441	202.38
319.67	219.38
319.9	235.38
320.129	219.38
320.358	219.38
320.587	212.38
320.816	226.38
321.046	214.38
321.275	238.38
321.504	213.38
321.733	206.38
321.962	210.38
322.191	208.38
322.42	224.38
322.649	247.38
322.878	232.38
323.108	240.38
323.337	206.38
323.566	235.38
323.795	226.38
324.024	220.38
324.253	219.38
324.482	226.38
324.71	222.38
324.939	234.38
325.168	232.38
325.397	215.38
325.626	228.38
325.855	224.38
326.084	231.38
326.313	224.38
326.542	231.38
326.77	237.38
326.999	244.38
327.228	226.38
327.457	232.38
327.686	228.38
327.914	249.38
328.143	255.38
328.372	275.38
328.6	247.38
328.829	239.38
329.058	222.38
329.287	236.38
329.515	258.38
329.744	258.38
329.972	262.38
330.201	295.38
330.43	284.38
330.658	282.38
330.887	236.38
331.115	242.38
331.344	253.38
331.572	244.38
331.801	241.38
332.03	259.38
332.258	271.38
332.486	251.38
332.715	265.38
332.943	269.38
333.172	278.38
333.4	286.38
333.629	297.38
333.857	312.38
334.085	329.38
334.314	342.38
334.542	354.38
334.771	335.38
334.999	290.38
335.227	283.38
335.455	286.38
335.684	297.38
335.912	286.38
336.14	268.38
336.369	265.38
336.597	284.38
336.825	265.38
337.053	248.38
337.281	251.38
337.51	242.38
337.738	241.38
337.966	260.38
338.194	244.38
338.422	247.38
338.65	240.38
338.878	240.38
339.106	240.38
339.334	258.38
339.562	257.38
339.79	225.38
340.018	247.38
340.246	244.38
340.474	244.38
340.702	243.38
340.93	240.38
341.158	225.38
341.386	226.38
341.614	239.38
341.842	236.38
342.07	226.38
342.298	231.38
342.526	239.38
342.754	233.38
342.981	271.38
343.209	235.38
343.437	263.38
343.665	266.38
343.893	292.38
344.12	305.38
344.348	269.38
344.576	252.38
344.804	250.38
345.031	245.38
345.259	244.38
345.487	235.38
345.714	213.38
345.942	234.38
346.17	240.38
346.397	232.38
346.625	229.38
346.853	231.38
347.08	233.38
347.308	243.38
347.535	232.38
347.763	238.38
347.99	238.38
348.218	251.38
348.445	223.38
348.673	235.38
348.9	249.38
349.128	240.38
349.355	244.38
349.583	229.38
349.81	235.38
350.037	231.38
350.265	231.38
350.492	245.38
350.72	224.38
350.947	219.38
351.174	247.38
351.402	216.38
351.629	219.38
351.856	243.38
352.083	211.38
352.311	224.38
352.538	230.38
352.765	232.38
352.992	230.38
353.22	221.38
353.447	228.38
353.674	223.38
353.901	239.38
354.128	227.38
354.355	221.38
354.583	232.38
354.81	226.38
355.037	236.38
355.264	228.38
355.491	219.38
355.718	239.38
355.945	233.38
356.172	231.38
356.399	234.38
356.626	241.38
356.853	239.38
357.08	237.38
357.307	229.38
357.534	239.38
357.761	229.38
357.988	255.38
358.215	241.38
358.441	239.38
358.668	226.38
358.895	228.38
359.122	238.38
359.349	226.38
359.576	210.38
359.802	236.38
360.029	225.38
360.256	230.38
360.483	240.38
360.709	243.38
360.936	263.38
361.163	244.38
361.39	226.38
361.616	240.38
361.843	237.38
362.07	231.38
362.296	233.38
362.523	229.38
362.749	246.38
362.976	231.38
363.203	244.38
363.429	224.38
363.656	239.38
363.882	247.38
364.109	253.38
364.335	245.38
364.562	222.38
364.788	219.38
365.015	253.38
365.241	228.38
365.468	228.38
365.694	229.38
365.92	231.38
366.147	238.38
366.373	238.38
366.599	221.38
366.826	229.38
367.052	223.38
367.278	240.38
367.505	237.38
367.731	248.38
367.957	230.38
368.184	237.38
368.41	248.38
368.636	243.38
368.862	243.38
369.089	242.38
369.315	226.38
369.541	242.38
369.767	232.38
369.993	235.38
370.219	236.38
370.445	248.38
370.672	257.38
370.898	245.38
371.124	237.38
371.35	243.38
371.576	243.38
371.802	246.38
372.028	249.38
372.254	279.38
372.48	260.38
372.706	250.38
372.932	258.38
373.158	255.38
373.384	250.38
373.61	269.38
373.835	271.38
374.061	272.38
374.287	257.38
374.513	250.38
374.739	283.38
374.965	282.38
375.191	268.38
375.416	265.38
375.642	263.38
375.868	275.38
376.094	281.38
376.319	260.38
376.545	258.38
376.771	264.38
376.997	252.38
377.222	260.38
377.448	253.38
377.674	253.38
377.899	240.38
378.125	242.38
378.35	254.38
378.576	264.38
378.802	253.38
379.027	234.38
379.253	241.38
379.478	243.38
379.704	242.38
379.929	245.38
380.155	265.38
380.38	263.38
380.606	255.38
380.831	255.38
381.057	272.38
381.282	240.38
381.507	269.38
381.733	269.38
381.958	282.38
382.184	293.38
382.409	253.38
382.634	286.38
382.86	291.38
383.085	271.38
383.31	271.38
383.535	277.38
383.761	291.38
383.986	284.38
384.211	278.38
384.436	283.38
384.662	288.38
384.887	303.38
385.112	283.38
385.337	308.38
385.562	279.38
385.787	303.38
386.013	305.38
386.238	312.38
386.463	294.38
386.688	322.38
386.913	300.38
387.138	282.38
387.363	291.38
387.588	307.38
387.813	313.38
388.038	288.38
388.263	302.38
388.488	293.38
388.713	294.38
388.938	291.38
389.163	308.38
389.387	292.38
389.612	297.38
389.837	299.38
390.062	310.38
390.287	287.38
390.512	292.38
390.736	285.38
390.961	300.38
391.186	298.38
391.411	308.38
391.636	331.38
391.86	322.38
392.085	343.38
392.31	323.38
392.534	312.38
392.759	323.38
392.984	322.38
393.208	346.38
393.433	353.38
393.658	342.38
393.882	327.38
394.107	314.38
394.331	327.38
394.556	340.38
394.78	330.38
395.005	309.38
395.229	331.38
395.454	322.38
395.678	331.38
395.903	338.38
396.127	337.38
396.352	326.38
396.576	331.38
396.801	343.38
397.025	354.38
397.249	357.38
397.474	332.38
397.698	323.38
397.922	337.38
398.147	323.38
398.371	321.38
398.595	353.38
398.82	362.38
399.044	377.38
399.268	428.38
399.492	480.38
399.717	501.38
399.941	487.38
400.165	455.38
400.389	420.38
400.613	384.38
400.837	392.38
401.062	368.38
401.286	370.38
401.51	372.38
401.734	356.38
401.958	382.38
402.182	380.38
402.406	371.38
402.63	370.38
402.854	416.38
403.078	401.38
403.302	408.38
403.526	432.38
403.75	423.38
403.974	437.38
404.198	418.38
404.422	419.38
404.645	412.38
404.869	384.38
405.093	415.38
405.317	405.38
405.541	408.38
405.765	393.38
405.988	394.38
406.212	410.38
406.436	394.38
406.66	416.38
406.883	428.38
407.107	434.38
407.331	450.38
407.555	464.38
407.778	439.38
408.002	425.38
408.226	416.38
408.449	413.38
408.673	414.38
408.896	407.38
409.12	385.38
409.344	433.38
409.567	421.38
409.791	420.38
410.014	424.38
410.238	399.38
410.461	403.38
410.685	400.38
410.908	403.38
411.132	400.38
411.355	377.38
411.578	379.38
411.802	366.38
412.025	389.38
412.249	381.38
412.472	376.38
412.695	367.38
412.919	376.38
413.142	382.38
413.365	367.38
413.589	365.38
413.812	378.38
414.035	383.38
414.258	371.38
414.482	372.38
414.705	384.38
414.928	383.38
415.151	379.38
415.374	389.38
415.597	380.38
415.821	363.38
416.044	361.38
416.267	365.38
416.49	367.38
416.713	366.38
416.936	355.38
417.159	363.38
417.382	375.38
417.605	368.38
417.828	365.38
418.051	377.38
418.274	396.38
418.497	391.38
418.72	404.38
418.943	381.38
419.166	409.38
419.389	428.38
419.611	436.38
419.834	416.38
420.057	386.38
420.28	388.38
420.503	404.38
420.726	372.38
420.948	356.38
421.171	388.38
421.394	366.38
421.617	364.38
421.839	381.38
422.062	383.38
422.285	371.38
422.507	411.38
422.73	372.38
422.953	382.38
423.175	400.38
423.398	395.38
423.621	404.38
423.843	390.38
424.066	392.38
424.288	400.38
424.511	387.38
424.733	387.38
424.956	373.38
425.178	378.38
425.401	381.38
425.623	365.38
425.846	375.38
426.068	366.38
426.291	364.38
426.513	381.38
426.735	341.38
426.958	352.38
427.18	369.38
427.402	353.38
427.625	363.38
427.847	355.38
428.069	347.38
428.292	343.38
428.514	340.38
428.736	331.38
428.958	340.38
429.181	341.38
429.403	315.38
429.625	333.38
429.847	328.38
430.069	325.38
430.292	307.38
430.514	321.38
430.736	329.38
430.958	331.38
431.18	365.38
431.402	339.38
431.624	322.38
431.846	330.38
432.068	311.38
432.29	339.38
432.512	334.38
432.734	356.38
432.956	353.38
433.178	365.38
433.4	328.38
433.622	357.38
433.844	335.38
434.066	337.38
434.287	331.38
434.509	340.38
434.731	339.38
434.953	370.38
435.175	367.38
435.397	360.38
435.618	347.38
435.84	321.38
436.062	342.38
436.284	329.38
436.505	329.38
436.727	327.38
436.949	343.38
437.17	327.38
437.392	338.38
437.614	316.38
437.835	320.38
438.057	326.38
438.278	300.38
438.5	343.38
438.721	314.38
438.943	342.38
439.165	345.38
439.386	339.38
439.608	349.38
439.829	344.38
440.05	364.38
440.272	353.38
440.493	361.38
440.715	355.38
440.936	363.38
441.158	337.38
441.379	371.38
441.6	378.38
441.822	378.38
442.043	372.38
442.264	353.38
442.486	350.38
442.707	353.38
442.928	370.38
443.149	399.38
443.371	372.38
443.592	367.38
443.813	366.38
444.034	382.38
444.255	404.38
444.476	413.38
444.698	415.38
444.919	420.38
445.14	579.38
445.361	490.38
445.582	394.38
445.803	360.38
446.024	361.38
446.245	376.38
446.466	354.38
446.687	361.38
446.908	353.38
447.129	353.38
447.35	352.38
447.571	336.38
447.792	331.38
448.013	330.38
448.234	329.38
448.455	325.38
448.675	318.38
448.896	318.38
449.117	305.38
449.338	329.38
449.559	319.38
449.779	318.38
450	318.38
450.221	322.38
450.442	314.38
450.662	331.38
450.883	312.38
451.104	313.38
451.324	297.38
451.545	322.38
451.766	299.38
451.986	315.38
452.207	310.38
452.428	307.38
452.648	320.38
452.869	311.38
453.089	300.38
453.31	310.38
453.53	297.38
453.751	291.38
453.971	316.38
454.192	292.38
454.412	280.38
454.633	300.38
454.853	291.38
455.073	303.38
455.294	297.38
455.514	308.38
455.734	287.38
455.955	277.38
456.175	282.38
456.395	280.38
456.616	279.38
456.836	292.38
457.056	277.38
457.276	280.38
457.497	286.38
457.717	280.38
457.937	284.38
458.157	286.38
458.377	283.38
458.598	301.38
458.818	291.38
459.038	307.38
459.258	301.38
459.478	339.38
459.698	316.38
459.918	341.38
460.138	363.38
460.358	357.38
460.578	360.38
460.798	377.38
461.018	380.38
461.238	379.38
461.458	363.38
461.678	368.38
461.898	364.38
462.118	380.38
462.338	414.38
462.558	401.38
462.777	427.38
462.997	458.38
463.217	468.38
463.437	433.38
463.657	431.38
463.876	407.38
464.096	425.38
464.316	407.38
464.536	430.38
464.755	408.38
464.975	410.38
465.195	380.38
465.414	372.38
465.634	359.38
465.854	345.38
466.073	344.38
466.293	338.38
466.512	324.38
466.732	349.38
466.951	349.38
467.171	321.38
467.391	335.38
467.61	334.38
467.829	324.38
468.049	347.38
468.268	352.38
468.488	348.38
468.707	340.38
468.927	320.38
469.146	304.38
469.365	335.38
469.585	328.38
469.804	325.38
470.023	344.38
470.243	341.38
470.462	327.38
470.681	332.38
470.901	357.38
471.12	336.38
471.339	328.38
471.558	328.38
471.777	331.38
471.997	332.38
472.216	378.38
472.435	411.38
472.654	370.38
472.873	329.38
473.092	306.38
473.311	329.38
473.53	319.38
473.749	320.38
473.968	328.38
474.187	317.38
474.406	293.38
474.625	335.38
474.844	337.38
475.063	305.38
475.282	313.38
475.501	314.38
475.72	324.38
475.939	312.38
476.158	328.38
476.377	333.38
476.596	315.38
476.814	347.38
477.033	311.38
477.252	338.38
477.471	329.38
477.69	344.38
477.908	372.38
478.127	376.38
478.346	382.38
478.564	386.38
478.783	375.38
479.002	376.38
479.22	376.38
479.439	378.38
479.658	354.38
479.876	397.38
480.095	372.38
480.313	396.38
480.532	416.38
480.751	401.38
480.969	417.38
481.188	511.38
481.406	482.38
481.624	383.38
481.843	353.38
482.061	361.38
482.28	360.38
482.498	341.38
482.717	345.38
482.935	350.38
483.153	383.38
483.372	374.38
483.59	355.38
483.808	332.38
484.027	352.38
484.245	360.38
484.463	352.38
484.681	357.38
484.9	373.38
485.118	362.38
485.336	358.38
485.554	352.38
485.772	343.38
485.99	347.38
486.209	379.38
486.427	357.38
486.645	345.38
486.863	361.38
487.081	372.38
487.299	357.38
487.517	387.38
487.735	369.38
487.953	392.38
488.171	402.38
488.389	379.38
488.607	388.38
488.825	340.38
489.043	348.38
489.261	388.38
489.479	368.38
489.696	347.38
489.914	371.38
490.132	372.38
490.35	344.38
490.568	390.38
490.786	377.38
491.003	382.38
491.221	402.38
491.439	407.38
491.657	406.38
491.874	421.38
492.092	446.38
492.31	429.38
492.527	425.38
492.745	412.38
492.963	428.38
493.18	421.38
493.398	403.38
493.615	408.38
493.833	396.38
494.05	427.38
494.268	402.38
494.485	408.38
494.703	400.38
494.92	413.38
495.138	412.38
495.355	411.38
495.573	418.38
495.79	409.38
496.008	430.38
496.225	402.38
496.442	413.38
496.66	439.38
496.877	409.38
497.094	430.38
497.312	440.38
497.529	443.38
497.746	440.38
497.963	457.38
498.181	457.38
498.398	482.38
498.615	480.38
498.832	524.38
499.049	531.38
499.267	600.38
499.484	658.38
499.701	699.38
499.918	773.38
500.135	857.38
500.352	948.38
500.569	957.38
500.786	928.38
501.003	870.38
501.22	764.38
501.437	717.38
501.654	625.38
501.871	585.38
502.088	537.38
502.305	545.38
502.522	520.38
502.739	493.38
502.956	475.38
503.172	459.38
503.389	431.38
