Data from SampB_HRD10591_00004.txt Node
Date: Mon Jan 19 11:33:29 EST 2026
User: Yrep
Spectrometer: HR+D1059
Trigger mode: 0
Integration Time (sec): 3.443000E-1
Scans to average: 1
Electric dark correction enabled: true
Nonlinearity correction enabled: false
Boxcar width: 0
XAxis mode: Wavelengths
Number of Pixels in Spectrum: 2048
>>>>>Begin Spectral Data<<<<<
223.165	-16.12
223.4	-16.12
223.635	-16.12
223.869	-34.12
224.104	-25.12
224.338	-4.12
224.573	-22.12
224.808	-12.12
225.042	-7.12
225.277	-21.12
225.511	15.88
225.746	4.88
225.98	16.88
226.215	14.88
226.449	15.88
226.683	16.88
226.918	20.88
227.152	35.88
227.387	36.88
227.621	40.88
227.856	49.88
228.09	29.88
228.324	42.88
228.559	68.88
228.793	62.88
229.027	61.88
229.262	78.88
229.496	73.88
229.73	80.88
229.964	81.88
230.199	76.88
230.433	70.88
230.667	71.88
230.901	73.88
231.136	92.88
231.37	88.88
231.604	80.88
231.838	80.88
232.072	78.88
232.306	87.88
232.541	81.88
232.775	90.88
233.009	95.88
233.243	81.88
233.477	92.88
233.711	102.88
233.945	95.88
234.179	93.88
234.413	77.88
234.647	84.88
234.881	92.88
235.115	77.88
235.349	92.88
235.583	81.88
235.817	88.88
236.051	92.88
236.285	85.88
236.519	77.88
236.753	87.88
236.987	87.88
237.221	82.88
237.455	94.88
237.689	86.88
237.922	84.88
238.156	85.88
238.39	89.88
238.624	72.88
238.858	82.88
239.091	98.88
239.325	73.88
239.559	106.88
239.793	90.88
240.027	94.88
240.26	90.88
240.494	88.88
240.728	81.88
240.961	72.88
241.195	85.88
241.429	88.88
241.662	82.88
241.896	84.88
242.13	89.88
242.363	78.88
242.597	77.88
242.83	91.88
243.064	78.88
243.298	79.88
243.531	75.88
243.765	105.88
243.998	95.88
244.232	100.88
244.465	98.88
244.699	93.88
244.932	85.88
245.166	71.88
245.399	79.88
245.633	85.88
245.866	81.88
246.099	91.88
246.333	94.88
246.566	88.88
246.8	88.88
247.033	82.88
247.266	96.88
247.5	86.88
247.733	91.88
247.966	92.88
248.2	96.88
248.433	84.88
248.666	94.88
248.899	111.88
249.133	96.88
249.366	103.88
249.599	97.88
249.832	97.88
250.066	103.88
250.299	102.88
250.532	101.88
250.765	98.88
250.998	93.88
251.231	97.88
251.465	96.88
251.698	106.88
251.931	102.88
252.164	103.88
252.397	96.88
252.63	98.88
252.863	97.88
253.096	106.88
253.329	118.88
253.562	98.88
253.795	96.88
254.028	119.88
254.261	109.88
254.494	112.88
254.727	106.88
254.96	102.88
255.193	109.88
255.426	107.88
255.659	101.88
255.892	96.88
256.124	111.88
256.357	104.88
256.59	108.88
256.823	111.88
257.056	109.88
257.289	116.88
257.521	96.88
257.754	95.88
257.987	99.88
258.22	102.88
258.452	91.88
258.685	98.88
258.918	110.88
259.151	102.88
259.383	101.88
259.616	100.88
259.849	88.88
260.081	99.88
260.314	99.88
260.547	100.88
260.779	105.88
261.012	98.88
261.244	109.88
261.477	113.88
261.71	102.88
261.942	112.88
262.175	103.88
262.407	113.88
262.64	112.88
262.872	110.88
263.105	95.88
263.337	124.88
263.57	100.88
263.802	104.88
264.035	114.88
264.267	119.88
264.499	119.88
264.732	132.88
264.964	104.88
265.197	109.88
265.429	103.88
265.661	116.88
265.894	118.88
266.126	110.88
266.358	109.88
266.591	133.88
266.823	104.88
267.055	100.88
267.287	94.88
267.52	112.88
267.752	111.88
267.984	95.88
268.216	113.88
268.448	121.88
268.681	138.88
268.913	114.88
269.145	125.88
269.377	123.88
269.609	104.88
269.841	112.88
270.073	115.88
270.306	106.88
270.538	114.88
270.77	109.88
271.002	120.88
271.234	117.88
271.466	122.88
271.698	117.88
271.93	91.88
272.162	113.88
272.394	137.88
272.626	125.88
272.858	131.88
273.09	129.88
273.322	110.88
273.553	115.88
273.785	119.88
274.017	116.88
274.249	123.88
274.481	128.88
274.713	128.88
274.945	116.88
275.176	129.88
275.408	115.88
275.64	118.88
275.872	121.88
276.104	115.88
276.335	121.88
276.567	121.88
276.799	118.88
277.031	130.88
277.262	118.88
277.494	134.88
277.726	135.88
277.957	144.88
278.189	124.88
278.421	109.88
278.652	117.88
278.884	119.88
279.115	140.88
279.347	125.88
279.579	153.88
279.81	135.88
280.042	141.88
280.273	136.88
280.505	135.88
280.736	127.88
280.968	130.88
281.199	129.88
281.431	130.88
281.662	135.88
281.894	145.88
282.125	129.88
282.356	138.88
282.588	133.88
282.819	131.88
283.051	137.88
283.282	122.88
283.513	144.88
283.745	125.88
283.976	150.88
284.207	132.88
284.439	120.88
284.67	143.88
284.901	126.88
285.132	126.88
285.364	142.88
285.595	144.88
285.826	152.88
286.057	131.88
286.288	127.88
286.52	146.88
286.751	147.88
286.982	143.88
287.213	138.88
287.444	135.88
287.675	138.88
287.906	134.88
288.138	134.88
288.369	149.88
288.6	166.88
288.831	129.88
289.062	150.88
289.293	148.88
289.524	149.88
289.755	120.88
289.986	142.88
290.217	132.88
290.448	131.88
290.679	132.88
290.91	151.88
291.141	145.88
291.371	140.88
291.602	135.88
291.833	148.88
292.064	150.88
292.295	134.88
292.526	152.88
292.757	146.88
292.987	144.88
293.218	148.88
293.449	156.88
293.68	157.88
293.91	151.88
294.141	153.88
294.372	129.88
294.603	136.88
294.833	140.88
295.064	138.88
295.295	135.88
295.525	150.88
295.756	139.88
295.987	146.88
296.217	156.88
296.448	149.88
296.679	138.88
296.909	160.88
297.14	152.88
297.37	160.88
297.601	138.88
297.831	124.88
298.062	148.88
298.292	140.88
298.523	150.88
298.753	156.88
298.984	155.88
299.214	140.88
299.445	153.88
299.675	158.88
299.905	157.88
300.136	153.88
300.366	146.88
300.597	164.88
300.827	148.88
301.057	164.88
301.288	156.88
301.518	158.88
301.748	153.88
301.979	184.88
302.209	162.88
302.439	158.88
302.669	161.88
302.9	151.88
303.13	167.88
303.36	163.88
303.59	155.88
303.82	164.88
304.051	172.88
304.281	164.88
304.511	167.88
304.741	148.88
304.971	164.88
305.201	176.88
305.431	142.88
305.661	151.88
305.891	148.88
306.121	159.88
306.352	169.88
306.582	158.88
306.812	149.88
307.042	153.88
307.272	169.88
307.502	168.88
307.731	164.88
307.961	157.88
308.191	162.88
308.421	152.88
308.651	133.88
308.881	154.88
309.111	157.88
309.341	162.88
309.571	162.88
309.8	158.88
310.03	158.88
310.26	150.88
310.49	148.88
310.72	149.88
310.949	150.88
311.179	154.88
311.409	158.88
311.639	157.88
311.868	166.88
312.098	163.88
312.328	154.88
312.557	153.88
312.787	158.88
313.017	158.88
313.246	158.88
313.476	155.88
313.706	174.88
313.935	154.88
314.165	148.88
314.394	158.88
314.624	157.88
314.853	179.88
315.083	167.88
315.312	156.88
315.542	144.88
315.771	160.88
316.001	167.88
316.23	178.88
316.46	159.88
316.689	134.88
316.919	166.88
317.148	165.88
317.377	157.88
317.607	163.88
317.836	170.88
318.065	162.88
318.295	169.88
318.524	146.88
318.753	170.88
318.983	171.88
319.212	172.88
319.441	167.88
319.67	158.88
319.9	160.88
320.129	153.88
320.358	162.88
320.587	162.88
320.816	173.88
321.046	155.88
321.275	178.88
321.504	174.88
321.733	171.88
321.962	169.88
322.191	170.88
322.42	154.88
322.649	189.88
322.878	171.88
323.108	176.88
323.337	169.88
323.566	161.88
323.795	158.88
324.024	171.88
324.253	158.88
324.482	165.88
324.71	175.88
324.939	172.88
325.168	159.88
325.397	182.88
325.626	185.88
325.855	156.88
326.084	163.88
326.313	173.88
326.542	168.88
326.77	174.88
326.999	179.88
327.228	175.88
327.457	169.88
327.686	170.88
327.914	173.88
328.143	181.88
328.372	186.88
328.6	167.88
328.829	190.88
329.058	193.88
329.287	168.88
329.515	182.88
329.744	170.88
329.972	174.88
330.201	186.88
330.43	186.88
330.658	168.88
330.887	177.88
331.115	171.88
331.344	187.88
331.572	190.88
331.801	188.88
332.03	174.88
332.258	183.88
332.486	196.88
332.715	204.88
332.943	211.88
333.172	210.88
333.4	203.88
333.629	221.88
333.857	225.88
334.085	222.88
334.314	222.88
334.542	211.88
334.771	223.88
334.999	215.88
335.227	226.88
335.455	192.88
335.684	216.88
335.912	214.88
336.14	198.88
336.369	212.88
336.597	186.88
336.825	193.88
337.053	208.88
337.281	188.88
337.51	177.88
337.738	185.88
337.966	180.88
338.194	177.88
338.422	191.88
338.65	194.88
338.878	181.88
339.106	189.88
339.334	186.88
339.562	179.88
339.79	184.88
340.018	182.88
340.246	177.88
340.474	174.88
340.702	178.88
340.93	189.88
341.158	193.88
341.386	171.88
341.614	176.88
341.842	149.88
342.07	177.88
342.298	174.88
342.526	176.88
342.754	184.88
342.981	168.88
343.209	187.88
343.437	247.88
343.665	199.88
343.893	200.88
344.12	223.88
344.348	193.88
344.576	197.88
344.804	184.88
345.031	193.88
345.259	179.88
345.487	175.88
345.714	167.88
345.942	153.88
346.17	174.88
346.397	180.88
346.625	171.88
346.853	180.88
347.08	187.88
347.308	170.88
347.535	176.88
347.763	181.88
347.99	187.88
348.218	188.88
348.445	174.88
348.673	172.88
348.9	167.88
349.128	176.88
349.355	167.88
349.583	171.88
349.81	180.88
350.037	164.88
350.265	171.88
350.492	166.88
350.72	175.88
350.947	153.88
351.174	174.88
351.402	177.88
351.629	165.88
351.856	179.88
352.083	172.88
352.311	173.88
352.538	174.88
352.765	175.88
352.992	182.88
353.22	159.88
353.447	165.88
353.674	188.88
353.901	180.88
354.128	167.88
354.355	161.88
354.583	177.88
354.81	170.88
355.037	169.88
355.264	179.88
355.491	170.88
355.718	162.88
355.945	168.88
356.172	172.88
356.399	180.88
356.626	173.88
356.853	155.88
357.08	175.88
357.307	181.88
357.534	164.88
357.761	178.88
357.988	173.88
358.215	168.88
358.441	182.88
358.668	168.88
358.895	181.88
359.122	173.88
359.349	174.88
359.576	157.88
359.802	161.88
360.029	178.88
360.256	173.88
360.483	157.88
360.709	183.88
360.936	196.88
361.163	154.88
361.39	176.88
361.616	184.88
361.843	178.88
362.07	187.88
362.296	175.88
362.523	174.88
362.749	160.88
362.976	160.88
363.203	193.88
363.429	170.88
363.656	183.88
363.882	179.88
364.109	180.88
364.335	188.88
364.562	162.88
364.788	181.88
365.015	176.88
365.241	176.88
365.468	165.88
365.694	176.88
365.92	185.88
366.147	168.88
366.373	166.88
366.599	155.88
366.826	172.88
367.052	152.88
367.278	171.88
367.505	174.88
367.731	189.88
367.957	174.88
368.184	172.88
368.41	179.88
368.636	172.88
368.862	173.88
369.089	173.88
369.315	186.88
369.541	191.88
369.767	172.88
369.993	178.88
370.219	200.88
370.445	175.88
370.672	168.88
370.898	158.88
371.124	177.88
371.35	189.88
371.576	183.88
371.802	197.88
372.028	192.88
372.254	182.88
372.48	193.88
372.706	185.88
372.932	180.88
373.158	177.88
373.384	190.88
373.61	185.88
373.835	197.88
374.061	183.88
374.287	190.88
374.513	170.88
374.739	181.88
374.965	201.88
375.191	197.88
375.416	193.88
375.642	188.88
375.868	194.88
376.094	176.88
376.319	184.88
376.545	186.88
376.771	191.88
376.997	196.88
377.222	188.88
377.448	193.88
377.674	187.88
377.899	182.88
378.125	179.88
378.35	193.88
378.576	188.88
378.802	184.88
379.027	177.88
379.253	201.88
379.478	197.88
379.704	191.88
379.929	204.88
380.155	168.88
380.38	178.88
380.606	182.88
380.831	169.88
381.057	198.88
381.282	199.88
381.507	197.88
381.733	187.88
381.958	197.88
382.184	188.88
382.409	198.88
382.634	184.88
382.86	196.88
383.085	205.88
383.31	214.88
383.535	203.88
383.761	208.88
383.986	203.88
384.211	215.88
384.436	192.88
384.662	199.88
384.887	209.88
385.112	219.88
385.337	222.88
385.562	206.88
385.787	210.88
386.013	202.88
386.238	228.88
386.463	207.88
386.688	245.88
386.913	214.88
387.138	216.88
387.363	212.88
387.588	223.88
387.813	228.88
388.038	221.88
388.263	214.88
388.488	210.88
388.713	204.88
388.938	205.88
389.163	205.88
389.387	212.88
389.612	208.88
389.837	218.88
390.062	216.88
390.287	209.88
390.512	196.88
390.736	191.88
390.961	222.88
391.186	208.88
391.411	232.88
391.636	216.88
391.86	238.88
392.085	236.88
392.31	243.88
392.534	234.88
392.759	239.88
392.984	225.88
393.208	246.88
393.433	264.88
393.658	249.88
393.882	239.88
394.107	228.88
394.331	209.88
394.556	228.88
394.78	230.88
395.005	228.88
395.229	234.88
395.454	240.88
395.678	234.88
395.903	235.88
396.127	236.88
396.352	237.88
396.576	229.88
396.801	236.88
397.025	262.88
397.249	256.88
397.474	230.88
397.698	222.88
397.922	224.88
398.147	238.88
398.371	239.88
398.595	244.88
398.82	244.88
399.044	287.88
399.268	305.88
399.492	319.88
399.717	368.88
399.941	337.88
400.165	308.88
400.389	280.88
400.613	266.88
400.837	266.88
401.062	280.88
401.286	258.88
401.51	262.88
401.734	258.88
401.958	255.88
402.182	242.88
402.406	264.88
402.63	261.88
402.854	270.88
403.078	264.88
403.302	274.88
403.526	280.88
403.75	281.88
403.974	295.88
404.198	272.88
404.422	287.88
404.645	287.88
404.869	269.88
405.093	281.88
405.317	272.88
405.541	274.88
405.765	290.88
405.988	268.88
406.212	264.88
406.436	279.88
406.66	291.88
406.883	282.88
407.107	286.88
407.331	304.88
407.555	306.88
407.778	315.88
408.002	287.88
408.226	286.88
408.449	295.88
408.673	296.88
408.896	290.88
409.12	279.88
409.344	262.88
409.567	289.88
409.791	282.88
410.014	281.88
410.238	290.88
410.461	279.88
410.685	271.88
410.908	271.88
411.132	266.88
411.355	259.88
411.578	265.88
411.802	271.88
412.025	266.88
412.249	272.88
412.472	270.88
412.695	244.88
412.919	247.88
413.142	242.88
413.365	276.88
413.589	260.88
413.812	246.88
414.035	260.88
414.258	245.88
414.482	272.88
414.705	264.88
414.928	262.88
415.151	245.88
415.374	251.88
415.597	233.88
415.821	265.88
416.044	250.88
416.267	237.88
416.49	247.88
416.713	249.88
416.936	268.88
417.159	247.88
417.382	234.88
417.605	251.88
417.828	262.88
418.051	241.88
418.274	254.88
418.497	251.88
418.72	275.88
418.943	254.88
419.166	265.88
419.389	288.88
419.611	267.88
419.834	281.88
420.057	291.88
420.28	266.88
420.503	256.88
420.726	259.88
420.948	248.88
421.171	253.88
421.394	239.88
421.617	245.88
421.839	241.88
422.062	267.88
422.285	268.88
422.507	252.88
422.73	284.88
422.953	267.88
423.175	251.88
423.398	262.88
423.621	266.88
423.843	263.88
424.066	273.88
424.288	259.88
424.511	277.88
424.733	272.88
424.956	266.88
425.178	269.88
425.401	244.88
425.623	259.88
425.846	242.88
426.068	226.88
426.291	264.88
426.513	246.88
426.735	244.88
426.958	228.88
427.18	234.88
427.402	263.88
427.625	240.88
427.847	219.88
428.069	250.88
428.292	231.88
428.514	237.88
428.736	242.88
428.958	224.88
429.181	226.88
429.403	238.88
429.625	232.88
429.847	231.88
430.069	226.88
430.292	242.88
430.514	237.88
430.736	225.88
430.958	236.88
431.18	210.88
431.402	254.88
431.624	226.88
431.846	223.88
432.068	226.88
432.29	216.88
432.512	223.88
432.734	231.88
432.956	250.88
433.178	250.88
433.4	248.88
433.622	241.88
433.844	247.88
434.066	238.88
434.287	225.88
434.509	232.88
434.731	246.88
434.953	256.88
435.175	257.88
435.397	249.88
435.618	235.88
435.84	230.88
436.062	225.88
436.284	228.88
436.505	230.88
436.727	231.88
436.949	245.88
437.17	229.88
437.392	228.88
437.614	222.88
437.835	217.88
438.057	217.88
438.278	223.88
438.5	224.88
438.721	222.88
438.943	250.88
439.165	240.88
439.386	254.88
439.608	234.88
439.829	234.88
440.05	251.88
440.272	230.88
440.493	254.88
440.715	238.88
440.936	252.88
441.158	260.88
441.379	236.88
441.6	262.88
441.822	260.88
442.043	272.88
442.264	262.88
442.486	255.88
442.707	253.88
442.928	255.88
443.149	249.88
443.371	284.88
443.592	248.88
443.813	248.88
444.034	265.88
444.255	272.88
444.476	268.88
444.698	285.88
444.919	292.88
445.14	479.88
445.361	354.88
445.582	261.88
445.803	261.88
446.024	237.88
446.245	241.88
446.466	247.88
446.687	239.88
446.908	246.88
447.129	242.88
447.35	236.88
447.571	217.88
447.792	227.88
448.013	232.88
448.234	227.88
448.455	241.88
448.675	242.88
448.896	218.88
449.117	202.88
449.338	229.88
449.559	221.88
449.779	203.88
450	212.88
450.221	228.88
450.442	212.88
450.662	216.88
450.883	227.88
451.104	241.88
451.324	213.88
451.545	224.88
451.766	230.88
451.986	213.88
452.207	212.88
452.428	233.88
452.648	223.88
452.869	215.88
453.089	224.88
453.31	211.88
453.53	216.88
453.751	201.88
453.971	212.88
454.192	207.88
454.412	211.88
454.633	191.88
454.853	198.88
455.073	206.88
455.294	210.88
455.514	213.88
455.734	211.88
455.955	208.88
456.175	194.88
456.395	202.88
456.616	198.88
456.836	204.88
457.056	220.88
457.276	204.88
457.497	196.88
457.717	199.88
457.937	205.88
458.157	191.88
458.377	204.88
458.598	205.88
458.818	186.88
459.038	208.88
459.258	210.88
459.478	222.88
459.698	220.88
459.918	237.88
460.138	251.88
460.358	253.88
460.578	250.88
460.798	250.88
461.018	258.88
461.238	260.88
461.458	264.88
461.678	263.88
461.898	244.88
462.118	250.88
462.338	266.88
462.558	282.88
462.777	292.88
462.997	320.88
463.217	310.88
463.437	303.88
463.657	287.88
463.876	277.88
464.096	273.88
464.316	293.88
464.536	270.88
464.755	264.88
464.975	257.88
465.195	252.88
465.414	253.88
465.634	249.88
465.854	229.88
466.073	224.88
466.293	228.88
466.512	225.88
466.732	221.88
466.951	241.88
467.171	233.88
467.391	231.88
467.61	226.88
467.829	221.88
468.049	213.88
468.268	222.88
468.488	223.88
468.707	216.88
468.927	238.88
469.146	241.88
469.365	229.88
469.585	230.88
469.804	220.88
470.023	224.88
470.243	244.88
470.462	222.88
470.681	239.88
470.901	243.88
471.12	225.88
471.339	229.88
471.558	241.88
471.777	221.88
471.997	229.88
472.216	236.88
472.435	226.88
472.654	216.88
472.873	223.88
473.092	214.88
473.311	214.88
473.53	208.88
473.749	218.88
473.968	217.88
474.187	233.88
474.406	215.88
474.625	194.88
474.844	220.88
475.063	226.88
475.282	231.88
475.501	230.88
475.72	246.88
475.939	223.88
476.158	225.88
476.377	218.88
476.596	214.88
476.814	226.88
477.033	224.88
477.252	236.88
477.471	228.88
477.69	237.88
477.908	249.88
478.127	260.88
478.346	253.88
478.564	242.88
478.783	246.88
479.002	249.88
479.22	243.88
479.439	264.88
479.658	255.88
479.876	246.88
480.095	254.88
480.313	260.88
480.532	272.88
480.751	263.88
480.969	279.88
481.188	268.88
481.406	276.88
481.624	248.88
481.843	250.88
482.061	218.88
482.28	235.88
482.498	233.88
482.717	215.88
482.935	231.88
483.153	239.88
483.372	251.88
483.59	248.88
483.808	245.88
484.027	231.88
484.245	233.88
484.463	240.88
484.681	240.88
484.9	242.88
485.118	240.88
485.336	234.88
485.554	236.88
485.772	242.88
485.99	235.88
486.209	225.88
486.427	252.88
486.645	243.88
486.863	272.88
487.081	239.88
487.299	248.88
487.517	247.88
487.735	252.88
487.953	252.88
488.171	271.88
488.389	245.88
488.607	255.88
488.825	249.88
489.043	241.88
489.261	243.88
489.479	238.88
489.696	243.88
489.914	241.88
490.132	255.88
490.35	269.88
490.568	235.88
490.786	266.88
491.003	240.88
491.221	244.88
491.439	270.88
491.657	268.88
491.874	267.88
492.092	258.88
492.31	270.88
492.527	260.88
492.745	278.88
492.963	280.88
493.18	268.88
493.398	269.88
493.615	254.88
493.833	247.88
494.05	270.88
494.268	263.88
494.485	261.88
494.703	265.88
494.92	261.88
495.138	265.88
495.355	271.88
495.573	283.88
495.79	256.88
496.008	288.88
496.225	256.88
496.442	264.88
496.66	268.88
496.877	271.88
497.094	279.88
497.312	279.88
497.529	272.88
497.746	283.88
497.963	304.88
498.181	297.88
498.398	299.88
498.615	340.88
498.832	326.88
499.049	354.88
499.267	385.88
499.484	401.88
499.701	445.88
499.918	477.88
500.135	558.88
500.352	598.88
500.569	596.88
500.786	587.88
501.003	538.88
501.22	488.88
501.437	460.88
501.654	417.88
501.871	368.88
502.088	347.88
502.305	344.88
502.522	336.88
502.739	333.88
502.956	293.88
503.172	297.88
503.389	277.88
503.606	274.88
503.823	276.88
504.04	287.88
504.256	290.88
