Data from SampB_HRD10591_00047.txt Node
Date: Mon Jan 19 11:33:44 EST 2026
User: Yrep
Spectrometer: HR+D1059
Trigger mode: 0
Integration Time (sec): 3.443000E-1
Scans to average: 1
Electric dark correction enabled: true
Nonlinearity correction enabled: false
Boxcar width: 0
XAxis mode: Wavelengths
Number of Pixels in Spectrum: 2048
>>>>>Begin Spectral Data<<<<<
223.165	-21.88
223.4	-21.88
223.635	-21.88
223.869	-21.88
224.104	-18.88
224.338	-25.88
224.573	-22.88
224.808	-9.88
225.042	-1.88
225.277	-3.88
225.511	-8.88
225.746	11.12
225.98	11.12
226.215	16.12
226.449	10.12
226.683	28.12
226.918	22.12
227.152	37.12
227.387	34.12
227.621	42.12
227.856	53.12
228.09	55.12
228.324	54.12
228.559	71.12
228.793	55.12
229.027	68.12
229.262	69.12
229.496	73.12
229.73	93.12
229.964	75.12
230.199	97.12
230.433	72.12
230.667	97.12
230.901	76.12
231.136	77.12
231.37	85.12
231.604	93.12
231.838	86.12
232.072	96.12
232.306	94.12
232.541	79.12
232.775	94.12
233.009	95.12
233.243	88.12
233.477	86.12
233.711	96.12
233.945	90.12
234.179	86.12
234.413	84.12
234.647	80.12
234.881	102.12
235.115	76.12
235.349	78.12
235.583	86.12
235.817	84.12
236.051	80.12
236.285	85.12
236.519	86.12
236.753	96.12
236.987	92.12
237.221	91.12
237.455	81.12
237.689	75.12
237.922	77.12
238.156	85.12
238.39	95.12
238.624	79.12
238.858	65.12
239.091	78.12
239.325	93.12
239.559	81.12
239.793	90.12
240.027	103.12
240.26	89.12
240.494	87.12
240.728	71.12
240.961	84.12
241.195	89.12
241.429	90.12
241.662	80.12
241.896	85.12
242.13	88.12
242.363	82.12
242.597	100.12
242.83	89.12
243.064	74.12
243.298	100.12
243.531	91.12
243.765	89.12
243.998	86.12
244.232	112.12
244.465	90.12
244.699	98.12
244.932	99.12
245.166	96.12
245.399	101.12
245.633	91.12
245.866	99.12
246.099	100.12
246.333	105.12
246.566	74.12
246.8	76.12
247.033	87.12
247.266	91.12
247.5	66.12
247.733	86.12
247.966	107.12
248.2	96.12
248.433	88.12
248.666	107.12
248.899	91.12
249.133	104.12
249.366	95.12
249.599	100.12
249.832	90.12
250.066	115.12
250.299	94.12
250.532	108.12
250.765	95.12
250.998	86.12
251.231	93.12
251.465	96.12
251.698	100.12
251.931	86.12
252.164	98.12
252.397	106.12
252.63	100.12
252.863	102.12
253.096	100.12
253.329	102.12
253.562	100.12
253.795	106.12
254.028	105.12
254.261	107.12
254.494	94.12
254.727	102.12
254.96	92.12
255.193	88.12
255.426	103.12
255.659	108.12
255.892	101.12
256.124	100.12
256.357	92.12
256.59	102.12
256.823	108.12
257.056	112.12
257.289	94.12
257.521	82.12
257.754	88.12
257.987	109.12
258.22	110.12
258.452	96.12
258.685	108.12
258.918	107.12
259.151	96.12
259.383	100.12
259.616	85.12
259.849	104.12
260.081	102.12
260.314	115.12
260.547	102.12
260.779	105.12
261.012	99.12
261.244	94.12
261.477	110.12
261.71	117.12
261.942	105.12
262.175	111.12
262.407	105.12
262.64	113.12
262.872	109.12
263.105	115.12
263.337	122.12
263.57	98.12
263.802	118.12
264.035	114.12
264.267	90.12
264.499	115.12
264.732	110.12
264.964	115.12
265.197	107.12
265.429	99.12
265.661	99.12
265.894	115.12
266.126	113.12
266.358	120.12
266.591	110.12
266.823	107.12
267.055	91.12
267.287	115.12
267.52	101.12
267.752	111.12
267.984	97.12
268.216	102.12
268.448	111.12
268.681	107.12
268.913	100.12
269.145	102.12
269.377	96.12
269.609	108.12
269.841	117.12
270.073	105.12
270.306	111.12
270.538	110.12
270.77	105.12
271.002	100.12
271.234	116.12
271.466	103.12
271.698	102.12
271.93	113.12
272.162	107.12
272.394	102.12
272.626	104.12
272.858	102.12
273.09	140.12
273.322	117.12
273.553	116.12
273.785	121.12
274.017	104.12
274.249	120.12
274.481	116.12
274.713	117.12
274.945	137.12
275.176	116.12
275.408	107.12
275.64	121.12
275.872	123.12
276.104	118.12
276.335	121.12
276.567	127.12
276.799	108.12
277.031	111.12
277.262	114.12
277.494	114.12
277.726	112.12
277.957	106.12
278.189	127.12
278.421	114.12
278.652	120.12
278.884	127.12
279.115	107.12
279.347	120.12
279.579	155.12
279.81	136.12
280.042	130.12
280.273	131.12
280.505	125.12
280.736	123.12
280.968	127.12
281.199	122.12
281.431	124.12
281.662	125.12
281.894	114.12
282.125	116.12
282.356	110.12
282.588	120.12
282.819	116.12
283.051	130.12
283.282	117.12
283.513	128.12
283.745	124.12
283.976	100.12
284.207	108.12
284.439	122.12
284.67	127.12
284.901	124.12
285.132	117.12
285.364	118.12
285.595	130.12
285.826	118.12
286.057	131.12
286.288	107.12
286.52	129.12
286.751	121.12
286.982	118.12
287.213	124.12
287.444	133.12
287.675	121.12
287.906	133.12
288.138	123.12
288.369	134.12
288.6	114.12
288.831	122.12
289.062	141.12
289.293	131.12
289.524	125.12
289.755	123.12
289.986	116.12
290.217	123.12
290.448	125.12
290.679	131.12
290.91	119.12
291.141	120.12
291.371	131.12
291.602	116.12
291.833	133.12
292.064	138.12
292.295	134.12
292.526	127.12
292.757	126.12
292.987	136.12
293.218	130.12
293.449	119.12
293.68	126.12
293.91	127.12
294.141	124.12
294.372	136.12
294.603	128.12
294.833	133.12
295.064	122.12
295.295	116.12
295.525	120.12
295.756	121.12
295.987	114.12
296.217	115.12
296.448	120.12
296.679	129.12
296.909	130.12
297.14	142.12
297.37	142.12
297.601	122.12
297.831	120.12
298.062	138.12
298.292	134.12
298.523	140.12
298.753	140.12
298.984	119.12
299.214	124.12
299.445	118.12
299.675	120.12
299.905	110.12
300.136	125.12
300.366	138.12
300.597	136.12
300.827	136.12
301.057	124.12
301.288	144.12
301.518	131.12
301.748	131.12
301.979	170.12
302.209	132.12
302.439	144.12
302.669	137.12
302.9	134.12
303.13	138.12
303.36	146.12
303.59	146.12
303.82	130.12
304.051	133.12
304.281	129.12
304.511	141.12
304.741	125.12
304.971	144.12
305.201	133.12
305.431	138.12
305.661	141.12
305.891	133.12
306.121	140.12
306.352	130.12
306.582	122.12
306.812	139.12
307.042	116.12
307.272	120.12
307.502	141.12
307.731	133.12
307.961	134.12
308.191	138.12
308.421	124.12
308.651	160.12
308.881	132.12
309.111	133.12
309.341	136.12
309.571	135.12
309.8	128.12
310.03	125.12
310.26	139.12
310.49	136.12
310.72	140.12
310.949	124.12
311.179	136.12
311.409	126.12
311.639	150.12
311.868	140.12
312.098	145.12
312.328	130.12
312.557	141.12
312.787	125.12
313.017	131.12
313.246	137.12
313.476	143.12
313.706	122.12
313.935	139.12
314.165	144.12
314.394	129.12
314.624	145.12
314.853	128.12
315.083	144.12
315.312	144.12
315.542	137.12
315.771	148.12
316.001	144.12
316.23	131.12
316.46	132.12
316.689	136.12
316.919	142.12
317.148	141.12
317.377	146.12
317.607	150.12
317.836	145.12
318.065	128.12
318.295	159.12
318.524	137.12
318.753	132.12
318.983	148.12
319.212	150.12
319.441	141.12
319.67	130.12
319.9	127.12
320.129	122.12
320.358	122.12
320.587	141.12
320.816	137.12
321.046	134.12
321.275	120.12
321.504	163.12
321.733	154.12
321.962	143.12
322.191	138.12
322.42	136.12
322.649	151.12
322.878	147.12
323.108	156.12
323.337	161.12
323.566	157.12
323.795	152.12
324.024	139.12
324.253	154.12
324.482	132.12
324.71	146.12
324.939	166.12
325.168	127.12
325.397	158.12
325.626	131.12
325.855	147.12
326.084	138.12
326.313	142.12
326.542	143.12
326.77	142.12
326.999	157.12
327.228	150.12
327.457	150.12
327.686	153.12
327.914	152.12
328.143	181.12
328.372	182.12
328.6	165.12
328.829	143.12
329.058	142.12
329.287	154.12
329.515	159.12
329.744	176.12
329.972	166.12
330.201	204.12
330.43	200.12
330.658	171.12
330.887	160.12
331.115	169.12
331.344	147.12
331.572	161.12
331.801	151.12
332.03	165.12
332.258	162.12
332.486	160.12
332.715	167.12
332.943	148.12
333.172	186.12
333.4	178.12
333.629	180.12
333.857	188.12
334.085	206.12
334.314	233.12
334.542	255.12
334.771	253.12
334.999	214.12
335.227	181.12
335.455	172.12
335.684	168.12
335.912	174.12
336.14	168.12
336.369	163.12
336.597	160.12
336.825	163.12
337.053	145.12
337.281	166.12
337.51	177.12
337.738	172.12
337.966	144.12
338.194	157.12
338.422	142.12
338.65	156.12
338.878	158.12
339.106	140.12
339.334	166.12
339.562	143.12
339.79	142.12
340.018	154.12
340.246	138.12
340.474	142.12
340.702	144.12
340.93	145.12
341.158	127.12
341.386	144.12
341.614	150.12
341.842	146.12
342.07	137.12
342.298	149.12
342.526	137.12
342.754	137.12
342.981	152.12
343.209	146.12
343.437	179.12
343.665	161.12
343.893	155.12
344.12	158.12
344.348	150.12
344.576	146.12
344.804	155.12
345.031	152.12
345.259	152.12
345.487	140.12
345.714	153.12
345.942	155.12
346.17	142.12
346.397	144.12
346.625	143.12
346.853	132.12
347.08	132.12
347.308	143.12
347.535	152.12
347.763	134.12
347.99	139.12
348.218	136.12
348.445	139.12
348.673	127.12
348.9	136.12
349.128	141.12
349.355	141.12
349.583	141.12
349.81	145.12
350.037	156.12
350.265	145.12
350.492	139.12
350.72	125.12
350.947	136.12
351.174	121.12
351.402	154.12
351.629	137.12
351.856	150.12
352.083	135.12
352.311	141.12
352.538	154.12
352.765	146.12
352.992	153.12
353.22	130.12
353.447	120.12
353.674	133.12
353.901	157.12
354.128	151.12
354.355	146.12
354.583	138.12
354.81	133.12
355.037	141.12
355.264	146.12
355.491	138.12
355.718	127.12
355.945	134.12
356.172	152.12
356.399	125.12
356.626	146.12
356.853	146.12
357.08	171.12
357.307	151.12
357.534	146.12
357.761	158.12
357.988	153.12
358.215	159.12
358.441	130.12
358.668	137.12
358.895	136.12
359.122	142.12
359.349	145.12
359.576	141.12
359.802	141.12
360.029	152.12
360.256	148.12
360.483	136.12
360.709	139.12
360.936	159.12
361.163	150.12
361.39	162.12
361.616	146.12
361.843	139.12
362.07	165.12
362.296	152.12
362.523	125.12
362.749	133.12
362.976	138.12
363.203	162.12
363.429	140.12
363.656	148.12
363.882	147.12
364.109	152.12
364.335	148.12
364.562	133.12
364.788	138.12
365.015	139.12
365.241	141.12
365.468	148.12
365.694	147.12
365.92	140.12
366.147	129.12
366.373	134.12
366.599	136.12
366.826	133.12
367.052	141.12
367.278	137.12
367.505	135.12
367.731	158.12
367.957	155.12
368.184	136.12
368.41	139.12
368.636	147.12
368.862	136.12
369.089	142.12
369.315	144.12
369.541	145.12
369.767	145.12
369.993	169.12
370.219	138.12
370.445	156.12
370.672	156.12
370.898	153.12
371.124	149.12
371.35	137.12
371.576	152.12
371.802	154.12
372.028	145.12
372.254	145.12
372.48	146.12
372.706	154.12
372.932	146.12
373.158	167.12
373.384	161.12
373.61	171.12
373.835	162.12
374.061	143.12
374.287	139.12
374.513	166.12
374.739	159.12
374.965	172.12
375.191	172.12
375.416	173.12
375.642	158.12
375.868	162.12
376.094	162.12
376.319	159.12
376.545	155.12
376.771	142.12
376.997	159.12
377.222	150.12
377.448	148.12
377.674	143.12
377.899	153.12
378.125	144.12
378.35	141.12
378.576	144.12
378.802	155.12
379.027	157.12
379.253	147.12
379.478	130.12
379.704	154.12
379.929	147.12
380.155	158.12
380.38	151.12
380.606	158.12
380.831	149.12
381.057	172.12
381.282	141.12
381.507	164.12
381.733	170.12
381.958	158.12
382.184	173.12
382.409	168.12
382.634	162.12
382.86	174.12
383.085	159.12
383.31	156.12
383.535	176.12
383.761	178.12
383.986	175.12
384.211	154.12
384.436	163.12
384.662	172.12
384.887	169.12
385.112	158.12
385.337	166.12
385.562	192.12
385.787	174.12
386.013	164.12
386.238	177.12
386.463	174.12
386.688	203.12
386.913	172.12
387.138	163.12
387.363	173.12
387.588	168.12
387.813	159.12
388.038	161.12
388.263	178.12
388.488	161.12
388.713	185.12
388.938	169.12
389.163	170.12
389.387	175.12
389.612	169.12
389.837	171.12
390.062	181.12
390.287	175.12
390.512	172.12
390.736	179.12
390.961	174.12
391.186	172.12
391.411	178.12
391.636	182.12
391.86	184.12
392.085	171.12
392.31	185.12
392.534	171.12
392.759	182.12
392.984	201.12
393.208	225.12
393.433	276.12
393.658	253.12
393.882	182.12
394.107	194.12
394.331	203.12
394.556	184.12
394.78	197.12
395.005	172.12
395.229	188.12
395.454	208.12
395.678	192.12
395.903	203.12
396.127	193.12
396.352	192.12
396.576	206.12
396.801	236.12
397.025	249.12
397.249	212.12
397.474	206.12
397.698	203.12
397.922	205.12
398.147	197.12
398.371	174.12
398.595	195.12
398.82	192.12
399.044	213.12
399.268	227.12
399.492	251.12
399.717	287.12
399.941	243.12
400.165	239.12
400.389	225.12
400.613	210.12
400.837	204.12
401.062	188.12
401.286	190.12
401.51	199.12
401.734	189.12
401.958	203.12
402.182	205.12
402.406	209.12
402.63	201.12
402.854	223.12
403.078	209.12
403.302	211.12
403.526	237.12
403.75	229.12
403.974	228.12
404.198	215.12
404.422	219.12
404.645	220.12
404.869	229.12
405.093	209.12
405.317	224.12
405.541	245.12
405.765	218.12
405.988	203.12
406.212	223.12
406.436	218.12
406.66	222.12
406.883	235.12
407.107	225.12
407.331	241.12
407.555	230.12
407.778	222.12
408.002	225.12
408.226	227.12
408.449	229.12
408.673	230.12
408.896	209.12
409.12	225.12
409.344	218.12
409.567	210.12
409.791	217.12
410.014	236.12
410.238	206.12
410.461	213.12
410.685	211.12
410.908	215.12
411.132	224.12
411.355	216.12
411.578	215.12
411.802	207.12
412.025	190.12
412.249	198.12
412.472	206.12
412.695	210.12
412.919	203.12
413.142	208.12
413.365	211.12
413.589	193.12
413.812	193.12
414.035	201.12
414.258	204.12
414.482	211.12
414.705	190.12
414.928	206.12
415.151	216.12
415.374	225.12
415.597	216.12
415.821	196.12
416.044	204.12
416.267	190.12
416.49	196.12
416.713	181.12
416.936	208.12
417.159	198.12
417.382	196.12
417.605	201.12
417.828	193.12
418.051	205.12
418.274	216.12
418.497	212.12
418.72	208.12
418.943	225.12
419.166	218.12
419.389	230.12
419.611	208.12
419.834	220.12
420.057	215.12
420.28	209.12
420.503	205.12
420.726	204.12
420.948	206.12
421.171	217.12
421.394	212.12
421.617	218.12
421.839	206.12
422.062	215.12
422.285	201.12
422.507	226.12
422.73	226.12
422.953	231.12
423.175	215.12
423.398	230.12
423.621	210.12
423.843	220.12
424.066	227.12
424.288	219.12
424.511	208.12
424.733	206.12
424.956	202.12
425.178	219.12
425.401	221.12
425.623	203.12
425.846	196.12
426.068	186.12
426.291	201.12
426.513	194.12
426.735	203.12
426.958	201.12
427.18	203.12
427.402	208.12
427.625	194.12
427.847	198.12
428.069	196.12
428.292	211.12
428.514	202.12
428.736	192.12
428.958	204.12
429.181	196.12
429.403	188.12
429.625	177.12
429.847	185.12
430.069	198.12
430.292	218.12
430.514	195.12
430.736	180.12
430.958	191.12
431.18	206.12
431.402	190.12
431.624	191.12
431.846	172.12
432.068	172.12
432.29	174.12
432.512	186.12
432.734	202.12
432.956	206.12
433.178	204.12
433.4	201.12
433.622	192.12
433.844	197.12
434.066	189.12
434.287	180.12
434.509	196.12
434.731	190.12
434.953	188.12
435.175	192.12
435.397	201.12
435.618	192.12
435.84	202.12
436.062	183.12
436.284	192.12
436.505	210.12
436.727	207.12
436.949	199.12
437.17	176.12
437.392	175.12
437.614	179.12
437.835	179.12
438.057	175.12
438.278	170.12
438.5	194.12
438.721	185.12
438.943	204.12
439.165	193.12
439.386	195.12
439.608	205.12
439.829	196.12
440.05	195.12
440.272	195.12
440.493	195.12
440.715	184.12
440.936	214.12
441.158	192.12
441.379	213.12
441.6	216.12
441.822	216.12
442.043	205.12
442.264	186.12
442.486	222.12
442.707	200.12
442.928	200.12
443.149	205.12
443.371	211.12
443.592	211.12
443.813	208.12
444.034	212.12
444.255	218.12
444.476	220.12
444.698	220.12
444.919	218.12
445.14	408.12
445.361	295.12
445.582	208.12
445.803	204.12
446.024	215.12
446.245	213.12
446.466	210.12
446.687	206.12
446.908	196.12
447.129	195.12
447.35	185.12
447.571	195.12
447.792	213.12
448.013	184.12
448.234	182.12
448.455	200.12
448.675	191.12
448.896	172.12
449.117	180.12
449.338	172.12
449.559	184.12
449.779	184.12
450	184.12
450.221	166.12
450.442	177.12
450.662	175.12
450.883	178.12
451.104	194.12
451.324	175.12
451.545	189.12
451.766	176.12
451.986	181.12
452.207	190.12
452.428	174.12
452.648	190.12
452.869	173.12
453.089	162.12
453.31	181.12
453.53	195.12
453.751	185.12
453.971	166.12
454.192	154.12
454.412	183.12
454.633	175.12
454.853	184.12
455.073	176.12
455.294	185.12
455.514	171.12
455.734	172.12
455.955	173.12
456.175	177.12
456.395	182.12
456.616	169.12
456.836	163.12
457.056	174.12
457.276	166.12
457.497	175.12
457.717	158.12
457.937	173.12
458.157	157.12
458.377	171.12
458.598	165.12
458.818	165.12
459.038	162.12
459.258	178.12
459.478	186.12
459.698	172.12
459.918	192.12
460.138	202.12
460.358	195.12
460.578	220.12
460.798	204.12
461.018	209.12
461.238	213.12
461.458	203.12
461.678	182.12
461.898	220.12
462.118	194.12
462.338	185.12
462.558	219.12
462.777	209.12
462.997	226.12
463.217	248.12
463.437	258.12
463.657	222.12
463.876	237.12
464.096	231.12
464.316	223.12
464.536	223.12
464.755	228.12
464.975	216.12
465.195	219.12
465.414	205.12
465.634	197.12
465.854	198.12
466.073	199.12
466.293	170.12
466.512	188.12
466.732	192.12
466.951	198.12
467.171	189.12
467.391	191.12
467.61	195.12
467.829	179.12
468.049	208.12
468.268	223.12
468.488	204.12
468.707	177.12
468.927	187.12
469.146	192.12
469.365	206.12
469.585	193.12
469.804	196.12
470.023	193.12
470.243	196.12
470.462	185.12
470.681	197.12
470.901	203.12
471.12	193.12
471.339	187.12
471.558	186.12
471.777	191.12
471.997	202.12
472.216	276.12
472.435	289.12
472.654	245.12
472.873	213.12
473.092	189.12
473.311	176.12
473.53	174.12
473.749	172.12
473.968	188.12
474.187	189.12
474.406	182.12
474.625	172.12
474.844	182.12
475.063	181.12
475.282	172.12
475.501	173.12
475.72	194.12
475.939	184.12
476.158	188.12
476.377	188.12
476.596	188.12
476.814	187.12
477.033	192.12
477.252	181.12
477.471	186.12
477.69	209.12
477.908	201.12
478.127	214.12
478.346	198.12
478.564	185.12
478.783	209.12
479.002	224.12
479.22	219.12
479.439	219.12
479.658	205.12
479.876	208.12
480.095	220.12
480.313	241.12
480.532	224.12
480.751	236.12
480.969	248.12
481.188	366.12
481.406	322.12
481.624	244.12
481.843	189.12
482.061	216.12
482.28	204.12
482.498	209.12
482.717	195.12
482.935	202.12
483.153	208.12
483.372	184.12
483.59	197.12
483.808	203.12
484.027	190.12
484.245	196.12
484.463	200.12
484.681	204.12
484.9	193.12
485.118	214.12
485.336	206.12
485.554	209.12
485.772	198.12
485.99	195.12
486.209	221.12
486.427	215.12
486.645	212.12
486.863	224.12
487.081	209.12
487.299	192.12
487.517	204.12
487.735	222.12
487.953	210.12
488.171	224.12
488.389	228.12
488.607	207.12
488.825	188.12
489.043	197.12
489.261	213.12
489.479	198.12
489.696	193.12
489.914	224.12
490.132	190.12
490.35	216.12
490.568	197.12
490.786	215.12
491.003	224.12
491.221	220.12
491.439	209.12
491.657	207.12
491.874	221.12
492.092	226.12
492.31	232.12
492.527	241.12
492.745	226.12
492.963	236.12
493.18	233.12
493.398	237.12
493.615	228.12
493.833	222.12
494.05	221.12
494.268	210.12
494.485	210.12
494.703	232.12
494.92	220.12
495.138	208.12
495.355	209.12
495.573	222.12
495.79	206.12
496.008	228.12
496.225	238.12
496.442	242.12
496.66	228.12
496.877	229.12
497.094	242.12
497.312	227.12
497.529	240.12
497.746	226.12
497.963	229.12
498.181	256.12
498.398	259.12
498.615	262.12
498.832	268.12
499.049	280.12
499.267	304.12
499.484	342.12
499.701	364.12
499.918	378.12
500.135	432.12
500.352	452.12
500.569	456.12
500.786	452.12
501.003	430.12
501.22	388.12
501.437	353.12
501.654	333.12
501.871	295.12
502.088	284.12
502.305	278.12
502.522	266.12
502.739	255.12
502.956	245.12
503.172	243.12
503.389	235.12
503.606	243.12
503.823	242.12
504.04	237.12
