Data from SampB_HRD10591_00052.txt Node
Date: Mon Jan 19 11:33:46 EST 2026
User: Yrep
Spectrometer: HR+D1059
Trigger mode: 0
Integration Time (sec): 3.443000E-1
Scans to average: 1
Electric dark correction enabled: true
Nonlinearity correction enabled: false
Boxcar width: 0
XAxis mode: Wavelengths
Number of Pixels in Spectrum: 2048
>>>>>Begin Spectral Data<<<<<
223.165	-17.62
223.4	-17.62
223.635	-17.62
223.869	-23.62
224.104	-22.62
224.338	-15.62
224.573	-26.62
224.808	-0.62
225.042	-16.62
225.277	-3.62
225.511	3.38
225.746	12.38
225.98	6.38
226.215	11.38
226.449	20.38
226.683	19.38
226.918	17.38
227.152	36.38
227.387	31.38
227.621	23.38
227.856	47.38
228.09	47.38
228.324	41.38
228.559	59.38
228.793	62.38
229.027	63.38
229.262	75.38
229.496	67.38
229.73	69.38
229.964	84.38
230.199	77.38
230.433	77.38
230.667	83.38
230.901	86.38
231.136	77.38
231.37	84.38
231.604	86.38
231.838	90.38
232.072	92.38
232.306	85.38
232.541	91.38
232.775	78.38
233.009	80.38
233.243	84.38
233.477	89.38
233.711	93.38
233.945	100.38
234.179	94.38
234.413	112.38
234.647	86.38
234.881	91.38
235.115	97.38
235.349	91.38
235.583	98.38
235.817	102.38
236.051	95.38
236.285	110.38
236.519	97.38
236.753	84.38
236.987	101.38
237.221	94.38
237.455	89.38
237.689	102.38
237.922	88.38
238.156	83.38
238.39	98.38
238.624	101.38
238.858	87.38
239.091	84.38
239.325	91.38
239.559	86.38
239.793	92.38
240.027	109.38
240.26	84.38
240.494	120.38
240.728	99.38
240.961	93.38
241.195	93.38
241.429	98.38
241.662	96.38
241.896	88.38
242.13	90.38
242.363	96.38
242.597	99.38
242.83	105.38
243.064	102.38
243.298	92.38
243.531	90.38
243.765	94.38
243.998	100.38
244.232	96.38
244.465	103.38
244.699	103.38
244.932	116.38
245.166	98.38
245.399	104.38
245.633	92.38
245.866	93.38
246.099	112.38
246.333	98.38
246.566	104.38
246.8	105.38
247.033	98.38
247.266	107.38
247.5	108.38
247.733	88.38
247.966	106.38
248.2	109.38
248.433	124.38
248.666	105.38
248.899	118.38
249.133	117.38
249.366	125.38
249.599	122.38
249.832	115.38
250.066	111.38
250.299	132.38
250.532	138.38
250.765	113.38
250.998	114.38
251.231	111.38
251.465	107.38
251.698	117.38
251.931	119.38
252.164	116.38
252.397	117.38
252.63	129.38
252.863	125.38
253.096	133.38
253.329	131.38
253.562	121.38
253.795	140.38
254.028	128.38
254.261	128.38
254.494	128.38
254.727	112.38
254.96	126.38
255.193	113.38
255.426	130.38
255.659	127.38
255.892	129.38
256.124	152.38
256.357	151.38
256.59	141.38
256.823	124.38
257.056	135.38
257.289	133.38
257.521	116.38
257.754	119.38
257.987	131.38
258.22	122.38
258.452	126.38
258.685	125.38
258.918	119.38
259.151	119.38
259.383	128.38
259.616	151.38
259.849	142.38
260.081	168.38
260.314	159.38
260.547	143.38
260.779	147.38
261.012	151.38
261.244	148.38
261.477	147.38
261.71	132.38
261.942	128.38
262.175	129.38
262.407	133.38
262.64	130.38
262.872	136.38
263.105	155.38
263.337	151.38
263.57	126.38
263.802	127.38
264.035	131.38
264.267	115.38
264.499	127.38
264.732	128.38
264.964	133.38
265.197	128.38
265.429	133.38
265.661	111.38
265.894	115.38
266.126	117.38
266.358	124.38
266.591	124.38
266.823	120.38
267.055	129.38
267.287	115.38
267.52	126.38
267.752	119.38
267.984	121.38
268.216	129.38
268.448	130.38
268.681	128.38
268.913	144.38
269.145	127.38
269.377	152.38
269.609	126.38
269.841	139.38
270.073	132.38
270.306	128.38
270.538	136.38
270.77	135.38
271.002	137.38
271.234	139.38
271.466	140.38
271.698	144.38
271.93	147.38
272.162	143.38
272.394	159.38
272.626	150.38
272.858	135.38
273.09	149.38
273.322	138.38
273.553	149.38
273.785	174.38
274.017	182.38
274.249	180.38
274.481	180.38
274.713	198.38
274.945	224.38
275.176	210.38
275.408	156.38
275.64	185.38
275.872	180.38
276.104	155.38
276.335	148.38
276.567	160.38
276.799	154.38
277.031	141.38
277.262	157.38
277.494	158.38
277.726	176.38
277.957	162.38
278.189	149.38
278.421	162.38
278.652	159.38
278.884	161.38
279.115	154.38
279.347	158.38
279.579	189.38
279.81	209.38
280.042	172.38
280.273	179.38
280.505	198.38
280.736	177.38
280.968	162.38
281.199	157.38
281.431	147.38
281.662	159.38
281.894	162.38
282.125	149.38
282.356	150.38
282.588	150.38
282.819	165.38
283.051	143.38
283.282	141.38
283.513	169.38
283.745	154.38
283.976	139.38
284.207	148.38
284.439	149.38
284.67	165.38
284.901	164.38
285.132	175.38
285.364	171.38
285.595	167.38
285.826	171.38
286.057	163.38
286.288	159.38
286.52	163.38
286.751	149.38
286.982	164.38
287.213	150.38
287.444	155.38
287.675	176.38
287.906	173.38
288.138	158.38
288.369	161.38
288.6	168.38
288.831	149.38
289.062	161.38
289.293	168.38
289.524	155.38
289.755	151.38
289.986	156.38
290.217	172.38
290.448	152.38
290.679	166.38
290.91	166.38
291.141	166.38
291.371	155.38
291.602	164.38
291.833	153.38
292.064	164.38
292.295	171.38
292.526	169.38
292.757	167.38
292.987	162.38
293.218	160.38
293.449	160.38
293.68	153.38
293.91	152.38
294.141	167.38
294.372	152.38
294.603	177.38
294.833	180.38
295.064	169.38
295.295	167.38
295.525	167.38
295.756	169.38
295.987	179.38
296.217	161.38
296.448	163.38
296.679	163.38
296.909	165.38
297.14	174.38
297.37	184.38
297.601	178.38
297.831	148.38
298.062	164.38
298.292	173.38
298.523	179.38
298.753	174.38
298.984	168.38
299.214	177.38
299.445	167.38
299.675	165.38
299.905	183.38
300.136	179.38
300.366	180.38
300.597	183.38
300.827	171.38
301.057	179.38
301.288	172.38
301.518	181.38
301.748	184.38
301.979	220.38
302.209	189.38
302.439	191.38
302.669	182.38
302.9	169.38
303.13	173.38
303.36	173.38
303.59	185.38
303.82	183.38
304.051	170.38
304.281	177.38
304.511	184.38
304.741	171.38
304.971	166.38
305.201	181.38
305.431	181.38
305.661	188.38
305.891	172.38
306.121	190.38
306.352	176.38
306.582	197.38
306.812	183.38
307.042	183.38
307.272	184.38
307.502	185.38
307.731	193.38
307.961	183.38
308.191	181.38
308.421	196.38
308.651	201.38
308.881	177.38
309.111	192.38
309.341	189.38
309.571	185.38
309.8	190.38
310.03	183.38
310.26	191.38
310.49	175.38
310.72	178.38
310.949	185.38
311.179	179.38
311.409	182.38
311.639	176.38
311.868	183.38
312.098	188.38
312.328	181.38
312.557	187.38
312.787	184.38
313.017	182.38
313.246	183.38
313.476	183.38
313.706	188.38
313.935	173.38
314.165	171.38
314.394	181.38
314.624	196.38
314.853	188.38
315.083	184.38
315.312	199.38
315.542	190.38
315.771	179.38
316.001	185.38
316.23	183.38
316.46	190.38
316.689	175.38
316.919	189.38
317.148	195.38
317.377	207.38
317.607	187.38
317.836	182.38
318.065	199.38
318.295	206.38
318.524	180.38
318.753	198.38
318.983	192.38
319.212	206.38
319.441	198.38
319.67	199.38
319.9	199.38
320.129	198.38
320.358	187.38
320.587	177.38
320.816	183.38
321.046	167.38
321.275	200.38
321.504	200.38
321.733	193.38
321.962	209.38
322.191	201.38
322.42	220.38
322.649	206.38
322.878	222.38
323.108	240.38
323.337	252.38
323.566	239.38
323.795	244.38
324.024	248.38
324.253	211.38
324.482	216.38
324.71	201.38
324.939	219.38
325.168	220.38
325.397	225.38
325.626	208.38
325.855	203.38
326.084	216.38
326.313	206.38
326.542	205.38
326.77	216.38
326.999	218.38
327.228	208.38
327.457	216.38
327.686	221.38
327.914	252.38
328.143	264.38
328.372	246.38
328.6	245.38
328.829	248.38
329.058	239.38
329.287	234.38
329.515	225.38
329.744	259.38
329.972	277.38
330.201	311.38
330.43	338.38
330.658	256.38
330.887	268.38
331.115	237.38
331.344	231.38
331.572	249.38
331.801	237.38
332.03	257.38
332.258	240.38
332.486	267.38
332.715	262.38
332.943	261.38
333.172	274.38
333.4	273.38
333.629	313.38
333.857	311.38
334.085	351.38
334.314	405.38
334.542	417.38
334.771	411.38
334.999	362.38
335.227	307.38
335.455	287.38
335.684	271.38
335.912	261.38
336.14	297.38
336.369	264.38
336.597	241.38
336.825	252.38
337.053	267.38
337.281	252.38
337.51	275.38
337.738	235.38
337.966	241.38
338.194	251.38
338.422	248.38
338.65	251.38
338.878	224.38
339.106	235.38
339.334	222.38
339.562	221.38
339.79	208.38
340.018	204.38
340.246	204.38
340.474	203.38
340.702	205.38
340.93	204.38
341.158	186.38
341.386	203.38
341.614	191.38
341.842	199.38
342.07	195.38
342.298	195.38
342.526	187.38
342.754	184.38
342.981	185.38
343.209	200.38
343.437	243.38
343.665	243.38
343.893	240.38
344.12	240.38
344.348	228.38
344.576	207.38
344.804	222.38
345.031	203.38
345.259	204.38
345.487	201.38
345.714	207.38
345.942	199.38
346.17	215.38
346.397	183.38
346.625	208.38
346.853	190.38
347.08	195.38
347.308	216.38
347.535	201.38
347.763	212.38
347.99	213.38
348.218	186.38
348.445	178.38
348.673	207.38
348.9	206.38
349.128	214.38
349.355	198.38
349.583	209.38
349.81	190.38
350.037	187.38
350.265	176.38
350.492	189.38
350.72	212.38
350.947	198.38
351.174	190.38
351.402	192.38
351.629	192.38
351.856	176.38
352.083	179.38
352.311	193.38
352.538	173.38
352.765	207.38
352.992	220.38
353.22	197.38
353.447	187.38
353.674	200.38
353.901	204.38
354.128	179.38
354.355	181.38
354.583	186.38
354.81	201.38
355.037	200.38
355.264	201.38
355.491	222.38
355.718	209.38
355.945	207.38
356.172	192.38
356.399	191.38
356.626	195.38
356.853	211.38
357.08	215.38
357.307	199.38
357.534	191.38
357.761	205.38
357.988	218.38
358.215	208.38
358.441	204.38
358.668	203.38
358.895	203.38
359.122	180.38
359.349	187.38
359.576	189.38
359.802	191.38
360.029	186.38
360.256	200.38
360.483	215.38
360.709	221.38
360.936	211.38
361.163	199.38
361.39	205.38
361.616	208.38
361.843	201.38
362.07	209.38
362.296	209.38
362.523	192.38
362.749	202.38
362.976	205.38
363.203	208.38
363.429	211.38
363.656	218.38
363.882	199.38
364.109	226.38
364.335	225.38
364.562	232.38
364.788	203.38
365.015	209.38
365.241	229.38
365.468	243.38
365.694	211.38
365.92	204.38
366.147	201.38
366.373	189.38
366.599	186.38
366.826	188.38
367.052	201.38
367.278	195.38
367.505	201.38
367.731	218.38
367.957	207.38
368.184	205.38
368.41	216.38
368.636	228.38
368.862	227.38
369.089	215.38
369.315	200.38
369.541	189.38
369.767	200.38
369.993	203.38
370.219	191.38
370.445	200.38
370.672	213.38
370.898	204.38
371.124	203.38
371.35	192.38
371.576	209.38
371.802	233.38
372.028	235.38
372.254	224.38
372.48	221.38
372.706	235.38
372.932	219.38
373.158	235.38
373.384	253.38
373.61	268.38
373.835	252.38
374.061	259.38
374.287	251.38
374.513	234.38
374.739	243.38
374.965	250.38
375.191	272.38
375.416	273.38
375.642	285.38
375.868	297.38
376.094	294.38
376.319	263.38
376.545	231.38
376.771	218.38
376.997	227.38
377.222	211.38
377.448	212.38
377.674	195.38
377.899	211.38
378.125	214.38
378.35	206.38
378.576	221.38
378.802	217.38
379.027	222.38
379.253	222.38
379.478	220.38
379.704	218.38
379.929	210.38
380.155	205.38
380.38	200.38
380.606	205.38
380.831	206.38
381.057	230.38
381.282	213.38
381.507	232.38
381.733	239.38
381.958	249.38
382.184	265.38
382.409	259.38
382.634	258.38
382.86	248.38
383.085	256.38
383.31	279.38
383.535	271.38
383.761	256.38
383.986	275.38
384.211	263.38
384.436	240.38
384.662	241.38
384.887	258.38
385.112	261.38
385.337	264.38
385.562	272.38
385.787	270.38
386.013	282.38
386.238	271.38
386.463	257.38
386.688	295.38
386.913	269.38
387.138	264.38
387.363	252.38
387.588	254.38
387.813	250.38
388.038	277.38
388.263	288.38
388.488	267.38
388.713	256.38
388.938	243.38
389.163	231.38
389.387	251.38
389.612	257.38
389.837	253.38
390.062	275.38
390.287	248.38
390.512	267.38
390.736	263.38
390.961	247.38
391.186	252.38
391.411	263.38
391.636	265.38
391.86	273.38
392.085	290.38
392.31	278.38
392.534	277.38
392.759	315.38
392.984	361.38
393.208	466.38
393.433	549.38
393.658	473.38
393.882	305.38
394.107	288.38
394.331	285.38
394.556	298.38
394.78	308.38
395.005	294.38
395.229	293.38
395.454	290.38
395.678	332.38
395.903	344.38
396.127	366.38
396.352	352.38
396.576	360.38
396.801	431.38
397.025	475.38
397.249	337.38
397.474	301.38
397.698	283.38
397.922	283.38
398.147	305.38
398.371	311.38
398.595	307.38
398.82	313.38
399.044	348.38
399.268	381.38
399.492	413.38
399.717	431.38
399.941	415.38
400.165	367.38
400.389	335.38
400.613	316.38
400.837	324.38
401.062	301.38
401.286	311.38
401.51	299.38
401.734	302.38
401.958	305.38
402.182	331.38
402.406	316.38
402.63	320.38
402.854	319.38
403.078	331.38
403.302	331.38
403.526	316.38
403.75	315.38
403.974	340.38
404.198	330.38
404.422	341.38
404.645	339.38
404.869	347.38
405.093	334.38
405.317	336.38
405.541	339.38
405.765	339.38
405.988	307.38
406.212	343.38
406.436	347.38
406.66	357.38
406.883	354.38
407.107	351.38
407.331	360.38
407.555	377.38
407.778	351.38
408.002	353.38
408.226	333.38
408.449	327.38
408.673	332.38
408.896	336.38
409.12	341.38
409.344	337.38
409.567	334.38
409.791	340.38
410.014	334.38
410.238	328.38
410.461	352.38
410.685	335.38
410.908	332.38
411.132	319.38
411.355	311.38
411.578	326.38
411.802	304.38
412.025	313.38
412.249	320.38
412.472	310.38
412.695	308.38
412.919	304.38
413.142	325.38
413.365	319.38
413.589	293.38
413.812	276.38
414.035	314.38
414.258	305.38
414.482	326.38
414.705	311.38
414.928	320.38
415.151	309.38
415.374	313.38
415.597	303.38
415.821	304.38
416.044	295.38
416.267	301.38
416.49	286.38
416.713	301.38
416.936	292.38
417.159	306.38
417.382	306.38
417.605	315.38
417.828	318.38
418.051	319.38
418.274	326.38
418.497	305.38
418.72	323.38
418.943	327.38
419.166	313.38
419.389	351.38
419.611	351.38
419.834	327.38
420.057	339.38
420.28	328.38
420.503	312.38
420.726	283.38
420.948	307.38
421.171	318.38
421.394	308.38
421.617	311.38
421.839	333.38
422.062	312.38
422.285	351.38
422.507	422.38
422.73	511.38
422.953	463.38
423.175	347.38
423.398	335.38
423.621	325.38
423.843	328.38
424.066	315.38
424.288	337.38
424.511	334.38
424.733	324.38
424.956	334.38
425.178	315.38
425.401	312.38
425.623	333.38
425.846	301.38
426.068	309.38
426.291	332.38
426.513	301.38
426.735	285.38
426.958	301.38
427.18	303.38
427.402	324.38
427.625	303.38
427.847	304.38
428.069	315.38
428.292	311.38
428.514	326.38
428.736	327.38
428.958	355.38
429.181	349.38
429.403	310.38
429.625	317.38
429.847	351.38
430.069	404.38
430.292	405.38
430.514	370.38
430.736	343.38
430.958	339.38
431.18	285.38
431.402	287.38
431.624	293.38
431.846	291.38
432.068	267.38
432.29	276.38
432.512	281.38
432.734	286.38
432.956	307.38
433.178	291.38
433.4	279.38
433.622	302.38
433.844	295.38
434.066	297.38
434.287	269.38
434.509	289.38
434.731	302.38
434.953	299.38
435.175	301.38
435.397	294.38
435.618	281.38
435.84	284.38
436.062	289.38
436.284	277.38
436.505	285.38
436.727	280.38
436.949	273.38
437.17	287.38
437.392	274.38
437.614	272.38
437.835	253.38
438.057	262.38
438.278	255.38
438.5	297.38
438.721	292.38
438.943	283.38
439.165	277.38
439.386	279.38
439.608	303.38
439.829	290.38
440.05	282.38
440.272	297.38
440.493	335.38
440.715	316.38
440.936	299.38
441.158	302.38
441.379	311.38
441.6	332.38
441.822	332.38
442.043	331.38
442.264	326.38
442.486	334.38
442.707	324.38
442.928	328.38
443.149	324.38
443.371	328.38
443.592	351.38
443.813	352.38
444.034	323.38
444.255	337.38
444.476	337.38
444.698	359.38
444.919	381.38
445.14	566.38
445.361	453.38
445.582	421.38
445.803	374.38
446.024	327.38
446.245	316.38
446.466	325.38
446.687	317.38
446.908	317.38
447.129	313.38
447.35	313.38
447.571	293.38
447.792	279.38
448.013	288.38
448.234	315.38
448.455	283.38
448.675	276.38
448.896	276.38
449.117	278.38
449.338	264.38
449.559	269.38
449.779	277.38
450	267.38
450.221	256.38
450.442	272.38
450.662	279.38
450.883	268.38
451.104	279.38
451.324	283.38
451.545	287.38
451.766	294.38
451.986	298.38
452.207	285.38
452.428	272.38
452.648	278.38
452.869	307.38
453.089	274.38
453.31	346.38
453.53	444.38
453.751	425.38
453.971	275.38
454.192	260.38
454.412	268.38
454.633	277.38
454.853	263.38
455.073	285.38
455.294	312.38
455.514	316.38
455.734	277.38
455.955	258.38
456.175	245.38
456.395	244.38
456.616	247.38
456.836	239.38
457.056	227.38
457.276	241.38
457.497	254.38
457.717	249.38
457.937	264.38
458.157	251.38
458.377	233.38
458.598	267.38
458.818	254.38
459.038	238.38
459.258	248.38
459.478	271.38
459.698	261.38
459.918	287.38
460.138	304.38
460.358	279.38
460.578	315.38
460.798	303.38
461.018	321.38
461.238	313.38
461.458	308.38
461.678	315.38
461.898	332.38
462.118	329.38
462.338	315.38
462.558	349.38
462.777	345.38
462.997	365.38
463.217	403.38
463.437	354.38
463.657	347.38
463.876	343.38
464.096	367.38
464.316	348.38
464.536	345.38
464.755	337.38
464.975	327.38
465.195	319.38
465.414	309.38
465.634	324.38
465.854	331.38
466.073	297.38
466.293	303.38
466.512	289.38
466.732	297.38
466.951	300.38
467.171	283.38
467.391	287.38
467.61	279.38
467.829	324.38
468.049	371.38
468.268	391.38
468.488	326.38
468.707	309.38
468.927	320.38
469.146	303.38
469.365	305.38
469.585	309.38
469.804	304.38
470.023	309.38
470.243	295.38
470.462	313.38
470.681	308.38
470.901	319.38
471.12	302.38
471.339	314.38
471.558	287.38
471.777	293.38
471.997	336.38
472.216	419.38
472.435	491.38
472.654	376.38
472.873	313.38
473.092	303.38
473.311	306.38
473.53	294.38
473.749	280.38
473.968	300.38
474.187	271.38
474.406	287.38
474.625	285.38
474.844	298.38
475.063	296.38
475.282	279.38
475.501	270.38
475.72	305.38
475.939	308.38
476.158	323.38
476.377	310.38
476.596	295.38
476.814	290.38
477.033	272.38
477.252	305.38
477.471	301.38
477.69	290.38
477.908	338.38
478.127	362.38
478.346	324.38
478.564	333.38
478.783	328.38
479.002	346.38
479.22	340.38
479.439	340.38
479.658	341.38
479.876	342.38
480.095	331.38
480.313	351.38
480.532	379.38
480.751	406.38
480.969	470.38
481.188	689.38
481.406	589.38
481.624	399.38
481.843	373.38
482.061	362.38
482.28	345.38
482.498	333.38
482.717	331.38
482.935	318.38
483.153	318.38
483.372	334.38
483.59	335.38
483.808	308.38
484.027	331.38
484.245	351.38
484.463	336.38
484.681	344.38
484.9	340.38
485.118	353.38
485.336	324.38
485.554	323.38
485.772	325.38
485.99	331.38
486.209	309.38
486.427	323.38
486.645	333.38
486.863	350.38
487.081	341.38
487.299	346.38
487.517	328.38
487.735	356.38
487.953	358.38
488.171	383.38
488.389	335.38
488.607	334.38
488.825	332.38
489.043	327.38
489.261	333.38
489.479	347.38
489.696	338.38
489.914	333.38
490.132	380.38
490.35	367.38
490.568	337.38
490.786	349.38
491.003	356.38
491.221	376.38
491.439	379.38
491.657	384.38
491.874	359.38
492.092	380.38
492.31	419.38
492.527	417.38
492.745	392.38
492.963	376.38
493.18	388.38
493.398	405.38
493.615	413.38
493.833	373.38
494.05	374.38
494.268	352.38
494.485	377.38
494.703	350.38
494.92	366.38
495.138	331.38
495.355	347.38
495.573	379.38
495.79	390.38
496.008	383.38
496.225	383.38
496.442	394.38
496.66	370.38
496.877	380.38
497.094	399.38
497.312	381.38
497.529	383.38
497.746	415.38
497.963	418.38
498.181	480.38
498.398	601.38
498.615	465.38
498.832	468.38
499.049	539.38
499.267	653.38
499.484	576.38
499.701	587.38
499.918	670.38
500.135	827.38
500.352	823.38
500.569	792.38
500.786	857.38
501.003	799.38
501.22	660.38
501.437	659.38
501.654	723.38
501.871	555.38
502.088	511.38
502.305	521.38
502.522	510.38
502.739	503.38
502.956	408.38
503.172	406.38
503.389	389.38
503.606	418.38
