Data from SampB_HRD10591_00027.txt Node
Date: Mon Jan 19 11:33:37 EST 2026
User: Yrep
Spectrometer: HR+D1059
Trigger mode: 0
Integration Time (sec): 3.443000E-1
Scans to average: 1
Electric dark correction enabled: true
Nonlinearity correction enabled: false
Boxcar width: 0
XAxis mode: Wavelengths
Number of Pixels in Spectrum: 2048
>>>>>Begin Spectral Data<<<<<
223.165	-13
223.4	-13
223.635	-13
223.869	-27
224.104	-22
224.338	-10
224.573	-23
224.808	-17
225.042	8
225.277	8
225.511	-8
225.746	4
225.98	17
226.215	3
226.449	8
226.683	12
226.918	37
227.152	23
227.387	30
227.621	22
227.856	36
228.09	53
228.324	62
228.559	57
228.793	61
229.027	67
229.262	61
229.496	66
229.73	80
229.964	79
230.199	70
230.433	75
230.667	72
230.901	90
231.136	70
231.37	99
231.604	86
231.838	92
232.072	87
232.306	91
232.541	78
232.775	77
233.009	73
233.243	91
233.477	86
233.711	87
233.945	87
234.179	92
234.413	89
234.647	89
234.881	76
235.115	97
235.349	86
235.583	72
235.817	75
236.051	80
236.285	85
236.519	92
236.753	82
236.987	85
237.221	71
237.455	97
237.689	89
237.922	80
238.156	95
238.39	84
238.624	80
238.858	82
239.091	79
239.325	85
239.559	77
239.793	80
240.027	103
240.26	100
240.494	75
240.728	77
240.961	76
241.195	83
241.429	81
241.662	88
241.896	88
242.13	95
242.363	87
242.597	83
242.83	100
243.064	87
243.298	71
243.531	86
243.765	91
243.998	91
244.232	108
244.465	94
244.699	88
244.932	73
245.166	87
245.399	80
245.633	102
245.866	97
246.099	99
246.333	88
246.566	67
246.8	95
247.033	95
247.266	86
247.5	84
247.733	84
247.966	97
248.2	91
248.433	93
248.666	88
248.899	79
249.133	88
249.366	97
249.599	104
249.832	108
250.066	110
250.299	84
250.532	99
250.765	101
250.998	95
251.231	103
251.465	102
251.698	107
251.931	116
252.164	107
252.397	87
252.63	101
252.863	119
253.096	116
253.329	107
253.562	100
253.795	103
254.028	112
254.261	96
254.494	90
254.727	106
254.96	97
255.193	97
255.426	100
255.659	105
255.892	124
256.124	118
256.357	131
256.59	106
256.823	109
257.056	97
257.289	104
257.521	105
257.754	95
257.987	109
258.22	104
258.452	123
258.685	104
258.918	104
259.151	104
259.383	113
259.616	109
259.849	102
260.081	110
260.314	97
260.547	114
260.779	103
261.012	107
261.244	113
261.477	130
261.71	98
261.942	102
262.175	111
262.407	104
262.64	115
262.872	103
263.105	109
263.337	115
263.57	109
263.802	117
264.035	119
264.267	104
264.499	101
264.732	116
264.964	115
265.197	120
265.429	107
265.661	97
265.894	113
266.126	114
266.358	102
266.591	107
266.823	97
267.055	109
267.287	110
267.52	108
267.752	112
267.984	100
268.216	106
268.448	122
268.681	103
268.913	112
269.145	114
269.377	106
269.609	114
269.841	114
270.073	119
270.306	126
270.538	104
270.77	108
271.002	117
271.234	107
271.466	123
271.698	113
271.93	130
272.162	116
272.394	129
272.626	117
272.858	114
273.09	119
273.322	127
273.553	120
273.785	131
274.017	131
274.249	129
274.481	125
274.713	108
274.945	124
275.176	123
275.408	141
275.64	135
275.872	125
276.104	153
276.335	135
276.567	134
276.799	123
277.031	135
277.262	136
277.494	132
277.726	139
277.957	125
278.189	132
278.421	131
278.652	133
278.884	148
279.115	141
279.347	169
279.579	188
279.81	214
280.042	194
280.273	195
280.505	173
280.736	138
280.968	136
281.199	138
281.431	138
281.662	138
281.894	148
282.125	127
282.356	132
282.588	131
282.819	126
283.051	125
283.282	138
283.513	155
283.745	145
283.976	125
284.207	126
284.439	138
284.67	145
284.901	140
285.132	152
285.364	135
285.595	140
285.826	138
286.057	151
286.288	131
286.52	134
286.751	127
286.982	109
287.213	134
287.444	131
287.675	135
287.906	131
288.138	141
288.369	127
288.6	151
288.831	138
289.062	135
289.293	143
289.524	127
289.755	134
289.986	132
290.217	149
290.448	122
290.679	133
290.91	157
291.141	146
291.371	145
291.602	120
291.833	138
292.064	136
292.295	124
292.526	119
292.757	141
292.987	134
293.218	147
293.449	150
293.68	126
293.91	119
294.141	143
294.372	139
294.603	148
294.833	145
295.064	144
295.295	145
295.525	128
295.756	140
295.987	134
296.217	147
296.448	135
296.679	137
296.909	140
297.14	151
297.37	148
297.601	133
297.831	153
298.062	153
298.292	122
298.523	138
298.753	142
298.984	148
299.214	146
299.445	140
299.675	139
299.905	176
300.136	125
300.366	139
300.597	147
300.827	138
301.057	141
301.288	154
301.518	163
301.748	138
301.979	186
302.209	150
302.439	148
302.669	131
302.9	151
303.13	139
303.36	147
303.59	155
303.82	147
304.051	156
304.281	153
304.511	156
304.741	146
304.971	170
305.201	147
305.431	158
305.661	161
305.891	151
306.121	160
306.352	147
306.582	164
306.812	158
307.042	181
307.272	179
307.502	167
307.731	175
307.961	172
308.191	156
308.421	153
308.651	164
308.881	163
309.111	180
309.341	156
309.571	160
309.8	161
310.03	150
310.26	131
310.49	154
310.72	155
310.949	135
311.179	165
311.409	154
311.639	136
311.868	141
312.098	153
312.328	168
312.557	151
312.787	147
313.017	141
313.246	142
313.476	166
313.706	166
313.935	145
314.165	151
314.394	151
314.624	152
314.853	166
315.083	165
315.312	155
315.542	156
315.771	162
316.001	191
316.23	180
316.46	157
316.689	164
316.919	163
317.148	160
317.377	152
317.607	163
317.836	168
318.065	185
318.295	174
318.524	159
318.753	155
318.983	160
319.212	169
319.441	168
319.67	158
319.9	169
320.129	148
320.358	177
320.587	155
320.816	168
321.046	152
321.275	160
321.504	158
321.733	159
321.962	171
322.191	164
322.42	160
322.649	180
322.878	181
323.108	214
323.337	202
323.566	225
323.795	216
324.024	207
324.253	183
324.482	173
324.71	182
324.939	191
325.168	192
325.397	191
325.626	188
325.855	184
326.084	171
326.313	190
326.542	175
326.77	192
326.999	182
327.228	171
327.457	188
327.686	201
327.914	235
328.143	263
328.372	285
328.6	240
328.829	218
329.058	208
329.287	197
329.515	210
329.744	257
329.972	289
330.201	364
330.43	383
330.658	275
330.887	221
331.115	211
331.344	188
331.572	217
331.801	199
332.03	186
332.258	199
332.486	216
332.715	233
332.943	221
333.172	234
333.4	247
333.629	271
333.857	301
334.085	373
334.314	463
334.542	531
334.771	502
334.999	366
335.227	298
335.455	260
335.684	239
335.912	216
336.14	245
336.369	229
336.597	212
336.825	200
337.053	231
337.281	227
337.51	212
337.738	201
337.966	208
338.194	192
338.422	217
338.65	217
338.878	191
339.106	187
339.334	181
339.562	196
339.79	188
340.018	162
340.246	168
340.474	164
340.702	166
340.93	163
341.158	170
341.386	158
341.614	158
341.842	172
342.07	173
342.298	171
342.526	187
342.754	171
342.981	165
343.209	168
343.437	224
343.665	196
343.893	178
344.12	186
344.348	172
344.576	187
344.804	176
345.031	169
345.259	158
345.487	167
345.714	170
345.942	179
346.17	179
346.397	153
346.625	155
346.853	156
347.08	171
347.308	173
347.535	168
347.763	171
347.99	192
348.218	169
348.445	163
348.673	155
348.9	175
349.128	168
349.355	164
349.583	164
349.81	150
350.037	171
350.265	161
350.492	164
350.72	178
350.947	169
351.174	162
351.402	168
351.629	164
351.856	170
352.083	169
352.311	170
352.538	151
352.765	166
352.992	168
353.22	166
353.447	161
353.674	157
353.901	170
354.128	178
354.355	165
354.583	155
354.81	173
355.037	157
355.264	140
355.491	166
355.718	178
355.945	188
356.172	159
356.399	158
356.626	140
356.853	159
357.08	172
357.307	165
357.534	161
357.761	158
357.988	167
358.215	158
358.441	171
358.668	160
358.895	171
359.122	155
359.349	160
359.576	171
359.802	159
360.029	166
360.256	166
360.483	162
360.709	156
360.936	171
361.163	168
361.39	169
361.616	161
361.843	150
362.07	165
362.296	172
362.523	161
362.749	157
362.976	176
363.203	167
363.429	169
363.656	168
363.882	164
364.109	179
364.335	198
364.562	167
364.788	173
365.015	169
365.241	184
365.468	179
365.694	173
365.92	165
366.147	158
366.373	153
366.599	162
366.826	154
367.052	162
367.278	167
367.505	174
367.731	191
367.957	155
368.184	176
368.41	172
368.636	202
368.862	180
369.089	154
369.315	163
369.541	163
369.767	168
369.993	188
370.219	169
370.445	163
370.672	160
370.898	173
371.124	160
371.35	182
371.576	180
371.802	172
372.028	199
372.254	181
372.48	182
372.706	173
372.932	175
373.158	199
373.384	189
373.61	201
373.835	197
374.061	203
374.287	190
374.513	182
374.739	190
374.965	187
375.191	198
375.416	201
375.642	215
375.868	253
376.094	250
376.319	204
376.545	188
376.771	197
376.997	191
377.222	173
377.448	184
377.674	186
377.899	190
378.125	174
378.35	175
378.576	179
378.802	183
379.027	185
379.253	170
379.478	168
379.704	183
379.929	177
380.155	155
380.38	187
380.606	193
380.831	192
381.057	206
381.282	180
381.507	193
381.733	180
381.958	190
382.184	187
382.409	201
382.634	201
382.86	200
383.085	220
383.31	206
383.535	213
383.761	228
383.986	239
384.211	201
384.436	208
384.662	204
384.887	216
385.112	217
385.337	224
385.562	221
385.787	215
386.013	219
386.238	245
386.463	213
386.688	236
386.913	207
387.138	208
387.363	207
387.588	212
387.813	219
388.038	219
388.263	229
388.488	213
388.713	208
388.938	191
389.163	191
389.387	211
389.612	203
389.837	204
390.062	201
390.287	210
390.512	182
390.736	215
390.961	191
391.186	207
391.411	223
391.636	217
391.86	235
392.085	234
392.31	223
392.534	232
392.759	227
392.984	278
393.208	363
393.433	444
393.658	356
393.882	247
394.107	232
394.331	235
394.556	233
394.78	244
395.005	246
395.229	233
395.454	243
395.678	260
395.903	265
396.127	272
396.352	264
396.576	277
396.801	362
397.025	363
397.249	271
397.474	251
397.698	245
397.922	231
398.147	257
398.371	260
398.595	233
398.82	255
399.044	291
399.268	301
399.492	322
399.717	351
399.941	343
400.165	324
400.389	275
400.613	263
400.837	271
401.062	241
401.286	261
401.51	247
401.734	253
401.958	270
402.182	261
402.406	249
402.63	254
402.854	265
403.078	254
403.302	267
403.526	285
403.75	290
403.974	277
404.198	299
404.422	305
404.645	275
404.869	273
405.093	300
405.317	280
405.541	283
405.765	275
405.988	272
406.212	269
406.436	276
406.66	301
406.883	271
407.107	315
407.331	292
407.555	299
407.778	298
408.002	300
408.226	282
408.449	296
408.673	273
408.896	276
409.12	288
409.344	291
409.567	271
409.791	279
410.014	270
410.238	271
410.461	259
410.685	266
410.908	281
411.132	286
411.355	262
411.578	277
411.802	265
412.025	260
412.249	261
412.472	278
412.695	254
412.919	271
413.142	268
413.365	263
413.589	267
413.812	259
414.035	267
414.258	275
414.482	253
414.705	262
414.928	262
415.151	282
415.374	256
415.597	257
415.821	243
416.044	243
416.267	246
416.49	259
416.713	244
416.936	253
417.159	270
417.382	256
417.605	274
417.828	267
418.051	270
418.274	292
418.497	259
418.72	267
418.943	276
419.166	282
419.389	285
419.611	277
419.834	271
420.057	276
420.28	269
420.503	285
420.726	257
420.948	271
421.171	271
421.394	271
421.617	264
421.839	275
422.062	267
422.285	267
422.507	307
422.73	348
422.953	339
423.175	281
423.398	267
423.621	275
423.843	277
424.066	277
424.288	268
424.511	284
424.733	278
424.956	284
425.178	266
425.401	257
425.623	256
425.846	255
426.068	272
426.291	276
426.513	246
426.735	263
426.958	262
427.18	267
427.402	260
427.625	262
427.847	251
428.069	283
428.292	266
428.514	267
428.736	260
428.958	261
429.181	270
429.403	251
429.625	268
429.847	266
430.069	278
430.292	307
430.514	274
430.736	256
430.958	271
431.18	248
431.402	227
431.624	244
431.846	235
432.068	237
432.29	218
432.512	237
432.734	248
432.956	229
433.178	246
433.4	239
433.622	247
433.844	264
434.066	234
434.287	221
434.509	234
434.731	248
434.953	247
435.175	235
435.397	253
435.618	243
435.84	235
436.062	244
436.284	242
436.505	233
436.727	255
436.949	219
437.17	249
437.392	231
437.614	229
437.835	212
438.057	216
438.278	225
438.5	239
438.721	238
438.943	233
439.165	239
439.386	250
439.608	267
439.829	252
440.05	252
440.272	225
440.493	265
440.715	247
440.936	247
441.158	266
441.379	246
441.6	273
441.822	246
442.043	267
442.264	255
442.486	260
442.707	282
442.928	271
443.149	284
443.371	284
443.592	267
443.813	272
444.034	273
444.255	282
444.476	300
444.698	310
444.919	306
445.14	491
445.361	387
445.582	298
445.803	296
446.024	274
446.245	269
446.466	261
446.687	260
446.908	262
447.129	268
447.35	260
447.571	249
447.792	244
448.013	246
448.234	250
448.455	239
448.675	237
448.896	220
449.117	235
449.338	223
449.559	249
449.779	248
450	229
450.221	240
450.442	237
450.662	232
450.883	239
451.104	234
451.324	248
451.545	229
451.766	233
451.986	235
452.207	236
452.428	243
452.648	233
452.869	231
453.089	235
453.31	263
453.53	316
453.751	297
453.971	239
454.192	222
454.412	221
454.633	222
454.853	244
455.073	249
455.294	232
455.514	251
455.734	232
455.955	221
456.175	201
456.395	232
456.616	211
456.836	221
457.056	214
457.276	205
457.497	220
457.717	192
457.937	213
458.157	219
458.377	200
458.598	200
458.818	216
459.038	231
459.258	213
459.478	222
459.698	235
459.918	231
460.138	247
460.358	249
460.578	245
460.798	238
461.018	253
461.238	259
461.458	265
461.678	251
461.898	256
462.118	276
462.338	266
462.558	287
462.777	279
462.997	313
463.217	317
463.437	306
463.657	279
463.876	298
464.096	297
464.316	285
464.536	288
464.755	282
464.975	270
465.195	262
465.414	235
465.634	264
465.854	252
466.073	247
466.293	242
466.512	225
466.732	241
466.951	242
467.171	249
467.391	254
467.61	266
467.829	265
468.049	350
468.268	404
468.488	281
468.707	263
468.927	255
469.146	256
469.365	262
469.585	263
469.804	257
470.023	245
470.243	244
470.462	253
470.681	252
470.901	243
471.12	250
471.339	256
471.558	249
471.777	274
471.997	285
472.216	452
472.435	620
472.654	379
472.873	290
473.092	258
473.311	256
473.53	248
473.749	240
473.968	255
474.187	253
474.406	224
474.625	230
474.844	252
475.063	229
475.282	238
475.501	240
475.72	252
475.939	236
476.158	256
476.377	222
476.596	245
476.814	216
477.033	232
477.252	242
477.471	247
477.69	263
477.908	263
478.127	284
478.346	270
478.564	274
478.783	288
479.002	280
479.22	286
479.439	298
479.658	286
479.876	277
480.095	289
480.313	307
480.532	309
480.751	351
480.969	470
481.188	868
481.406	718
481.624	370
481.843	308
482.061	293
482.28	294
482.498	281
482.717	275
482.935	277
483.153	278
483.372	287
483.59	285
483.808	252
484.027	280
484.245	276
484.463	267
484.681	282
484.9	277
485.118	253
485.336	264
485.554	275
485.772	272
485.99	265
486.209	274
486.427	264
486.645	275
486.863	287
487.081	290
487.299	287
487.517	272
487.735	287
487.953	289
488.171	284
488.389	280
488.607	296
488.825	269
489.043	256
489.261	253
489.479	273
489.696	267
489.914	275
490.132	269
490.35	282
490.568	275
490.786	303
491.003	304
491.221	304
491.439	318
491.657	305
491.874	327
492.092	319
492.31	360
492.527	336
492.745	340
492.963	335
493.18	328
493.398	314
493.615	333
493.833	321
494.05	308
494.268	303
494.485	295
494.703	312
494.92	296
495.138	292
495.355	303
495.573	323
495.79	308
496.008	318
496.225	310
496.442	304
496.66	312
496.877	298
497.094	330
497.312	300
497.529	320
497.746	302
497.963	314
498.181	379
498.398	440
498.615	361
498.832	335
499.049	412
499.267	489
499.484	451
499.701	461
499.918	522
500.135	640
500.352	644
500.569	632
500.786	649
501.003	597
501.22	515
501.437	516
501.654	486
501.871	417
502.088	390
502.305	381
502.522	387
502.739	366
502.956	331
503.172	329
503.389	309
503.606	315
503.823	353
504.04	358
504.256	332
504.473	303
504.69	325
504.907	318
505.123	291
505.34	269
505.557	266
505.773	270
505.99	257
506.207	245
506.423	271
506.64	273
506.856	255
507.073	266
507.289	270
507.506	259
507.722	232
507.939	255
508.155	241
508.372	228
508.588	252
508.805	249
509.021	229
509.238	224
509.454	231
509.67	243
509.887	227
510.103	221
510.319	214
510.536	243
510.752	240
510.968	206
511.184	220
511.401	225
511.617	231
511.833	231
512.049	255
512.265	237
512.481	243
512.698	214
512.914	223
513.13	240
513.346	229
513.562	222
513.778	238
513.994	221
514.21	222
514.426	223
514.642	250
514.858	234
515.074	229
515.29	251
515.506	240
515.721	238
515.937	231
516.153	225
516.369	242
516.585	236
516.801	244
517.016	280
517.232	279
517.448	314
517.664	307
517.879	307
518.095	297
518.311	286
518.527	283
518.742	274
518.958	265
519.173	281
519.389	276
519.605	277
519.82	232
520.036	240
520.251	241
520.467	229
520.682	236
520.898	237
521.113	278
521.329	264
521.544	225
521.76	213
521.975	215
522.19	233
522.406	230
522.621	246
522.836	231
523.052	225
523.267	228
523.482	213
523.698	218
523.913	227
524.128	223
524.343	219
524.559	251
524.774	203
524.989	231
525.204	229
525.419	243
525.634	191
525.849	212
526.064	226
526.28	230
526.495	224
526.71	211
526.925	217
527.14	228
527.355	191
527.57	209
527.785	205
527.999	216
528.214	236
528.429	220
528.644	221
528.859	234
529.074	240
529.289	241
529.503	237
529.718	234
529.933	225
530.148	222
530.363	221
530.577	219
530.792	200
531.007	192
531.221	204
531.436	208
531.651	196
531.865	207
532.08	209
532.295	216
532.509	204
532.724	211
532.938	227
533.153	217
533.367	230
533.582	210
533.796	220
534.011	216
534.225	216
534.44	212
534.654	228
534.868	216
535.083	203
535.297	225
535.511	221
535.726	210
535.94	202
536.154	191
536.369	206
536.583	184
536.797	202
537.011	203
537.225	208
537.44	201
537.654	203
537.868	198
538.082	196
538.296	209
538.51	187
538.724	224
538.938	205
539.153	217
539.367	217
539.581	196
539.795	188
540.009	196
540.222	196
540.436	217
540.65	214
540.864	217
541.078	216
541.292	228
541.506	235
541.72	247
541.934	251
542.147	240
542.361	238
542.575	220
542.789	213
543.002	208
543.216	212
543.43	203
543.644	213
543.857	223
544.071	206
544.285	230
544.498	228
544.712	230
544.925	228
545.139	234
545.352	244
545.566	238
545.779	248
545.993	249
546.206	255
546.42	236
546.633	243
546.847	261
547.06	243
547.274	257
547.487	265
547.7	261
547.914	246
548.127	247
548.34	248
548.554	253
548.767	240
548.98	252
549.193	245
549.407	234
549.62	267
549.833	251
550.046	248
550.259	239
550.473	236
550.686	250
550.899	247
551.112	252
551.325	241
551.538	250
551.751	250
551.964	218
552.177	251
552.39	239
552.603	266
552.816	253
553.029	277
553.242	256
553.455	283
553.667	278
553.88	289
554.093	256
554.306	249
554.519	237
554.732	241
554.944	261
555.157	229
555.37	237
555.583	255
555.795	227
556.008	231
556.221	232
556.433	216
556.646	229
556.859	222
557.071	198
557.284	211
557.496	220
557.709	210
557.921	214
558.134	222
558.346	206
558.559	219
558.771	216
558.984	224
559.196	248
559.409	224
559.621	224
559.833	219
560.046	204
560.258	216
560.47	218
560.683	220
560.895	200
561.107	215
561.32	215
561.532	196
561.744	205
561.956	222
562.168	218
562.381	192
562.593	190
562.805	195
563.017	206
563.229	208
563.441	204
563.653	197
563.865	208
564.077	181
564.289	198
564.501	209
564.713	218
564.925	215
565.137	193
565.349	220
565.561	199
565.773	241
565.985	239
566.197	252
