Data from SampB_HRD10591_00077.txt Node
Date: Mon Jan 19 11:33:54 EST 2026
User: Yrep
Spectrometer: HR+D1059
Trigger mode: 0
Integration Time (sec): 3.443000E-1
Scans to average: 1
Electric dark correction enabled: true
Nonlinearity correction enabled: false
Boxcar width: 0
XAxis mode: Wavelengths
Number of Pixels in Spectrum: 2048
>>>>>Begin Spectral Data<<<<<
223.165	-38.38
223.4	-38.38
223.635	-38.38
223.869	-29.38
224.104	-27.38
224.338	-7.38
224.573	-18.38
224.808	-14.38
225.042	-5.38
225.277	-7.38
225.511	16.62
225.746	-8.38
225.98	5.62
226.215	29.62
226.449	19.62
226.683	14.62
226.918	29.62
227.152	40.62
227.387	26.62
227.621	34.62
227.856	44.62
228.09	53.62
228.324	55.62
228.559	78.62
228.793	58.62
229.027	64.62
229.262	75.62
229.496	86.62
229.73	82.62
229.964	80.62
230.199	88.62
230.433	96.62
230.667	99.62
230.901	79.62
231.136	79.62
231.37	91.62
231.604	94.62
231.838	99.62
232.072	104.62
232.306	76.62
232.541	97.62
232.775	107.62
233.009	98.62
233.243	95.62
233.477	92.62
233.711	90.62
233.945	95.62
234.179	93.62
234.413	97.62
234.647	99.62
234.881	87.62
235.115	102.62
235.349	110.62
235.583	93.62
235.817	94.62
236.051	85.62
236.285	109.62
236.519	90.62
236.753	92.62
236.987	99.62
237.221	70.62
237.455	108.62
237.689	96.62
237.922	108.62
238.156	103.62
238.39	89.62
238.624	106.62
238.858	88.62
239.091	111.62
239.325	110.62
239.559	88.62
239.793	101.62
240.027	100.62
240.26	95.62
240.494	107.62
240.728	96.62
240.961	107.62
241.195	118.62
241.429	97.62
241.662	100.62
241.896	95.62
242.13	98.62
242.363	93.62
242.597	94.62
242.83	106.62
243.064	104.62
243.298	112.62
243.531	112.62
243.765	98.62
243.998	105.62
244.232	122.62
244.465	107.62
244.699	102.62
244.932	102.62
245.166	100.62
245.399	96.62
245.633	102.62
245.866	95.62
246.099	106.62
246.333	105.62
246.566	117.62
246.8	98.62
247.033	111.62
247.266	104.62
247.5	111.62
247.733	108.62
247.966	114.62
248.2	120.62
248.433	116.62
248.666	109.62
248.899	114.62
249.133	126.62
249.366	150.62
249.599	121.62
249.832	111.62
250.066	134.62
250.299	122.62
250.532	120.62
250.765	127.62
250.998	120.62
251.231	115.62
251.465	123.62
251.698	115.62
251.931	121.62
252.164	111.62
252.397	109.62
252.63	116.62
252.863	155.62
253.096	144.62
253.329	129.62
253.562	147.62
253.795	139.62
254.028	128.62
254.261	128.62
254.494	139.62
254.727	123.62
254.96	130.62
255.193	129.62
255.426	127.62
255.659	123.62
255.892	139.62
256.124	138.62
256.357	131.62
256.59	128.62
256.823	118.62
257.056	125.62
257.289	116.62
257.521	130.62
257.754	129.62
257.987	128.62
258.22	150.62
258.452	127.62
258.685	139.62
258.918	133.62
259.151	141.62
259.383	136.62
259.616	119.62
259.849	151.62
260.081	160.62
260.314	136.62
260.547	122.62
260.779	139.62
261.012	158.62
261.244	151.62
261.477	158.62
261.71	139.62
261.942	146.62
262.175	141.62
262.407	129.62
262.64	136.62
262.872	151.62
263.105	159.62
263.337	157.62
263.57	146.62
263.802	150.62
264.035	138.62
264.267	128.62
264.499	145.62
264.732	147.62
264.964	133.62
265.197	125.62
265.429	136.62
265.661	121.62
265.894	133.62
266.126	130.62
266.358	139.62
266.591	145.62
266.823	145.62
267.055	136.62
267.287	146.62
267.52	134.62
267.752	128.62
267.984	143.62
268.216	135.62
268.448	159.62
268.681	139.62
268.913	134.62
269.145	137.62
269.377	153.62
269.609	144.62
269.841	149.62
270.073	155.62
270.306	138.62
270.538	156.62
270.77	139.62
271.002	141.62
271.234	145.62
271.466	147.62
271.698	140.62
271.93	157.62
272.162	163.62
272.394	168.62
272.626	140.62
272.858	170.62
273.09	169.62
273.322	140.62
273.553	161.62
273.785	160.62
274.017	169.62
274.249	187.62
274.481	181.62
274.713	187.62
274.945	195.62
275.176	198.62
275.408	187.62
275.64	194.62
275.872	175.62
276.104	168.62
276.335	175.62
276.567	171.62
276.799	150.62
277.031	175.62
277.262	163.62
277.494	163.62
277.726	183.62
277.957	161.62
278.189	164.62
278.421	150.62
278.652	162.62
278.884	150.62
279.115	137.62
279.347	143.62
279.579	172.62
279.81	153.62
280.042	165.62
280.273	182.62
280.505	171.62
280.736	176.62
280.968	167.62
281.199	174.62
281.431	148.62
281.662	173.62
281.894	160.62
282.125	178.62
282.356	162.62
282.588	152.62
282.819	163.62
283.051	162.62
283.282	163.62
283.513	175.62
283.745	168.62
283.976	171.62
284.207	186.62
284.439	171.62
284.67	173.62
284.901	167.62
285.132	174.62
285.364	176.62
285.595	185.62
285.826	170.62
286.057	168.62
286.288	160.62
286.52	170.62
286.751	168.62
286.982	169.62
287.213	164.62
287.444	180.62
287.675	185.62
287.906	192.62
288.138	171.62
288.369	167.62
288.6	174.62
288.831	176.62
289.062	176.62
289.293	175.62
289.524	157.62
289.755	177.62
289.986	164.62
290.217	170.62
290.448	176.62
290.679	182.62
290.91	184.62
291.141	178.62
291.371	189.62
291.602	177.62
291.833	183.62
292.064	182.62
292.295	175.62
292.526	174.62
292.757	167.62
292.987	166.62
293.218	181.62
293.449	183.62
293.68	179.62
293.91	182.62
294.141	180.62
294.372	187.62
294.603	171.62
294.833	194.62
295.064	167.62
295.295	185.62
295.525	177.62
295.756	197.62
295.987	185.62
296.217	183.62
296.448	198.62
296.679	185.62
296.909	194.62
297.14	185.62
297.37	197.62
297.601	201.62
297.831	192.62
298.062	192.62
298.292	185.62
298.523	192.62
298.753	201.62
298.984	173.62
299.214	183.62
299.445	184.62
299.675	191.62
299.905	193.62
300.136	186.62
300.366	193.62
300.597	190.62
300.827	204.62
301.057	191.62
301.288	190.62
301.518	187.62
301.748	201.62
301.979	229.62
302.209	210.62
302.439	208.62
302.669	215.62
302.9	205.62
303.13	195.62
303.36	192.62
303.59	187.62
303.82	197.62
304.051	208.62
304.281	194.62
304.511	206.62
304.741	199.62
304.971	194.62
305.201	189.62
305.431	197.62
305.661	194.62
305.891	221.62
306.121	207.62
306.352	185.62
306.582	190.62
306.812	200.62
307.042	183.62
307.272	199.62
307.502	212.62
307.731	206.62
307.961	186.62
308.191	199.62
308.421	206.62
308.651	197.62
308.881	179.62
309.111	189.62
309.341	195.62
309.571	200.62
309.8	202.62
310.03	195.62
310.26	197.62
310.49	185.62
310.72	191.62
310.949	203.62
311.179	213.62
311.409	195.62
311.639	203.62
311.868	214.62
312.098	206.62
312.328	194.62
312.557	212.62
312.787	200.62
313.017	209.62
313.246	206.62
313.476	208.62
313.706	211.62
313.935	192.62
314.165	202.62
314.394	213.62
314.624	191.62
314.853	197.62
315.083	205.62
315.312	208.62
315.542	204.62
315.771	193.62
316.001	201.62
316.23	197.62
316.46	208.62
316.689	201.62
316.919	216.62
317.148	204.62
317.377	213.62
317.607	209.62
317.836	218.62
318.065	206.62
318.295	205.62
318.524	206.62
318.753	207.62
318.983	185.62
319.212	207.62
319.441	210.62
319.67	202.62
319.9	201.62
320.129	214.62
320.358	198.62
320.587	201.62
320.816	209.62
321.046	214.62
321.275	209.62
321.504	189.62
321.733	207.62
321.962	215.62
322.191	217.62
322.42	208.62
322.649	215.62
322.878	203.62
323.108	224.62
323.337	203.62
323.566	227.62
323.795	208.62
324.024	206.62
324.253	220.62
324.482	194.62
324.71	225.62
324.939	226.62
325.168	218.62
325.397	211.62
325.626	222.62
325.855	224.62
326.084	237.62
326.313	237.62
326.542	232.62
326.77	225.62
326.999	230.62
327.228	210.62
327.457	222.62
327.686	232.62
327.914	250.62
328.143	278.62
328.372	288.62
328.6	257.62
328.829	246.62
329.058	239.62
329.287	233.62
329.515	254.62
329.744	289.62
329.972	303.62
330.201	352.62
330.43	358.62
330.658	302.62
330.887	272.62
331.115	238.62
331.344	243.62
331.572	235.62
331.801	236.62
332.03	236.62
332.258	265.62
332.486	265.62
332.715	263.62
332.943	270.62
333.172	264.62
333.4	293.62
333.629	309.62
333.857	298.62
334.085	355.62
334.314	409.62
334.542	441.62
334.771	414.62
334.999	319.62
335.227	282.62
335.455	281.62
335.684	272.62
335.912	278.62
336.14	262.62
336.369	248.62
336.597	239.62
336.825	231.62
337.053	240.62
337.281	242.62
337.51	223.62
337.738	225.62
337.966	235.62
338.194	226.62
338.422	241.62
338.65	238.62
338.878	225.62
339.106	222.62
339.334	238.62
339.562	232.62
339.79	225.62
340.018	236.62
340.246	227.62
340.474	222.62
340.702	236.62
340.93	246.62
341.158	227.62
341.386	215.62
341.614	222.62
341.842	237.62
342.07	210.62
342.298	230.62
342.526	230.62
342.754	233.62
342.981	226.62
343.209	235.62
343.437	269.62
343.665	253.62
343.893	269.62
344.12	295.62
344.348	262.62
344.576	256.62
344.804	242.62
345.031	234.62
345.259	246.62
345.487	209.62
345.714	211.62
345.942	234.62
346.17	224.62
346.397	236.62
346.625	221.62
346.853	236.62
347.08	218.62
347.308	222.62
347.535	217.62
347.763	218.62
347.99	213.62
348.218	233.62
348.445	226.62
348.673	207.62
348.9	236.62
349.128	246.62
349.355	202.62
349.583	224.62
349.81	220.62
350.037	218.62
350.265	235.62
350.492	228.62
350.72	218.62
350.947	228.62
351.174	236.62
351.402	217.62
351.629	229.62
351.856	217.62
352.083	217.62
352.311	221.62
352.538	216.62
352.765	215.62
352.992	226.62
353.22	218.62
353.447	216.62
353.674	238.62
353.901	222.62
354.128	216.62
354.355	223.62
354.583	220.62
354.81	228.62
355.037	218.62
355.264	232.62
355.491	212.62
355.718	217.62
355.945	225.62
356.172	220.62
356.399	245.62
356.626	244.62
356.853	234.62
357.08	257.62
357.307	243.62
357.534	229.62
357.761	232.62
357.988	247.62
358.215	265.62
358.441	245.62
358.668	237.62
358.895	230.62
359.122	222.62
359.349	219.62
359.576	236.62
359.802	233.62
360.029	211.62
360.256	215.62
360.483	224.62
360.709	235.62
360.936	262.62
361.163	240.62
361.39	235.62
361.616	233.62
361.843	233.62
362.07	230.62
362.296	222.62
362.523	217.62
362.749	220.62
362.976	241.62
363.203	242.62
363.429	222.62
363.656	221.62
363.882	226.62
364.109	221.62
364.335	212.62
364.562	222.62
364.788	240.62
365.015	237.62
365.241	225.62
365.468	233.62
365.694	208.62
365.92	221.62
366.147	216.62
366.373	207.62
366.599	227.62
366.826	232.62
367.052	205.62
367.278	219.62
367.505	219.62
367.731	233.62
367.957	222.62
368.184	231.62
368.41	224.62
368.636	242.62
368.862	246.62
369.089	237.62
369.315	232.62
369.541	222.62
369.767	217.62
369.993	220.62
370.219	230.62
370.445	236.62
370.672	229.62
370.898	243.62
371.124	242.62
371.35	245.62
371.576	253.62
371.802	266.62
372.028	258.62
372.254	250.62
372.48	259.62
372.706	263.62
372.932	264.62
373.158	267.62
373.384	281.62
373.61	287.62
373.835	284.62
374.061	261.62
374.287	251.62
374.513	266.62
374.739	270.62
374.965	281.62
375.191	304.62
375.416	262.62
375.642	261.62
375.868	290.62
376.094	261.62
376.319	266.62
376.545	269.62
376.771	248.62
376.997	238.62
377.222	232.62
377.448	250.62
377.674	235.62
377.899	224.62
378.125	233.62
378.35	239.62
378.576	241.62
378.802	240.62
379.027	241.62
379.253	241.62
379.478	228.62
379.704	237.62
379.929	253.62
380.155	237.62
380.38	245.62
380.606	240.62
380.831	236.62
381.057	257.62
381.282	258.62
381.507	263.62
381.733	287.62
381.958	279.62
382.184	269.62
382.409	280.62
382.634	287.62
382.86	281.62
383.085	270.62
383.31	250.62
383.535	271.62
383.761	285.62
383.986	265.62
384.211	274.62
384.436	294.62
384.662	268.62
384.887	277.62
385.112	277.62
385.337	284.62
385.562	295.62
385.787	308.62
386.013	294.62
386.238	291.62
386.463	292.62
386.688	315.62
386.913	273.62
387.138	278.62
387.363	269.62
387.588	290.62
387.813	285.62
388.038	289.62
388.263	291.62
388.488	294.62
388.713	299.62
388.938	274.62
389.163	262.62
389.387	285.62
389.612	284.62
389.837	281.62
390.062	288.62
390.287	297.62
390.512	272.62
390.736	274.62
390.961	286.62
391.186	303.62
391.411	299.62
391.636	303.62
391.86	311.62
392.085	319.62
392.31	315.62
392.534	313.62
392.759	327.62
392.984	313.62
393.208	310.62
393.433	292.62
393.658	287.62
393.882	317.62
394.107	303.62
394.331	325.62
394.556	326.62
394.78	335.62
395.005	327.62
395.229	325.62
395.454	299.62
395.678	334.62
395.903	321.62
396.127	329.62
396.352	334.62
396.576	307.62
396.801	319.62
397.025	311.62
397.249	323.62
397.474	341.62
397.698	336.62
397.922	311.62
398.147	325.62
398.371	325.62
398.595	349.62
398.82	334.62
399.044	364.62
399.268	423.62
399.492	477.62
399.717	500.62
399.941	466.62
400.165	428.62
400.389	390.62
400.613	363.62
400.837	364.62
401.062	362.62
401.286	351.62
401.51	347.62
401.734	364.62
401.958	391.62
402.182	382.62
402.406	369.62
402.63	362.62
402.854	360.62
403.078	401.62
403.302	382.62
403.526	400.62
403.75	406.62
403.974	391.62
404.198	411.62
404.422	411.62
404.645	428.62
404.869	421.62
405.093	423.62
405.317	402.62
405.541	393.62
405.765	380.62
405.988	405.62
406.212	370.62
406.436	391.62
406.66	417.62
406.883	415.62
407.107	449.62
407.331	449.62
407.555	444.62
407.778	423.62
408.002	409.62
408.226	415.62
408.449	418.62
408.673	399.62
408.896	382.62
409.12	394.62
409.344	389.62
409.567	369.62
409.791	387.62
410.014	411.62
410.238	402.62
410.461	377.62
410.685	378.62
410.908	388.62
411.132	373.62
411.355	350.62
411.578	369.62
411.802	378.62
412.025	385.62
412.249	387.62
412.472	365.62
412.695	351.62
412.919	367.62
413.142	355.62
413.365	351.62
413.589	361.62
413.812	353.62
414.035	386.62
414.258	371.62
414.482	376.62
414.705	366.62
414.928	374.62
415.151	357.62
415.374	368.62
415.597	365.62
415.821	385.62
416.044	361.62
416.267	342.62
416.49	347.62
416.713	342.62
416.936	352.62
417.159	371.62
417.382	370.62
417.605	368.62
417.828	370.62
418.051	369.62
418.274	355.62
418.497	360.62
418.72	359.62
418.943	372.62
419.166	389.62
419.389	391.62
419.611	410.62
419.834	379.62
420.057	384.62
420.28	381.62
420.503	378.62
420.726	354.62
420.948	364.62
421.171	350.62
421.394	376.62
421.617	374.62
421.839	370.62
422.062	362.62
422.285	380.62
422.507	371.62
422.73	359.62
422.953	376.62
423.175	354.62
423.398	369.62
423.621	382.62
423.843	381.62
424.066	378.62
424.288	366.62
424.511	372.62
424.733	378.62
424.956	365.62
425.178	381.62
425.401	384.62
425.623	379.62
425.846	381.62
426.068	367.62
426.291	348.62
426.513	348.62
426.735	356.62
426.958	344.62
427.18	349.62
427.402	379.62
427.625	336.62
427.847	370.62
428.069	333.62
428.292	320.62
428.514	328.62
428.736	322.62
428.958	329.62
429.181	329.62
429.403	335.62
429.625	329.62
429.847	323.62
430.069	313.62
430.292	322.62
430.514	315.62
430.736	332.62
430.958	336.62
431.18	339.62
431.402	328.62
431.624	329.62
431.846	320.62
432.068	312.62
432.29	327.62
432.512	325.62
432.734	333.62
432.956	348.62
433.178	329.62
433.4	326.62
433.622	332.62
433.844	317.62
434.066	337.62
434.287	325.62
434.509	327.62
434.731	319.62
434.953	345.62
435.175	348.62
435.397	350.62
435.618	328.62
435.84	322.62
436.062	311.62
436.284	320.62
436.505	315.62
436.727	315.62
436.949	326.62
437.17	298.62
437.392	298.62
437.614	310.62
437.835	308.62
438.057	327.62
438.278	313.62
438.5	338.62
438.721	345.62
438.943	343.62
439.165	328.62
439.386	332.62
439.608	335.62
439.829	350.62
440.05	326.62
440.272	355.62
440.493	343.62
440.715	345.62
440.936	348.62
441.158	354.62
441.379	360.62
441.6	386.62
441.822	367.62
442.043	380.62
442.264	361.62
442.486	351.62
442.707	355.62
442.928	364.62
443.149	366.62
443.371	380.62
443.592	358.62
443.813	356.62
444.034	367.62
444.255	395.62
444.476	406.62
444.698	407.62
444.919	438.62
445.14	573.62
445.361	459.62
445.582	397.62
445.803	349.62
446.024	352.62
446.245	359.62
446.466	346.62
446.687	340.62
446.908	355.62
447.129	339.62
447.35	313.62
447.571	317.62
447.792	326.62
448.013	322.62
448.234	325.62
448.455	303.62
448.675	309.62
448.896	300.62
449.117	307.62
449.338	294.62
449.559	307.62
449.779	285.62
450	298.62
450.221	310.62
450.442	304.62
450.662	317.62
450.883	314.62
451.104	333.62
451.324	305.62
451.545	312.62
451.766	295.62
451.986	282.62
452.207	307.62
452.428	304.62
452.648	287.62
452.869	293.62
453.089	280.62
453.31	276.62
453.53	301.62
453.751	286.62
453.971	279.62
454.192	273.62
454.412	275.62
454.633	282.62
454.853	273.62
455.073	289.62
455.294	295.62
455.514	294.62
455.734	270.62
455.955	289.62
456.175	277.62
456.395	265.62
456.616	278.62
456.836	283.62
457.056	273.62
457.276	273.62
457.497	275.62
457.717	266.62
457.937	276.62
458.157	289.62
458.377	273.62
458.598	290.62
458.818	287.62
459.038	296.62
459.258	285.62
459.478	319.62
459.698	311.62
459.918	328.62
460.138	333.62
460.358	349.62
460.578	369.62
460.798	351.62
461.018	353.62
461.238	369.62
461.458	351.62
461.678	349.62
461.898	364.62
462.118	382.62
462.338	384.62
462.558	412.62
462.777	415.62
462.997	453.62
463.217	467.62
463.437	445.62
463.657	389.62
463.876	409.62
464.096	393.62
464.316	424.62
464.536	406.62
464.755	399.62
464.975	383.62
465.195	351.62
465.414	349.62
465.634	332.62
465.854	345.62
466.073	334.62
466.293	337.62
466.512	306.62
466.732	312.62
466.951	318.62
467.171	309.62
467.391	334.62
467.61	322.62
467.829	370.62
468.049	397.62
468.268	407.62
468.488	339.62
468.707	336.62
468.927	327.62
469.146	321.62
469.365	322.62
469.585	330.62
469.804	335.62
470.023	350.62
470.243	330.62
470.462	346.62
470.681	339.62
470.901	332.62
471.12	314.62
471.339	319.62
471.558	340.62
471.777	329.62
471.997	345.62
472.216	446.62
472.435	512.62
472.654	401.62
472.873	343.62
473.092	321.62
473.311	298.62
473.53	320.62
473.749	318.62
473.968	318.62
474.187	305.62
474.406	309.62
474.625	319.62
474.844	322.62
475.063	296.62
475.282	317.62
475.501	299.62
475.72	302.62
475.939	309.62
476.158	319.62
476.377	316.62
476.596	322.62
476.814	343.62
477.033	322.62
477.252	312.62
477.471	338.62
477.69	349.62
477.908	337.62
478.127	352.62
478.346	362.62
478.564	354.62
478.783	352.62
479.002	362.62
479.22	360.62
479.439	362.62
479.658	367.62
479.876	381.62
480.095	377.62
480.313	399.62
480.532	422.62
480.751	406.62
480.969	487.62
481.188	699.62
481.406	638.62
481.624	428.62
481.843	362.62
482.061	365.62
482.28	352.62
482.498	349.62
482.717	338.62
482.935	363.62
483.153	352.62
483.372	345.62
483.59	350.62
483.808	314.62
484.027	330.62
484.245	342.62
484.463	336.62
484.681	370.62
484.9	338.62
485.118	346.62
485.336	342.62
485.554	346.62
485.772	344.62
485.99	335.62
486.209	350.62
486.427	336.62
486.645	346.62
486.863	353.62
487.081	359.62
487.299	365.62
487.517	370.62
487.735	367.62
487.953	376.62
488.171	364.62
488.389	362.62
488.607	351.62
488.825	345.62
489.043	349.62
489.261	369.62
489.479	363.62
489.696	342.62
489.914	365.62
490.132	376.62
490.35	369.62
490.568	346.62
490.786	375.62
491.003	380.62
491.221	378.62
491.439	396.62
491.657	402.62
491.874	414.62
492.092	415.62
492.31	431.62
492.527	420.62
492.745	387.62
492.963	392.62
493.18	395.62
493.398	409.62
493.615	379.62
493.833	398.62
494.05	395.62
494.268	387.62
494.485	390.62
494.703	400.62
494.92	386.62
495.138	384.62
495.355	389.62
495.573	405.62
495.79	391.62
496.008	413.62
496.225	414.62
496.442	398.62
496.66	401.62
496.877	409.62
497.094	422.62
497.312	406.62
497.529	428.62
497.746	435.62
497.963	433.62
498.181	436.62
498.398	454.62
498.615	459.62
498.832	518.62
499.049	551.62
499.267	594.62
499.484	630.62
499.701	688.62
499.918	750.62
500.135	834.62
500.352	936.62
500.569	920.62
500.786	902.62
501.003	870.62
501.22	772.62
501.437	657.62
501.654	604.62
501.871	562.62
502.088	508.62
502.305	496.62
502.522	489.62
502.739	486.62
502.956	469.62
503.172	432.62
503.389	409.62
