Data from SampB_HRD10591_00026.txt Node
Date: Mon Jan 19 11:33:37 EST 2026
User: Yrep
Spectrometer: HR+D1059
Trigger mode: 0
Integration Time (sec): 3.443000E-1
Scans to average: 1
Electric dark correction enabled: true
Nonlinearity correction enabled: false
Boxcar width: 0
XAxis mode: Wavelengths
Number of Pixels in Spectrum: 2048
>>>>>Begin Spectral Data<<<<<
223.165	-21.81
223.4	-21.81
223.635	-21.81
223.869	-21.81
224.104	-26.81
224.338	-15.81
224.573	-14.81
224.808	-26.81
225.042	-5.81
225.277	0.19
225.511	12.19
225.746	-0.81
225.98	6.19
226.215	20.19
226.449	17.19
226.683	26.19
226.918	18.19
227.152	34.19
227.387	29.19
227.621	37.19
227.856	53.19
228.09	42.19
228.324	47.19
228.559	50.19
228.793	68.19
229.027	68.19
229.262	71.19
229.496	65.19
229.73	70.19
229.964	74.19
230.199	85.19
230.433	71.19
230.667	70.19
230.901	69.19
231.136	70.19
231.37	76.19
231.604	74.19
231.838	85.19
232.072	83.19
232.306	79.19
232.541	75.19
232.775	77.19
233.009	73.19
233.243	69.19
233.477	81.19
233.711	87.19
233.945	85.19
234.179	89.19
234.413	76.19
234.647	93.19
234.881	81.19
235.115	74.19
235.349	95.19
235.583	81.19
235.817	85.19
236.051	88.19
236.285	85.19
236.519	84.19
236.753	73.19
236.987	74.19
237.221	78.19
237.455	90.19
237.689	77.19
237.922	68.19
238.156	74.19
238.39	76.19
238.624	75.19
238.858	76.19
239.091	84.19
239.325	89.19
239.559	81.19
239.793	82.19
240.027	98.19
240.26	95.19
240.494	106.19
240.728	89.19
240.961	78.19
241.195	84.19
241.429	96.19
241.662	86.19
241.896	79.19
242.13	80.19
242.363	78.19
242.597	89.19
242.83	94.19
243.064	86.19
243.298	77.19
243.531	92.19
243.765	86.19
243.998	79.19
244.232	81.19
244.465	89.19
244.699	77.19
244.932	86.19
245.166	82.19
245.399	89.19
245.633	87.19
245.866	76.19
246.099	91.19
246.333	88.19
246.566	91.19
246.8	97.19
247.033	72.19
247.266	81.19
247.5	81.19
247.733	82.19
247.966	87.19
248.2	85.19
248.433	80.19
248.666	84.19
248.899	96.19
249.133	93.19
249.366	91.19
249.599	85.19
249.832	93.19
250.066	117.19
250.299	95.19
250.532	93.19
250.765	85.19
250.998	83.19
251.231	84.19
251.465	95.19
251.698	76.19
251.931	88.19
252.164	98.19
252.397	105.19
252.63	100.19
252.863	89.19
253.096	102.19
253.329	92.19
253.562	111.19
253.795	97.19
254.028	97.19
254.261	106.19
254.494	98.19
254.727	104.19
254.96	105.19
255.193	78.19
255.426	84.19
255.659	74.19
255.892	84.19
256.124	101.19
256.357	108.19
256.59	111.19
256.823	85.19
257.056	103.19
257.289	86.19
257.521	96.19
257.754	84.19
257.987	104.19
258.22	98.19
258.452	104.19
258.685	105.19
258.918	106.19
259.151	92.19
259.383	106.19
259.616	76.19
259.849	112.19
260.081	103.19
260.314	92.19
260.547	90.19
260.779	94.19
261.012	100.19
261.244	106.19
261.477	120.19
261.71	98.19
261.942	93.19
262.175	85.19
262.407	82.19
262.64	95.19
262.872	97.19
263.105	87.19
263.337	109.19
263.57	114.19
263.802	121.19
264.035	94.19
264.267	92.19
264.499	96.19
264.732	94.19
264.964	105.19
265.197	89.19
265.429	113.19
265.661	106.19
265.894	90.19
266.126	124.19
266.358	102.19
266.591	93.19
266.823	115.19
267.055	95.19
267.287	106.19
267.52	106.19
267.752	112.19
267.984	105.19
268.216	107.19
268.448	107.19
268.681	119.19
268.913	105.19
269.145	92.19
269.377	114.19
269.609	103.19
269.841	117.19
270.073	108.19
270.306	116.19
270.538	116.19
270.77	96.19
271.002	98.19
271.234	107.19
271.466	106.19
271.698	108.19
271.93	101.19
272.162	114.19
272.394	114.19
272.626	108.19
272.858	111.19
273.09	108.19
273.322	89.19
273.553	104.19
273.785	123.19
274.017	114.19
274.249	114.19
274.481	111.19
274.713	94.19
274.945	108.19
275.176	84.19
275.408	105.19
275.64	121.19
275.872	104.19
276.104	116.19
276.335	125.19
276.567	103.19
276.799	116.19
277.031	121.19
277.262	111.19
277.494	118.19
277.726	114.19
277.957	94.19
278.189	117.19
278.421	124.19
278.652	126.19
278.884	119.19
279.115	118.19
279.347	117.19
279.579	106.19
279.81	120.19
280.042	116.19
280.273	113.19
280.505	110.19
280.736	134.19
280.968	124.19
281.199	100.19
281.431	105.19
281.662	117.19
281.894	124.19
282.125	109.19
282.356	112.19
282.588	116.19
282.819	122.19
283.051	114.19
283.282	103.19
283.513	107.19
283.745	112.19
283.976	136.19
284.207	110.19
284.439	107.19
284.67	110.19
284.901	133.19
285.132	113.19
285.364	127.19
285.595	129.19
285.826	117.19
286.057	116.19
286.288	120.19
286.52	118.19
286.751	117.19
286.982	116.19
287.213	118.19
287.444	128.19
287.675	121.19
287.906	118.19
288.138	120.19
288.369	126.19
288.6	117.19
288.831	120.19
289.062	128.19
289.293	130.19
289.524	128.19
289.755	106.19
289.986	117.19
290.217	111.19
290.448	125.19
290.679	125.19
290.91	132.19
291.141	126.19
291.371	127.19
291.602	117.19
291.833	125.19
292.064	129.19
292.295	116.19
292.526	109.19
292.757	123.19
292.987	135.19
293.218	107.19
293.449	116.19
293.68	120.19
293.91	122.19
294.141	129.19
294.372	134.19
294.603	126.19
294.833	130.19
295.064	122.19
295.295	116.19
295.525	119.19
295.756	116.19
295.987	124.19
296.217	98.19
296.448	122.19
296.679	121.19
296.909	133.19
297.14	134.19
297.37	135.19
297.601	113.19
297.831	113.19
298.062	127.19
298.292	120.19
298.523	126.19
298.753	130.19
298.984	129.19
299.214	133.19
299.445	137.19
299.675	133.19
299.905	133.19
300.136	121.19
300.366	136.19
300.597	115.19
300.827	118.19
301.057	141.19
301.288	127.19
301.518	130.19
301.748	127.19
301.979	159.19
302.209	146.19
302.439	120.19
302.669	117.19
302.9	130.19
303.13	121.19
303.36	126.19
303.59	132.19
303.82	132.19
304.051	113.19
304.281	121.19
304.511	139.19
304.741	135.19
304.971	120.19
305.201	121.19
305.431	131.19
305.661	145.19
305.891	120.19
306.121	125.19
306.352	126.19
306.582	121.19
306.812	124.19
307.042	133.19
307.272	134.19
307.502	143.19
307.731	139.19
307.961	135.19
308.191	120.19
308.421	130.19
308.651	133.19
308.881	134.19
309.111	121.19
309.341	122.19
309.571	140.19
309.8	125.19
310.03	128.19
310.26	132.19
310.49	121.19
310.72	123.19
310.949	122.19
311.179	125.19
311.409	133.19
311.639	128.19
311.868	137.19
312.098	116.19
312.328	122.19
312.557	131.19
312.787	129.19
313.017	138.19
313.246	125.19
313.476	132.19
313.706	125.19
313.935	144.19
314.165	134.19
314.394	129.19
314.624	140.19
314.853	145.19
315.083	135.19
315.312	129.19
315.542	132.19
315.771	135.19
316.001	126.19
316.23	122.19
316.46	132.19
316.689	132.19
316.919	155.19
317.148	132.19
317.377	155.19
317.607	142.19
317.836	138.19
318.065	129.19
318.295	127.19
318.524	128.19
318.753	132.19
318.983	140.19
319.212	126.19
319.441	138.19
319.67	138.19
319.9	135.19
320.129	126.19
320.358	119.19
320.587	137.19
320.816	138.19
321.046	140.19
321.275	148.19
321.504	132.19
321.733	143.19
321.962	129.19
322.191	138.19
322.42	128.19
322.649	144.19
322.878	122.19
323.108	138.19
323.337	138.19
323.566	144.19
323.795	159.19
324.024	159.19
324.253	136.19
324.482	139.19
324.71	127.19
324.939	133.19
325.168	137.19
325.397	127.19
325.626	128.19
325.855	128.19
326.084	144.19
326.313	152.19
326.542	130.19
326.77	134.19
326.999	137.19
327.228	150.19
327.457	137.19
327.686	160.19
327.914	154.19
328.143	161.19
328.372	152.19
328.6	162.19
328.829	155.19
329.058	137.19
329.287	156.19
329.515	157.19
329.744	164.19
329.972	161.19
330.201	178.19
330.43	185.19
330.658	167.19
330.887	152.19
331.115	141.19
331.344	133.19
331.572	162.19
331.801	162.19
332.03	171.19
332.258	170.19
332.486	138.19
332.715	165.19
332.943	158.19
333.172	174.19
333.4	185.19
333.629	181.19
333.857	197.19
334.085	203.19
334.314	234.19
334.542	220.19
334.771	220.19
334.999	191.19
335.227	155.19
335.455	162.19
335.684	169.19
335.912	155.19
336.14	173.19
336.369	156.19
336.597	160.19
336.825	151.19
337.053	148.19
337.281	150.19
337.51	159.19
337.738	168.19
337.966	140.19
338.194	122.19
338.422	154.19
338.65	150.19
338.878	149.19
339.106	133.19
339.334	140.19
339.562	151.19
339.79	142.19
340.018	140.19
340.246	148.19
340.474	148.19
340.702	152.19
340.93	153.19
341.158	141.19
341.386	152.19
341.614	138.19
341.842	136.19
342.07	145.19
342.298	134.19
342.526	146.19
342.754	130.19
342.981	133.19
343.209	141.19
343.437	189.19
343.665	151.19
343.893	168.19
344.12	162.19
344.348	144.19
344.576	145.19
344.804	149.19
345.031	132.19
345.259	151.19
345.487	139.19
345.714	148.19
345.942	146.19
346.17	145.19
346.397	142.19
346.625	148.19
346.853	126.19
347.08	152.19
347.308	139.19
347.535	144.19
347.763	136.19
347.99	168.19
348.218	149.19
348.445	124.19
348.673	135.19
348.9	149.19
349.128	165.19
349.355	154.19
349.583	134.19
349.81	119.19
350.037	129.19
350.265	145.19
350.492	116.19
350.72	143.19
350.947	136.19
351.174	153.19
351.402	129.19
351.629	146.19
351.856	129.19
352.083	127.19
352.311	134.19
352.538	132.19
352.765	144.19
352.992	152.19
353.22	142.19
353.447	127.19
353.674	144.19
353.901	150.19
354.128	127.19
354.355	141.19
354.583	152.19
354.81	141.19
355.037	149.19
355.264	143.19
355.491	150.19
355.718	120.19
355.945	143.19
356.172	146.19
356.399	149.19
356.626	139.19
356.853	148.19
357.08	148.19
357.307	140.19
357.534	134.19
357.761	143.19
357.988	150.19
358.215	155.19
358.441	127.19
358.668	130.19
358.895	152.19
359.122	140.19
359.349	141.19
359.576	146.19
359.802	151.19
360.029	133.19
360.256	129.19
360.483	131.19
360.709	135.19
360.936	156.19
361.163	149.19
361.39	133.19
361.616	140.19
361.843	134.19
362.07	141.19
362.296	137.19
362.523	149.19
362.749	132.19
362.976	145.19
363.203	158.19
363.429	134.19
363.656	160.19
363.882	136.19
364.109	146.19
364.335	152.19
364.562	146.19
364.788	136.19
365.015	124.19
365.241	139.19
365.468	142.19
365.694	142.19
365.92	148.19
366.147	154.19
366.373	128.19
366.599	124.19
366.826	150.19
367.052	136.19
367.278	142.19
367.505	143.19
367.731	156.19
367.957	145.19
368.184	136.19
368.41	137.19
368.636	149.19
368.862	148.19
369.089	142.19
369.315	141.19
369.541	156.19
369.767	146.19
369.993	141.19
370.219	142.19
370.445	131.19
370.672	152.19
370.898	145.19
371.124	147.19
371.35	142.19
371.576	145.19
371.802	141.19
372.028	138.19
372.254	160.19
372.48	127.19
372.706	146.19
372.932	152.19
373.158	151.19
373.384	150.19
373.61	146.19
373.835	144.19
374.061	158.19
374.287	163.19
374.513	150.19
374.739	144.19
374.965	142.19
375.191	157.19
375.416	160.19
375.642	161.19
375.868	159.19
376.094	162.19
376.319	168.19
376.545	142.19
376.771	151.19
376.997	159.19
377.222	138.19
377.448	146.19
377.674	140.19
377.899	141.19
378.125	140.19
378.35	141.19
378.576	160.19
378.802	130.19
379.027	155.19
379.253	157.19
379.478	154.19
379.704	164.19
379.929	159.19
380.155	159.19
380.38	140.19
380.606	137.19
380.831	142.19
381.057	162.19
381.282	152.19
381.507	143.19
381.733	160.19
381.958	152.19
382.184	141.19
382.409	160.19
382.634	154.19
382.86	142.19
383.085	152.19
383.31	148.19
383.535	164.19
383.761	172.19
383.986	170.19
384.211	169.19
384.436	161.19
384.662	162.19
384.887	172.19
385.112	168.19
385.337	180.19
385.562	160.19
385.787	172.19
386.013	172.19
386.238	169.19
386.463	164.19
386.688	212.19
386.913	159.19
387.138	175.19
387.363	164.19
387.588	161.19
387.813	168.19
388.038	175.19
388.263	170.19
388.488	170.19
388.713	161.19
388.938	153.19
389.163	160.19
389.387	158.19
389.612	173.19
389.837	173.19
390.062	174.19
390.287	160.19
390.512	170.19
390.736	164.19
390.961	169.19
391.186	183.19
391.411	165.19
391.636	177.19
391.86	162.19
392.085	176.19
392.31	186.19
392.534	187.19
392.759	177.19
392.984	174.19
393.208	191.19
393.433	194.19
393.658	183.19
393.882	191.19
394.107	184.19
394.331	187.19
394.556	162.19
394.78	179.19
395.005	193.19
395.229	188.19
395.454	198.19
395.678	195.19
395.903	196.19
396.127	188.19
396.352	180.19
396.576	188.19
396.801	187.19
397.025	216.19
397.249	191.19
397.474	201.19
397.698	176.19
397.922	189.19
398.147	193.19
398.371	214.19
398.595	203.19
398.82	201.19
399.044	222.19
399.268	243.19
399.492	267.19
399.717	276.19
399.941	247.19
400.165	249.19
400.389	196.19
400.613	205.19
400.837	196.19
401.062	203.19
401.286	209.19
401.51	198.19
401.734	198.19
401.958	203.19
402.182	204.19
402.406	194.19
402.63	189.19
402.854	205.19
403.078	210.19
403.302	213.19
403.526	225.19
403.75	216.19
403.974	229.19
404.198	215.19
404.422	222.19
404.645	221.19
404.869	223.19
405.093	236.19
405.317	215.19
405.541	198.19
405.765	224.19
405.988	213.19
406.212	200.19
406.436	202.19
406.66	217.19
406.883	228.19
407.107	246.19
407.331	233.19
407.555	237.19
407.778	234.19
408.002	231.19
408.226	214.19
408.449	221.19
408.673	205.19
408.896	224.19
409.12	218.19
409.344	240.19
409.567	234.19
409.791	217.19
410.014	221.19
410.238	214.19
410.461	210.19
410.685	203.19
410.908	210.19
411.132	218.19
411.355	218.19
411.578	213.19
411.802	195.19
412.025	212.19
412.249	208.19
412.472	199.19
412.695	203.19
412.919	203.19
413.142	207.19
413.365	212.19
413.589	218.19
413.812	189.19
414.035	207.19
414.258	224.19
414.482	220.19
414.705	214.19
414.928	218.19
415.151	220.19
415.374	207.19
415.597	200.19
415.821	206.19
416.044	195.19
416.267	185.19
416.49	206.19
416.713	217.19
416.936	206.19
417.159	208.19
417.382	209.19
417.605	190.19
417.828	194.19
418.051	214.19
418.274	210.19
418.497	218.19
418.72	216.19
418.943	211.19
419.166	221.19
419.389	218.19
419.611	225.19
419.834	214.19
420.057	215.19
420.28	203.19
420.503	214.19
420.726	211.19
420.948	212.19
421.171	183.19
421.394	196.19
421.617	209.19
421.839	209.19
422.062	215.19
422.285	203.19
422.507	223.19
422.73	212.19
422.953	188.19
423.175	208.19
423.398	208.19
423.621	226.19
423.843	230.19
424.066	206.19
424.288	221.19
424.511	217.19
424.733	216.19
424.956	221.19
425.178	205.19
425.401	200.19
425.623	209.19
425.846	192.19
426.068	173.19
426.291	202.19
426.513	189.19
426.735	186.19
426.958	186.19
427.18	183.19
427.402	203.19
427.625	183.19
427.847	192.19
428.069	183.19
428.292	198.19
428.514	190.19
428.736	190.19
428.958	203.19
429.181	187.19
429.403	172.19
429.625	185.19
429.847	196.19
430.069	196.19
430.292	193.19
430.514	189.19
430.736	189.19
430.958	185.19
431.18	185.19
431.402	182.19
431.624	201.19
431.846	172.19
432.068	177.19
432.29	177.19
432.512	191.19
432.734	190.19
432.956	180.19
433.178	192.19
433.4	203.19
433.622	196.19
433.844	200.19
434.066	179.19
434.287	178.19
434.509	190.19
434.731	198.19
434.953	178.19
435.175	198.19
435.397	215.19
435.618	205.19
435.84	183.19
436.062	194.19
436.284	194.19
436.505	190.19
436.727	183.19
436.949	196.19
437.17	205.19
437.392	183.19
437.614	172.19
437.835	163.19
438.057	175.19
438.278	188.19
438.5	166.19
438.721	185.19
438.943	176.19
439.165	180.19
439.386	190.19
439.608	193.19
439.829	197.19
440.05	204.19
440.272	196.19
440.493	188.19
440.715	186.19
440.936	196.19
441.158	186.19
441.379	226.19
441.6	207.19
441.822	217.19
442.043	211.19
442.264	213.19
442.486	202.19
442.707	204.19
442.928	207.19
443.149	200.19
443.371	214.19
443.592	219.19
443.813	215.19
444.034	212.19
444.255	228.19
444.476	231.19
444.698	230.19
444.919	233.19
445.14	419.19
445.361	303.19
445.582	228.19
445.803	216.19
446.024	206.19
446.245	191.19
446.466	212.19
446.687	188.19
446.908	210.19
447.129	185.19
447.35	196.19
447.571	188.19
447.792	181.19
448.013	180.19
448.234	184.19
448.455	177.19
448.675	176.19
448.896	176.19
449.117	176.19
449.338	194.19
449.559	183.19
449.779	176.19
450	176.19
450.221	191.19
450.442	187.19
450.662	187.19
450.883	188.19
451.104	189.19
451.324	181.19
451.545	180.19
451.766	194.19
451.986	184.19
452.207	187.19
452.428	175.19
452.648	168.19
452.869	179.19
453.089	163.19
453.31	161.19
453.53	173.19
453.751	171.19
453.971	180.19
454.192	172.19
454.412	163.19
454.633	160.19
454.853	179.19
455.073	176.19
455.294	151.19
455.514	180.19
455.734	179.19
455.955	162.19
456.175	171.19
456.395	172.19
456.616	164.19
456.836	179.19
457.056	170.19
457.276	168.19
457.497	161.19
457.717	162.19
457.937	158.19
458.157	170.19
458.377	182.19
458.598	175.19
458.818	180.19
459.038	175.19
459.258	188.19
459.478	194.19
459.698	180.19
459.918	188.19
460.138	197.19
460.358	211.19
460.578	206.19
460.798	221.19
461.018	203.19
461.238	217.19
461.458	220.19
461.678	212.19
461.898	198.19
462.118	224.19
462.338	218.19
462.558	214.19
462.777	225.19
462.997	248.19
463.217	263.19
463.437	255.19
463.657	245.19
463.876	224.19
464.096	215.19
464.316	230.19
464.536	222.19
464.755	222.19
464.975	200.19
465.195	194.19
465.414	209.19
465.634	188.19
465.854	190.19
466.073	193.19
466.293	190.19
466.512	182.19
466.732	186.19
466.951	177.19
467.171	175.19
467.391	164.19
467.61	176.19
467.829	191.19
468.049	203.19
468.268	196.19
468.488	199.19
468.707	186.19
468.927	188.19
469.146	185.19
469.365	172.19
469.585	202.19
469.804	207.19
470.023	201.19
470.243	183.19
470.462	196.19
470.681	189.19
470.901	195.19
471.12	173.19
471.339	188.19
471.558	175.19
471.777	193.19
471.997	193.19
472.216	219.19
472.435	250.19
472.654	191.19
472.873	218.19
473.092	204.19
473.311	190.19
473.53	175.19
473.749	184.19
473.968	191.19
474.187	179.19
474.406	162.19
474.625	198.19
474.844	190.19
475.063	193.19
475.282	179.19
475.501	181.19
475.72	210.19
475.939	172.19
476.158	182.19
476.377	192.19
476.596	171.19
476.814	197.19
477.033	196.19
477.252	190.19
477.471	196.19
477.69	198.19
477.908	180.19
478.127	206.19
478.346	193.19
478.564	217.19
478.783	193.19
479.002	212.19
479.22	219.19
479.439	202.19
479.658	203.19
479.876	200.19
480.095	210.19
480.313	230.19
480.532	225.19
480.751	227.19
480.969	245.19
481.188	293.19
481.406	309.19
481.624	222.19
481.843	207.19
482.061	203.19
482.28	198.19
482.498	202.19
482.717	200.19
482.935	211.19
483.153	186.19
483.372	199.19
483.59	204.19
483.808	180.19
484.027	194.19
484.245	209.19
484.463	172.19
484.681	230.19
484.9	196.19
485.118	198.19
485.336	205.19
485.554	210.19
485.772	190.19
485.99	205.19
486.209	213.19
486.427	217.19
486.645	209.19
486.863	207.19
487.081	204.19
487.299	208.19
487.517	216.19
487.735	209.19
487.953	210.19
488.171	211.19
488.389	219.19
488.607	209.19
488.825	198.19
489.043	200.19
489.261	207.19
489.479	208.19
489.696	206.19
489.914	197.19
490.132	203.19
490.35	198.19
490.568	201.19
490.786	212.19
491.003	203.19
491.221	217.19
491.439	222.19
491.657	207.19
491.874	223.19
492.092	229.19
492.31	249.19
492.527	225.19
492.745	224.19
492.963	219.19
493.18	225.19
493.398	225.19
493.615	220.19
493.833	204.19
494.05	225.19
494.268	218.19
494.485	230.19
494.703	221.19
494.92	198.19
495.138	202.19
495.355	206.19
495.573	226.19
495.79	228.19
496.008	217.19
496.225	214.19
496.442	208.19
496.66	226.19
496.877	224.19
497.094	240.19
497.312	233.19
497.529	227.19
497.746	228.19
497.963	224.19
498.181	228.19
498.398	255.19
498.615	269.19
498.832	257.19
499.049	277.19
499.267	314.19
499.484	307.19
499.701	360.19
499.918	389.19
500.135	418.19
500.352	477.19
500.569	473.19
500.786	459.19
501.003	426.19
501.22	398.19
501.437	340.19
501.654	328.19
501.871	280.19
502.088	261.19
502.305	291.19
502.522	254.19
502.739	258.19
502.956	254.19
503.172	227.19
503.389	219.19
503.606	208.19
503.823	230.19
504.04	220.19
504.256	223.19
504.473	218.19
504.69	238.19
