Data from SampB_HRD10591_00039.txt Node
Date: Mon Jan 19 11:33:41 EST 2026
User: Yrep
Spectrometer: HR+D1059
Trigger mode: 0
Integration Time (sec): 3.443000E-1
Scans to average: 1
Electric dark correction enabled: true
Nonlinearity correction enabled: false
Boxcar width: 0
XAxis mode: Wavelengths
Number of Pixels in Spectrum: 2048
>>>>>Begin Spectral Data<<<<<
223.165	-19.75
223.4	-19.75
223.635	-19.75
223.869	-21.75
224.104	-19.75
224.338	-8.75
224.573	-22.75
224.808	-13.75
225.042	-0.75
225.277	-13.75
225.511	-4.75
225.746	6.25
225.98	12.25
226.215	13.25
226.449	18.25
226.683	19.25
226.918	24.25
227.152	32.25
227.387	35.25
227.621	49.25
227.856	44.25
228.09	49.25
228.324	54.25
228.559	74.25
228.793	56.25
229.027	68.25
229.262	71.25
229.496	72.25
229.73	79.25
229.964	86.25
230.199	90.25
230.433	80.25
230.667	72.25
230.901	93.25
231.136	85.25
231.37	85.25
231.604	92.25
231.838	81.25
232.072	86.25
232.306	105.25
232.541	82.25
232.775	94.25
233.009	94.25
233.243	92.25
233.477	72.25
233.711	95.25
233.945	76.25
234.179	94.25
234.413	107.25
234.647	93.25
234.881	92.25
235.115	87.25
235.349	94.25
235.583	87.25
235.817	85.25
236.051	94.25
236.285	86.25
236.519	76.25
236.753	106.25
236.987	116.25
237.221	82.25
237.455	82.25
237.689	94.25
237.922	95.25
238.156	72.25
238.39	85.25
238.624	86.25
238.858	87.25
239.091	92.25
239.325	89.25
239.559	80.25
239.793	112.25
240.027	102.25
240.26	92.25
240.494	109.25
240.728	103.25
240.961	91.25
241.195	108.25
241.429	100.25
241.662	91.25
241.896	101.25
242.13	99.25
242.363	81.25
242.597	96.25
242.83	97.25
243.064	102.25
243.298	101.25
243.531	91.25
243.765	92.25
243.998	85.25
244.232	97.25
244.465	100.25
244.699	89.25
244.932	98.25
245.166	83.25
245.399	95.25
245.633	87.25
245.866	103.25
246.099	98.25
246.333	109.25
246.566	100.25
246.8	84.25
247.033	85.25
247.266	99.25
247.5	104.25
247.733	98.25
247.966	111.25
248.2	105.25
248.433	106.25
248.666	102.25
248.899	112.25
249.133	101.25
249.366	124.25
249.599	119.25
249.832	106.25
250.066	131.25
250.299	134.25
250.532	122.25
250.765	131.25
250.998	114.25
251.231	108.25
251.465	115.25
251.698	102.25
251.931	105.25
252.164	116.25
252.397	124.25
252.63	121.25
252.863	117.25
253.096	126.25
253.329	109.25
253.562	99.25
253.795	129.25
254.028	108.25
254.261	132.25
254.494	119.25
254.727	120.25
254.96	120.25
255.193	108.25
255.426	118.25
255.659	93.25
255.892	127.25
256.124	158.25
256.357	156.25
256.59	123.25
256.823	119.25
257.056	120.25
257.289	117.25
257.521	119.25
257.754	130.25
257.987	111.25
258.22	126.25
258.452	111.25
258.685	112.25
258.918	127.25
259.151	120.25
259.383	110.25
259.616	138.25
259.849	130.25
260.081	127.25
260.314	127.25
260.547	129.25
260.779	127.25
261.012	122.25
261.244	121.25
261.477	144.25
261.71	119.25
261.942	128.25
262.175	124.25
262.407	121.25
262.64	127.25
262.872	115.25
263.105	112.25
263.337	140.25
263.57	103.25
263.802	120.25
264.035	116.25
264.267	108.25
264.499	125.25
264.732	122.25
264.964	111.25
265.197	121.25
265.429	123.25
265.661	130.25
265.894	125.25
266.126	135.25
266.358	114.25
266.591	125.25
266.823	126.25
267.055	116.25
267.287	129.25
267.52	121.25
267.752	121.25
267.984	124.25
268.216	125.25
268.448	119.25
268.681	130.25
268.913	134.25
269.145	124.25
269.377	127.25
269.609	120.25
269.841	126.25
270.073	110.25
270.306	137.25
270.538	124.25
270.77	111.25
271.002	132.25
271.234	126.25
271.466	139.25
271.698	121.25
271.93	130.25
272.162	131.25
272.394	146.25
272.626	135.25
272.858	136.25
273.09	143.25
273.322	160.25
273.553	134.25
273.785	149.25
274.017	126.25
274.249	141.25
274.481	152.25
274.713	137.25
274.945	174.25
275.176	153.25
275.408	159.25
275.64	168.25
275.872	167.25
276.104	146.25
276.335	139.25
276.567	146.25
276.799	148.25
277.031	129.25
277.262	146.25
277.494	175.25
277.726	153.25
277.957	154.25
278.189	155.25
278.421	139.25
278.652	151.25
278.884	151.25
279.115	153.25
279.347	180.25
279.579	203.25
279.81	207.25
280.042	206.25
280.273	188.25
280.505	180.25
280.736	164.25
280.968	156.25
281.199	154.25
281.431	154.25
281.662	159.25
281.894	134.25
282.125	152.25
282.356	138.25
282.588	128.25
282.819	150.25
283.051	134.25
283.282	129.25
283.513	155.25
283.745	141.25
283.976	162.25
284.207	140.25
284.439	161.25
284.67	155.25
284.901	151.25
285.132	152.25
285.364	143.25
285.595	153.25
285.826	153.25
286.057	153.25
286.288	151.25
286.52	153.25
286.751	136.25
286.982	168.25
287.213	151.25
287.444	154.25
287.675	143.25
287.906	162.25
288.138	137.25
288.369	148.25
288.6	172.25
288.831	135.25
289.062	143.25
289.293	140.25
289.524	151.25
289.755	163.25
289.986	146.25
290.217	136.25
290.448	152.25
290.679	162.25
290.91	156.25
291.141	143.25
291.371	141.25
291.602	158.25
291.833	150.25
292.064	155.25
292.295	162.25
292.526	167.25
292.757	166.25
292.987	142.25
293.218	141.25
293.449	155.25
293.68	131.25
293.91	151.25
294.141	168.25
294.372	145.25
294.603	140.25
294.833	163.25
295.064	159.25
295.295	167.25
295.525	154.25
295.756	168.25
295.987	145.25
296.217	164.25
296.448	151.25
296.679	161.25
296.909	164.25
297.14	169.25
297.37	158.25
297.601	150.25
297.831	161.25
298.062	164.25
298.292	155.25
298.523	170.25
298.753	140.25
298.984	175.25
299.214	171.25
299.445	147.25
299.675	163.25
299.905	152.25
300.136	143.25
300.366	173.25
300.597	173.25
300.827	139.25
301.057	160.25
301.288	159.25
301.518	154.25
301.748	164.25
301.979	205.25
302.209	178.25
302.439	175.25
302.669	174.25
302.9	171.25
303.13	162.25
303.36	157.25
303.59	179.25
303.82	164.25
304.051	160.25
304.281	170.25
304.511	175.25
304.741	172.25
304.971	158.25
305.201	191.25
305.431	169.25
305.661	171.25
305.891	150.25
306.121	160.25
306.352	187.25
306.582	177.25
306.812	182.25
307.042	181.25
307.272	191.25
307.502	194.25
307.731	175.25
307.961	176.25
308.191	183.25
308.421	172.25
308.651	172.25
308.881	174.25
309.111	177.25
309.341	191.25
309.571	187.25
309.8	168.25
310.03	176.25
310.26	179.25
310.49	177.25
310.72	172.25
310.949	165.25
311.179	176.25
311.409	162.25
311.639	185.25
311.868	172.25
312.098	178.25
312.328	172.25
312.557	155.25
312.787	164.25
313.017	156.25
313.246	164.25
313.476	176.25
313.706	177.25
313.935	166.25
314.165	174.25
314.394	169.25
314.624	172.25
314.853	175.25
315.083	155.25
315.312	171.25
315.542	170.25
315.771	168.25
316.001	180.25
316.23	174.25
316.46	180.25
316.689	164.25
316.919	182.25
317.148	194.25
317.377	198.25
317.607	177.25
317.836	187.25
318.065	208.25
318.295	185.25
318.524	164.25
318.753	179.25
318.983	175.25
319.212	170.25
319.441	168.25
319.67	166.25
319.9	171.25
320.129	174.25
320.358	180.25
320.587	168.25
320.816	169.25
321.046	182.25
321.275	186.25
321.504	163.25
321.733	190.25
321.962	194.25
322.191	167.25
322.42	194.25
322.649	208.25
322.878	200.25
323.108	214.25
323.337	226.25
323.566	237.25
323.795	229.25
324.024	224.25
324.253	203.25
324.482	182.25
324.71	190.25
324.939	200.25
325.168	192.25
325.397	216.25
325.626	202.25
325.855	202.25
326.084	199.25
326.313	203.25
326.542	191.25
326.77	204.25
326.999	201.25
327.228	177.25
327.457	202.25
327.686	227.25
327.914	241.25
328.143	249.25
328.372	272.25
328.6	225.25
328.829	212.25
329.058	223.25
329.287	214.25
329.515	226.25
329.744	245.25
329.972	280.25
330.201	331.25
330.43	338.25
330.658	270.25
330.887	225.25
331.115	228.25
331.344	231.25
331.572	210.25
331.801	217.25
332.03	218.25
332.258	211.25
332.486	225.25
332.715	221.25
332.943	246.25
333.172	252.25
333.4	262.25
333.629	269.25
333.857	312.25
334.085	328.25
334.314	406.25
334.542	450.25
334.771	419.25
334.999	346.25
335.227	296.25
335.455	253.25
335.684	250.25
335.912	241.25
336.14	244.25
336.369	223.25
336.597	219.25
336.825	227.25
337.053	220.25
337.281	232.25
337.51	228.25
337.738	214.25
337.966	220.25
338.194	207.25
338.422	218.25
338.65	222.25
338.878	209.25
339.106	188.25
339.334	205.25
339.562	190.25
339.79	172.25
340.018	184.25
340.246	202.25
340.474	196.25
340.702	170.25
340.93	186.25
341.158	186.25
341.386	212.25
341.614	183.25
341.842	189.25
342.07	173.25
342.298	188.25
342.526	178.25
342.754	177.25
342.981	201.25
343.209	192.25
343.437	228.25
343.665	209.25
343.893	210.25
344.12	235.25
344.348	218.25
344.576	200.25
344.804	202.25
345.031	180.25
345.259	193.25
345.487	187.25
345.714	201.25
345.942	184.25
346.17	181.25
346.397	176.25
346.625	176.25
346.853	158.25
347.08	179.25
347.308	192.25
347.535	190.25
347.763	192.25
347.99	196.25
348.218	187.25
348.445	178.25
348.673	196.25
348.9	184.25
349.128	188.25
349.355	172.25
349.583	190.25
349.81	172.25
350.037	177.25
350.265	174.25
350.492	164.25
350.72	180.25
350.947	184.25
351.174	198.25
351.402	188.25
351.629	177.25
351.856	172.25
352.083	184.25
352.311	175.25
352.538	177.25
352.765	175.25
352.992	214.25
353.22	182.25
353.447	180.25
353.674	181.25
353.901	172.25
354.128	179.25
354.355	175.25
354.583	195.25
354.81	172.25
355.037	175.25
355.264	179.25
355.491	193.25
355.718	181.25
355.945	187.25
356.172	199.25
356.399	201.25
356.626	190.25
356.853	185.25
357.08	202.25
357.307	178.25
357.534	194.25
357.761	189.25
357.988	200.25
358.215	173.25
358.441	187.25
358.668	191.25
358.895	187.25
359.122	203.25
359.349	171.25
359.576	182.25
359.802	194.25
360.029	186.25
360.256	182.25
360.483	191.25
360.709	174.25
360.936	208.25
361.163	189.25
361.39	191.25
361.616	172.25
361.843	191.25
362.07	194.25
362.296	183.25
362.523	161.25
362.749	184.25
362.976	176.25
363.203	189.25
363.429	189.25
363.656	210.25
363.882	193.25
364.109	182.25
364.335	185.25
364.562	171.25
364.788	171.25
365.015	188.25
365.241	176.25
365.468	203.25
365.694	182.25
365.92	192.25
366.147	170.25
366.373	163.25
366.599	184.25
366.826	189.25
367.052	174.25
367.278	192.25
367.505	191.25
367.731	208.25
367.957	188.25
368.184	200.25
368.41	188.25
368.636	200.25
368.862	202.25
369.089	189.25
369.315	191.25
369.541	198.25
369.767	202.25
369.993	186.25
370.219	186.25
370.445	191.25
370.672	185.25
370.898	198.25
371.124	178.25
371.35	188.25
371.576	196.25
371.802	195.25
372.028	190.25
372.254	210.25
372.48	200.25
372.706	185.25
372.932	198.25
373.158	217.25
373.384	226.25
373.61	217.25
373.835	223.25
374.061	191.25
374.287	209.25
374.513	214.25
374.739	219.25
374.965	216.25
375.191	208.25
375.416	221.25
375.642	226.25
375.868	240.25
376.094	234.25
376.319	225.25
376.545	211.25
376.771	211.25
376.997	186.25
377.222	179.25
377.448	180.25
377.674	206.25
377.899	190.25
378.125	205.25
378.35	192.25
378.576	198.25
378.802	193.25
379.027	196.25
379.253	202.25
379.478	205.25
379.704	194.25
379.929	191.25
380.155	197.25
380.38	184.25
380.606	197.25
380.831	206.25
381.057	228.25
381.282	198.25
381.507	194.25
381.733	206.25
381.958	198.25
382.184	208.25
382.409	210.25
382.634	214.25
382.86	209.25
383.085	222.25
383.31	232.25
383.535	251.25
383.761	225.25
383.986	225.25
384.211	234.25
384.436	226.25
384.662	220.25
384.887	230.25
385.112	233.25
385.337	252.25
385.562	233.25
385.787	234.25
386.013	239.25
386.238	242.25
386.463	245.25
386.688	250.25
386.913	219.25
387.138	223.25
387.363	243.25
387.588	248.25
387.813	241.25
388.038	223.25
388.263	248.25
388.488	249.25
388.713	221.25
388.938	236.25
389.163	221.25
389.387	223.25
389.612	239.25
389.837	225.25
390.062	231.25
390.287	231.25
390.512	233.25
390.736	243.25
390.961	237.25
391.186	235.25
391.411	233.25
391.636	275.25
391.86	257.25
392.085	232.25
392.31	255.25
392.534	256.25
392.759	274.25
392.984	300.25
393.208	374.25
393.433	437.25
393.658	391.25
393.882	299.25
394.107	264.25
394.331	262.25
394.556	255.25
394.78	241.25
395.005	272.25
395.229	251.25
395.454	252.25
395.678	265.25
395.903	270.25
396.127	283.25
396.352	305.25
396.576	298.25
396.801	366.25
397.025	368.25
397.249	304.25
397.474	264.25
397.698	256.25
397.922	266.25
398.147	245.25
398.371	266.25
398.595	270.25
398.82	271.25
399.044	312.25
399.268	340.25
399.492	343.25
399.717	376.25
399.941	368.25
400.165	331.25
400.389	289.25
400.613	310.25
400.837	291.25
401.062	276.25
401.286	301.25
401.51	256.25
401.734	288.25
401.958	282.25
402.182	270.25
402.406	279.25
402.63	285.25
402.854	306.25
403.078	278.25
403.302	297.25
403.526	308.25
403.75	310.25
403.974	302.25
404.198	299.25
404.422	319.25
404.645	319.25
404.869	301.25
405.093	318.25
405.317	316.25
405.541	312.25
405.765	308.25
405.988	307.25
406.212	316.25
406.436	315.25
406.66	319.25
406.883	307.25
407.107	333.25
407.331	332.25
407.555	335.25
407.778	339.25
408.002	316.25
408.226	335.25
408.449	324.25
408.673	313.25
408.896	314.25
409.12	295.25
409.344	321.25
409.567	320.25
409.791	309.25
410.014	317.25
410.238	291.25
410.461	292.25
410.685	302.25
410.908	297.25
411.132	296.25
411.355	295.25
411.578	295.25
411.802	279.25
412.025	316.25
412.249	295.25
412.472	295.25
412.695	308.25
412.919	302.25
413.142	299.25
413.365	315.25
413.589	295.25
413.812	302.25
414.035	298.25
414.258	295.25
414.482	282.25
414.705	271.25
414.928	276.25
415.151	278.25
415.374	290.25
415.597	279.25
415.821	256.25
416.044	294.25
416.267	276.25
416.49	277.25
416.713	268.25
416.936	286.25
417.159	293.25
417.382	275.25
417.605	271.25
417.828	286.25
418.051	291.25
418.274	303.25
418.497	275.25
418.72	287.25
418.943	306.25
419.166	310.25
419.389	324.25
419.611	312.25
419.834	302.25
420.057	298.25
420.28	314.25
420.503	308.25
420.726	298.25
420.948	285.25
421.171	282.25
421.394	292.25
421.617	295.25
421.839	294.25
422.062	302.25
422.285	294.25
422.507	318.25
422.73	352.25
422.953	326.25
423.175	284.25
423.398	303.25
423.621	287.25
423.843	309.25
424.066	289.25
424.288	306.25
424.511	311.25
424.733	293.25
424.956	288.25
425.178	292.25
425.401	280.25
425.623	279.25
425.846	281.25
426.068	288.25
426.291	278.25
426.513	279.25
426.735	285.25
426.958	292.25
427.18	263.25
427.402	278.25
427.625	296.25
427.847	275.25
428.069	279.25
428.292	293.25
428.514	281.25
428.736	285.25
428.958	274.25
429.181	288.25
429.403	268.25
429.625	274.25
429.847	270.25
430.069	304.25
430.292	312.25
430.514	282.25
430.736	290.25
430.958	270.25
431.18	254.25
431.402	270.25
431.624	248.25
431.846	259.25
432.068	251.25
432.29	264.25
432.512	280.25
432.734	263.25
432.956	266.25
433.178	274.25
433.4	264.25
433.622	254.25
433.844	268.25
434.066	268.25
434.287	270.25
434.509	243.25
434.731	262.25
434.953	272.25
435.175	296.25
435.397	281.25
435.618	259.25
435.84	265.25
436.062	247.25
436.284	246.25
436.505	257.25
436.727	269.25
436.949	270.25
437.17	248.25
437.392	246.25
437.614	254.25
437.835	244.25
438.057	253.25
438.278	252.25
438.5	260.25
438.721	264.25
438.943	262.25
439.165	259.25
439.386	276.25
439.608	272.25
439.829	275.25
440.05	269.25
440.272	287.25
440.493	271.25
440.715	262.25
440.936	278.25
441.158	287.25
441.379	266.25
441.6	300.25
441.822	307.25
442.043	285.25
442.264	305.25
442.486	287.25
442.707	282.25
442.928	280.25
443.149	276.25
443.371	286.25
443.592	270.25
443.813	301.25
444.034	312.25
444.255	309.25
444.476	310.25
444.698	323.25
444.919	339.25
445.14	508.25
445.361	387.25
445.582	328.25
445.803	299.25
446.024	302.25
446.245	299.25
446.466	298.25
446.687	281.25
446.908	295.25
447.129	281.25
447.35	255.25
447.571	280.25
447.792	270.25
448.013	256.25
448.234	258.25
448.455	249.25
448.675	257.25
448.896	260.25
449.117	250.25
449.338	280.25
449.559	276.25
449.779	270.25
450	254.25
450.221	265.25
450.442	266.25
450.662	251.25
450.883	262.25
451.104	249.25
451.324	243.25
451.545	251.25
451.766	251.25
451.986	254.25
452.207	272.25
452.428	269.25
452.648	249.25
452.869	236.25
453.089	253.25
453.31	247.25
453.53	280.25
453.751	279.25
453.971	251.25
454.192	238.25
454.412	222.25
454.633	235.25
454.853	259.25
455.073	248.25
455.294	252.25
455.514	266.25
455.734	244.25
455.955	238.25
456.175	214.25
456.395	227.25
456.616	217.25
456.836	237.25
457.056	228.25
457.276	239.25
457.497	254.25
457.717	247.25
457.937	227.25
458.157	235.25
458.377	217.25
458.598	227.25
458.818	236.25
459.038	227.25
459.258	235.25
459.478	251.25
459.698	247.25
459.918	247.25
460.138	275.25
460.358	266.25
460.578	284.25
460.798	280.25
461.018	288.25
461.238	293.25
461.458	285.25
461.678	289.25
461.898	298.25
462.118	300.25
462.338	299.25
462.558	313.25
462.777	324.25
462.997	335.25
463.217	360.25
463.437	336.25
463.657	340.25
463.876	314.25
464.096	328.25
464.316	309.25
464.536	316.25
464.755	320.25
464.975	281.25
465.195	294.25
465.414	275.25
465.634	266.25
465.854	273.25
466.073	273.25
466.293	277.25
466.512	248.25
466.732	254.25
466.951	265.25
467.171	256.25
467.391	272.25
467.61	270.25
467.829	267.25
468.049	316.25
468.268	346.25
468.488	307.25
468.707	267.25
468.927	264.25
469.146	269.25
469.365	263.25
469.585	257.25
469.804	289.25
470.023	279.25
470.243	264.25
470.462	282.25
470.681	260.25
470.901	255.25
471.12	256.25
471.339	282.25
471.558	276.25
471.777	292.25
471.997	290.25
472.216	356.25
472.435	454.25
472.654	366.25
472.873	302.25
473.092	272.25
473.311	275.25
473.53	256.25
473.749	259.25
473.968	271.25
474.187	254.25
474.406	266.25
474.625	259.25
474.844	258.25
475.063	255.25
475.282	266.25
475.501	258.25
475.72	282.25
475.939	253.25
476.158	256.25
476.377	289.25
476.596	266.25
476.814	263.25
477.033	264.25
477.252	286.25
477.471	273.25
477.69	289.25
477.908	277.25
478.127	282.25
478.346	299.25
478.564	286.25
478.783	296.25
479.002	313.25
479.22	304.25
479.439	304.25
479.658	294.25
479.876	296.25
480.095	303.25
480.313	315.25
480.532	311.25
480.751	335.25
480.969	416.25
481.188	597.25
481.406	588.25
481.624	417.25
481.843	321.25
482.061	303.25
482.28	301.25
482.498	293.25
482.717	286.25
482.935	291.25
483.153	299.25
483.372	306.25
483.59	315.25
483.808	292.25
484.027	296.25
484.245	290.25
484.463	295.25
484.681	313.25
484.9	289.25
485.118	302.25
485.336	266.25
485.554	289.25
485.772	291.25
485.99	290.25
486.209	283.25
486.427	288.25
486.645	280.25
486.863	292.25
487.081	298.25
487.299	288.25
487.517	296.25
487.735	319.25
487.953	322.25
488.171	332.25
488.389	306.25
488.607	308.25
488.825	297.25
489.043	289.25
489.261	310.25
489.479	319.25
489.696	306.25
489.914	291.25
490.132	308.25
490.35	340.25
490.568	322.25
490.786	315.25
491.003	317.25
491.221	330.25
491.439	365.25
491.657	365.25
491.874	376.25
492.092	382.25
492.31	384.25
492.527	384.25
492.745	369.25
492.963	388.25
493.18	379.25
493.398	348.25
493.615	383.25
493.833	342.25
494.05	328.25
494.268	354.25
494.485	375.25
494.703	339.25
494.92	332.25
495.138	339.25
495.355	328.25
495.573	348.25
495.79	344.25
496.008	349.25
496.225	333.25
496.442	342.25
496.66	343.25
496.877	330.25
497.094	345.25
497.312	324.25
497.529	354.25
497.746	359.25
497.963	348.25
498.181	374.25
498.398	414.25
498.615	392.25
498.832	394.25
499.049	418.25
499.267	477.25
499.484	477.25
499.701	510.25
499.918	565.25
500.135	650.25
500.352	691.25
500.569	673.25
500.786	668.25
501.003	667.25
501.22	568.25
501.437	524.25
501.654	527.25
501.871	469.25
502.088	430.25
502.305	436.25
502.522	411.25
502.739	382.25
502.956	380.25
503.172	351.25
503.389	349.25
503.606	342.25
