Data from SampB_HRD10591_00037.txt Node
Date: Mon Jan 19 11:33:41 EST 2026
User: Yrep
Spectrometer: HR+D1059
Trigger mode: 0
Integration Time (sec): 3.443000E-1
Scans to average: 1
Electric dark correction enabled: true
Nonlinearity correction enabled: false
Boxcar width: 0
XAxis mode: Wavelengths
Number of Pixels in Spectrum: 2048
>>>>>Begin Spectral Data<<<<<
223.165	-28.25
223.4	-28.25
223.635	-28.25
223.869	-20.25
224.104	-29.25
224.338	-17.25
224.573	-22.25
224.808	-6.25
225.042	-7.25
225.277	-1.25
225.511	-10.25
225.746	14.75
225.98	6.75
226.215	13.75
226.449	24.75
226.683	24.75
226.918	32.75
227.152	24.75
227.387	29.75
227.621	50.75
227.856	57.75
228.09	37.75
228.324	54.75
228.559	64.75
228.793	56.75
229.027	65.75
229.262	80.75
229.496	69.75
229.73	81.75
229.964	76.75
230.199	85.75
230.433	74.75
230.667	83.75
230.901	85.75
231.136	86.75
231.37	81.75
231.604	92.75
231.838	91.75
232.072	86.75
232.306	105.75
232.541	94.75
232.775	82.75
233.009	91.75
233.243	99.75
233.477	89.75
233.711	98.75
233.945	79.75
234.179	87.75
234.413	100.75
234.647	90.75
234.881	88.75
235.115	86.75
235.349	89.75
235.583	106.75
235.817	88.75
236.051	89.75
236.285	101.75
236.519	99.75
236.753	81.75
236.987	92.75
237.221	90.75
237.455	102.75
237.689	108.75
237.922	98.75
238.156	100.75
238.39	94.75
238.624	98.75
238.858	111.75
239.091	104.75
239.325	98.75
239.559	97.75
239.793	111.75
240.027	107.75
240.26	93.75
240.494	93.75
240.728	85.75
240.961	98.75
241.195	89.75
241.429	110.75
241.662	100.75
241.896	94.75
242.13	113.75
242.363	80.75
242.597	82.75
242.83	107.75
243.064	92.75
243.298	98.75
243.531	83.75
243.765	88.75
243.998	96.75
244.232	95.75
244.465	100.75
244.699	94.75
244.932	109.75
245.166	103.75
245.399	104.75
245.633	104.75
245.866	116.75
246.099	111.75
246.333	101.75
246.566	111.75
246.8	97.75
247.033	100.75
247.266	95.75
247.5	95.75
247.733	116.75
247.966	110.75
248.2	98.75
248.433	90.75
248.666	109.75
248.899	112.75
249.133	104.75
249.366	114.75
249.599	108.75
249.832	99.75
250.066	120.75
250.299	109.75
250.532	126.75
250.765	117.75
250.998	104.75
251.231	111.75
251.465	119.75
251.698	108.75
251.931	98.75
252.164	125.75
252.397	114.75
252.63	118.75
252.863	122.75
253.096	115.75
253.329	128.75
253.562	114.75
253.795	120.75
254.028	108.75
254.261	109.75
254.494	130.75
254.727	136.75
254.96	134.75
255.193	115.75
255.426	126.75
255.659	128.75
255.892	146.75
256.124	140.75
256.357	139.75
256.59	129.75
256.823	132.75
257.056	120.75
257.289	113.75
257.521	144.75
257.754	116.75
257.987	113.75
258.22	124.75
258.452	124.75
258.685	122.75
258.918	123.75
259.151	110.75
259.383	128.75
259.616	124.75
259.849	140.75
260.081	132.75
260.314	130.75
260.547	129.75
260.779	129.75
261.012	130.75
261.244	113.75
261.477	125.75
261.71	112.75
261.942	134.75
262.175	124.75
262.407	126.75
262.64	122.75
262.872	128.75
263.105	125.75
263.337	146.75
263.57	130.75
263.802	119.75
264.035	120.75
264.267	125.75
264.499	126.75
264.732	123.75
264.964	129.75
265.197	116.75
265.429	129.75
265.661	118.75
265.894	130.75
266.126	124.75
266.358	122.75
266.591	129.75
266.823	125.75
267.055	111.75
267.287	122.75
267.52	121.75
267.752	127.75
267.984	124.75
268.216	128.75
268.448	132.75
268.681	153.75
268.913	124.75
269.145	133.75
269.377	131.75
269.609	120.75
269.841	128.75
270.073	131.75
270.306	130.75
270.538	126.75
270.77	108.75
271.002	131.75
271.234	138.75
271.466	140.75
271.698	136.75
271.93	136.75
272.162	144.75
272.394	136.75
272.626	132.75
272.858	127.75
273.09	129.75
273.322	139.75
273.553	136.75
273.785	161.75
274.017	149.75
274.249	153.75
274.481	129.75
274.713	166.75
274.945	171.75
275.176	150.75
275.408	166.75
275.64	149.75
275.872	142.75
276.104	162.75
276.335	169.75
276.567	140.75
276.799	150.75
277.031	162.75
277.262	156.75
277.494	156.75
277.726	158.75
277.957	164.75
278.189	155.75
278.421	145.75
278.652	151.75
278.884	143.75
279.115	160.75
279.347	150.75
279.579	177.75
279.81	165.75
280.042	179.75
280.273	192.75
280.505	177.75
280.736	172.75
280.968	170.75
281.199	164.75
281.431	162.75
281.662	142.75
281.894	165.75
282.125	141.75
282.356	164.75
282.588	173.75
282.819	165.75
283.051	160.75
283.282	146.75
283.513	147.75
283.745	175.75
283.976	159.75
284.207	165.75
284.439	157.75
284.67	174.75
284.901	161.75
285.132	141.75
285.364	173.75
285.595	169.75
285.826	163.75
286.057	156.75
286.288	157.75
286.52	158.75
286.751	165.75
286.982	161.75
287.213	149.75
287.444	178.75
287.675	177.75
287.906	166.75
288.138	161.75
288.369	165.75
288.6	158.75
288.831	159.75
289.062	164.75
289.293	170.75
289.524	156.75
289.755	146.75
289.986	156.75
290.217	167.75
290.448	154.75
290.679	161.75
290.91	168.75
291.141	164.75
291.371	162.75
291.602	158.75
291.833	158.75
292.064	159.75
292.295	154.75
292.526	162.75
292.757	161.75
292.987	156.75
293.218	144.75
293.449	156.75
293.68	172.75
293.91	160.75
294.141	160.75
294.372	166.75
294.603	172.75
294.833	171.75
295.064	171.75
295.295	164.75
295.525	149.75
295.756	161.75
295.987	165.75
296.217	161.75
296.448	161.75
296.679	150.75
296.909	172.75
297.14	183.75
297.37	175.75
297.601	169.75
297.831	166.75
298.062	171.75
298.292	166.75
298.523	190.75
298.753	178.75
298.984	187.75
299.214	172.75
299.445	175.75
299.675	162.75
299.905	166.75
300.136	173.75
300.366	176.75
300.597	178.75
300.827	174.75
301.057	174.75
301.288	167.75
301.518	181.75
301.748	194.75
301.979	229.75
302.209	182.75
302.439	173.75
302.669	174.75
302.9	180.75
303.13	179.75
303.36	193.75
303.59	175.75
303.82	177.75
304.051	176.75
304.281	185.75
304.511	184.75
304.741	176.75
304.971	163.75
305.201	172.75
305.431	178.75
305.661	191.75
305.891	173.75
306.121	179.75
306.352	177.75
306.582	180.75
306.812	175.75
307.042	187.75
307.272	192.75
307.502	186.75
307.731	195.75
307.961	184.75
308.191	179.75
308.421	190.75
308.651	184.75
308.881	186.75
309.111	186.75
309.341	179.75
309.571	176.75
309.8	170.75
310.03	179.75
310.26	182.75
310.49	178.75
310.72	181.75
310.949	177.75
311.179	196.75
311.409	190.75
311.639	176.75
311.868	192.75
312.098	192.75
312.328	187.75
312.557	196.75
312.787	171.75
313.017	174.75
313.246	201.75
313.476	198.75
313.706	197.75
313.935	193.75
314.165	197.75
314.394	201.75
314.624	196.75
314.853	177.75
315.083	185.75
315.312	183.75
315.542	186.75
315.771	190.75
316.001	191.75
316.23	188.75
316.46	182.75
316.689	185.75
316.919	192.75
317.148	202.75
317.377	177.75
317.607	186.75
317.836	181.75
318.065	192.75
318.295	193.75
318.524	184.75
318.753	194.75
318.983	188.75
319.212	190.75
319.441	206.75
319.67	194.75
319.9	196.75
320.129	192.75
320.358	182.75
320.587	188.75
320.816	192.75
321.046	206.75
321.275	192.75
321.504	200.75
321.733	221.75
321.962	209.75
322.191	199.75
322.42	193.75
322.649	210.75
322.878	197.75
323.108	208.75
323.337	204.75
323.566	221.75
323.795	236.75
324.024	208.75
324.253	202.75
324.482	204.75
324.71	217.75
324.939	211.75
325.168	202.75
325.397	206.75
325.626	205.75
325.855	209.75
326.084	203.75
326.313	196.75
326.542	208.75
326.77	202.75
326.999	212.75
327.228	212.75
327.457	222.75
327.686	234.75
327.914	235.75
328.143	259.75
328.372	261.75
328.6	244.75
328.829	227.75
329.058	217.75
329.287	219.75
329.515	236.75
329.744	245.75
329.972	285.75
330.201	318.75
330.43	313.75
330.658	272.75
330.887	238.75
331.115	226.75
331.344	222.75
331.572	229.75
331.801	241.75
332.03	222.75
332.258	233.75
332.486	237.75
332.715	255.75
332.943	260.75
333.172	271.75
333.4	287.75
333.629	292.75
333.857	289.75
334.085	336.75
334.314	375.75
334.542	410.75
334.771	376.75
334.999	318.75
335.227	281.75
335.455	267.75
335.684	278.75
335.912	256.75
336.14	253.75
336.369	229.75
336.597	246.75
336.825	246.75
337.053	219.75
337.281	248.75
337.51	244.75
337.738	244.75
337.966	248.75
338.194	234.75
338.422	231.75
338.65	220.75
338.878	220.75
339.106	236.75
339.334	228.75
339.562	222.75
339.79	212.75
340.018	206.75
340.246	202.75
340.474	213.75
340.702	200.75
340.93	213.75
341.158	206.75
341.386	218.75
341.614	204.75
341.842	209.75
342.07	210.75
342.298	209.75
342.526	210.75
342.754	208.75
342.981	214.75
343.209	226.75
343.437	248.75
343.665	214.75
343.893	225.75
344.12	238.75
344.348	226.75
344.576	232.75
344.804	232.75
345.031	209.75
345.259	212.75
345.487	222.75
345.714	224.75
345.942	214.75
346.17	208.75
346.397	214.75
346.625	220.75
346.853	203.75
347.08	207.75
347.308	198.75
347.535	208.75
347.763	221.75
347.99	212.75
348.218	211.75
348.445	197.75
348.673	205.75
348.9	188.75
349.128	204.75
349.355	218.75
349.583	202.75
349.81	213.75
350.037	203.75
350.265	208.75
350.492	212.75
350.72	211.75
350.947	200.75
351.174	210.75
351.402	209.75
351.629	207.75
351.856	201.75
352.083	182.75
352.311	194.75
352.538	186.75
352.765	194.75
352.992	210.75
353.22	218.75
353.447	212.75
353.674	223.75
353.901	204.75
354.128	217.75
354.355	215.75
354.583	193.75
354.81	193.75
355.037	201.75
355.264	204.75
355.491	209.75
355.718	202.75
355.945	207.75
356.172	217.75
356.399	207.75
356.626	208.75
356.853	203.75
357.08	194.75
357.307	210.75
357.534	205.75
357.761	211.75
357.988	223.75
358.215	224.75
358.441	210.75
358.668	210.75
358.895	218.75
359.122	200.75
359.349	186.75
359.576	215.75
359.802	200.75
360.029	204.75
360.256	206.75
360.483	208.75
360.709	208.75
360.936	211.75
361.163	207.75
361.39	191.75
361.616	204.75
361.843	200.75
362.07	214.75
362.296	210.75
362.523	207.75
362.749	199.75
362.976	200.75
363.203	202.75
363.429	187.75
363.656	203.75
363.882	203.75
364.109	191.75
364.335	216.75
364.562	216.75
364.788	199.75
365.015	214.75
365.241	212.75
365.468	224.75
365.694	211.75
365.92	213.75
366.147	184.75
366.373	207.75
366.599	207.75
366.826	192.75
367.052	204.75
367.278	211.75
367.505	207.75
367.731	230.75
367.957	202.75
368.184	201.75
368.41	222.75
368.636	215.75
368.862	207.75
369.089	221.75
369.315	217.75
369.541	218.75
369.767	211.75
369.993	213.75
370.219	208.75
370.445	207.75
370.672	211.75
370.898	209.75
371.124	222.75
371.35	229.75
371.576	217.75
371.802	221.75
372.028	224.75
372.254	217.75
372.48	234.75
372.706	226.75
372.932	228.75
373.158	233.75
373.384	232.75
373.61	240.75
373.835	240.75
374.061	219.75
374.287	231.75
374.513	226.75
374.739	235.75
374.965	250.75
375.191	232.75
375.416	246.75
375.642	242.75
375.868	244.75
376.094	249.75
376.319	227.75
376.545	215.75
376.771	217.75
376.997	222.75
377.222	226.75
377.448	216.75
377.674	218.75
377.899	218.75
378.125	193.75
378.35	221.75
378.576	217.75
378.802	226.75
379.027	228.75
379.253	231.75
379.478	220.75
379.704	216.75
379.929	221.75
380.155	232.75
380.38	220.75
380.606	218.75
380.831	232.75
381.057	233.75
381.282	227.75
381.507	224.75
381.733	234.75
381.958	231.75
382.184	249.75
382.409	224.75
382.634	242.75
382.86	243.75
383.085	260.75
383.31	252.75
383.535	252.75
383.761	245.75
383.986	259.75
384.211	267.75
384.436	256.75
384.662	253.75
384.887	268.75
385.112	261.75
385.337	273.75
385.562	268.75
385.787	251.75
386.013	256.75
386.238	266.75
386.463	270.75
386.688	264.75
386.913	256.75
387.138	264.75
387.363	254.75
387.588	278.75
387.813	261.75
388.038	276.75
388.263	266.75
388.488	269.75
388.713	269.75
388.938	259.75
389.163	249.75
389.387	247.75
389.612	238.75
389.837	257.75
390.062	251.75
390.287	269.75
390.512	253.75
390.736	259.75
390.961	270.75
391.186	290.75
391.411	267.75
391.636	287.75
391.86	281.75
392.085	280.75
392.31	289.75
392.534	291.75
392.759	297.75
392.984	309.75
393.208	353.75
393.433	407.75
393.658	362.75
393.882	305.75
394.107	291.75
394.331	280.75
394.556	292.75
394.78	301.75
395.005	292.75
395.229	287.75
395.454	302.75
395.678	294.75
395.903	301.75
396.127	312.75
396.352	312.75
396.576	315.75
396.801	349.75
397.025	363.75
397.249	314.75
397.474	288.75
397.698	297.75
397.922	282.75
398.147	307.75
398.371	309.75
398.595	317.75
398.82	322.75
399.044	355.75
399.268	370.75
399.492	425.75
399.717	434.75
399.941	421.75
400.165	382.75
400.389	350.75
400.613	356.75
400.837	333.75
401.062	316.75
401.286	330.75
401.51	314.75
401.734	318.75
401.958	330.75
402.182	352.75
402.406	333.75
402.63	324.75
402.854	336.75
403.078	344.75
403.302	356.75
403.526	353.75
403.75	343.75
403.974	371.75
404.198	346.75
404.422	367.75
404.645	370.75
404.869	353.75
405.093	352.75
405.317	353.75
405.541	362.75
405.765	354.75
405.988	370.75
406.212	360.75
406.436	350.75
406.66	367.75
406.883	367.75
407.107	368.75
407.331	383.75
407.555	368.75
407.778	371.75
408.002	373.75
408.226	343.75
408.449	340.75
408.673	354.75
408.896	350.75
409.12	353.75
409.344	368.75
409.567	350.75
409.791	355.75
410.014	345.75
410.238	346.75
410.461	341.75
410.685	340.75
410.908	340.75
411.132	331.75
411.355	326.75
411.578	333.75
411.802	331.75
412.025	335.75
412.249	334.75
412.472	326.75
412.695	338.75
412.919	329.75
413.142	345.75
413.365	347.75
413.589	334.75
413.812	328.75
414.035	317.75
414.258	330.75
414.482	316.75
414.705	321.75
414.928	356.75
415.151	334.75
415.374	325.75
415.597	328.75
415.821	315.75
416.044	331.75
416.267	326.75
416.49	307.75
416.713	309.75
416.936	337.75
417.159	322.75
417.382	321.75
417.605	309.75
417.828	329.75
418.051	327.75
418.274	317.75
418.497	332.75
418.72	330.75
418.943	348.75
419.166	357.75
419.389	363.75
419.611	352.75
419.834	348.75
420.057	359.75
420.28	334.75
420.503	351.75
420.726	314.75
420.948	321.75
421.171	339.75
421.394	345.75
421.617	324.75
421.839	333.75
422.062	354.75
422.285	332.75
422.507	360.75
422.73	357.75
422.953	358.75
423.175	350.75
423.398	342.75
423.621	337.75
423.843	330.75
424.066	347.75
424.288	364.75
424.511	337.75
424.733	354.75
424.956	333.75
425.178	331.75
425.401	320.75
425.623	317.75
425.846	304.75
426.068	326.75
426.291	317.75
426.513	324.75
426.735	312.75
426.958	309.75
427.18	325.75
427.402	324.75
427.625	312.75
427.847	296.75
428.069	298.75
428.292	324.75
428.514	309.75
428.736	299.75
428.958	319.75
429.181	313.75
429.403	301.75
429.625	296.75
429.847	298.75
430.069	301.75
430.292	318.75
430.514	300.75
430.736	310.75
430.958	299.75
431.18	294.75
431.402	299.75
431.624	322.75
431.846	291.75
432.068	290.75
432.29	308.75
432.512	292.75
432.734	292.75
432.956	306.75
433.178	312.75
433.4	279.75
433.622	308.75
433.844	311.75
434.066	309.75
434.287	290.75
434.509	288.75
434.731	305.75
434.953	302.75
435.175	328.75
435.397	331.75
435.618	284.75
435.84	292.75
436.062	300.75
436.284	293.75
436.505	298.75
436.727	300.75
436.949	301.75
437.17	305.75
437.392	299.75
437.614	290.75
437.835	280.75
438.057	292.75
438.278	284.75
438.5	279.75
438.721	301.75
438.943	277.75
439.165	299.75
439.386	279.75
439.608	311.75
439.829	329.75
440.05	292.75
440.272	316.75
440.493	309.75
440.715	304.75
440.936	310.75
441.158	339.75
441.379	313.75
441.6	334.75
441.822	338.75
442.043	325.75
442.264	303.75
442.486	306.75
442.707	314.75
442.928	306.75
443.149	320.75
443.371	339.75
443.592	315.75
443.813	321.75
444.034	317.75
444.255	372.75
444.476	351.75
444.698	376.75
444.919	378.75
445.14	522.75
445.361	434.75
445.582	354.75
445.803	341.75
446.024	324.75
446.245	324.75
446.466	322.75
446.687	306.75
446.908	298.75
447.129	318.75
447.35	320.75
447.571	315.75
447.792	295.75
448.013	289.75
448.234	290.75
448.455	301.75
448.675	274.75
448.896	279.75
449.117	302.75
449.338	310.75
449.559	311.75
449.779	280.75
450	275.75
450.221	272.75
450.442	273.75
450.662	273.75
450.883	275.75
451.104	302.75
451.324	288.75
451.545	288.75
451.766	278.75
451.986	276.75
452.207	284.75
452.428	280.75
452.648	283.75
452.869	271.75
453.089	283.75
453.31	284.75
453.53	302.75
453.751	287.75
453.971	300.75
454.192	273.75
454.412	264.75
454.633	271.75
454.853	277.75
455.073	274.75
455.294	279.75
455.514	288.75
455.734	271.75
455.955	260.75
456.175	260.75
456.395	233.75
456.616	266.75
456.836	270.75
457.056	254.75
457.276	259.75
457.497	259.75
457.717	253.75
457.937	266.75
458.157	237.75
458.377	268.75
458.598	278.75
458.818	266.75
459.038	277.75
459.258	265.75
459.478	274.75
459.698	287.75
459.918	302.75
460.138	316.75
460.358	292.75
460.578	321.75
460.798	336.75
461.018	340.75
461.238	329.75
461.458	354.75
461.678	339.75
461.898	325.75
462.118	329.75
462.338	357.75
462.558	355.75
462.777	368.75
462.997	372.75
463.217	402.75
463.437	392.75
463.657	368.75
463.876	366.75
464.096	346.75
464.316	368.75
464.536	356.75
464.755	365.75
464.975	340.75
465.195	325.75
465.414	318.75
465.634	308.75
465.854	308.75
466.073	312.75
466.293	276.75
466.512	291.75
466.732	276.75
466.951	308.75
467.171	291.75
467.391	308.75
467.61	290.75
467.829	318.75
468.049	346.75
468.268	362.75
468.488	326.75
468.707	308.75
468.927	305.75
469.146	301.75
469.365	294.75
469.585	304.75
469.804	320.75
470.023	303.75
470.243	307.75
470.462	308.75
470.681	306.75
470.901	296.75
471.12	307.75
471.339	306.75
471.558	300.75
471.777	316.75
471.997	325.75
472.216	379.75
472.435	440.75
472.654	385.75
472.873	320.75
473.092	308.75
473.311	300.75
473.53	267.75
473.749	294.75
473.968	295.75
474.187	287.75
474.406	263.75
474.625	277.75
474.844	297.75
475.063	284.75
475.282	287.75
475.501	275.75
475.72	297.75
475.939	294.75
476.158	292.75
476.377	289.75
476.596	293.75
476.814	284.75
477.033	289.75
477.252	297.75
477.471	304.75
477.69	304.75
477.908	317.75
478.127	315.75
478.346	320.75
478.564	342.75
478.783	317.75
479.002	332.75
479.22	316.75
479.439	339.75
479.658	337.75
479.876	341.75
480.095	328.75
480.313	356.75
480.532	395.75
480.751	384.75
480.969	420.75
481.188	558.75
481.406	552.75
481.624	398.75
481.843	348.75
482.061	342.75
482.28	318.75
482.498	317.75
482.717	321.75
482.935	333.75
483.153	328.75
483.372	341.75
483.59	322.75
483.808	310.75
484.027	322.75
484.245	322.75
484.463	323.75
484.681	339.75
484.9	323.75
485.118	337.75
485.336	340.75
485.554	317.75
485.772	319.75
485.99	316.75
486.209	319.75
486.427	308.75
486.645	330.75
486.863	335.75
487.081	346.75
487.299	328.75
487.517	324.75
487.735	358.75
487.953	347.75
488.171	358.75
488.389	336.75
488.607	346.75
488.825	325.75
489.043	324.75
489.261	315.75
489.479	323.75
489.696	340.75
489.914	332.75
490.132	336.75
490.35	329.75
490.568	348.75
490.786	357.75
491.003	349.75
491.221	362.75
491.439	378.75
491.657	373.75
491.874	408.75
492.092	401.75
492.31	427.75
492.527	399.75
492.745	387.75
492.963	400.75
493.18	408.75
493.398	365.75
493.615	398.75
493.833	383.75
494.05	345.75
494.268	368.75
494.485	377.75
494.703	367.75
494.92	342.75
495.138	362.75
495.355	357.75
495.573	355.75
495.79	370.75
496.008	385.75
496.225	371.75
496.442	351.75
496.66	386.75
496.877	383.75
497.094	373.75
497.312	373.75
497.529	383.75
497.746	382.75
497.963	393.75
498.181	439.75
498.398	436.75
498.615	423.75
498.832	442.75
499.049	483.75
499.267	534.75
499.484	573.75
499.701	613.75
499.918	659.75
500.135	744.75
500.352	802.75
500.569	812.75
500.786	818.75
501.003	727.75
501.22	687.75
501.437	613.75
501.654	549.75
501.871	521.75
502.088	494.75
502.305	469.75
502.522	463.75
502.739	442.75
502.956	398.75
503.172	385.75
503.389	380.75
503.606	375.75
