Data from SampB_HRD10591_00095.txt Node
Date: Mon Jan 19 11:34:01 EST 2026
User: Yrep
Spectrometer: HR+D1059
Trigger mode: 0
Integration Time (sec): 3.443000E-1
Scans to average: 1
Electric dark correction enabled: true
Nonlinearity correction enabled: false
Boxcar width: 0
XAxis mode: Wavelengths
Number of Pixels in Spectrum: 2048
>>>>>Begin Spectral Data<<<<<
223.165	-22
223.4	-22
223.635	-22
223.869	-29
224.104	-23
224.338	-19
224.573	-16
224.808	-14
225.042	-8
225.277	-1
225.511	-2
225.746	15
225.98	2
226.215	11
226.449	6
226.683	32
226.918	24
227.152	44
227.387	29
227.621	36
227.856	55
228.09	39
228.324	45
228.559	63
228.793	73
229.027	66
229.262	50
229.496	61
229.73	74
229.964	73
230.199	64
230.433	64
230.667	74
230.901	81
231.136	77
231.37	96
231.604	83
231.838	94
232.072	73
232.306	71
232.541	82
232.775	81
233.009	82
233.243	71
233.477	63
233.711	83
233.945	77
234.179	78
234.413	77
234.647	91
234.881	86
235.115	65
235.349	82
235.583	93
235.817	80
236.051	78
236.285	82
236.519	77
236.753	82
236.987	76
237.221	89
237.455	70
237.689	77
237.922	72
238.156	86
238.39	80
238.624	62
238.858	73
239.091	73
239.325	78
239.559	65
239.793	66
240.027	75
240.26	81
240.494	74
240.728	64
240.961	72
241.195	84
241.429	79
241.662	70
241.896	81
242.13	81
242.363	72
242.597	74
242.83	66
243.064	78
243.298	79
243.531	91
243.765	75
243.998	80
244.232	90
244.465	86
244.699	78
244.932	81
245.166	73
245.399	73
245.633	78
245.866	67
246.099	68
246.333	73
246.566	77
246.8	71
247.033	77
247.266	73
247.5	71
247.733	75
247.966	70
248.2	62
248.433	73
248.666	66
248.899	84
249.133	92
249.366	83
249.599	80
249.832	75
250.066	80
250.299	78
250.532	91
250.765	85
250.998	77
251.231	92
251.465	77
251.698	78
251.931	74
252.164	64
252.397	72
252.63	65
252.863	62
253.096	81
253.329	94
253.562	73
253.795	94
254.028	77
254.261	71
254.494	82
254.727	84
254.96	75
255.193	72
255.426	80
255.659	75
255.892	96
256.124	80
256.357	65
256.59	93
256.823	75
257.056	76
257.289	77
257.521	76
257.754	80
257.987	85
258.22	87
258.452	83
258.685	83
258.918	86
259.151	86
259.383	85
259.616	69
259.849	77
260.081	107
260.314	98
260.547	73
260.779	87
261.012	80
261.244	75
261.477	89
261.71	67
261.942	71
262.175	72
262.407	81
262.64	78
262.872	75
263.105	77
263.337	85
263.57	83
263.802	100
264.035	66
264.267	85
264.499	77
264.732	75
264.964	88
265.197	82
265.429	76
265.661	87
265.894	82
266.126	93
266.358	71
266.591	87
266.823	76
267.055	90
267.287	90
267.52	64
267.752	76
267.984	71
268.216	77
268.448	90
268.681	90
268.913	92
269.145	79
269.377	93
269.609	88
269.841	86
270.073	79
270.306	86
270.538	74
270.77	78
271.002	86
271.234	76
271.466	92
271.698	84
271.93	73
272.162	93
272.394	88
272.626	69
272.858	76
273.09	79
273.322	83
273.553	84
273.785	87
274.017	83
274.249	93
274.481	89
274.713	66
274.945	82
275.176	75
275.408	87
275.64	90
275.872	80
276.104	88
276.335	78
276.567	85
276.799	79
277.031	74
277.262	81
277.494	85
277.726	85
277.957	82
278.189	85
278.421	74
278.652	89
278.884	72
279.115	86
279.347	86
279.579	89
279.81	87
280.042	82
280.273	88
280.505	82
280.736	79
280.968	94
281.199	88
281.431	89
281.662	76
281.894	101
282.125	87
282.356	84
282.588	88
282.819	90
283.051	79
283.282	81
283.513	83
283.745	77
283.976	85
284.207	91
284.439	91
284.67	89
284.901	88
285.132	80
285.364	74
285.595	70
285.826	83
286.057	104
286.288	76
286.52	86
286.751	93
286.982	95
287.213	72
287.444	82
287.675	95
287.906	91
288.138	82
288.369	86
288.6	75
288.831	80
289.062	82
289.293	80
289.524	85
289.755	79
289.986	78
290.217	71
290.448	83
290.679	77
290.91	86
291.141	73
291.371	93
291.602	82
291.833	87
292.064	88
292.295	91
292.526	72
292.757	94
292.987	90
293.218	79
293.449	77
293.68	71
293.91	78
294.141	81
294.372	79
294.603	86
294.833	86
295.064	80
295.295	79
295.525	76
295.756	88
295.987	88
296.217	85
296.448	89
296.679	83
296.909	74
297.14	71
297.37	87
297.601	87
297.831	79
298.062	75
298.292	78
298.523	89
298.753	75
298.984	94
299.214	95
299.445	78
299.675	82
299.905	81
300.136	74
300.366	73
300.597	86
300.827	87
301.057	72
301.288	83
301.518	71
301.748	71
301.979	124
302.209	88
302.439	85
302.669	78
302.9	69
303.13	91
303.36	85
303.59	82
303.82	89
304.051	77
304.281	96
304.511	100
304.741	102
304.971	75
305.201	77
305.431	91
305.661	76
305.891	76
306.121	80
306.352	93
306.582	94
306.812	85
307.042	87
307.272	92
307.502	71
307.731	86
307.961	74
308.191	77
308.421	82
308.651	81
308.881	75
309.111	70
309.341	90
309.571	70
309.8	85
310.03	99
310.26	89
310.49	92
310.72	85
310.949	79
311.179	74
311.409	67
311.639	87
311.868	88
312.098	96
312.328	78
312.557	79
312.787	89
313.017	89
313.246	86
313.476	86
313.706	84
313.935	85
314.165	88
314.394	80
314.624	70
314.853	73
315.083	80
315.312	72
315.542	79
315.771	79
316.001	77
316.23	90
316.46	82
316.689	58
316.919	90
317.148	79
317.377	82
317.607	98
317.836	79
318.065	83
318.295	75
318.524	81
318.753	81
318.983	88
319.212	95
319.441	83
319.67	80
319.9	89
320.129	77
320.358	92
320.587	79
320.816	85
321.046	80
321.275	69
321.504	91
321.733	77
321.962	83
322.191	78
322.42	77
322.649	83
322.878	83
323.108	66
323.337	70
323.566	86
323.795	82
324.024	86
324.253	71
324.482	74
324.71	77
324.939	78
325.168	84
325.397	79
325.626	78
325.855	78
326.084	72
326.313	78
326.542	71
326.77	80
326.999	71
327.228	82
327.457	82
327.686	81
327.914	77
328.143	98
328.372	90
328.6	83
328.829	89
329.058	73
329.287	75
329.515	86
329.744	74
329.972	86
330.201	71
330.43	79
330.658	75
330.887	82
331.115	75
331.344	84
331.572	87
331.801	69
332.03	81
332.258	73
332.486	77
332.715	73
332.943	74
333.172	75
333.4	52
333.629	79
333.857	74
334.085	83
334.314	84
334.542	75
334.771	72
334.999	91
335.227	85
335.455	83
335.684	107
335.912	83
336.14	82
336.369	82
336.597	101
336.825	81
337.053	89
337.281	92
337.51	67
337.738	97
337.966	89
338.194	70
338.422	87
338.65	89
338.878	89
339.106	88
339.334	101
339.562	88
339.79	86
340.018	84
340.246	74
340.474	79
340.702	85
340.93	90
341.158	85
341.386	82
341.614	79
341.842	75
342.07	88
342.298	75
342.526	85
342.754	81
342.981	74
343.209	91
343.437	106
343.665	74
343.893	66
344.12	82
344.348	89
344.576	80
344.804	84
345.031	79
345.259	82
345.487	73
345.714	65
345.942	76
346.17	77
346.397	82
346.625	72
346.853	81
347.08	80
347.308	84
347.535	64
347.763	87
347.99	83
348.218	80
348.445	82
348.673	80
348.9	87
349.128	85
349.355	88
349.583	94
349.81	86
350.037	62
350.265	90
350.492	74
350.72	80
350.947	63
351.174	75
351.402	61
351.629	66
351.856	81
352.083	83
352.311	91
352.538	72
352.765	90
352.992	93
353.22	82
353.447	89
353.674	77
353.901	93
354.128	82
354.355	100
354.583	74
354.81	79
355.037	85
355.264	86
355.491	82
355.718	86
355.945	83
356.172	82
356.399	87
356.626	77
356.853	74
357.08	81
357.307	85
357.534	77
357.761	78
357.988	95
358.215	89
358.441	83
358.668	83
358.895	86
359.122	85
359.349	76
359.576	77
359.802	89
360.029	82
360.256	79
360.483	82
360.709	99
360.936	80
361.163	80
361.39	85
361.616	82
361.843	92
362.07	93
362.296	88
362.523	77
362.749	77
362.976	87
363.203	92
363.429	76
363.656	88
363.882	76
364.109	95
364.335	87
364.562	86
364.788	83
365.015	79
365.241	85
365.468	78
365.694	90
365.92	74
366.147	74
366.373	70
366.599	76
366.826	77
367.052	85
367.278	81
367.505	87
367.731	95
367.957	75
368.184	86
368.41	79
368.636	85
368.862	95
369.089	69
369.315	89
369.541	78
369.767	95
369.993	93
370.219	67
370.445	96
370.672	89
370.898	90
371.124	93
371.35	81
371.576	102
371.802	79
372.028	83
372.254	79
372.48	86
372.706	80
372.932	81
373.158	90
373.384	84
373.61	90
373.835	88
374.061	79
374.287	73
374.513	85
374.739	74
374.965	73
375.191	80
375.416	71
375.642	83
375.868	88
376.094	90
376.319	63
376.545	76
376.771	85
376.997	90
377.222	91
377.448	90
377.674	73
377.899	90
378.125	91
378.35	108
378.576	80
378.802	73
379.027	82
379.253	79
379.478	77
379.704	59
379.929	77
380.155	80
380.38	80
380.606	94
380.831	86
381.057	85
381.282	86
381.507	76
381.733	89
381.958	79
382.184	72
382.409	88
382.634	89
382.86	73
383.085	75
383.31	81
383.535	84
383.761	70
383.986	79
384.211	83
384.436	68
384.662	85
384.887	80
385.112	74
385.337	86
385.562	74
385.787	78
386.013	90
386.238	95
386.463	94
386.688	109
386.913	91
387.138	80
387.363	83
387.588	97
387.813	85
388.038	92
388.263	81
388.488	91
388.713	82
388.938	85
389.163	90
389.387	85
389.612	84
389.837	88
390.062	90
390.287	94
390.512	82
390.736	94
390.961	90
391.186	84
391.411	83
391.636	79
391.86	89
392.085	77
392.31	87
392.534	91
392.759	98
392.984	91
393.208	89
393.433	79
393.658	84
393.882	88
394.107	86
394.331	99
394.556	74
394.78	98
395.005	93
395.229	87
395.454	74
395.678	86
395.903	74
396.127	95
396.352	104
396.576	92
396.801	82
397.025	77
397.249	81
397.474	94
397.698	97
397.922	92
398.147	90
398.371	78
398.595	91
398.82	92
399.044	100
399.268	82
399.492	70
399.717	90
399.941	98
400.165	108
400.389	90
400.613	95
400.837	94
401.062	83
401.286	82
401.51	87
401.734	98
401.958	80
402.182	77
402.406	88
402.63	80
402.854	94
403.078	87
403.302	98
403.526	105
403.75	91
403.974	85
404.198	98
404.422	98
404.645	87
404.869	87
405.093	67
405.317	100
405.541	94
405.765	89
405.988	107
406.212	79
406.436	92
406.66	107
406.883	101
407.107	101
407.331	99
407.555	100
407.778	91
408.002	100
408.226	99
408.449	79
408.673	82
408.896	80
409.12	86
409.344	107
409.567	97
409.791	105
410.014	99
410.238	88
410.461	106
410.685	107
410.908	94
411.132	94
411.355	98
411.578	90
411.802	85
412.025	92
412.249	103
412.472	94
412.695	97
412.919	84
413.142	102
413.365	101
413.589	97
413.812	93
414.035	115
414.258	89
414.482	92
414.705	106
414.928	109
415.151	96
415.374	97
415.597	110
415.821	95
416.044	99
416.267	99
416.49	98
416.713	84
416.936	93
417.159	98
417.382	97
417.605	99
417.828	115
418.051	105
418.274	95
418.497	98
418.72	96
418.943	83
419.166	94
419.389	104
419.611	89
419.834	96
420.057	122
420.28	115
420.503	97
420.726	95
420.948	101
421.171	82
421.394	80
421.617	91
421.839	105
422.062	96
422.285	85
422.507	97
422.73	81
422.953	97
423.175	105
423.398	98
423.621	94
423.843	109
424.066	107
424.288	120
424.511	93
424.733	110
424.956	111
425.178	107
425.401	110
425.623	106
425.846	96
426.068	97
426.291	100
426.513	94
426.735	93
426.958	97
427.18	108
427.402	112
427.625	94
427.847	100
428.069	95
428.292	83
428.514	95
428.736	109
428.958	86
429.181	101
429.403	97
429.625	89
429.847	99
430.069	104
430.292	104
430.514	85
430.736	107
430.958	101
431.18	94
431.402	91
431.624	98
431.846	87
432.068	78
432.29	93
432.512	86
432.734	91
432.956	109
433.178	115
433.4	105
433.622	103
433.844	101
434.066	86
434.287	95
434.509	89
434.731	78
434.953	96
435.175	89
435.397	102
435.618	90
435.84	92
436.062	75
436.284	89
436.505	92
436.727	98
436.949	97
437.17	95
437.392	86
437.614	93
437.835	95
438.057	84
438.278	86
438.5	96
438.721	111
438.943	110
439.165	99
439.386	115
439.608	104
439.829	106
440.05	110
440.272	111
440.493	91
440.715	111
440.936	105
441.158	109
441.379	103
441.6	117
441.822	105
442.043	95
442.264	106
442.486	102
442.707	98
442.928	110
443.149	94
443.371	111
443.592	109
443.813	93
444.034	84
444.255	111
444.476	105
444.698	105
444.919	98
445.14	299
445.361	205
445.582	101
445.803	97
446.024	98
446.245	102
446.466	113
446.687	100
446.908	103
447.129	115
447.35	107
447.571	94
447.792	91
448.013	108
448.234	110
448.455	97
448.675	109
448.896	90
449.117	106
449.338	117
449.559	120
449.779	113
450	106
450.221	90
450.442	97
450.662	101
450.883	97
451.104	110
451.324	109
451.545	107
451.766	104
451.986	102
452.207	108
452.428	86
452.648	96
452.869	93
453.089	89
453.31	74
453.53	97
453.751	87
453.971	89
454.192	94
454.412	93
454.633	98
454.853	88
455.073	102
455.294	81
455.514	109
455.734	92
455.955	103
456.175	89
456.395	82
456.616	89
456.836	88
457.056	105
457.276	59
457.497	79
457.717	103
457.937	87
458.157	82
458.377	79
458.598	82
458.818	74
459.038	73
459.258	82
459.478	82
459.698	82
459.918	78
460.138	79
460.358	87
460.578	96
460.798	92
461.018	98
461.238	94
461.458	84
461.678	82
461.898	81
462.118	96
462.338	87
462.558	87
462.777	106
462.997	101
463.217	80
463.437	89
463.657	81
463.876	89
464.096	65
464.316	91
464.536	86
464.755	88
464.975	104
465.195	85
465.414	108
465.634	106
465.854	93
466.073	85
466.293	96
466.512	86
466.732	95
466.951	86
467.171	97
467.391	96
467.61	108
467.829	112
468.049	103
468.268	89
468.488	103
468.707	82
468.927	106
469.146	83
469.365	93
469.585	96
469.804	105
470.023	107
470.243	112
470.462	95
470.681	95
470.901	97
471.12	94
471.339	111
471.558	110
471.777	111
471.997	94
472.216	99
472.435	86
472.654	90
472.873	94
473.092	83
473.311	92
473.53	96
473.749	99
473.968	80
474.187	105
474.406	97
474.625	93
474.844	101
475.063	95
475.282	82
475.501	90
475.72	125
475.939	98
476.158	92
476.377	93
476.596	95
476.814	93
477.033	85
477.252	81
477.471	84
477.69	88
477.908	98
478.127	97
478.346	93
478.564	89
478.783	98
479.002	102
479.22	86
479.439	99
479.658	106
479.876	94
480.095	87
480.313	98
480.532	93
480.751	80
480.969	71
481.188	74
481.406	85
481.624	85
481.843	88
482.061	63
482.28	91
482.498	91
482.717	101
482.935	97
483.153	97
483.372	95
483.59	93
483.808	107
484.027	95
484.245	89
484.463	91
484.681	90
484.9	80
485.118	105
485.336	97
485.554	104
485.772	85
485.99	87
486.209	83
486.427	94
486.645	82
486.863	99
487.081	81
487.299	101
487.517	114
487.735	94
487.953	109
488.171	126
488.389	105
488.607	98
488.825	90
489.043	105
489.261	88
489.479	97
489.696	106
489.914	99
490.132	97
490.35	114
490.568	107
490.786	120
491.003	126
491.221	106
491.439	115
491.657	114
491.874	121
492.092	135
492.31	155
492.527	138
492.745	140
492.963	140
493.18	114
493.398	128
493.615	123
493.833	106
494.05	121
494.268	119
494.485	114
494.703	108
494.92	127
495.138	108
495.355	115
495.573	117
495.79	122
496.008	110
496.225	101
496.442	108
496.66	118
496.877	120
497.094	129
497.312	111
497.529	111
497.746	99
497.963	102
498.181	99
498.398	96
498.615	92
498.832	99
499.049	86
499.267	105
499.484	78
499.701	98
499.918	95
500.135	91
500.352	105
500.569	99
500.786	112
501.003	113
501.22	95
501.437	104
501.654	94
501.871	88
502.088	99
502.305	109
502.522	103
502.739	101
502.956	86
503.172	80
503.389	83
503.606	88
503.823	89
504.04	98
504.256	99
504.473	81
504.69	79
504.907	96
505.123	90
505.34	83
505.557	88
505.773	105
505.99	99
506.207	95
506.423	94
506.64	95
506.856	106
507.073	88
507.289	99
507.506	98
507.722	83
507.939	88
508.155	88
508.372	82
508.588	74
508.805	93
509.021	83
509.238	94
509.454	79
509.67	82
509.887	84
510.103	85
510.319	79
510.536	91
510.752	89
510.968	85
511.184	75
511.401	69
511.617	85
511.833	75
512.049	76
512.265	78
512.481	78
512.698	78
512.914	75
513.13	90
513.346	100
513.562	85
513.778	77
513.994	64
514.21	83
514.426	79
514.642	81
514.858	87
515.074	82
515.29	73
515.506	67
515.721	89
515.937	103
516.153	93
516.369	67
516.585	80
516.801	71
517.016	76
517.232	91
517.448	102
517.664	88
517.879	84
518.095	77
518.311	78
518.527	75
518.742	76
518.958	89
519.173	95
519.389	88
519.605	91
519.82	78
520.036	94
520.251	85
520.467	91
520.682	93
520.898	65
521.113	94
521.329	72
521.544	72
521.76	73
521.975	84
522.19	79
522.406	82
522.621	90
522.836	86
523.052	94
523.267	89
523.482	84
523.698	88
523.913	87
524.128	85
524.343	91
524.559	100
524.774	95
524.989	102
525.204	99
525.419	93
525.634	90
525.849	86
526.064	82
526.28	93
526.495	82
526.71	80
526.925	72
527.14	73
527.355	86
527.57	73
527.785	73
527.999	86
528.214	75
528.429	82
528.644	102
528.859	83
529.074	113
529.289	97
529.503	99
529.718	97
529.933	94
530.148	88
530.363	96
530.577	88
530.792	99
531.007	76
531.221	88
531.436	77
531.651	86
531.865	77
532.08	68
532.295	83
532.509	79
532.724	84
532.938	90
533.153	94
533.367	79
533.582	104
533.796	90
534.011	85
534.225	90
534.44	74
534.654	93
534.868	80
535.083	89
535.297	89
535.511	88
535.726	94
535.94	86
536.154	89
536.369	74
536.583	76
536.797	97
537.011	86
537.225	96
537.44	87
537.654	89
537.868	63
538.082	91
538.296	82
538.51	89
538.724	94
538.938	99
539.153	98
539.367	104
539.581	73
539.795	82
540.009	84
540.222	94
540.436	82
540.65	82
540.864	98
541.078	99
541.292	117
541.506	120
541.72	106
541.934	116
542.147	121
542.361	111
542.575	99
542.789	101
543.002	104
543.216	112
543.43	92
543.644	104
543.857	101
544.071	105
544.285	114
544.498	112
544.712	116
544.925	115
545.139	95
545.352	109
545.566	109
545.779	91
545.993	106
546.206	116
546.42	129
546.633	113
546.847	113
547.06	114
547.274	114
547.487	114
547.7	107
547.914	104
548.127	111
548.34	119
548.554	114
548.767	121
548.98	125
549.193	99
549.407	114
549.62	118
549.833	113
550.046	91
550.259	105
550.473	103
550.686	114
550.899	106
551.112	117
551.325	93
551.538	89
551.751	103
551.964	97
552.177	97
552.39	99
552.603	103
552.816	104
553.029	109
553.242	114
553.455	104
553.667	122
553.88	103
554.093	117
554.306	105
554.519	87
554.732	111
554.944	107
555.157	105
555.37	114
555.583	109
555.795	96
556.008	98
556.221	94
556.433	115
556.646	87
556.859	95
557.071	117
557.284	109
557.496	102
557.709	115
557.921	106
558.134	96
558.346	83
558.559	96
558.771	95
558.984	110
559.196	97
559.409	108
559.621	104
559.833	85
560.046	82
560.258	106
560.47	81
560.683	103
560.895	98
561.107	100
561.32	91
561.532	93
561.744	96
561.956	102
562.168	95
562.381	93
562.593	93
562.805	96
563.017	104
563.229	93
563.441	100
563.653	94
563.865	95
564.077	93
564.289	113
564.501	94
564.713	95
564.925	94
565.137	101
565.349	102
565.561	94
565.773	102
565.985	81
566.197	100
566.408	91
566.62	92
566.832	99
567.044	85
567.255	94
567.467	97
567.679	103
567.891	97
568.102	80
568.314	95
568.526	93
568.737	82
568.949	94
569.161	87
569.372	91
569.584	89
569.795	76
570.007	90
570.218	85
570.43	81
570.641	87
570.853	74
571.064	94
571.276	83
571.487	71
571.698	107
571.91	94
572.121	85
572.333	107
572.544	82
572.755	81
572.966	80
573.178	89
573.389	95
573.6	86
573.811	87
574.023	102
574.234	78
574.445	79
574.656	81
574.867	88
575.078	88
575.289	78
575.501	85
575.712	72
575.923	96
576.134	91
576.345	94
576.556	75
576.767	91
576.978	88
577.188	90
577.399	90
577.61	87
577.821	98
578.032	87
578.243	94
578.454	83
578.665	90
578.875	77
579.086	86
579.297	66
579.508	95
579.718	83
579.929	87
580.14	89
580.35	89
580.561	84
580.772	77
580.982	88
581.193	89
581.403	79
581.614	80
581.825	87
582.035	76
582.246	80
582.456	98
582.667	90
582.877	79
583.087	83
583.298	72
583.508	77
583.719	73
583.929	96
584.139	71
584.35	63
584.56	89
584.77	91
584.981	82
585.191	91
585.401	91
585.611	76
585.821	90
586.032	80
