Data from SampB_HRD10591_00034.txt Node
Date: Mon Jan 19 11:33:40 EST 2026
User: Yrep
Spectrometer: HR+D1059
Trigger mode: 0
Integration Time (sec): 3.443000E-1
Scans to average: 1
Electric dark correction enabled: true
Nonlinearity correction enabled: false
Boxcar width: 0
XAxis mode: Wavelengths
Number of Pixels in Spectrum: 2048
>>>>>Begin Spectral Data<<<<<
223.165	-23.44
223.4	-23.44
223.635	-23.44
223.869	-23.44
224.104	-22.44
224.338	-17.44
224.573	-12.44
224.808	-31.44
225.042	7.56
225.277	-3.44
225.511	-1.44
225.746	4.56
225.98	12.56
226.215	22.56
226.449	6.56
226.683	22.56
226.918	34.56
227.152	24.56
227.387	37.56
227.621	46.56
227.856	29.56
228.09	42.56
228.324	61.56
228.559	59.56
228.793	68.56
229.027	76.56
229.262	90.56
229.496	83.56
229.73	90.56
229.964	85.56
230.199	72.56
230.433	84.56
230.667	95.56
230.901	93.56
231.136	98.56
231.37	108.56
231.604	104.56
231.838	86.56
232.072	81.56
232.306	84.56
232.541	100.56
232.775	82.56
233.009	88.56
233.243	99.56
233.477	90.56
233.711	95.56
233.945	93.56
234.179	95.56
234.413	97.56
234.647	91.56
234.881	102.56
235.115	90.56
235.349	103.56
235.583	102.56
235.817	97.56
236.051	104.56
236.285	83.56
236.519	90.56
236.753	92.56
236.987	81.56
237.221	92.56
237.455	103.56
237.689	89.56
237.922	92.56
238.156	97.56
238.39	97.56
238.624	90.56
238.858	88.56
239.091	108.56
239.325	94.56
239.559	93.56
239.793	104.56
240.027	94.56
240.26	74.56
240.494	119.56
240.728	90.56
240.961	106.56
241.195	93.56
241.429	89.56
241.662	97.56
241.896	104.56
242.13	100.56
242.363	93.56
242.597	98.56
242.83	105.56
243.064	86.56
243.298	112.56
243.531	107.56
243.765	108.56
243.998	112.56
244.232	108.56
244.465	106.56
244.699	103.56
244.932	102.56
245.166	118.56
245.399	114.56
245.633	95.56
245.866	110.56
246.099	107.56
246.333	108.56
246.566	107.56
246.8	94.56
247.033	112.56
247.266	117.56
247.5	109.56
247.733	99.56
247.966	112.56
248.2	119.56
248.433	111.56
248.666	115.56
248.899	112.56
249.133	100.56
249.366	123.56
249.599	112.56
249.832	118.56
250.066	129.56
250.299	130.56
250.532	121.56
250.765	118.56
250.998	103.56
251.231	105.56
251.465	119.56
251.698	124.56
251.931	122.56
252.164	120.56
252.397	125.56
252.63	112.56
252.863	117.56
253.096	123.56
253.329	121.56
253.562	125.56
253.795	120.56
254.028	127.56
254.261	123.56
254.494	146.56
254.727	125.56
254.96	129.56
255.193	124.56
255.426	119.56
255.659	129.56
255.892	129.56
256.124	120.56
256.357	149.56
256.59	126.56
256.823	125.56
257.056	146.56
257.289	102.56
257.521	121.56
257.754	124.56
257.987	129.56
258.22	139.56
258.452	116.56
258.685	130.56
258.918	111.56
259.151	124.56
259.383	138.56
259.616	120.56
259.849	128.56
260.081	128.56
260.314	131.56
260.547	134.56
260.779	123.56
261.012	129.56
261.244	123.56
261.477	138.56
261.71	121.56
261.942	144.56
262.175	142.56
262.407	119.56
262.64	119.56
262.872	130.56
263.105	121.56
263.337	122.56
263.57	127.56
263.802	117.56
264.035	130.56
264.267	128.56
264.499	134.56
264.732	135.56
264.964	132.56
265.197	137.56
265.429	129.56
265.661	136.56
265.894	133.56
266.126	138.56
266.358	124.56
266.591	140.56
266.823	139.56
267.055	140.56
267.287	161.56
267.52	115.56
267.752	132.56
267.984	140.56
268.216	137.56
268.448	146.56
268.681	147.56
268.913	141.56
269.145	135.56
269.377	142.56
269.609	131.56
269.841	142.56
270.073	129.56
270.306	146.56
270.538	132.56
270.77	130.56
271.002	140.56
271.234	139.56
271.466	155.56
271.698	154.56
271.93	138.56
272.162	144.56
272.394	160.56
272.626	143.56
272.858	139.56
273.09	142.56
273.322	142.56
273.553	149.56
273.785	163.56
274.017	154.56
274.249	169.56
274.481	171.56
274.713	146.56
274.945	159.56
275.176	160.56
275.408	160.56
275.64	156.56
275.872	150.56
276.104	153.56
276.335	166.56
276.567	155.56
276.799	140.56
277.031	171.56
277.262	178.56
277.494	172.56
277.726	157.56
277.957	168.56
278.189	154.56
278.421	170.56
278.652	164.56
278.884	168.56
279.115	173.56
279.347	168.56
279.579	167.56
279.81	159.56
280.042	167.56
280.273	175.56
280.505	184.56
280.736	181.56
280.968	173.56
281.199	164.56
281.431	155.56
281.662	146.56
281.894	158.56
282.125	161.56
282.356	165.56
282.588	164.56
282.819	158.56
283.051	163.56
283.282	160.56
283.513	181.56
283.745	160.56
283.976	160.56
284.207	168.56
284.439	171.56
284.67	168.56
284.901	163.56
285.132	169.56
285.364	172.56
285.595	168.56
285.826	176.56
286.057	173.56
286.288	156.56
286.52	164.56
286.751	171.56
286.982	178.56
287.213	169.56
287.444	154.56
287.675	174.56
287.906	171.56
288.138	156.56
288.369	171.56
288.6	168.56
288.831	179.56
289.062	175.56
289.293	184.56
289.524	175.56
289.755	183.56
289.986	174.56
290.217	167.56
290.448	168.56
290.679	182.56
290.91	190.56
291.141	173.56
291.371	182.56
291.602	177.56
291.833	166.56
292.064	164.56
292.295	160.56
292.526	174.56
292.757	171.56
292.987	179.56
293.218	175.56
293.449	161.56
293.68	170.56
293.91	159.56
294.141	175.56
294.372	174.56
294.603	163.56
294.833	181.56
295.064	178.56
295.295	183.56
295.525	183.56
295.756	189.56
295.987	177.56
296.217	172.56
296.448	177.56
296.679	182.56
296.909	190.56
297.14	170.56
297.37	188.56
297.601	178.56
297.831	174.56
298.062	178.56
298.292	201.56
298.523	195.56
298.753	180.56
298.984	190.56
299.214	191.56
299.445	188.56
299.675	190.56
299.905	168.56
300.136	173.56
300.366	180.56
300.597	172.56
300.827	189.56
301.057	196.56
301.288	201.56
301.518	213.56
301.748	200.56
301.979	234.56
302.209	208.56
302.439	207.56
302.669	186.56
302.9	187.56
303.13	189.56
303.36	204.56
303.59	184.56
303.82	195.56
304.051	175.56
304.281	192.56
304.511	192.56
304.741	180.56
304.971	193.56
305.201	197.56
305.431	193.56
305.661	179.56
305.891	182.56
306.121	189.56
306.352	186.56
306.582	185.56
306.812	183.56
307.042	189.56
307.272	199.56
307.502	214.56
307.731	192.56
307.961	191.56
308.191	190.56
308.421	183.56
308.651	189.56
308.881	208.56
309.111	182.56
309.341	198.56
309.571	193.56
309.8	177.56
310.03	198.56
310.26	191.56
310.49	188.56
310.72	193.56
310.949	184.56
311.179	194.56
311.409	205.56
311.639	187.56
311.868	206.56
312.098	201.56
312.328	200.56
312.557	206.56
312.787	183.56
313.017	213.56
313.246	216.56
313.476	204.56
313.706	208.56
313.935	191.56
314.165	219.56
314.394	192.56
314.624	203.56
314.853	200.56
315.083	209.56
315.312	197.56
315.542	219.56
315.771	208.56
316.001	207.56
316.23	210.56
316.46	184.56
316.689	204.56
316.919	210.56
317.148	225.56
317.377	222.56
317.607	202.56
317.836	202.56
318.065	206.56
318.295	183.56
318.524	200.56
318.753	194.56
318.983	201.56
319.212	203.56
319.441	201.56
319.67	205.56
319.9	170.56
320.129	206.56
320.358	215.56
320.587	205.56
320.816	183.56
321.046	208.56
321.275	204.56
321.504	202.56
321.733	211.56
321.962	198.56
322.191	203.56
322.42	204.56
322.649	217.56
322.878	194.56
323.108	224.56
323.337	210.56
323.566	214.56
323.795	192.56
324.024	207.56
324.253	202.56
324.482	212.56
324.71	200.56
324.939	217.56
325.168	190.56
325.397	230.56
325.626	217.56
325.855	224.56
326.084	227.56
326.313	216.56
326.542	234.56
326.77	233.56
326.999	231.56
327.228	236.56
327.457	223.56
327.686	248.56
327.914	270.56
328.143	300.56
328.372	295.56
328.6	282.56
328.829	243.56
329.058	242.56
329.287	249.56
329.515	274.56
329.744	291.56
329.972	336.56
330.201	385.56
330.43	388.56
330.658	311.56
330.887	265.56
331.115	250.56
331.344	251.56
331.572	263.56
331.801	266.56
332.03	262.56
332.258	255.56
332.486	232.56
332.715	270.56
332.943	282.56
333.172	284.56
333.4	300.56
333.629	328.56
333.857	351.56
334.085	384.56
334.314	458.56
334.542	518.56
334.771	478.56
334.999	362.56
335.227	292.56
335.455	285.56
335.684	286.56
335.912	283.56
336.14	264.56
336.369	264.56
336.597	244.56
336.825	270.56
337.053	232.56
337.281	264.56
337.51	253.56
337.738	242.56
337.966	233.56
338.194	222.56
338.422	215.56
338.65	245.56
338.878	226.56
339.106	230.56
339.334	226.56
339.562	244.56
339.79	226.56
340.018	223.56
340.246	218.56
340.474	209.56
340.702	220.56
340.93	223.56
341.158	205.56
341.386	229.56
341.614	213.56
341.842	218.56
342.07	235.56
342.298	242.56
342.526	228.56
342.754	224.56
342.981	230.56
343.209	229.56
343.437	264.56
343.665	261.56
343.893	267.56
344.12	262.56
344.348	248.56
344.576	234.56
344.804	228.56
345.031	220.56
345.259	231.56
345.487	207.56
345.714	222.56
345.942	214.56
346.17	213.56
346.397	211.56
346.625	221.56
346.853	215.56
347.08	220.56
347.308	215.56
347.535	218.56
347.763	212.56
347.99	207.56
348.218	225.56
348.445	209.56
348.673	206.56
348.9	220.56
349.128	221.56
349.355	216.56
349.583	215.56
349.81	220.56
350.037	192.56
350.265	212.56
350.492	212.56
350.72	204.56
350.947	202.56
351.174	217.56
351.402	212.56
351.629	212.56
351.856	210.56
352.083	203.56
352.311	222.56
352.538	211.56
352.765	217.56
352.992	231.56
353.22	231.56
353.447	216.56
353.674	220.56
353.901	208.56
354.128	221.56
354.355	214.56
354.583	211.56
354.81	212.56
355.037	226.56
355.264	225.56
355.491	225.56
355.718	225.56
355.945	239.56
356.172	211.56
356.399	216.56
356.626	209.56
356.853	230.56
357.08	235.56
357.307	225.56
357.534	223.56
357.761	237.56
357.988	208.56
358.215	219.56
358.441	214.56
358.668	198.56
358.895	219.56
359.122	203.56
359.349	214.56
359.576	211.56
359.802	204.56
360.029	226.56
360.256	219.56
360.483	215.56
360.709	201.56
360.936	233.56
361.163	220.56
361.39	209.56
361.616	215.56
361.843	211.56
362.07	229.56
362.296	206.56
362.523	201.56
362.749	213.56
362.976	223.56
363.203	247.56
363.429	229.56
363.656	234.56
363.882	203.56
364.109	207.56
364.335	206.56
364.562	210.56
364.788	212.56
365.015	231.56
365.241	206.56
365.468	226.56
365.694	214.56
365.92	204.56
366.147	214.56
366.373	211.56
366.599	224.56
366.826	190.56
367.052	219.56
367.278	227.56
367.505	208.56
367.731	223.56
367.957	208.56
368.184	225.56
368.41	205.56
368.636	218.56
368.862	232.56
369.089	220.56
369.315	217.56
369.541	225.56
369.767	229.56
369.993	222.56
370.219	212.56
370.445	217.56
370.672	214.56
370.898	231.56
371.124	218.56
371.35	223.56
371.576	214.56
371.802	223.56
372.028	224.56
372.254	227.56
372.48	239.56
372.706	228.56
372.932	239.56
373.158	221.56
373.384	247.56
373.61	238.56
373.835	245.56
374.061	255.56
374.287	251.56
374.513	258.56
374.739	239.56
374.965	262.56
375.191	262.56
375.416	256.56
375.642	225.56
375.868	234.56
376.094	232.56
376.319	238.56
376.545	236.56
376.771	252.56
376.997	244.56
377.222	233.56
377.448	219.56
377.674	228.56
377.899	221.56
378.125	239.56
378.35	228.56
378.576	232.56
378.802	225.56
379.027	215.56
379.253	234.56
379.478	220.56
379.704	206.56
379.929	235.56
380.155	230.56
380.38	242.56
380.606	237.56
380.831	219.56
381.057	239.56
381.282	236.56
381.507	246.56
381.733	252.56
381.958	227.56
382.184	225.56
382.409	241.56
382.634	249.56
382.86	250.56
383.085	263.56
383.31	272.56
383.535	269.56
383.761	258.56
383.986	266.56
384.211	271.56
384.436	263.56
384.662	254.56
384.887	274.56
385.112	261.56
385.337	271.56
385.562	273.56
385.787	282.56
386.013	284.56
386.238	263.56
386.463	272.56
386.688	299.56
386.913	280.56
387.138	271.56
387.363	278.56
387.588	255.56
387.813	276.56
388.038	290.56
388.263	307.56
388.488	271.56
388.713	264.56
388.938	266.56
389.163	276.56
389.387	274.56
389.612	267.56
389.837	275.56
390.062	273.56
390.287	267.56
390.512	275.56
390.736	269.56
390.961	244.56
391.186	272.56
391.411	300.56
391.636	294.56
391.86	303.56
392.085	312.56
392.31	282.56
392.534	295.56
392.759	315.56
392.984	297.56
393.208	319.56
393.433	344.56
393.658	330.56
393.882	282.56
394.107	314.56
394.331	307.56
394.556	310.56
394.78	322.56
395.005	327.56
395.229	316.56
395.454	321.56
395.678	304.56
395.903	327.56
396.127	327.56
396.352	320.56
396.576	302.56
396.801	319.56
397.025	344.56
397.249	323.56
397.474	342.56
397.698	315.56
397.922	306.56
398.147	304.56
398.371	312.56
398.595	344.56
398.82	357.56
399.044	371.56
399.268	401.56
399.492	462.56
399.717	509.56
399.941	463.56
400.165	411.56
400.389	397.56
400.613	349.56
400.837	332.56
401.062	321.56
401.286	354.56
401.51	349.56
401.734	340.56
401.958	354.56
402.182	357.56
402.406	323.56
402.63	363.56
402.854	361.56
403.078	379.56
403.302	364.56
403.526	385.56
403.75	403.56
403.974	394.56
404.198	394.56
404.422	400.56
404.645	396.56
404.869	394.56
405.093	396.56
405.317	391.56
405.541	387.56
405.765	381.56
405.988	373.56
406.212	378.56
406.436	375.56
406.66	382.56
406.883	412.56
407.107	400.56
407.331	421.56
407.555	413.56
407.778	426.56
408.002	411.56
408.226	414.56
408.449	390.56
408.673	352.56
408.896	363.56
409.12	375.56
409.344	383.56
409.567	356.56
409.791	363.56
410.014	397.56
410.238	372.56
410.461	384.56
410.685	370.56
410.908	349.56
411.132	374.56
411.355	348.56
411.578	375.56
411.802	331.56
412.025	349.56
412.249	386.56
412.472	365.56
412.695	381.56
412.919	344.56
413.142	349.56
413.365	338.56
413.589	347.56
413.812	367.56
414.035	367.56
414.258	347.56
414.482	343.56
414.705	364.56
414.928	349.56
415.151	340.56
415.374	359.56
415.597	352.56
415.821	342.56
416.044	327.56
416.267	334.56
416.49	364.56
416.713	330.56
416.936	339.56
417.159	356.56
417.382	353.56
417.605	348.56
417.828	345.56
418.051	360.56
418.274	342.56
418.497	354.56
418.72	372.56
418.943	359.56
419.166	383.56
419.389	398.56
419.611	388.56
419.834	375.56
420.057	369.56
420.28	365.56
420.503	358.56
420.726	367.56
420.948	357.56
421.171	357.56
421.394	344.56
421.617	358.56
421.839	330.56
422.062	349.56
422.285	346.56
422.507	347.56
422.73	378.56
422.953	374.56
423.175	364.56
423.398	368.56
423.621	383.56
423.843	376.56
424.066	362.56
424.288	356.56
424.511	377.56
424.733	358.56
424.956	340.56
425.178	364.56
425.401	344.56
425.623	341.56
425.846	323.56
426.068	354.56
426.291	333.56
426.513	344.56
426.735	328.56
426.958	324.56
427.18	344.56
427.402	342.56
427.625	346.56
427.847	349.56
428.069	353.56
428.292	346.56
428.514	333.56
428.736	332.56
428.958	318.56
429.181	327.56
429.403	321.56
429.625	326.56
429.847	313.56
430.069	318.56
430.292	324.56
430.514	307.56
430.736	319.56
430.958	324.56
431.18	320.56
431.402	328.56
431.624	318.56
431.846	316.56
432.068	318.56
432.29	311.56
432.512	301.56
432.734	327.56
432.956	308.56
433.178	335.56
433.4	319.56
433.622	332.56
433.844	323.56
434.066	318.56
434.287	318.56
434.509	306.56
434.731	320.56
434.953	324.56
435.175	349.56
435.397	336.56
435.618	312.56
435.84	318.56
436.062	304.56
436.284	315.56
436.505	312.56
436.727	303.56
436.949	322.56
437.17	297.56
437.392	304.56
437.614	312.56
437.835	290.56
438.057	309.56
438.278	307.56
438.5	283.56
438.721	296.56
438.943	304.56
439.165	314.56
439.386	316.56
439.608	337.56
439.829	315.56
440.05	359.56
440.272	320.56
440.493	336.56
440.715	360.56
440.936	347.56
441.158	344.56
441.379	348.56
441.6	363.56
441.822	370.56
442.043	373.56
442.264	356.56
442.486	361.56
442.707	315.56
442.928	345.56
443.149	344.56
443.371	339.56
443.592	345.56
443.813	338.56
444.034	374.56
444.255	385.56
444.476	376.56
444.698	388.56
444.919	403.56
445.14	574.56
445.361	476.56
445.582	366.56
445.803	352.56
446.024	346.56
446.245	347.56
446.466	359.56
446.687	330.56
446.908	343.56
447.129	321.56
447.35	318.56
447.571	319.56
447.792	293.56
448.013	293.56
448.234	306.56
448.455	315.56
448.675	312.56
448.896	295.56
449.117	311.56
449.338	296.56
449.559	301.56
449.779	284.56
450	299.56
450.221	290.56
450.442	300.56
450.662	303.56
450.883	302.56
451.104	300.56
451.324	305.56
451.545	300.56
451.766	269.56
451.986	300.56
452.207	315.56
452.428	301.56
452.648	278.56
452.869	308.56
453.089	292.56
453.31	289.56
453.53	291.56
453.751	289.56
453.971	285.56
454.192	280.56
454.412	287.56
454.633	273.56
454.853	277.56
455.073	266.56
455.294	305.56
455.514	281.56
455.734	284.56
455.955	283.56
456.175	268.56
456.395	258.56
456.616	264.56
456.836	271.56
457.056	265.56
457.276	262.56
457.497	267.56
457.717	274.56
457.937	278.56
458.157	249.56
458.377	270.56
458.598	276.56
458.818	271.56
459.038	283.56
459.258	292.56
459.478	299.56
459.698	302.56
459.918	320.56
460.138	336.56
460.358	355.56
460.578	362.56
460.798	352.56
461.018	351.56
461.238	364.56
461.458	358.56
461.678	344.56
461.898	355.56
462.118	345.56
462.338	381.56
462.558	380.56
462.777	390.56
462.997	415.56
463.217	429.56
463.437	438.56
463.657	393.56
463.876	404.56
464.096	399.56
464.316	408.56
464.536	408.56
464.755	386.56
464.975	374.56
465.195	364.56
465.414	339.56
465.634	321.56
465.854	332.56
466.073	317.56
466.293	319.56
466.512	328.56
466.732	315.56
466.951	307.56
467.171	328.56
467.391	316.56
467.61	316.56
467.829	334.56
468.049	372.56
468.268	397.56
468.488	359.56
468.707	315.56
468.927	330.56
469.146	303.56
469.365	323.56
469.585	315.56
469.804	315.56
470.023	307.56
470.243	320.56
470.462	334.56
470.681	334.56
470.901	326.56
471.12	330.56
471.339	346.56
471.558	332.56
471.777	339.56
471.997	350.56
472.216	433.56
472.435	560.56
472.654	433.56
472.873	339.56
473.092	312.56
473.311	322.56
473.53	311.56
473.749	314.56
473.968	313.56
474.187	308.56
474.406	298.56
474.625	307.56
474.844	313.56
475.063	320.56
475.282	298.56
475.501	300.56
475.72	312.56
475.939	306.56
476.158	313.56
476.377	304.56
476.596	320.56
476.814	298.56
477.033	310.56
477.252	308.56
477.471	326.56
477.69	334.56
477.908	334.56
478.127	358.56
478.346	341.56
478.564	367.56
478.783	350.56
479.002	364.56
479.22	345.56
479.439	351.56
479.658	351.56
479.876	344.56
480.095	339.56
480.313	375.56
480.532	402.56
480.751	428.56
480.969	491.56
481.188	737.56
481.406	686.56
481.624	449.56
481.843	400.56
482.061	363.56
482.28	362.56
482.498	347.56
482.717	345.56
482.935	351.56
483.153	359.56
483.372	346.56
483.59	366.56
483.808	342.56
484.027	336.56
484.245	339.56
484.463	355.56
484.681	347.56
484.9	353.56
485.118	339.56
485.336	330.56
485.554	332.56
485.772	346.56
485.99	342.56
486.209	323.56
486.427	337.56
486.645	323.56
486.863	339.56
487.081	335.56
487.299	332.56
487.517	361.56
487.735	362.56
487.953	376.56
488.171	369.56
488.389	343.56
488.607	353.56
488.825	351.56
489.043	329.56
489.261	358.56
489.479	366.56
489.696	338.56
489.914	364.56
490.132	344.56
490.35	354.56
490.568	347.56
490.786	353.56
491.003	372.56
491.221	379.56
491.439	393.56
491.657	400.56
491.874	411.56
492.092	404.56
492.31	421.56
492.527	393.56
492.745	395.56
492.963	402.56
493.18	402.56
493.398	410.56
493.615	398.56
493.833	391.56
494.05	395.56
494.268	382.56
494.485	388.56
494.703	382.56
494.92	390.56
495.138	395.56
495.355	397.56
495.573	390.56
495.79	375.56
496.008	405.56
496.225	375.56
496.442	380.56
496.66	404.56
496.877	411.56
497.094	416.56
497.312	402.56
497.529	403.56
497.746	424.56
497.963	419.56
498.181	424.56
498.398	440.56
498.615	473.56
498.832	475.56
499.049	497.56
499.267	576.56
499.484	588.56
499.701	652.56
499.918	746.56
500.135	817.56
500.352	904.56
500.569	922.56
500.786	916.56
501.003	829.56
501.22	742.56
501.437	676.56
501.654	602.56
501.871	532.56
502.088	505.56
502.305	488.56
502.522	456.56
502.739	457.56
502.956	420.56
503.172	437.56
503.389	391.56
