Data from SampB_HRD10591_00070.txt Node
Date: Mon Jan 19 11:33:52 EST 2026
User: Yrep
Spectrometer: HR+D1059
Trigger mode: 0
Integration Time (sec): 3.443000E-1
Scans to average: 1
Electric dark correction enabled: true
Nonlinearity correction enabled: false
Boxcar width: 0
XAxis mode: Wavelengths
Number of Pixels in Spectrum: 2048
>>>>>Begin Spectral Data<<<<<
223.165	-9
223.4	-9
223.635	-9
223.869	-15
224.104	-25
224.338	-14
224.573	-24
224.808	-10
225.042	1
225.277	-1
225.511	-20
225.746	0
225.98	8
226.215	9
226.449	15
226.683	14
226.918	32
227.152	39
227.387	31
227.621	32
227.856	51
228.09	44
228.324	42
228.559	69
228.793	74
229.027	78
229.262	55
229.496	71
229.73	76
229.964	81
230.199	82
230.433	68
230.667	67
230.901	79
231.136	86
231.37	96
231.604	86
231.838	89
232.072	93
232.306	83
232.541	96
232.775	83
233.009	99
233.243	96
233.477	100
233.711	99
233.945	103
234.179	80
234.413	86
234.647	81
234.881	100
235.115	96
235.349	90
235.583	87
235.817	84
236.051	74
236.285	99
236.519	97
236.753	93
236.987	95
237.221	94
237.455	84
237.689	96
237.922	77
238.156	88
238.39	92
238.624	102
238.858	84
239.091	99
239.325	83
239.559	96
239.793	102
240.027	104
240.26	100
240.494	101
240.728	91
240.961	92
241.195	100
241.429	102
241.662	90
241.896	87
242.13	100
242.363	98
242.597	84
242.83	106
243.064	83
243.298	105
243.531	90
243.765	108
243.998	106
244.232	112
244.465	95
244.699	107
244.932	108
245.166	104
245.399	109
245.633	109
245.866	104
246.099	108
246.333	93
246.566	99
246.8	100
247.033	90
247.266	101
247.5	102
247.733	114
247.966	87
248.2	106
248.433	124
248.666	115
248.899	99
249.133	113
249.366	131
249.599	119
249.832	117
250.066	134
250.299	113
250.532	112
250.765	111
250.998	107
251.231	123
251.465	120
251.698	94
251.931	107
252.164	106
252.397	126
252.63	134
252.863	119
253.096	111
253.329	130
253.562	129
253.795	129
254.028	133
254.261	140
254.494	120
254.727	140
254.96	121
255.193	125
255.426	122
255.659	115
255.892	117
256.124	134
256.357	120
256.59	128
256.823	118
257.056	127
257.289	121
257.521	113
257.754	127
257.987	136
258.22	123
258.452	139
258.685	147
258.918	139
259.151	127
259.383	134
259.616	135
259.849	141
260.081	136
260.314	144
260.547	122
260.779	145
261.012	147
261.244	135
261.477	157
261.71	114
261.942	116
262.175	133
262.407	120
262.64	138
262.872	137
263.105	131
263.337	167
263.57	129
263.802	139
264.035	145
264.267	136
264.499	123
264.732	128
264.964	129
265.197	131
265.429	143
265.661	145
265.894	146
266.126	132
266.358	124
266.591	131
266.823	151
267.055	133
267.287	143
267.52	151
267.752	139
267.984	137
268.216	149
268.448	141
268.681	156
268.913	156
269.145	147
269.377	145
269.609	141
269.841	139
270.073	147
270.306	151
270.538	160
270.77	146
271.002	152
271.234	164
271.466	151
271.698	171
271.93	153
272.162	154
272.394	153
272.626	160
272.858	158
273.09	169
273.322	163
273.553	156
273.785	157
274.017	171
274.249	158
274.481	162
274.713	168
274.945	183
275.176	171
275.408	163
275.64	170
275.872	153
276.104	144
276.335	159
276.567	156
276.799	161
277.031	182
277.262	172
277.494	168
277.726	169
277.957	173
278.189	155
278.421	163
278.652	169
278.884	178
279.115	167
279.347	157
279.579	177
279.81	183
280.042	160
280.273	164
280.505	171
280.736	180
280.968	168
281.199	169
281.431	158
281.662	157
281.894	164
282.125	171
282.356	173
282.588	165
282.819	172
283.051	175
283.282	174
283.513	165
283.745	173
283.976	164
284.207	187
284.439	176
284.67	189
284.901	178
285.132	163
285.364	171
285.595	172
285.826	195
286.057	186
286.288	166
286.52	167
286.751	179
286.982	193
287.213	176
287.444	182
287.675	183
287.906	181
288.138	181
288.369	189
288.6	184
288.831	181
289.062	170
289.293	180
289.524	188
289.755	196
289.986	180
290.217	191
290.448	189
290.679	196
290.91	200
291.141	192
291.371	193
291.602	202
291.833	189
292.064	202
292.295	188
292.526	173
292.757	179
292.987	180
293.218	191
293.449	181
293.68	195
293.91	180
294.141	201
294.372	208
294.603	194
294.833	194
295.064	189
295.295	177
295.525	187
295.756	213
295.987	184
296.217	215
296.448	197
296.679	180
296.909	214
297.14	193
297.37	211
297.601	203
297.831	204
298.062	221
298.292	195
298.523	209
298.753	185
298.984	199
299.214	195
299.445	188
299.675	218
299.905	213
300.136	194
300.366	202
300.597	207
300.827	204
301.057	228
301.288	221
301.518	210
301.748	219
301.979	249
302.209	216
302.439	210
302.669	213
302.9	205
303.13	207
303.36	197
303.59	203
303.82	212
304.051	211
304.281	211
304.511	215
304.741	213
304.971	192
305.201	205
305.431	201
305.661	194
305.891	212
306.121	212
306.352	193
306.582	207
306.812	208
307.042	221
307.272	213
307.502	209
307.731	222
307.961	208
308.191	195
308.421	203
308.651	221
308.881	203
309.111	191
309.341	218
309.571	235
309.8	213
310.03	219
310.26	203
310.49	197
310.72	205
310.949	220
311.179	195
311.409	221
311.639	219
311.868	227
312.098	224
312.328	228
312.557	213
312.787	233
313.017	225
313.246	215
313.476	217
313.706	206
313.935	221
314.165	234
314.394	232
314.624	218
314.853	213
315.083	225
315.312	219
315.542	228
315.771	228
316.001	215
316.23	204
316.46	216
316.689	215
316.919	229
317.148	221
317.377	227
317.607	229
317.836	209
318.065	210
318.295	209
318.524	203
318.753	201
318.983	213
319.212	241
319.441	226
319.67	231
319.9	228
320.129	199
320.358	233
320.587	239
320.816	228
321.046	243
321.275	228
321.504	220
321.733	225
321.962	208
322.191	207
322.42	221
322.649	228
322.878	229
323.108	233
323.337	230
323.566	232
323.795	234
324.024	229
324.253	223
324.482	229
324.71	250
324.939	233
325.168	229
325.397	226
325.626	231
325.855	234
326.084	243
326.313	235
326.542	252
326.77	241
326.999	231
327.228	238
327.457	242
327.686	242
327.914	256
328.143	256
328.372	246
328.6	258
328.829	233
329.058	249
329.287	245
329.515	255
329.744	267
329.972	276
330.201	278
330.43	269
330.658	267
330.887	244
331.115	259
331.344	259
331.572	272
331.801	259
332.03	287
332.258	281
332.486	285
332.715	294
332.943	281
333.172	319
333.4	320
333.629	311
333.857	319
334.085	313
334.314	328
334.542	330
334.771	323
334.999	292
335.227	291
335.455	280
335.684	287
335.912	293
336.14	268
336.369	286
336.597	277
336.825	275
337.053	263
337.281	261
337.51	249
337.738	253
337.966	253
338.194	258
338.422	255
338.65	237
338.878	279
339.106	272
339.334	278
339.562	249
339.79	265
340.018	253
340.246	236
340.474	248
340.702	250
340.93	241
341.158	243
341.386	246
341.614	232
341.842	248
342.07	237
342.298	254
342.526	239
342.754	249
342.981	261
343.209	261
343.437	299
343.665	305
343.893	298
344.12	288
344.348	277
344.576	262
344.804	273
345.031	244
345.259	242
345.487	259
345.714	251
345.942	264
346.17	237
346.397	244
346.625	247
346.853	227
347.08	250
347.308	245
347.535	256
347.763	236
347.99	257
348.218	248
348.445	245
348.673	224
348.9	237
349.128	247
349.355	230
349.583	238
349.81	255
350.037	246
350.265	241
350.492	244
350.72	248
350.947	242
351.174	228
351.402	234
351.629	242
351.856	245
352.083	247
352.311	232
352.538	218
352.765	233
352.992	259
353.22	225
353.447	229
353.674	244
353.901	234
354.128	241
354.355	238
354.583	239
354.81	245
355.037	243
355.264	242
355.491	244
355.718	240
355.945	241
356.172	255
356.399	228
356.626	250
356.853	261
357.08	251
357.307	275
357.534	246
357.761	253
357.988	252
358.215	246
358.441	264
358.668	236
358.895	231
359.122	227
359.349	251
359.576	233
359.802	241
360.029	228
360.256	242
360.483	225
360.709	256
360.936	255
361.163	244
361.39	243
361.616	257
361.843	248
362.07	251
362.296	261
362.523	233
362.749	229
362.976	232
363.203	244
363.429	246
363.656	229
363.882	236
364.109	258
364.335	243
364.562	230
364.788	236
365.015	251
365.241	253
365.468	263
365.694	241
365.92	245
366.147	243
366.373	225
366.599	247
366.826	239
367.052	240
367.278	258
367.505	230
367.731	255
367.957	235
368.184	257
368.41	261
368.636	233
368.862	245
369.089	250
369.315	240
369.541	247
369.767	258
369.993	243
370.219	248
370.445	258
370.672	252
370.898	267
371.124	271
371.35	268
371.576	263
371.802	261
372.028	271
372.254	271
372.48	296
372.706	263
372.932	251
373.158	274
373.384	285
373.61	293
373.835	279
374.061	260
374.287	269
374.513	267
374.739	277
374.965	285
375.191	285
375.416	292
375.642	274
375.868	277
376.094	281
376.319	265
376.545	274
376.771	267
376.997	266
377.222	265
377.448	248
377.674	265
377.899	268
378.125	269
378.35	268
378.576	264
378.802	258
379.027	275
379.253	278
379.478	288
379.704	266
379.929	272
380.155	283
380.38	259
380.606	265
380.831	263
381.057	280
381.282	265
381.507	273
381.733	285
381.958	277
382.184	296
382.409	271
382.634	295
382.86	305
383.085	298
383.31	290
383.535	294
383.761	313
383.986	305
384.211	314
384.436	312
384.662	301
384.887	317
385.112	302
385.337	316
385.562	324
385.787	328
386.013	311
386.238	315
386.463	313
386.688	332
386.913	308
387.138	302
387.363	312
387.588	320
387.813	325
388.038	303
388.263	312
388.488	305
388.713	309
388.938	304
389.163	285
389.387	304
389.612	321
389.837	321
390.062	306
390.287	306
390.512	328
390.736	308
390.961	333
391.186	320
391.411	343
391.636	352
391.86	360
392.085	352
392.31	349
392.534	340
392.759	335
392.984	322
393.208	340
393.433	316
393.658	317
393.882	328
394.107	341
394.331	329
394.556	355
394.78	323
395.005	357
395.229	345
395.454	358
395.678	354
395.903	362
396.127	358
396.352	339
396.576	349
396.801	345
397.025	344
397.249	361
397.474	359
397.698	369
397.922	376
398.147	345
398.371	380
398.595	387
398.82	408
399.044	427
399.268	451
399.492	553
399.717	566
399.941	532
400.165	489
400.389	449
400.613	427
400.837	405
401.062	392
401.286	397
401.51	413
401.734	391
401.958	405
402.182	421
402.406	418
402.63	409
402.854	429
403.078	435
403.302	420
403.526	450
403.75	458
403.974	437
404.198	461
404.422	458
404.645	480
404.869	462
405.093	460
405.317	416
405.541	432
405.765	421
405.988	433
406.212	428
406.436	420
406.66	439
406.883	441
407.107	477
407.331	505
407.555	497
407.778	501
408.002	476
408.226	451
408.449	464
408.673	461
408.896	452
409.12	453
409.344	426
409.567	434
409.791	444
410.014	442
410.238	441
410.461	444
410.685	449
410.908	426
411.132	427
411.355	397
411.578	399
411.802	408
412.025	425
412.249	441
412.472	379
412.695	417
412.919	401
413.142	396
413.365	424
413.589	409
413.812	375
414.035	408
414.258	390
414.482	405
414.705	417
414.928	410
415.151	399
415.374	401
415.597	383
415.821	424
416.044	377
416.267	397
416.49	401
416.713	396
416.936	425
417.159	404
417.382	421
417.605	388
417.828	402
418.051	425
418.274	403
418.497	407
418.72	422
418.943	412
419.166	439
419.389	450
419.611	435
419.834	427
420.057	437
420.28	418
420.503	395
420.726	378
420.948	398
421.171	423
421.394	397
421.617	425
421.839	416
422.062	404
422.285	408
422.507	404
422.73	405
422.953	420
423.175	420
423.398	428
423.621	436
423.843	439
424.066	425
424.288	425
424.511	416
424.733	402
424.956	407
425.178	416
425.401	411
425.623	423
425.846	412
426.068	396
426.291	393
426.513	377
426.735	367
426.958	401
427.18	370
427.402	385
427.625	377
427.847	373
428.069	363
428.292	371
428.514	367
428.736	357
428.958	363
429.181	332
429.403	339
429.625	343
429.847	356
430.069	362
430.292	372
430.514	364
430.736	355
430.958	357
431.18	384
431.402	347
431.624	352
431.846	344
432.068	352
432.29	370
432.512	371
432.734	377
432.956	372
433.178	391
433.4	373
433.622	377
433.844	377
434.066	356
434.287	359
434.509	365
434.731	376
434.953	362
435.175	394
435.397	370
435.618	387
435.84	370
436.062	347
436.284	354
436.505	360
436.727	343
436.949	355
437.17	350
437.392	359
437.614	336
437.835	328
438.057	333
438.278	346
438.5	363
438.721	356
438.943	359
439.165	348
439.386	359
439.608	365
439.829	366
440.05	365
440.272	371
440.493	385
440.715	372
440.936	359
441.158	379
441.379	377
441.6	402
441.822	402
442.043	407
442.264	399
442.486	403
442.707	409
442.928	394
443.149	395
443.371	403
443.592	385
443.813	399
444.034	404
444.255	428
444.476	448
444.698	486
444.919	476
445.14	661
445.361	504
445.582	428
445.803	399
446.024	399
446.245	395
446.466	390
446.687	359
446.908	383
447.129	341
447.35	363
447.571	357
447.792	344
448.013	356
448.234	344
448.455	332
448.675	332
448.896	316
449.117	343
449.338	329
449.559	342
449.779	333
450	321
450.221	335
450.442	354
450.662	335
450.883	345
451.104	335
451.324	345
451.545	346
451.766	327
451.986	337
452.207	327
452.428	344
452.648	327
452.869	322
453.089	317
453.31	309
453.53	294
453.751	321
453.971	320
454.192	319
454.412	294
454.633	303
454.853	322
455.073	308
455.294	321
455.514	299
455.734	315
455.955	315
456.175	307
456.395	315
456.616	307
456.836	305
457.056	304
457.276	301
457.497	297
457.717	292
457.937	294
458.157	314
458.377	316
458.598	318
458.818	313
459.038	333
459.258	337
459.478	336
459.698	350
459.918	366
460.138	383
460.358	383
460.578	407
460.798	413
461.018	401
461.238	414
461.458	403
461.678	404
461.898	417
462.118	419
462.338	432
462.558	433
462.777	460
462.997	492
463.217	505
463.437	493
463.657	461
463.876	466
464.096	464
464.316	481
464.536	461
464.755	444
464.975	409
465.195	419
465.414	380
465.634	355
465.854	360
466.073	347
466.293	338
466.512	357
466.732	348
466.951	337
467.171	344
467.391	358
467.61	348
467.829	341
468.049	354
468.268	365
468.488	375
468.707	337
468.927	353
469.146	334
469.365	343
469.585	348
469.804	373
470.023	331
470.243	362
470.462	378
470.681	362
470.901	335
471.12	350
471.339	346
471.558	348
471.777	324
471.997	361
472.216	351
472.435	381
472.654	342
472.873	335
473.092	328
473.311	335
473.53	329
473.749	333
473.968	347
474.187	332
474.406	341
474.625	340
474.844	338
475.063	337
475.282	320
475.501	315
475.72	351
475.939	338
476.158	353
476.377	348
476.596	339
476.814	351
477.033	338
477.252	344
477.471	343
477.69	343
477.908	383
478.127	387
478.346	390
478.564	394
478.783	410
479.002	408
479.22	411
479.439	406
479.658	403
479.876	384
480.095	408
480.313	418
480.532	446
480.751	412
480.969	441
481.188	468
481.406	444
481.624	392
481.843	379
482.061	368
482.28	371
482.498	352
482.717	340
482.935	370
483.153	372
483.372	378
483.59	382
483.808	356
484.027	353
484.245	386
484.463	369
484.681	365
484.9	378
485.118	392
485.336	375
485.554	364
485.772	382
485.99	375
486.209	373
486.427	365
486.645	401
486.863	399
487.081	400
487.299	387
487.517	387
487.735	400
487.953	418
488.171	426
488.389	403
488.607	389
488.825	376
489.043	371
489.261	388
489.479	403
489.696	389
489.914	396
490.132	400
490.35	410
490.568	407
490.786	399
491.003	416
491.221	419
491.439	409
491.657	411
491.874	432
492.092	446
492.31	448
492.527	422
492.745	429
492.963	417
493.18	436
493.398	416
493.615	426
493.833	431
494.05	412
494.268	440
494.485	417
494.703	418
494.92	440
495.138	423
495.355	425
495.573	438
495.79	434
496.008	452
496.225	449
496.442	441
496.66	419
496.877	429
497.094	444
497.312	448
497.529	452
497.746	459
497.963	473
498.181	456
498.398	516
498.615	534
498.832	543
499.049	587
499.267	663
499.484	707
499.701	755
499.918	840
500.135	933
500.352	1051
500.569	1067
500.786	1033
501.003	970
501.22	850
501.437	748
501.654	697
501.871	623
502.088	597
502.305	591
502.522	532
502.739	539
502.956	492
503.172	477
503.389	447
503.606	422
503.823	457
504.04	460
504.256	454
504.473	479
504.69	467
504.907	457
505.123	430
505.34	401
505.557	379
505.773	406
505.99	371
506.207	401
506.423	352
506.64	364
506.856	358
507.073	360
507.289	358
507.506	358
507.722	359
507.939	355
508.155	364
508.372	340
508.588	372
508.805	345
509.021	343
509.238	332
509.454	329
509.67	310
509.887	321
510.103	329
510.319	326
510.536	333
510.752	327
510.968	322
511.184	309
511.401	316
511.617	333
511.833	333
512.049	316
512.265	330
512.481	319
512.698	320
512.914	333
513.13	330
513.346	316
513.562	327
513.778	337
513.994	336
514.21	325
514.426	347
514.642	324
514.858	332
515.074	325
515.29	363
515.506	347
515.721	346
515.937	338
516.153	361
516.369	355
516.585	376
516.801	397
517.016	385
517.232	406
517.448	423
517.664	441
517.879	449
518.095	451
518.311	423
518.527	400
518.742	412
518.958	375
519.173	379
519.389	363
519.605	358
519.82	363
520.036	353
520.251	364
520.467	322
520.682	336
520.898	323
521.113	333
521.329	329
521.544	309
521.76	320
521.975	309
522.19	318
522.406	324
522.621	319
522.836	307
523.052	321
523.267	330
523.482	316
523.698	338
523.913	311
524.128	309
524.343	294
524.559	335
524.774	316
524.989	309
525.204	309
525.419	309
525.634	299
525.849	314
526.064	314
526.28	324
526.495	300
526.71	297
526.925	308
527.14	303
527.355	312
527.57	288
527.785	293
527.999	304
528.214	305
528.429	315
528.644	316
528.859	312
529.074	338
529.289	332
529.503	324
529.718	326
529.933	313
530.148	278
530.363	310
530.577	295
530.792	294
531.007	293
531.221	295
531.436	304
531.651	301
531.865	286
532.08	301
532.295	304
532.509	313
532.724	285
532.938	316
533.153	314
533.367	307
533.582	325
533.796	299
534.011	287
534.225	293
534.44	286
534.654	311
534.868	288
535.083	304
535.297	294
535.511	291
535.726	315
535.94	325
536.154	266
536.369	293
536.583	289
536.797	281
537.011	314
537.225	271
537.44	283
537.654	279
537.868	282
538.082	284
538.296	263
538.51	294
538.724	297
538.938	300
539.153	298
539.367	309
539.581	284
539.795	304
540.009	279
540.222	274
540.436	314
540.65	298
540.864	302
541.078	308
541.292	295
541.506	309
541.72	328
541.934	317
542.147	339
542.361	323
542.575	320
542.789	281
543.002	296
543.216	293
543.43	284
543.644	284
543.857	280
544.071	306
544.285	301
544.498	303
544.712	293
544.925	304
545.139	328
545.352	333
545.566	303
545.779	337
545.993	325
546.206	326
546.42	319
546.633	320
546.847	316
547.06	313
547.274	329
547.487	327
547.7	325
547.914	316
548.127	315
548.34	298
548.554	329
548.767	313
548.98	336
549.193	325
549.407	321
549.62	341
549.833	337
550.046	308
550.259	336
550.473	326
550.686	319
550.899	316
551.112	309
551.325	316
551.538	295
551.751	283
551.964	307
552.177	302
552.39	306
552.603	315
552.816	327
553.029	349
553.242	335
553.455	336
553.667	343
553.88	338
554.093	326
554.306	323
554.519	329
554.732	324
554.944	326
555.157	304
555.37	280
555.583	293
555.795	291
556.008	297
556.221	287
556.433	290
556.646	278
556.859	289
557.071	261
557.284	280
557.496	287
557.709	290
557.921	260
558.134	269
558.346	276
558.559	259
558.771	279
558.984	264
559.196	270
559.409	268
559.621	262
559.833	263
560.046	274
560.258	248
560.47	267
560.683	275
560.895	249
561.107	260
561.32	265
561.532	265
561.744	265
561.956	267
562.168	280
562.381	282
562.593	261
562.805	267
563.017	278
563.229	284
563.441	243
563.653	267
563.865	281
564.077	260
564.289	276
564.501	273
564.713	285
564.925	287
565.137	276
565.349	289
565.561	286
