Data from SampB_HRD10591_00055.txt Node
Date: Mon Jan 19 11:33:47 EST 2026
User: Yrep
Spectrometer: HR+D1059
Trigger mode: 0
Integration Time (sec): 3.443000E-1
Scans to average: 1
Electric dark correction enabled: true
Nonlinearity correction enabled: false
Boxcar width: 0
XAxis mode: Wavelengths
Number of Pixels in Spectrum: 2048
>>>>>Begin Spectral Data<<<<<
223.165	-20.19
223.4	-20.19
223.635	-20.19
223.869	-23.19
224.104	-28.19
224.338	-17.19
224.573	-21.19
224.808	-8.19
225.042	-0.19
225.277	-1.19
225.511	6.81
225.746	4.81
225.98	4.81
226.215	12.81
226.449	20.81
226.683	7.81
226.918	27.81
227.152	33.81
227.387	34.81
227.621	48.81
227.856	41.81
228.09	55.81
228.324	42.81
228.559	57.81
228.793	56.81
229.027	69.81
229.262	61.81
229.496	74.81
229.73	81.81
229.964	72.81
230.199	83.81
230.433	88.81
230.667	88.81
230.901	95.81
231.136	88.81
231.37	93.81
231.604	89.81
231.838	103.81
232.072	96.81
232.306	97.81
232.541	98.81
232.775	87.81
233.009	96.81
233.243	95.81
233.477	98.81
233.711	97.81
233.945	86.81
234.179	89.81
234.413	105.81
234.647	96.81
234.881	109.81
235.115	88.81
235.349	104.81
235.583	90.81
235.817	91.81
236.051	92.81
236.285	106.81
236.519	87.81
236.753	95.81
236.987	88.81
237.221	104.81
237.455	96.81
237.689	104.81
237.922	90.81
238.156	95.81
238.39	103.81
238.624	97.81
238.858	91.81
239.091	86.81
239.325	84.81
239.559	105.81
239.793	86.81
240.027	98.81
240.26	84.81
240.494	103.81
240.728	102.81
240.961	97.81
241.195	106.81
241.429	114.81
241.662	95.81
241.896	90.81
242.13	94.81
242.363	89.81
242.597	108.81
242.83	104.81
243.064	107.81
243.298	108.81
243.531	96.81
243.765	103.81
243.998	96.81
244.232	97.81
244.465	97.81
244.699	100.81
244.932	104.81
245.166	93.81
245.399	112.81
245.633	105.81
245.866	99.81
246.099	114.81
246.333	108.81
246.566	110.81
246.8	98.81
247.033	100.81
247.266	106.81
247.5	98.81
247.733	103.81
247.966	85.81
248.2	118.81
248.433	92.81
248.666	115.81
248.899	108.81
249.133	109.81
249.366	120.81
249.599	121.81
249.832	111.81
250.066	102.81
250.299	123.81
250.532	124.81
250.765	119.81
250.998	109.81
251.231	118.81
251.465	128.81
251.698	130.81
251.931	112.81
252.164	95.81
252.397	106.81
252.63	122.81
252.863	102.81
253.096	109.81
253.329	131.81
253.562	113.81
253.795	127.81
254.028	130.81
254.261	121.81
254.494	118.81
254.727	113.81
254.96	129.81
255.193	126.81
255.426	118.81
255.659	111.81
255.892	133.81
256.124	131.81
256.357	135.81
256.59	132.81
256.823	112.81
257.056	111.81
257.289	111.81
257.521	135.81
257.754	113.81
257.987	130.81
258.22	109.81
258.452	114.81
258.685	123.81
258.918	121.81
259.151	131.81
259.383	133.81
259.616	130.81
259.849	130.81
260.081	151.81
260.314	152.81
260.547	135.81
260.779	135.81
261.012	134.81
261.244	140.81
261.477	160.81
261.71	123.81
261.942	148.81
262.175	126.81
262.407	136.81
262.64	142.81
262.872	143.81
263.105	157.81
263.337	145.81
263.57	136.81
263.802	120.81
264.035	116.81
264.267	129.81
264.499	113.81
264.732	141.81
264.964	121.81
265.197	121.81
265.429	118.81
265.661	130.81
265.894	123.81
266.126	109.81
266.358	114.81
266.591	119.81
266.823	126.81
267.055	135.81
267.287	134.81
267.52	128.81
267.752	137.81
267.984	136.81
268.216	140.81
268.448	144.81
268.681	151.81
268.913	148.81
269.145	130.81
269.377	136.81
269.609	127.81
269.841	138.81
270.073	126.81
270.306	130.81
270.538	135.81
270.77	138.81
271.002	131.81
271.234	143.81
271.466	144.81
271.698	153.81
271.93	146.81
272.162	163.81
272.394	161.81
272.626	152.81
272.858	130.81
273.09	155.81
273.322	135.81
273.553	146.81
273.785	151.81
274.017	162.81
274.249	160.81
274.481	156.81
274.713	154.81
274.945	168.81
275.176	178.81
275.408	152.81
275.64	168.81
275.872	164.81
276.104	143.81
276.335	154.81
276.567	144.81
276.799	135.81
277.031	140.81
277.262	162.81
277.494	139.81
277.726	154.81
277.957	152.81
278.189	154.81
278.421	142.81
278.652	152.81
278.884	147.81
279.115	151.81
279.347	144.81
279.579	168.81
279.81	187.81
280.042	173.81
280.273	157.81
280.505	168.81
280.736	149.81
280.968	161.81
281.199	164.81
281.431	162.81
281.662	123.81
281.894	144.81
282.125	132.81
282.356	156.81
282.588	137.81
282.819	144.81
283.051	152.81
283.282	149.81
283.513	143.81
283.745	149.81
283.976	157.81
284.207	145.81
284.439	155.81
284.67	170.81
284.901	153.81
285.132	175.81
285.364	158.81
285.595	154.81
285.826	145.81
286.057	150.81
286.288	163.81
286.52	170.81
286.751	153.81
286.982	162.81
287.213	154.81
287.444	173.81
287.675	156.81
287.906	144.81
288.138	164.81
288.369	171.81
288.6	182.81
288.831	156.81
289.062	168.81
289.293	157.81
289.524	158.81
289.755	140.81
289.986	159.81
290.217	168.81
290.448	150.81
290.679	159.81
290.91	157.81
291.141	165.81
291.371	166.81
291.602	145.81
291.833	172.81
292.064	144.81
292.295	168.81
292.526	152.81
292.757	157.81
292.987	159.81
293.218	165.81
293.449	173.81
293.68	148.81
293.91	156.81
294.141	180.81
294.372	162.81
294.603	161.81
294.833	160.81
295.064	153.81
295.295	162.81
295.525	154.81
295.756	158.81
295.987	167.81
296.217	164.81
296.448	177.81
296.679	172.81
296.909	163.81
297.14	162.81
297.37	177.81
297.601	165.81
297.831	171.81
298.062	162.81
298.292	171.81
298.523	172.81
298.753	169.81
298.984	172.81
299.214	156.81
299.445	168.81
299.675	180.81
299.905	184.81
300.136	179.81
300.366	174.81
300.597	169.81
300.827	193.81
301.057	164.81
301.288	182.81
301.518	184.81
301.748	178.81
301.979	203.81
302.209	162.81
302.439	176.81
302.669	179.81
302.9	168.81
303.13	170.81
303.36	176.81
303.59	183.81
303.82	185.81
304.051	177.81
304.281	186.81
304.511	193.81
304.741	190.81
304.971	177.81
305.201	175.81
305.431	167.81
305.661	158.81
305.891	186.81
306.121	190.81
306.352	175.81
306.582	173.81
306.812	170.81
307.042	154.81
307.272	175.81
307.502	173.81
307.731	183.81
307.961	186.81
308.191	182.81
308.421	183.81
308.651	188.81
308.881	170.81
309.111	173.81
309.341	184.81
309.571	171.81
309.8	174.81
310.03	174.81
310.26	187.81
310.49	185.81
310.72	188.81
310.949	177.81
311.179	177.81
311.409	163.81
311.639	167.81
311.868	174.81
312.098	175.81
312.328	171.81
312.557	181.81
312.787	184.81
313.017	173.81
313.246	184.81
313.476	195.81
313.706	202.81
313.935	176.81
314.165	195.81
314.394	180.81
314.624	167.81
314.853	174.81
315.083	177.81
315.312	177.81
315.542	178.81
315.771	163.81
316.001	174.81
316.23	180.81
316.46	167.81
316.689	190.81
316.919	180.81
317.148	187.81
317.377	182.81
317.607	177.81
317.836	175.81
318.065	186.81
318.295	186.81
318.524	188.81
318.753	179.81
318.983	189.81
319.212	175.81
319.441	183.81
319.67	171.81
319.9	182.81
320.129	171.81
320.358	199.81
320.587	202.81
320.816	194.81
321.046	194.81
321.275	190.81
321.504	184.81
321.733	188.81
321.962	196.81
322.191	186.81
322.42	182.81
322.649	202.81
322.878	202.81
323.108	196.81
323.337	223.81
323.566	207.81
323.795	205.81
324.024	215.81
324.253	201.81
324.482	191.81
324.71	185.81
324.939	204.81
325.168	214.81
325.397	194.81
325.626	209.81
325.855	199.81
326.084	207.81
326.313	205.81
326.542	191.81
326.77	211.81
326.999	188.81
327.228	192.81
327.457	208.81
327.686	218.81
327.914	211.81
328.143	249.81
328.372	250.81
328.6	222.81
328.829	194.81
329.058	215.81
329.287	204.81
329.515	215.81
329.744	236.81
329.972	259.81
330.201	269.81
330.43	269.81
330.658	235.81
330.887	229.81
331.115	239.81
331.344	208.81
331.572	224.81
331.801	206.81
332.03	218.81
332.258	241.81
332.486	235.81
332.715	243.81
332.943	250.81
333.172	245.81
333.4	260.81
333.629	260.81
333.857	292.81
334.085	315.81
334.314	350.81
334.542	342.81
334.771	344.81
334.999	298.81
335.227	272.81
335.455	237.81
335.684	251.81
335.912	250.81
336.14	240.81
336.369	236.81
336.597	214.81
336.825	235.81
337.053	238.81
337.281	236.81
337.51	224.81
337.738	219.81
337.966	217.81
338.194	228.81
338.422	221.81
338.65	218.81
338.878	232.81
339.106	215.81
339.334	221.81
339.562	192.81
339.79	210.81
340.018	213.81
340.246	207.81
340.474	217.81
340.702	200.81
340.93	212.81
341.158	193.81
341.386	202.81
341.614	196.81
341.842	215.81
342.07	204.81
342.298	202.81
342.526	210.81
342.754	212.81
342.981	207.81
343.209	208.81
343.437	249.81
343.665	224.81
343.893	237.81
344.12	244.81
344.348	205.81
344.576	213.81
344.804	207.81
345.031	208.81
345.259	216.81
345.487	207.81
345.714	189.81
345.942	212.81
346.17	206.81
346.397	211.81
346.625	201.81
346.853	203.81
347.08	198.81
347.308	199.81
347.535	193.81
347.763	215.81
347.99	203.81
348.218	235.81
348.445	202.81
348.673	189.81
348.9	200.81
349.128	208.81
349.355	200.81
349.583	199.81
349.81	194.81
350.037	193.81
350.265	195.81
350.492	186.81
350.72	187.81
350.947	202.81
351.174	194.81
351.402	192.81
351.629	196.81
351.856	199.81
352.083	177.81
352.311	207.81
352.538	193.81
352.765	183.81
352.992	209.81
353.22	211.81
353.447	187.81
353.674	222.81
353.901	190.81
354.128	200.81
354.355	182.81
354.583	190.81
354.81	218.81
355.037	206.81
355.264	189.81
355.491	185.81
355.718	194.81
355.945	208.81
356.172	200.81
356.399	207.81
356.626	208.81
356.853	198.81
357.08	215.81
357.307	190.81
357.534	195.81
357.761	192.81
357.988	209.81
358.215	221.81
358.441	209.81
358.668	202.81
358.895	203.81
359.122	192.81
359.349	206.81
359.576	178.81
359.802	191.81
360.029	200.81
360.256	213.81
360.483	201.81
360.709	201.81
360.936	217.81
361.163	202.81
361.39	177.81
361.616	178.81
361.843	207.81
362.07	202.81
362.296	212.81
362.523	175.81
362.749	191.81
362.976	198.81
363.203	228.81
363.429	192.81
363.656	195.81
363.882	196.81
364.109	204.81
364.335	224.81
364.562	204.81
364.788	217.81
365.015	203.81
365.241	209.81
365.468	217.81
365.694	192.81
365.92	200.81
366.147	217.81
366.373	217.81
366.599	205.81
366.826	193.81
367.052	220.81
367.278	201.81
367.505	193.81
367.731	208.81
367.957	194.81
368.184	226.81
368.41	205.81
368.636	210.81
368.862	214.81
369.089	213.81
369.315	198.81
369.541	204.81
369.767	208.81
369.993	210.81
370.219	206.81
370.445	203.81
370.672	210.81
370.898	215.81
371.124	211.81
371.35	214.81
371.576	204.81
371.802	221.81
372.028	221.81
372.254	231.81
372.48	204.81
372.706	237.81
372.932	232.81
373.158	218.81
373.384	228.81
373.61	239.81
373.835	248.81
374.061	228.81
374.287	226.81
374.513	238.81
374.739	228.81
374.965	239.81
375.191	254.81
375.416	232.81
375.642	254.81
375.868	242.81
376.094	236.81
376.319	239.81
376.545	224.81
376.771	220.81
376.997	212.81
377.222	209.81
377.448	211.81
377.674	212.81
377.899	216.81
378.125	210.81
378.35	200.81
378.576	220.81
378.802	217.81
379.027	197.81
379.253	205.81
379.478	209.81
379.704	217.81
379.929	207.81
380.155	216.81
380.38	213.81
380.606	230.81
380.831	225.81
381.057	222.81
381.282	204.81
381.507	225.81
381.733	236.81
381.958	233.81
382.184	233.81
382.409	236.81
382.634	242.81
382.86	241.81
383.085	234.81
383.31	252.81
383.535	248.81
383.761	226.81
383.986	250.81
384.211	249.81
384.436	249.81
384.662	254.81
384.887	242.81
385.112	250.81
385.337	260.81
385.562	236.81
385.787	268.81
386.013	261.81
386.238	250.81
386.463	274.81
386.688	259.81
386.913	234.81
387.138	238.81
387.363	250.81
387.588	248.81
387.813	239.81
388.038	267.81
388.263	275.81
388.488	255.81
388.713	255.81
388.938	271.81
389.163	259.81
389.387	253.81
389.612	226.81
389.837	255.81
390.062	253.81
390.287	255.81
390.512	265.81
390.736	257.81
390.961	266.81
391.186	227.81
391.411	264.81
391.636	272.81
391.86	254.81
392.085	282.81
392.31	272.81
392.534	266.81
392.759	283.81
392.984	281.81
393.208	325.81
393.433	331.81
393.658	316.81
393.882	264.81
394.107	265.81
394.331	269.81
394.556	284.81
394.78	281.81
395.005	282.81
395.229	280.81
395.454	280.81
395.678	283.81
395.903	302.81
396.127	284.81
396.352	302.81
396.576	297.81
396.801	327.81
397.025	332.81
397.249	303.81
397.474	285.81
397.698	274.81
397.922	298.81
398.147	303.81
398.371	298.81
398.595	304.81
398.82	313.81
399.044	345.81
399.268	352.81
399.492	405.81
399.717	418.81
399.941	391.81
400.165	363.81
400.389	350.81
400.613	323.81
400.837	322.81
401.062	306.81
401.286	309.81
401.51	307.81
401.734	322.81
401.958	310.81
402.182	318.81
402.406	312.81
402.63	330.81
402.854	328.81
403.078	321.81
403.302	336.81
403.526	341.81
403.75	340.81
403.974	342.81
404.198	342.81
404.422	356.81
404.645	344.81
404.869	326.81
405.093	346.81
405.317	337.81
405.541	335.81
405.765	328.81
405.988	332.81
406.212	326.81
406.436	333.81
406.66	341.81
406.883	348.81
407.107	369.81
407.331	360.81
407.555	400.81
407.778	383.81
408.002	354.81
408.226	364.81
408.449	359.81
408.673	345.81
408.896	356.81
409.12	311.81
409.344	341.81
409.567	360.81
409.791	332.81
410.014	339.81
410.238	352.81
410.461	345.81
410.685	339.81
410.908	319.81
411.132	329.81
411.355	323.81
411.578	334.81
411.802	330.81
412.025	335.81
412.249	344.81
412.472	312.81
412.695	307.81
412.919	298.81
413.142	328.81
413.365	321.81
413.589	320.81
413.812	307.81
414.035	316.81
414.258	318.81
414.482	318.81
414.705	320.81
414.928	314.81
415.151	314.81
415.374	312.81
415.597	315.81
415.821	318.81
416.044	302.81
416.267	317.81
416.49	306.81
416.713	304.81
416.936	309.81
417.159	303.81
417.382	296.81
417.605	303.81
417.828	317.81
418.051	321.81
418.274	338.81
418.497	336.81
418.72	332.81
418.943	333.81
419.166	335.81
419.389	347.81
419.611	327.81
419.834	345.81
420.057	332.81
420.28	328.81
420.503	332.81
420.726	310.81
420.948	315.81
421.171	319.81
421.394	335.81
421.617	328.81
421.839	328.81
422.062	330.81
422.285	319.81
422.507	331.81
422.73	352.81
422.953	330.81
423.175	336.81
423.398	340.81
423.621	328.81
423.843	326.81
424.066	344.81
424.288	338.81
424.511	334.81
424.733	328.81
424.956	331.81
425.178	318.81
425.401	330.81
425.623	309.81
425.846	304.81
426.068	328.81
426.291	295.81
426.513	319.81
426.735	298.81
426.958	305.81
427.18	286.81
427.402	310.81
427.625	306.81
427.847	315.81
428.069	306.81
428.292	295.81
428.514	306.81
428.736	311.81
428.958	291.81
429.181	294.81
429.403	281.81
429.625	301.81
429.847	306.81
430.069	296.81
430.292	313.81
430.514	302.81
430.736	307.81
430.958	302.81
431.18	295.81
431.402	291.81
431.624	281.81
431.846	302.81
432.068	272.81
432.29	281.81
432.512	281.81
432.734	297.81
432.956	301.81
433.178	295.81
433.4	288.81
433.622	301.81
433.844	305.81
434.066	303.81
434.287	280.81
434.509	276.81
434.731	289.81
434.953	321.81
435.175	308.81
435.397	329.81
435.618	280.81
435.84	279.81
436.062	271.81
436.284	273.81
436.505	281.81
436.727	289.81
436.949	292.81
437.17	289.81
437.392	278.81
437.614	277.81
437.835	267.81
438.057	264.81
438.278	282.81
438.5	284.81
438.721	274.81
438.943	259.81
439.165	266.81
439.386	294.81
439.608	293.81
439.829	295.81
440.05	307.81
440.272	297.81
440.493	298.81
440.715	313.81
440.936	314.81
441.158	303.81
441.379	306.81
441.6	329.81
441.822	319.81
442.043	323.81
442.264	332.81
442.486	315.81
442.707	315.81
442.928	301.81
443.149	323.81
443.371	301.81
443.592	341.81
443.813	336.81
444.034	327.81
444.255	348.81
444.476	347.81
444.698	367.81
444.919	361.81
445.14	531.81
445.361	436.81
445.582	343.81
445.803	296.81
446.024	309.81
446.245	315.81
446.466	285.81
446.687	290.81
446.908	310.81
447.129	304.81
447.35	308.81
447.571	290.81
447.792	290.81
448.013	289.81
448.234	287.81
448.455	271.81
448.675	299.81
448.896	275.81
449.117	278.81
449.338	282.81
449.559	291.81
449.779	273.81
450	268.81
450.221	277.81
450.442	270.81
450.662	292.81
450.883	286.81
451.104	287.81
451.324	264.81
451.545	259.81
451.766	272.81
451.986	288.81
452.207	282.81
452.428	275.81
452.648	273.81
452.869	274.81
453.089	255.81
453.31	270.81
453.53	289.81
453.751	273.81
453.971	267.81
454.192	238.81
454.412	255.81
454.633	265.81
454.853	265.81
455.073	252.81
455.294	268.81
455.514	271.81
455.734	262.81
455.955	250.81
456.175	249.81
456.395	233.81
456.616	247.81
456.836	248.81
457.056	243.81
457.276	232.81
457.497	248.81
457.717	218.81
457.937	259.81
458.157	244.81
458.377	255.81
458.598	246.81
458.818	252.81
459.038	257.81
459.258	265.81
459.478	271.81
459.698	272.81
459.918	298.81
460.138	299.81
460.358	311.81
460.578	297.81
460.798	305.81
461.018	322.81
461.238	311.81
461.458	309.81
461.678	305.81
461.898	315.81
462.118	329.81
462.338	342.81
462.558	338.81
462.777	345.81
462.997	377.81
463.217	401.81
463.437	384.81
463.657	374.81
463.876	361.81
464.096	343.81
464.316	338.81
464.536	352.81
464.755	364.81
464.975	336.81
465.195	333.81
465.414	287.81
465.634	290.81
465.854	299.81
466.073	294.81
466.293	279.81
466.512	291.81
466.732	278.81
466.951	289.81
467.171	274.81
467.391	273.81
467.61	292.81
467.829	295.81
468.049	306.81
468.268	329.81
468.488	299.81
468.707	279.81
468.927	267.81
469.146	281.81
469.365	286.81
469.585	297.81
469.804	296.81
470.023	309.81
470.243	302.81
470.462	312.81
470.681	282.81
470.901	283.81
471.12	287.81
471.339	293.81
471.558	286.81
471.777	285.81
471.997	311.81
472.216	348.81
472.435	370.81
472.654	329.81
472.873	304.81
473.092	304.81
473.311	290.81
473.53	282.81
473.749	267.81
473.968	294.81
474.187	276.81
474.406	292.81
474.625	265.81
474.844	287.81
475.063	271.81
475.282	281.81
475.501	278.81
475.72	299.81
475.939	280.81
476.158	295.81
476.377	288.81
476.596	284.81
476.814	296.81
477.033	270.81
477.252	280.81
477.471	288.81
477.69	296.81
477.908	323.81
478.127	332.81
478.346	314.81
478.564	313.81
478.783	301.81
479.002	322.81
479.22	310.81
479.439	324.81
479.658	332.81
479.876	318.81
480.095	330.81
480.313	357.81
480.532	355.81
480.751	344.81
480.969	381.81
481.188	463.81
481.406	462.81
481.624	376.81
481.843	337.81
482.061	334.81
482.28	328.81
482.498	318.81
482.717	298.81
482.935	312.81
483.153	327.81
483.372	305.81
483.59	308.81
483.808	326.81
484.027	307.81
484.245	305.81
484.463	307.81
484.681	316.81
484.9	315.81
485.118	323.81
485.336	303.81
485.554	311.81
485.772	304.81
485.99	287.81
486.209	291.81
486.427	277.81
486.645	302.81
486.863	308.81
487.081	307.81
487.299	321.81
487.517	313.81
487.735	333.81
487.953	345.81
488.171	352.81
488.389	343.81
488.607	303.81
488.825	321.81
489.043	327.81
489.261	322.81
489.479	312.81
489.696	329.81
489.914	316.81
490.132	331.81
490.35	325.81
490.568	323.81
490.786	324.81
491.003	341.81
491.221	330.81
491.439	368.81
491.657	351.81
491.874	357.81
492.092	378.81
492.31	383.81
492.527	383.81
492.745	386.81
492.963	360.81
493.18	354.81
493.398	364.81
493.615	385.81
493.833	357.81
494.05	363.81
494.268	344.81
494.485	366.81
494.703	365.81
494.92	372.81
495.138	346.81
495.355	354.81
495.573	369.81
495.79	347.81
496.008	351.81
496.225	368.81
496.442	348.81
496.66	354.81
496.877	361.81
497.094	381.81
497.312	357.81
497.529	384.81
497.746	382.81
497.963	378.81
498.181	384.81
498.398	447.81
498.615	420.81
498.832	446.81
499.049	479.81
499.267	503.81
499.484	527.81
499.701	584.81
499.918	596.81
500.135	694.81
500.352	748.81
500.569	766.81
500.786	792.81
501.003	738.81
501.22	604.81
501.437	592.81
501.654	540.81
501.871	481.81
502.088	462.81
502.305	457.81
502.522	418.81
502.739	429.81
502.956	385.81
503.172	375.81
503.389	366.81
503.606	357.81
