Data from SampB_HRD10591_00007.txt Node
Date: Mon Jan 19 11:33:30 EST 2026
User: Yrep
Spectrometer: HR+D1059
Trigger mode: 0
Integration Time (sec): 3.443000E-1
Scans to average: 1
Electric dark correction enabled: true
Nonlinearity correction enabled: false
Boxcar width: 0
XAxis mode: Wavelengths
Number of Pixels in Spectrum: 2048
>>>>>Begin Spectral Data<<<<<
223.165	-23.25
223.4	-23.25
223.635	-23.25
223.869	-32.25
224.104	-23.25
224.338	-16.25
224.573	-28.25
224.808	-6.25
225.042	2.75
225.277	-5.25
225.511	-2.25
225.746	0.75
225.98	6.75
226.215	8.75
226.449	25.75
226.683	23.75
226.918	32.75
227.152	35.75
227.387	37.75
227.621	38.75
227.856	52.75
228.09	46.75
228.324	50.75
228.559	67.75
228.793	70.75
229.027	66.75
229.262	67.75
229.496	74.75
229.73	64.75
229.964	78.75
230.199	82.75
230.433	84.75
230.667	92.75
230.901	83.75
231.136	90.75
231.37	91.75
231.604	86.75
231.838	92.75
232.072	97.75
232.306	94.75
232.541	78.75
232.775	98.75
233.009	84.75
233.243	84.75
233.477	103.75
233.711	81.75
233.945	95.75
234.179	84.75
234.413	97.75
234.647	98.75
234.881	95.75
235.115	89.75
235.349	99.75
235.583	100.75
235.817	104.75
236.051	94.75
236.285	87.75
236.519	84.75
236.753	92.75
236.987	83.75
237.221	96.75
237.455	87.75
237.689	92.75
237.922	96.75
238.156	96.75
238.39	94.75
238.624	87.75
238.858	90.75
239.091	90.75
239.325	109.75
239.559	114.75
239.793	103.75
240.027	95.75
240.26	91.75
240.494	95.75
240.728	101.75
240.961	92.75
241.195	82.75
241.429	73.75
241.662	98.75
241.896	104.75
242.13	89.75
242.363	98.75
242.597	104.75
242.83	106.75
243.064	104.75
243.298	100.75
243.531	107.75
243.765	104.75
243.998	105.75
244.232	99.75
244.465	96.75
244.699	105.75
244.932	104.75
245.166	113.75
245.399	120.75
245.633	113.75
245.866	98.75
246.099	101.75
246.333	103.75
246.566	109.75
246.8	102.75
247.033	103.75
247.266	91.75
247.5	104.75
247.733	105.75
247.966	97.75
248.2	107.75
248.433	94.75
248.666	106.75
248.899	120.75
249.133	94.75
249.366	127.75
249.599	108.75
249.832	97.75
250.066	138.75
250.299	115.75
250.532	123.75
250.765	114.75
250.998	121.75
251.231	113.75
251.465	134.75
251.698	110.75
251.931	127.75
252.164	118.75
252.397	102.75
252.63	114.75
252.863	124.75
253.096	111.75
253.329	112.75
253.562	118.75
253.795	127.75
254.028	130.75
254.261	134.75
254.494	121.75
254.727	102.75
254.96	124.75
255.193	139.75
255.426	128.75
255.659	126.75
255.892	146.75
256.124	125.75
256.357	129.75
256.59	137.75
256.823	127.75
257.056	119.75
257.289	132.75
257.521	124.75
257.754	128.75
257.987	134.75
258.22	122.75
258.452	128.75
258.685	128.75
258.918	127.75
259.151	119.75
259.383	117.75
259.616	118.75
259.849	134.75
260.081	139.75
260.314	130.75
260.547	134.75
260.779	128.75
261.012	141.75
261.244	135.75
261.477	152.75
261.71	129.75
261.942	118.75
262.175	142.75
262.407	156.75
262.64	132.75
262.872	139.75
263.105	149.75
263.337	151.75
263.57	120.75
263.802	132.75
264.035	138.75
264.267	131.75
264.499	115.75
264.732	120.75
264.964	126.75
265.197	128.75
265.429	119.75
265.661	127.75
265.894	133.75
266.126	146.75
266.358	136.75
266.591	125.75
266.823	122.75
267.055	138.75
267.287	140.75
267.52	110.75
267.752	126.75
267.984	135.75
268.216	158.75
268.448	136.75
268.681	139.75
268.913	137.75
269.145	125.75
269.377	136.75
269.609	129.75
269.841	130.75
270.073	127.75
270.306	138.75
270.538	136.75
270.77	143.75
271.002	126.75
271.234	140.75
271.466	143.75
271.698	149.75
271.93	149.75
272.162	151.75
272.394	143.75
272.626	167.75
272.858	142.75
273.09	129.75
273.322	145.75
273.553	141.75
273.785	144.75
274.017	136.75
274.249	153.75
274.481	165.75
274.713	156.75
274.945	181.75
275.176	164.75
275.408	153.75
275.64	162.75
275.872	167.75
276.104	158.75
276.335	162.75
276.567	159.75
276.799	154.75
277.031	171.75
277.262	156.75
277.494	163.75
277.726	162.75
277.957	157.75
278.189	144.75
278.421	153.75
278.652	147.75
278.884	156.75
279.115	177.75
279.347	172.75
279.579	197.75
279.81	175.75
280.042	182.75
280.273	178.75
280.505	189.75
280.736	169.75
280.968	164.75
281.199	168.75
281.431	172.75
281.662	156.75
281.894	162.75
282.125	150.75
282.356	158.75
282.588	157.75
282.819	160.75
283.051	157.75
283.282	151.75
283.513	174.75
283.745	171.75
283.976	157.75
284.207	169.75
284.439	156.75
284.67	172.75
284.901	178.75
285.132	174.75
285.364	168.75
285.595	162.75
285.826	164.75
286.057	170.75
286.288	154.75
286.52	167.75
286.751	159.75
286.982	156.75
287.213	164.75
287.444	169.75
287.675	178.75
287.906	166.75
288.138	165.75
288.369	179.75
288.6	163.75
288.831	166.75
289.062	170.75
289.293	169.75
289.524	163.75
289.755	172.75
289.986	173.75
290.217	172.75
290.448	171.75
290.679	163.75
290.91	184.75
291.141	164.75
291.371	183.75
291.602	185.75
291.833	175.75
292.064	163.75
292.295	170.75
292.526	176.75
292.757	161.75
292.987	177.75
293.218	175.75
293.449	173.75
293.68	177.75
293.91	190.75
294.141	193.75
294.372	182.75
294.603	180.75
294.833	182.75
295.064	186.75
295.295	175.75
295.525	184.75
295.756	185.75
295.987	180.75
296.217	186.75
296.448	174.75
296.679	171.75
296.909	180.75
297.14	185.75
297.37	186.75
297.601	185.75
297.831	184.75
298.062	175.75
298.292	181.75
298.523	179.75
298.753	187.75
298.984	180.75
299.214	190.75
299.445	211.75
299.675	193.75
299.905	202.75
300.136	182.75
300.366	189.75
300.597	193.75
300.827	214.75
301.057	170.75
301.288	184.75
301.518	193.75
301.748	203.75
301.979	221.75
302.209	195.75
302.439	187.75
302.669	198.75
302.9	214.75
303.13	195.75
303.36	199.75
303.59	188.75
303.82	189.75
304.051	189.75
304.281	208.75
304.511	209.75
304.741	186.75
304.971	186.75
305.201	195.75
305.431	187.75
305.661	181.75
305.891	201.75
306.121	200.75
306.352	212.75
306.582	201.75
306.812	183.75
307.042	205.75
307.272	226.75
307.502	211.75
307.731	218.75
307.961	208.75
308.191	194.75
308.421	203.75
308.651	213.75
308.881	222.75
309.111	208.75
309.341	194.75
309.571	162.75
309.8	207.75
310.03	207.75
310.26	183.75
310.49	208.75
310.72	186.75
310.949	186.75
311.179	191.75
311.409	198.75
311.639	191.75
311.868	203.75
312.098	206.75
312.328	188.75
312.557	202.75
312.787	184.75
313.017	195.75
313.246	213.75
313.476	208.75
313.706	193.75
313.935	198.75
314.165	202.75
314.394	190.75
314.624	218.75
314.853	202.75
315.083	217.75
315.312	208.75
315.542	209.75
315.771	207.75
316.001	205.75
316.23	209.75
316.46	204.75
316.689	211.75
316.919	207.75
317.148	201.75
317.377	205.75
317.607	212.75
317.836	207.75
318.065	195.75
318.295	207.75
318.524	196.75
318.753	213.75
318.983	220.75
319.212	205.75
319.441	183.75
319.67	200.75
319.9	209.75
320.129	213.75
320.358	217.75
320.587	218.75
320.816	187.75
321.046	191.75
321.275	220.75
321.504	220.75
321.733	227.75
321.962	219.75
322.191	211.75
322.42	217.75
322.649	212.75
322.878	220.75
323.108	228.75
323.337	207.75
323.566	227.75
323.795	243.75
324.024	236.75
324.253	209.75
324.482	211.75
324.71	256.75
324.939	234.75
325.168	218.75
325.397	222.75
325.626	211.75
325.855	225.75
326.084	242.75
326.313	237.75
326.542	222.75
326.77	219.75
326.999	241.75
327.228	233.75
327.457	237.75
327.686	260.75
327.914	259.75
328.143	302.75
328.372	312.75
328.6	290.75
328.829	270.75
329.058	235.75
329.287	255.75
329.515	266.75
329.744	302.75
329.972	333.75
330.201	410.75
330.43	410.75
330.658	344.75
330.887	281.75
331.115	248.75
331.344	239.75
331.572	262.75
331.801	251.75
332.03	258.75
332.258	259.75
332.486	275.75
332.715	291.75
332.943	295.75
333.172	307.75
333.4	319.75
333.629	324.75
333.857	346.75
334.085	414.75
334.314	489.75
334.542	589.75
334.771	508.75
334.999	386.75
335.227	324.75
335.455	303.75
335.684	309.75
335.912	273.75
336.14	275.75
336.369	265.75
336.597	266.75
336.825	258.75
337.053	260.75
337.281	255.75
337.51	258.75
337.738	267.75
337.966	260.75
338.194	270.75
338.422	253.75
338.65	251.75
338.878	252.75
339.106	227.75
339.334	257.75
339.562	225.75
339.79	219.75
340.018	224.75
340.246	230.75
340.474	212.75
340.702	228.75
340.93	227.75
341.158	215.75
341.386	233.75
341.614	238.75
341.842	232.75
342.07	233.75
342.298	234.75
342.526	228.75
342.754	237.75
342.981	228.75
343.209	233.75
343.437	279.75
343.665	262.75
343.893	265.75
344.12	276.75
344.348	262.75
344.576	262.75
344.804	243.75
345.031	236.75
345.259	219.75
345.487	237.75
345.714	227.75
345.942	219.75
346.17	219.75
346.397	219.75
346.625	217.75
346.853	206.75
347.08	226.75
347.308	228.75
347.535	209.75
347.763	251.75
347.99	226.75
348.218	215.75
348.445	201.75
348.673	229.75
348.9	239.75
349.128	216.75
349.355	237.75
349.583	228.75
349.81	206.75
350.037	216.75
350.265	227.75
350.492	216.75
350.72	223.75
350.947	210.75
351.174	229.75
351.402	215.75
351.629	218.75
351.856	210.75
352.083	230.75
352.311	236.75
352.538	214.75
352.765	224.75
352.992	216.75
353.22	228.75
353.447	204.75
353.674	224.75
353.901	227.75
354.128	218.75
354.355	214.75
354.583	212.75
354.81	212.75
355.037	231.75
355.264	214.75
355.491	222.75
355.718	224.75
355.945	238.75
356.172	236.75
356.399	229.75
356.626	228.75
356.853	234.75
357.08	216.75
357.307	236.75
357.534	222.75
357.761	222.75
357.988	226.75
358.215	235.75
358.441	217.75
358.668	219.75
358.895	225.75
359.122	210.75
359.349	223.75
359.576	212.75
359.802	224.75
360.029	213.75
360.256	228.75
360.483	228.75
360.709	207.75
360.936	225.75
361.163	243.75
361.39	219.75
361.616	223.75
361.843	230.75
362.07	224.75
362.296	226.75
362.523	221.75
362.749	222.75
362.976	223.75
363.203	241.75
363.429	233.75
363.656	225.75
363.882	235.75
364.109	224.75
364.335	240.75
364.562	243.75
364.788	226.75
365.015	230.75
365.241	234.75
365.468	252.75
365.694	218.75
365.92	241.75
366.147	230.75
366.373	217.75
366.599	225.75
366.826	217.75
367.052	210.75
367.278	242.75
367.505	202.75
367.731	220.75
367.957	226.75
368.184	208.75
368.41	212.75
368.636	244.75
368.862	245.75
369.089	247.75
369.315	215.75
369.541	215.75
369.767	246.75
369.993	229.75
370.219	226.75
370.445	215.75
370.672	223.75
370.898	240.75
371.124	235.75
371.35	217.75
371.576	239.75
371.802	243.75
372.028	243.75
372.254	247.75
372.48	245.75
372.706	241.75
372.932	255.75
373.158	249.75
373.384	254.75
373.61	246.75
373.835	251.75
374.061	251.75
374.287	270.75
374.513	252.75
374.739	264.75
374.965	270.75
375.191	274.75
375.416	273.75
375.642	268.75
375.868	268.75
376.094	277.75
376.319	256.75
376.545	250.75
376.771	253.75
376.997	258.75
377.222	238.75
377.448	230.75
377.674	232.75
377.899	249.75
378.125	224.75
378.35	236.75
378.576	246.75
378.802	238.75
379.027	228.75
379.253	255.75
379.478	248.75
379.704	247.75
379.929	232.75
380.155	237.75
380.38	262.75
380.606	225.75
380.831	251.75
381.057	263.75
381.282	246.75
381.507	257.75
381.733	249.75
381.958	250.75
382.184	244.75
382.409	262.75
382.634	268.75
382.86	260.75
383.085	290.75
383.31	278.75
383.535	283.75
383.761	274.75
383.986	287.75
384.211	283.75
384.436	277.75
384.662	276.75
384.887	287.75
385.112	275.75
385.337	282.75
385.562	284.75
385.787	295.75
386.013	306.75
386.238	309.75
386.463	306.75
386.688	320.75
386.913	309.75
387.138	281.75
387.363	283.75
387.588	288.75
387.813	293.75
388.038	292.75
388.263	303.75
388.488	311.75
388.713	307.75
388.938	278.75
389.163	272.75
389.387	275.75
389.612	292.75
389.837	280.75
390.062	263.75
390.287	290.75
390.512	322.75
390.736	295.75
390.961	272.75
391.186	310.75
391.411	301.75
391.636	284.75
391.86	287.75
392.085	320.75
392.31	323.75
392.534	333.75
392.759	316.75
392.984	333.75
393.208	344.75
393.433	382.75
393.658	358.75
393.882	314.75
394.107	302.75
394.331	315.75
394.556	329.75
394.78	314.75
395.005	297.75
395.229	314.75
395.454	330.75
395.678	341.75
395.903	358.75
396.127	344.75
396.352	316.75
396.576	321.75
396.801	344.75
397.025	374.75
397.249	326.75
397.474	318.75
397.698	326.75
397.922	343.75
398.147	342.75
398.371	359.75
398.595	343.75
398.82	363.75
399.044	375.75
399.268	430.75
399.492	464.75
399.717	488.75
399.941	471.75
400.165	429.75
400.389	387.75
400.613	361.75
400.837	369.75
401.062	366.75
401.286	344.75
401.51	351.75
401.734	368.75
401.958	355.75
402.182	363.75
402.406	372.75
402.63	370.75
402.854	373.75
403.078	375.75
403.302	361.75
403.526	400.75
403.75	396.75
403.974	393.75
404.198	392.75
404.422	401.75
404.645	413.75
404.869	402.75
405.093	406.75
405.317	389.75
405.541	396.75
405.765	380.75
405.988	374.75
406.212	382.75
406.436	382.75
406.66	394.75
406.883	394.75
407.107	420.75
407.331	431.75
407.555	438.75
407.778	420.75
408.002	419.75
408.226	403.75
408.449	397.75
408.673	394.75
408.896	382.75
409.12	367.75
409.344	370.75
409.567	365.75
409.791	403.75
410.014	369.75
410.238	370.75
410.461	372.75
410.685	407.75
410.908	369.75
411.132	380.75
411.355	359.75
411.578	373.75
411.802	345.75
412.025	365.75
412.249	363.75
412.472	373.75
412.695	380.75
412.919	348.75
413.142	374.75
413.365	384.75
413.589	361.75
413.812	346.75
414.035	352.75
414.258	348.75
414.482	375.75
414.705	353.75
414.928	358.75
415.151	353.75
415.374	350.75
415.597	347.75
415.821	355.75
416.044	340.75
416.267	353.75
416.49	352.75
416.713	341.75
416.936	340.75
417.159	343.75
417.382	348.75
417.605	355.75
417.828	358.75
418.051	362.75
418.274	340.75
418.497	355.75
418.72	374.75
418.943	350.75
419.166	365.75
419.389	392.75
419.611	394.75
419.834	370.75
420.057	400.75
420.28	369.75
420.503	353.75
420.726	352.75
420.948	333.75
421.171	348.75
421.394	344.75
421.617	340.75
421.839	349.75
422.062	358.75
422.285	373.75
422.507	391.75
422.73	424.75
422.953	428.75
423.175	365.75
423.398	381.75
423.621	374.75
423.843	387.75
424.066	365.75
424.288	380.75
424.511	371.75
424.733	381.75
424.956	361.75
425.178	363.75
425.401	367.75
425.623	365.75
425.846	354.75
426.068	347.75
426.291	340.75
426.513	370.75
426.735	338.75
426.958	344.75
427.18	328.75
427.402	342.75
427.625	352.75
427.847	346.75
428.069	340.75
428.292	342.75
428.514	333.75
428.736	326.75
428.958	355.75
429.181	342.75
429.403	342.75
429.625	324.75
429.847	344.75
430.069	376.75
430.292	369.75
430.514	335.75
430.736	344.75
430.958	339.75
431.18	326.75
431.402	321.75
431.624	318.75
431.846	316.75
432.068	311.75
432.29	310.75
432.512	326.75
432.734	320.75
432.956	333.75
433.178	335.75
433.4	323.75
433.622	344.75
433.844	344.75
434.066	317.75
434.287	310.75
434.509	326.75
434.731	336.75
434.953	352.75
435.175	329.75
435.397	344.75
435.618	313.75
435.84	315.75
436.062	337.75
436.284	301.75
436.505	315.75
436.727	303.75
436.949	318.75
437.17	336.75
437.392	314.75
437.614	289.75
437.835	297.75
438.057	272.75
438.278	295.75
438.5	297.75
438.721	330.75
438.943	328.75
439.165	325.75
439.386	307.75
439.608	338.75
439.829	332.75
440.05	338.75
440.272	318.75
440.493	333.75
440.715	347.75
440.936	332.75
441.158	341.75
441.379	363.75
441.6	371.75
441.822	362.75
442.043	358.75
442.264	356.75
442.486	335.75
442.707	355.75
442.928	343.75
443.149	358.75
443.371	378.75
443.592	371.75
443.813	380.75
444.034	363.75
444.255	391.75
444.476	422.75
444.698	410.75
444.919	422.75
445.14	583.75
445.361	482.75
445.582	382.75
445.803	368.75
446.024	356.75
446.245	347.75
446.466	344.75
446.687	340.75
446.908	334.75
447.129	340.75
447.35	331.75
447.571	336.75
447.792	307.75
448.013	326.75
448.234	345.75
448.455	306.75
448.675	292.75
448.896	300.75
449.117	295.75
449.338	308.75
449.559	310.75
449.779	345.75
450	300.75
450.221	300.75
450.442	308.75
450.662	300.75
450.883	280.75
451.104	307.75
451.324	321.75
451.545	313.75
451.766	322.75
451.986	301.75
452.207	310.75
452.428	287.75
452.648	313.75
452.869	290.75
453.089	307.75
453.31	311.75
453.53	353.75
453.751	368.75
453.971	303.75
454.192	286.75
454.412	294.75
454.633	290.75
454.853	299.75
455.073	300.75
455.294	302.75
455.514	311.75
455.734	286.75
455.955	273.75
456.175	275.75
456.395	259.75
456.616	282.75
456.836	266.75
457.056	255.75
457.276	266.75
457.497	266.75
457.717	279.75
457.937	288.75
458.157	292.75
458.377	276.75
458.598	286.75
458.818	292.75
459.038	304.75
459.258	283.75
459.478	316.75
459.698	322.75
459.918	312.75
460.138	350.75
460.358	340.75
460.578	378.75
460.798	361.75
461.018	348.75
461.238	336.75
461.458	362.75
461.678	359.75
461.898	360.75
462.118	348.75
462.338	391.75
462.558	387.75
462.777	390.75
462.997	419.75
463.217	469.75
463.437	440.75
463.657	419.75
463.876	396.75
464.096	385.75
464.316	390.75
464.536	395.75
464.755	394.75
464.975	369.75
465.195	347.75
465.414	328.75
465.634	324.75
465.854	307.75
466.073	302.75
466.293	300.75
466.512	308.75
466.732	314.75
466.951	322.75
467.171	329.75
467.391	328.75
467.61	323.75
467.829	323.75
468.049	400.75
468.268	450.75
468.488	357.75
468.707	316.75
468.927	316.75
469.146	328.75
469.365	313.75
469.585	322.75
469.804	320.75
470.023	325.75
470.243	331.75
470.462	331.75
470.681	319.75
470.901	334.75
471.12	323.75
471.339	342.75
471.558	312.75
471.777	342.75
471.997	356.75
472.216	476.75
472.435	644.75
472.654	421.75
472.873	342.75
473.092	323.75
473.311	310.75
473.53	325.75
473.749	319.75
473.968	311.75
474.187	289.75
474.406	285.75
474.625	317.75
474.844	299.75
475.063	300.75
475.282	308.75
475.501	300.75
475.72	332.75
475.939	287.75
476.158	313.75
476.377	317.75
476.596	311.75
476.814	297.75
477.033	307.75
477.252	281.75
477.471	321.75
477.69	318.75
477.908	328.75
478.127	360.75
478.346	346.75
478.564	359.75
478.783	347.75
479.002	375.75
479.22	359.75
479.439	348.75
479.658	352.75
479.876	362.75
480.095	363.75
480.313	392.75
480.532	422.75
480.751	423.75
480.969	541.75
481.188	858.75
481.406	780.75
481.624	451.75
481.843	399.75
482.061	358.75
482.28	362.75
482.498	351.75
482.717	340.75
482.935	358.75
483.153	330.75
483.372	338.75
483.59	324.75
483.808	354.75
484.027	348.75
484.245	345.75
484.463	348.75
484.681	363.75
484.9	356.75
485.118	344.75
485.336	345.75
485.554	333.75
485.772	353.75
485.99	337.75
486.209	341.75
486.427	333.75
486.645	343.75
486.863	363.75
487.081	354.75
487.299	375.75
487.517	355.75
487.735	335.75
487.953	380.75
488.171	371.75
488.389	368.75
488.607	368.75
488.825	355.75
489.043	343.75
489.261	349.75
489.479	352.75
489.696	356.75
489.914	352.75
490.132	388.75
490.35	367.75
490.568	349.75
490.786	360.75
491.003	370.75
491.221	372.75
491.439	398.75
491.657	397.75
491.874	400.75
492.092	412.75
492.31	409.75
492.527	384.75
492.745	398.75
492.963	409.75
493.18	387.75
493.398	408.75
493.615	406.75
493.833	398.75
494.05	385.75
494.268	402.75
494.485	372.75
494.703	379.75
494.92	379.75
495.138	386.75
495.355	390.75
495.573	383.75
495.79	380.75
496.008	388.75
496.225	400.75
496.442	384.75
496.66	405.75
496.877	402.75
497.094	392.75
497.312	416.75
497.529	395.75
497.746	435.75
497.963	436.75
498.181	458.75
498.398	527.75
498.615	480.75
498.832	501.75
499.049	539.75
499.267	625.75
499.484	636.75
499.701	649.75
499.918	736.75
500.135	846.75
500.352	883.75
500.569	903.75
500.786	896.75
501.003	845.75
501.22	748.75
501.437	710.75
501.654	666.75
501.871	563.75
502.088	520.75
502.305	518.75
502.522	508.75
502.739	496.75
502.956	460.75
503.172	432.75
503.389	416.75
503.606	418.75
