Data from SampB_HRD10591_00029.txt Node
Date: Mon Jan 19 11:33:38 EST 2026
User: Yrep
Spectrometer: HR+D1059
Trigger mode: 0
Integration Time (sec): 3.443000E-1
Scans to average: 1
Electric dark correction enabled: true
Nonlinearity correction enabled: false
Boxcar width: 0
XAxis mode: Wavelengths
Number of Pixels in Spectrum: 2048
>>>>>Begin Spectral Data<<<<<
223.165	-23
223.4	-23
223.635	-23
223.869	-25
224.104	-20
224.338	-37
224.573	-8
224.808	-16
225.042	1
225.277	2
225.511	0
225.746	6
225.98	17
226.215	1
226.449	17
226.683	23
226.918	25
227.152	37
227.387	57
227.621	43
227.856	45
228.09	34
228.324	45
228.559	74
228.793	71
229.027	77
229.262	71
229.496	72
229.73	84
229.964	81
230.199	79
230.433	90
230.667	91
230.901	86
231.136	80
231.37	91
231.604	94
231.838	86
232.072	93
232.306	88
232.541	89
232.775	77
233.009	75
233.243	111
233.477	95
233.711	98
233.945	84
234.179	77
234.413	99
234.647	96
234.881	88
235.115	88
235.349	87
235.583	84
235.817	84
236.051	100
236.285	88
236.519	83
236.753	83
236.987	86
237.221	85
237.455	81
237.689	91
237.922	89
238.156	75
238.39	73
238.624	82
238.858	82
239.091	85
239.325	81
239.559	92
239.793	77
240.027	99
240.26	93
240.494	80
240.728	79
240.961	96
241.195	101
241.429	95
241.662	92
241.896	78
242.13	87
242.363	79
242.597	89
242.83	91
243.064	80
243.298	95
243.531	105
243.765	104
243.998	106
244.232	92
244.465	102
244.699	88
244.932	89
245.166	90
245.399	99
245.633	108
245.866	99
246.099	96
246.333	84
246.566	99
246.8	87
247.033	94
247.266	94
247.5	96
247.733	100
247.966	97
248.2	91
248.433	87
248.666	94
248.899	96
249.133	109
249.366	106
249.599	92
249.832	95
250.066	103
250.299	96
250.532	104
250.765	88
250.998	102
251.231	92
251.465	104
251.698	97
251.931	91
252.164	100
252.397	101
252.63	105
252.863	107
253.096	98
253.329	100
253.562	95
253.795	95
254.028	98
254.261	97
254.494	107
254.727	112
254.96	99
255.193	114
255.426	98
255.659	112
255.892	113
256.124	98
256.357	102
256.59	109
256.823	99
257.056	111
257.289	111
257.521	99
257.754	106
257.987	96
258.22	115
258.452	105
258.685	105
258.918	110
259.151	106
259.383	114
259.616	96
259.849	103
260.081	117
260.314	100
260.547	107
260.779	120
261.012	124
261.244	98
261.477	130
261.71	115
261.942	103
262.175	105
262.407	93
262.64	109
262.872	101
263.105	114
263.337	139
263.57	137
263.802	126
264.035	113
264.267	109
264.499	115
264.732	123
264.964	115
265.197	116
265.429	110
265.661	107
265.894	128
266.126	110
266.358	111
266.591	109
266.823	115
267.055	96
267.287	112
267.52	108
267.752	109
267.984	111
268.216	113
268.448	112
268.681	120
268.913	110
269.145	126
269.377	95
269.609	101
269.841	116
270.073	131
270.306	118
270.538	116
270.77	108
271.002	105
271.234	100
271.466	123
271.698	111
271.93	115
272.162	116
272.394	128
272.626	99
272.858	109
273.09	120
273.322	131
273.553	105
273.785	107
274.017	124
274.249	143
274.481	122
274.713	128
274.945	136
275.176	111
275.408	103
275.64	126
275.872	139
276.104	141
276.335	133
276.567	110
276.799	121
277.031	114
277.262	141
277.494	136
277.726	118
277.957	121
278.189	119
278.421	117
278.652	139
278.884	125
279.115	127
279.347	142
279.579	125
279.81	142
280.042	127
280.273	151
280.505	142
280.736	126
280.968	126
281.199	133
281.431	122
281.662	122
281.894	137
282.125	132
282.356	124
282.588	149
282.819	132
283.051	142
283.282	120
283.513	138
283.745	125
283.976	131
284.207	124
284.439	127
284.67	131
284.901	129
285.132	134
285.364	133
285.595	125
285.826	130
286.057	122
286.288	131
286.52	133
286.751	143
286.982	132
287.213	119
287.444	145
287.675	135
287.906	132
288.138	151
288.369	131
288.6	124
288.831	153
289.062	153
289.293	121
289.524	130
289.755	153
289.986	143
290.217	141
290.448	125
290.679	139
290.91	157
291.141	144
291.371	137
291.602	142
291.833	122
292.064	122
292.295	135
292.526	140
292.757	130
292.987	127
293.218	143
293.449	118
293.68	133
293.91	140
294.141	155
294.372	122
294.603	140
294.833	143
295.064	137
295.295	128
295.525	128
295.756	141
295.987	141
296.217	130
296.448	144
296.679	143
296.909	139
297.14	148
297.37	142
297.601	134
297.831	155
298.062	131
298.292	155
298.523	142
298.753	139
298.984	147
299.214	151
299.445	147
299.675	154
299.905	145
300.136	141
300.366	139
300.597	159
300.827	154
301.057	159
301.288	151
301.518	148
301.748	157
301.979	176
302.209	136
302.439	141
302.669	158
302.9	161
303.13	154
303.36	151
303.59	154
303.82	157
304.051	164
304.281	149
304.511	160
304.741	163
304.971	145
305.201	163
305.431	140
305.661	151
305.891	143
306.121	151
306.352	151
306.582	147
306.812	156
307.042	160
307.272	147
307.502	137
307.731	168
307.961	155
308.191	143
308.421	145
308.651	160
308.881	160
309.111	156
309.341	158
309.571	159
309.8	147
310.03	153
310.26	152
310.49	154
310.72	153
310.949	152
311.179	146
311.409	153
311.639	158
311.868	163
312.098	162
312.328	158
312.557	154
312.787	149
313.017	154
313.246	156
313.476	155
313.706	152
313.935	151
314.165	130
314.394	152
314.624	158
314.853	155
315.083	158
315.312	172
315.542	161
315.771	137
316.001	153
316.23	148
316.46	162
316.689	153
316.919	155
317.148	149
317.377	165
317.607	163
317.836	152
318.065	159
318.295	169
318.524	151
318.753	159
318.983	180
319.212	181
319.441	162
319.67	149
319.9	161
320.129	167
320.358	145
320.587	166
320.816	168
321.046	156
321.275	158
321.504	143
321.733	168
321.962	161
322.191	164
322.42	162
322.649	170
322.878	187
323.108	171
323.337	159
323.566	160
323.795	171
324.024	157
324.253	169
324.482	173
324.71	179
324.939	168
325.168	168
325.397	149
325.626	157
325.855	162
326.084	170
326.313	177
326.542	176
326.77	175
326.999	175
327.228	181
327.457	168
327.686	180
327.914	194
328.143	199
328.372	195
328.6	199
328.829	183
329.058	192
329.287	188
329.515	201
329.744	194
329.972	211
330.201	215
330.43	215
330.658	201
330.887	203
331.115	187
331.344	193
331.572	190
331.801	187
332.03	188
332.258	185
332.486	193
332.715	197
332.943	195
333.172	219
333.4	213
333.629	225
333.857	216
334.085	248
334.314	267
334.542	271
334.771	271
334.999	229
335.227	205
335.455	205
335.684	205
335.912	191
336.14	205
336.369	199
336.597	180
336.825	186
337.053	193
337.281	192
337.51	176
337.738	184
337.966	184
338.194	178
338.422	173
338.65	168
338.878	183
339.106	175
339.334	183
339.562	156
339.79	164
340.018	161
340.246	177
340.474	173
340.702	176
340.93	163
341.158	175
341.386	178
341.614	191
341.842	165
342.07	160
342.298	173
342.526	156
342.754	167
342.981	167
343.209	170
343.437	204
343.665	194
343.893	215
344.12	188
344.348	183
344.576	184
344.804	180
345.031	175
345.259	168
345.487	183
345.714	171
345.942	162
346.17	166
346.397	142
346.625	160
346.853	169
347.08	179
347.308	181
347.535	184
347.763	168
347.99	165
348.218	191
348.445	156
348.673	160
348.9	179
349.128	172
349.355	155
349.583	164
349.81	173
350.037	158
350.265	177
350.492	174
350.72	163
350.947	166
351.174	167
351.402	162
351.629	169
351.856	161
352.083	161
352.311	165
352.538	162
352.765	160
352.992	181
353.22	169
353.447	142
353.674	157
353.901	163
354.128	162
354.355	169
354.583	155
354.81	163
355.037	175
355.264	175
355.491	166
355.718	155
355.945	156
356.172	161
356.399	167
356.626	176
356.853	164
357.08	171
357.307	164
357.534	171
357.761	167
357.988	164
358.215	176
358.441	148
358.668	154
358.895	155
359.122	171
359.349	165
359.576	173
359.802	155
360.029	162
360.256	189
360.483	181
360.709	141
360.936	184
361.163	176
361.39	178
361.616	176
361.843	169
362.07	182
362.296	177
362.523	180
362.749	171
362.976	159
363.203	176
363.429	174
363.656	158
363.882	154
364.109	165
364.335	186
364.562	179
364.788	178
365.015	162
365.241	177
365.468	183
365.694	177
365.92	175
366.147	162
366.373	157
366.599	162
366.826	176
367.052	168
367.278	165
367.505	187
367.731	186
367.957	163
368.184	174
368.41	177
368.636	195
368.862	185
369.089	177
369.315	170
369.541	175
369.767	176
369.993	188
370.219	164
370.445	170
370.672	180
370.898	185
371.124	189
371.35	171
371.576	175
371.802	168
372.028	188
372.254	191
372.48	172
372.706	169
372.932	188
373.158	176
373.384	181
373.61	180
373.835	186
374.061	184
374.287	184
374.513	184
374.739	185
374.965	205
375.191	187
375.416	172
375.642	180
375.868	185
376.094	185
376.319	165
376.545	177
376.771	187
376.997	171
377.222	180
377.448	185
377.674	172
377.899	186
378.125	173
378.35	169
378.576	175
378.802	187
379.027	184
379.253	172
379.478	177
379.704	179
379.929	172
380.155	187
380.38	169
380.606	179
380.831	188
381.057	194
381.282	190
381.507	179
381.733	201
381.958	194
382.184	196
382.409	184
382.634	178
382.86	178
383.085	193
383.31	178
383.535	201
383.761	189
383.986	208
384.211	211
384.436	204
384.662	193
384.887	196
385.112	207
385.337	206
385.562	203
385.787	215
386.013	205
386.238	213
386.463	202
386.688	216
386.913	194
387.138	209
387.363	191
387.588	190
387.813	191
388.038	211
388.263	200
388.488	205
388.713	199
388.938	185
389.163	194
389.387	200
389.612	206
389.837	213
390.062	213
390.287	208
390.512	215
390.736	208
390.961	199
391.186	203
391.411	217
391.636	221
391.86	211
392.085	218
392.31	223
392.534	212
392.759	219
392.984	218
393.208	220
393.433	239
393.658	221
393.882	213
394.107	220
394.331	222
394.556	204
394.78	223
395.005	229
395.229	213
395.454	240
395.678	221
395.903	220
396.127	228
396.352	219
396.576	227
396.801	235
397.025	206
397.249	232
397.474	239
397.698	220
397.922	219
398.147	232
398.371	236
398.595	252
398.82	233
399.044	269
399.268	298
399.492	319
399.717	321
399.941	321
400.165	290
400.389	267
400.613	251
400.837	252
401.062	227
401.286	226
401.51	229
401.734	236
401.958	234
402.182	239
402.406	237
402.63	244
402.854	250
403.078	247
403.302	259
403.526	250
403.75	282
403.974	259
404.198	277
404.422	267
404.645	255
404.869	275
405.093	263
405.317	264
405.541	271
405.765	263
405.988	274
406.212	279
406.436	257
406.66	259
406.883	256
407.107	263
407.331	293
407.555	280
407.778	292
408.002	267
408.226	271
408.449	263
408.673	270
408.896	257
409.12	257
409.344	265
409.567	253
409.791	253
410.014	269
410.238	265
410.461	266
410.685	248
410.908	266
411.132	250
411.355	252
411.578	275
411.802	256
412.025	248
412.249	254
412.472	253
412.695	249
412.919	241
413.142	265
413.365	244
413.589	226
413.812	236
414.035	239
414.258	237
414.482	255
414.705	240
414.928	250
415.151	235
415.374	254
415.597	232
415.821	239
416.044	236
416.267	240
416.49	237
416.713	244
416.936	232
417.159	234
417.382	242
417.605	252
417.828	254
418.051	256
418.274	237
418.497	251
418.72	250
418.943	253
419.166	276
419.389	260
419.611	267
419.834	265
420.057	259
420.28	243
420.503	238
420.726	238
420.948	238
421.171	243
421.394	241
421.617	241
421.839	245
422.062	268
422.285	242
422.507	247
422.73	260
422.953	271
423.175	254
423.398	252
423.621	270
423.843	249
424.066	265
424.288	249
424.511	247
424.733	266
424.956	237
425.178	250
425.401	238
425.623	242
425.846	228
426.068	228
426.291	240
426.513	235
426.735	228
426.958	233
427.18	240
427.402	226
427.625	223
427.847	241
428.069	207
428.292	231
428.514	208
428.736	226
428.958	224
429.181	222
429.403	222
429.625	224
429.847	233
430.069	240
430.292	234
430.514	224
430.736	221
430.958	229
431.18	231
431.402	227
431.624	219
431.846	206
432.068	203
432.29	228
432.512	225
432.734	224
432.956	221
433.178	242
433.4	236
433.622	240
433.844	219
434.066	222
434.287	222
434.509	225
434.731	241
434.953	227
435.175	235
435.397	241
435.618	228
435.84	228
436.062	244
436.284	224
436.505	221
436.727	233
436.949	230
437.17	225
437.392	222
437.614	226
437.835	220
438.057	227
438.278	226
438.5	216
438.721	225
438.943	225
439.165	218
439.386	242
439.608	223
439.829	225
440.05	236
440.272	227
440.493	243
440.715	236
440.936	238
441.158	251
441.379	250
441.6	249
441.822	242
442.043	255
442.264	238
442.486	237
442.707	241
442.928	229
443.149	235
443.371	256
443.592	246
443.813	240
444.034	259
444.255	268
444.476	255
444.698	275
444.919	290
445.14	447
445.361	339
445.582	254
445.803	239
446.024	244
446.245	240
446.466	237
446.687	226
446.908	237
447.129	247
447.35	221
447.571	217
447.792	205
448.013	223
448.234	233
448.455	215
448.675	215
448.896	215
449.117	226
449.338	202
449.559	213
449.779	207
450	203
450.221	220
450.442	195
450.662	207
450.883	215
451.104	223
451.324	203
451.545	218
451.766	209
451.986	201
452.207	189
452.428	199
452.648	209
452.869	216
453.089	205
453.31	191
453.53	202
453.751	212
453.971	196
454.192	200
454.412	200
454.633	196
454.853	187
455.073	212
455.294	197
455.514	199
455.734	195
455.955	181
456.175	196
456.395	194
456.616	196
456.836	186
457.056	199
457.276	198
457.497	183
457.717	196
457.937	203
458.157	184
458.377	184
458.598	183
458.818	210
459.038	215
459.258	210
459.478	201
459.698	230
459.918	242
460.138	237
460.358	226
460.578	249
460.798	260
461.018	244
461.238	240
461.458	234
461.678	243
461.898	237
462.118	259
462.338	264
462.558	273
462.777	289
462.997	300
463.217	282
463.437	298
463.657	263
463.876	273
464.096	278
464.316	277
464.536	267
464.755	260
464.975	253
465.195	249
465.414	235
465.634	228
465.854	237
466.073	223
466.293	206
466.512	229
466.732	218
466.951	212
467.171	202
467.391	232
467.61	209
467.829	236
468.049	260
468.268	245
468.488	218
468.707	211
468.927	220
469.146	211
469.365	227
469.585	221
469.804	225
470.023	209
470.243	224
470.462	231
470.681	243
470.901	228
471.12	212
471.339	222
471.558	224
471.777	226
471.997	231
472.216	256
472.435	295
472.654	257
472.873	241
473.092	223
473.311	221
473.53	224
473.749	230
473.968	215
474.187	192
474.406	201
474.625	216
474.844	224
475.063	211
475.282	209
475.501	230
475.72	222
475.939	200
476.158	219
476.377	213
476.596	215
476.814	223
477.033	209
477.252	225
477.471	212
477.69	222
477.908	240
478.127	260
478.346	235
478.564	238
478.783	237
479.002	239
479.22	230
479.439	243
479.658	252
479.876	236
480.095	242
480.313	254
480.532	266
480.751	277
480.969	274
481.188	359
481.406	336
481.624	266
481.843	260
482.061	257
482.28	246
482.498	256
482.717	234
482.935	222
483.153	244
483.372	240
483.59	228
483.808	228
484.027	241
484.245	245
484.463	227
484.681	246
484.9	243
485.118	249
485.336	251
485.554	239
485.772	221
485.99	223
486.209	234
486.427	226
486.645	225
486.863	242
487.081	241
487.299	231
487.517	248
487.735	260
487.953	260
488.171	257
488.389	241
488.607	221
488.825	238
489.043	211
489.261	242
489.479	250
489.696	256
489.914	239
490.132	232
490.35	261
490.568	243
490.786	241
491.003	265
491.221	253
491.439	252
491.657	258
491.874	265
492.092	273
492.31	271
492.527	255
492.745	269
492.963	271
493.18	252
493.398	273
493.615	272
493.833	266
494.05	243
494.268	260
494.485	268
494.703	279
494.92	268
495.138	257
495.355	283
495.573	261
495.79	260
496.008	277
496.225	259
496.442	264
496.66	275
496.877	264
497.094	289
497.312	271
497.529	278
497.746	269
497.963	291
498.181	285
498.398	297
498.615	311
498.832	323
499.049	321
499.267	372
499.484	407
499.701	438
499.918	456
500.135	520
500.352	533
500.569	568
500.786	558
501.003	507
501.22	461
501.437	435
501.654	394
501.871	356
502.088	342
502.305	329
502.522	319
502.739	311
502.956	288
503.172	285
503.389	267
503.606	262
503.823	272
504.04	268
504.256	259
504.473	279
504.69	262
504.907	294
505.123	260
505.34	258
505.557	255
505.773	252
505.99	238
506.207	243
506.423	224
506.64	236
506.856	209
507.073	212
507.289	231
507.506	236
507.722	220
507.939	217
508.155	212
508.372	205
508.588	214
508.805	203
509.021	205
509.238	216
509.454	209
509.67	196
509.887	215
510.103	205
510.319	199
510.536	214
510.752	207
510.968	202
511.184	195
511.401	209
511.617	207
511.833	214
512.049	212
512.265	209
512.481	201
512.698	194
512.914	212
513.13	219
513.346	206
513.562	200
513.778	210
513.994	206
514.21	212
514.426	213
514.642	209
514.858	207
515.074	203
515.29	224
515.506	223
515.721	208
515.937	233
516.153	210
516.369	217
516.585	235
516.801	231
517.016	240
517.232	264
517.448	252
517.664	252
517.879	269
518.095	263
518.311	272
518.527	254
518.742	243
518.958	248
519.173	233
519.389	231
519.605	227
519.82	223
520.036	223
520.251	225
520.467	227
520.682	218
520.898	213
521.113	208
521.329	213
521.544	199
521.76	210
521.975	208
522.19	210
522.406	203
522.621	207
522.836	202
523.052	196
523.267	200
523.482	186
523.698	187
523.913	202
524.128	207
524.343	195
524.559	216
524.774	207
524.989	193
525.204	186
525.419	214
525.634	199
525.849	188
526.064	203
526.28	228
526.495	201
526.71	184
526.925	185
527.14	186
527.355	176
527.57	195
527.785	193
527.999	205
528.214	209
528.429	193
528.644	188
528.859	199
529.074	220
529.289	196
529.503	223
529.718	201
529.933	198
530.148	199
530.363	187
530.577	195
530.792	191
531.007	193
531.221	216
531.436	188
531.651	212
531.865	204
532.08	205
532.295	204
532.509	177
532.724	196
532.938	199
533.153	187
533.367	205
533.582	192
533.796	209
534.011	191
534.225	195
534.44	168
534.654	198
534.868	189
535.083	209
535.297	197
535.511	206
535.726	182
535.94	188
536.154	201
536.369	188
536.583	185
536.797	180
537.011	188
537.225	173
537.44	183
537.654	184
537.868	192
538.082	180
538.296	184
538.51	194
538.724	191
538.938	193
539.153	183
539.367	191
539.581	183
539.795	179
540.009	183
540.222	174
540.436	189
540.65	174
540.864	179
541.078	182
541.292	189
541.506	200
541.72	202
541.934	213
542.147	205
542.361	196
542.575	211
542.789	184
543.002	178
543.216	185
543.43	187
543.644	197
543.857	189
544.071	193
544.285	205
544.498	199
544.712	185
544.925	203
545.139	196
545.352	211
545.566	213
545.779	199
545.993	194
546.206	211
546.42	199
546.633	222
546.847	219
547.06	215
547.274	212
547.487	205
547.7	197
547.914	209
548.127	206
548.34	209
548.554	209
548.767	186
548.98	201
549.193	189
549.407	191
549.62	197
549.833	187
550.046	208
550.259	194
550.473	209
550.686	199
550.899	198
551.112	192
551.325	186
551.538	204
551.751	196
551.964	212
552.177	219
552.39	195
552.603	221
552.816	209
553.029	202
553.242	212
553.455	216
553.667	226
553.88	203
554.093	213
554.306	216
554.519	217
554.732	195
554.944	200
555.157	176
555.37	194
555.583	196
555.795	206
556.008	182
556.221	183
556.433	191
556.646	177
556.859	183
557.071	179
557.284	200
557.496	175
557.709	178
557.921	175
558.134	185
558.346	176
558.559	173
558.771	175
558.984	196
559.196	184
559.409	173
559.621	180
559.833	169
560.046	166
560.258	175
560.47	185
560.683	179
560.895	181
561.107	180
561.32	179
561.532	184
561.744	171
561.956	179
562.168	176
562.381	162
562.593	170
562.805	157
563.017	183
563.229	175
563.441	186
563.653	176
563.865	180
564.077	173
564.289	178
564.501	176
564.713	202
564.925	175
565.137	173
565.349	201
565.561	184
565.773	209
565.985	209
566.197	205
