Data from SampB_HRD10591_00101.txt Node
Date: Mon Jan 19 11:37:00 EST 2026
User: Yrep
Spectrometer: HR+D1059
Trigger mode: 0
Integration Time (sec): 3.443000E-1
Scans to average: 1
Electric dark correction enabled: true
Nonlinearity correction enabled: false
Boxcar width: 0
XAxis mode: Wavelengths
Number of Pixels in Spectrum: 2048
>>>>>Begin Spectral Data<<<<<
223.165	-28.69
223.4	-28.69
223.635	-28.69
223.869	-20.69
224.104	-22.69
224.338	-17.69
224.573	-13.69
224.808	-20.69
225.042	5.31
225.277	-23.69
225.511	-0.69
225.746	10.31
225.98	13.31
226.215	26.31
226.449	18.31
226.683	22.31
226.918	24.31
227.152	28.31
227.387	35.31
227.621	46.31
227.856	50.31
228.09	38.31
228.324	71.31
228.559	54.31
228.793	65.31
229.027	104.31
229.262	111.31
229.496	104.31
229.73	120.31
229.964	107.31
230.199	117.31
230.433	110.31
230.667	117.31
230.901	121.31
231.136	131.31
231.37	131.31
231.604	142.31
231.838	150.31
232.072	146.31
232.306	151.31
232.541	149.31
232.775	138.31
233.009	139.31
233.243	143.31
233.477	132.31
233.711	140.31
233.945	122.31
234.179	158.31
234.413	131.31
234.647	162.31
234.881	151.31
235.115	142.31
235.349	154.31
235.583	144.31
235.817	162.31
236.051	155.31
236.285	188.31
236.519	190.31
236.753	220.31
236.987	254.31
237.221	292.31
237.455	287.31
237.689	291.31
237.922	265.31
238.156	212.31
238.39	195.31
238.624	172.31
238.858	163.31
239.091	161.31
239.325	154.31
239.559	167.31
239.793	160.31
240.027	177.31
240.26	146.31
240.494	156.31
240.728	145.31
240.961	143.31
241.195	162.31
241.429	141.31
241.662	159.31
241.896	148.31
242.13	162.31
242.363	154.31
242.597	164.31
242.83	174.31
243.064	158.31
243.298	154.31
243.531	156.31
243.765	167.31
243.998	169.31
244.232	185.31
244.465	184.31
244.699	158.31
244.932	174.31
245.166	172.31
245.399	175.31
245.633	157.31
245.866	192.31
246.099	173.31
246.333	189.31
246.566	184.31
246.8	200.31
247.033	179.31
247.266	185.31
247.5	185.31
247.733	189.31
247.966	177.31
248.2	191.31
248.433	199.31
248.666	199.31
248.899	196.31
249.133	197.31
249.366	202.31
249.599	197.31
249.832	204.31
250.066	195.31
250.299	207.31
250.532	211.31
250.765	190.31
250.998	214.31
251.231	204.31
251.465	202.31
251.698	215.31
251.931	208.31
252.164	211.31
252.397	210.31
252.63	218.31
252.863	200.31
253.096	223.31
253.329	234.31
253.562	210.31
253.795	229.31
254.028	234.31
254.261	215.31
254.494	203.31
254.727	226.31
254.96	231.31
255.193	228.31
255.426	236.31
255.659	225.31
255.892	242.31
256.124	226.31
256.357	269.31
256.59	293.31
256.823	330.31
257.056	408.31
257.289	386.31
257.521	402.31
257.754	472.31
257.987	443.31
258.22	354.31
258.452	296.31
258.685	296.31
258.918	280.31
259.151	259.31
259.383	274.31
259.616	257.31
259.849	272.31
260.081	257.31
260.314	268.31
260.547	235.31
260.779	253.31
261.012	268.31
261.244	255.31
261.477	294.31
261.71	282.31
261.942	277.31
262.175	273.31
262.407	286.31
262.64	290.31
262.872	335.31
263.105	337.31
263.337	402.31
263.57	392.31
263.802	368.31
264.035	352.31
264.267	353.31
264.499	340.31
264.732	336.31
264.964	342.31
265.197	355.31
265.429	390.31
265.661	387.31
265.894	387.31
266.126	424.31
266.358	431.31
266.591	372.31
266.823	347.31
267.055	311.31
267.287	314.31
267.52	306.31
267.752	309.31
267.984	303.31
268.216	296.31
268.448	304.31
268.681	307.31
268.913	306.31
269.145	327.31
269.377	308.31
269.609	298.31
269.841	296.31
270.073	287.31
270.306	292.31
270.538	306.31
270.77	296.31
271.002	308.31
271.234	300.31
271.466	311.31
271.698	301.31
271.93	302.31
272.162	303.31
272.394	306.31
272.626	308.31
272.858	322.31
273.09	295.31
273.322	310.31
273.553	322.31
273.785	339.31
274.017	329.31
274.249	341.31
274.481	324.31
274.713	343.31
274.945	351.31
275.176	333.31
275.408	329.31
275.64	348.31
275.872	349.31
276.104	347.31
276.335	368.31
276.567	353.31
276.799	347.31
277.031	361.31
277.262	361.31
277.494	374.31
277.726	398.31
277.957	410.31
278.189	418.31
278.421	436.31
278.652	443.31
278.884	490.31
279.115	638.31
279.347	893.31
279.579	1289.31
279.81	1481.31
280.042	1144.31
280.273	1068.31
280.505	1058.31
280.736	731.31
280.968	532.31
281.199	554.31
281.431	657.31
281.662	793.31
281.894	916.31
282.125	760.31
282.356	621.31
282.588	546.31
282.819	488.31
283.051	464.31
283.282	450.31
283.513	460.31
283.745	431.31
283.976	425.31
284.207	423.31
284.439	416.31
284.67	449.31
284.901	459.31
285.132	529.31
285.364	586.31
285.595	540.31
285.826	439.31
286.057	426.31
286.288	430.31
286.52	420.31
286.751	406.31
286.982	412.31
287.213	408.31
287.444	420.31
287.675	410.31
287.906	414.31
288.138	439.31
288.369	443.31
288.6	440.31
288.831	414.31
289.062	424.31
289.293	432.31
289.524	431.31
289.755	435.31
289.986	425.31
290.217	425.31
290.448	419.31
290.679	426.31
290.91	440.31
291.141	415.31
291.371	425.31
291.602	434.31
291.833	440.31
292.064	439.31
292.295	459.31
292.526	470.31
292.757	476.31
292.987	492.31
293.218	480.31
293.449	505.31
293.68	495.31
293.91	484.31
294.141	468.31
294.372	464.31
294.603	462.31
294.833	458.31
295.064	462.31
295.295	450.31
295.525	448.31
295.756	453.31
295.987	435.31
296.217	441.31
296.448	429.31
296.679	462.31
296.909	429.31
297.14	448.31
297.37	465.31
297.601	490.31
297.831	452.31
298.062	480.31
298.292	476.31
298.523	469.31
298.753	470.31
298.984	484.31
299.214	471.31
299.445	486.31
299.675	483.31
299.905	471.31
300.136	483.31
300.366	481.31
300.597	473.31
300.827	482.31
301.057	490.31
301.288	500.31
301.518	530.31
301.748	511.31
301.979	570.31
302.209	529.31
302.439	525.31
302.669	537.31
302.9	539.31
303.13	565.31
303.36	582.31
303.59	569.31
303.82	568.31
304.051	600.31
304.281	625.31
304.511	638.31
304.741	657.31
304.971	719.31
305.201	838.31
305.431	929.31
305.661	1054.31
305.891	1113.31
306.121	1021.31
306.352	936.31
306.582	962.31
306.812	978.31
307.042	887.31
307.272	846.31
307.502	938.31
307.731	1226.31
307.961	1718.31
308.191	2390.31
308.421	2781.31
308.651	2273.31
308.881	2186.31
309.111	2763.31
309.341	3523.31
309.571	3295.31
309.8	2056.31
310.03	1359.31
310.26	1050.31
310.49	908.31
310.72	840.31
310.949	777.31
311.179	705.31
311.409	673.31
311.639	684.31
311.868	644.31
312.098	644.31
312.328	664.31
312.557	617.31
312.787	602.31
313.017	619.31
313.246	599.31
313.476	573.31
313.706	606.31
313.935	578.31
314.165	579.31
314.394	585.31
314.624	588.31
314.853	589.31
315.083	582.31
315.312	588.31
315.542	585.31
315.771	590.31
316.001	579.31
316.23	570.31
316.46	558.31
316.689	546.31
316.919	548.31
317.148	552.31
317.377	570.31
317.607	557.31
317.836	528.31
318.065	559.31
318.295	559.31
318.524	564.31
318.753	548.31
318.983	538.31
319.212	567.31
319.441	526.31
319.67	546.31
319.9	538.31
320.129	551.31
320.358	554.31
320.587	535.31
320.816	531.31
321.046	537.31
321.275	582.31
321.504	568.31
321.733	551.31
321.962	539.31
322.191	537.31
322.42	540.31
322.649	561.31
322.878	566.31
323.108	562.31
323.337	573.31
323.566	593.31
323.795	553.31
324.024	567.31
324.253	566.31
324.482	584.31
324.71	578.31
324.939	562.31
325.168	566.31
325.397	590.31
325.626	576.31
325.855	567.31
326.084	567.31
326.313	609.31
326.542	571.31
326.77	566.31
326.999	579.31
327.228	568.31
327.457	587.31
327.686	596.31
327.914	594.31
328.143	601.31
328.372	584.31
328.6	584.31
328.829	576.31
329.058	582.31
329.287	596.31
329.515	602.31
329.744	609.31
329.972	594.31
330.201	600.31
330.43	599.31
330.658	617.31
330.887	641.31
331.115	620.31
331.344	622.31
331.572	630.31
331.801	628.31
332.03	633.31
332.258	674.31
332.486	665.31
332.715	687.31
332.943	705.31
333.172	702.31
333.4	732.31
333.629	757.31
333.857	761.31
334.085	737.31
334.314	736.31
334.542	726.31
334.771	744.31
334.999	737.31
335.227	699.31
335.455	693.31
335.684	683.31
335.912	691.31
336.14	679.31
336.369	680.31
336.597	701.31
336.825	690.31
337.053	687.31
337.281	648.31
337.51	651.31
337.738	646.31
337.966	649.31
338.194	626.31
338.422	641.31
338.65	659.31
338.878	660.31
339.106	639.31
339.334	636.31
339.562	636.31
339.79	626.31
340.018	618.31
340.246	621.31
340.474	625.31
340.702	619.31
340.93	618.31
341.158	619.31
341.386	618.31
341.614	601.31
341.842	589.31
342.07	623.31
342.298	635.31
342.526	636.31
342.754	624.31
342.981	626.31
343.209	650.31
343.437	723.31
343.665	677.31
343.893	746.31
344.12	751.31
344.348	722.31
344.576	682.31
344.804	666.31
345.031	637.31
345.259	635.31
345.487	633.31
345.714	628.31
345.942	614.31
346.17	605.31
346.397	599.31
346.625	619.31
346.853	624.31
347.08	608.31
347.308	617.31
347.535	625.31
347.763	609.31
347.99	618.31
348.218	618.31
348.445	606.31
348.673	624.31
348.9	636.31
349.128	645.31
349.355	639.31
349.583	617.31
349.81	639.31
350.037	649.31
350.265	632.31
350.492	615.31
350.72	622.31
350.947	625.31
351.174	648.31
351.402	636.31
351.629	607.31
351.856	632.31
352.083	635.31
352.311	642.31
352.538	650.31
352.765	654.31
352.992	663.31
353.22	660.31
353.447	627.31
353.674	678.31
353.901	688.31
354.128	671.31
354.355	694.31
354.583	680.31
354.81	688.31
355.037	707.31
355.264	739.31
355.491	722.31
355.718	740.31
355.945	755.31
356.172	787.31
356.399	796.31
356.626	801.31
356.853	845.31
357.08	880.31
357.307	925.31
357.534	983.31
357.761	1054.31
357.988	1211.31
358.215	1373.31
358.441	1532.31
358.668	1719.31
358.895	1635.31
359.122	1398.31
359.349	1186.31
359.576	1056.31
359.802	978.31
360.029	920.31
360.256	928.31
360.483	895.31
360.709	856.31
360.936	846.31
361.163	813.31
361.39	823.31
361.616	767.31
361.843	775.31
362.07	781.31
362.296	751.31
362.523	740.31
362.749	748.31
362.976	732.31
363.203	722.31
363.429	700.31
363.656	691.31
363.882	681.31
364.109	713.31
364.335	668.31
364.562	662.31
364.788	683.31
365.015	675.31
365.241	698.31
365.468	650.31
365.694	639.31
365.92	665.31
366.147	654.31
366.373	662.31
366.599	632.31
366.826	623.31
367.052	638.31
367.278	627.31
367.505	654.31
367.731	678.31
367.957	638.31
368.184	659.31
368.41	643.31
368.636	669.31
368.862	673.31
369.089	657.31
369.315	671.31
369.541	675.31
369.767	651.31
369.993	639.31
370.219	647.31
370.445	665.31
370.672	668.31
370.898	664.31
371.124	683.31
371.35	692.31
371.576	684.31
371.802	671.31
372.028	673.31
372.254	706.31
372.48	703.31
372.706	706.31
372.932	721.31
373.158	700.31
373.384	699.31
373.61	700.31
373.835	691.31
374.061	691.31
374.287	705.31
374.513	702.31
374.739	754.31
374.965	755.31
375.191	713.31
375.416	725.31
375.642	708.31
375.868	718.31
376.094	709.31
376.319	692.31
376.545	683.31
376.771	659.31
376.997	662.31
377.222	668.31
377.448	679.31
377.674	673.31
377.899	685.31
378.125	661.31
378.35	672.31
378.576	670.31
378.802	641.31
379.027	672.31
379.253	670.31
379.478	684.31
379.704	676.31
379.929	699.31
380.155	679.31
380.38	682.31
380.606	688.31
380.831	694.31
381.057	697.31
381.282	689.31
381.507	718.31
381.733	747.31
381.958	752.31
382.184	753.31
382.409	760.31
382.634	791.31
382.86	808.31
383.085	891.31
383.31	903.31
383.535	915.31
383.761	928.31
383.986	915.31
384.211	840.31
384.436	816.31
384.662	792.31
384.887	818.31
385.112	816.31
385.337	851.31
385.562	826.31
385.787	834.31
386.013	845.31
386.238	822.31
386.463	847.31
386.688	867.31
386.913	815.31
387.138	841.31
387.363	848.31
387.588	828.31
387.813	819.31
388.038	810.31
388.263	835.31
388.488	832.31
388.713	820.31
388.938	842.31
389.163	814.31
389.387	824.31
389.612	814.31
389.837	834.31
390.062	843.31
390.287	861.31
390.512	826.31
390.736	866.31
390.961	856.31
391.186	872.31
391.411	867.31
391.636	877.31
391.86	912.31
392.085	939.31
392.31	955.31
392.534	910.31
392.759	990.31
392.984	1043.31
393.208	1143.31
393.433	1286.31
393.658	1294.31
393.882	1488.31
394.107	2302.31
394.331	4061.31
394.556	5302.31
394.78	3464.31
395.005	2094.31
395.229	1703.31
395.454	1723.31
395.678	2091.31
395.903	3467.31
396.127	5898.31
396.352	7005.31
396.576	3981.31
396.801	2334.31
397.025	1850.31
397.249	1459.31
397.474	1356.31
397.698	1256.31
397.922	1219.31
398.147	1150.31
398.371	1148.31
398.595	1113.31
398.82	1089.31
399.044	1188.31
399.268	1229.31
399.492	1344.31
399.717	1402.31
399.941	1369.31
400.165	1252.31
400.389	1166.31
400.613	1089.31
400.837	1050.31
401.062	1034.31
401.286	997.31
401.51	1004.31
401.734	1015.31
401.958	1027.31
402.182	1001.31
402.406	1033.31
402.63	1008.31
402.854	1039.31
403.078	1087.31
403.302	1091.31
403.526	1075.31
403.75	1082.31
403.974	1089.31
404.198	1075.31
404.422	1107.31
404.645	1071.31
404.869	1065.31
405.093	1078.31
405.317	1024.31
405.541	1057.31
405.765	1050.31
405.988	1061.31
406.212	1069.31
406.436	1050.31
406.66	1091.31
406.883	1090.31
407.107	1153.31
407.331	1162.31
407.555	1169.31
407.778	1164.31
408.002	1130.31
408.226	1105.31
408.449	1124.31
408.673	1041.31
408.896	1038.31
409.12	1044.31
409.344	1057.31
409.567	1018.31
409.791	1050.31
410.014	1027.31
410.238	1005.31
410.461	1014.31
410.685	1003.31
410.908	991.31
411.132	994.31
411.355	986.31
411.578	1006.31
411.802	995.31
412.025	1012.31
412.249	1014.31
412.472	1005.31
412.695	958.31
412.919	970.31
413.142	965.31
413.365	983.31
413.589	1003.31
413.812	981.31
414.035	1002.31
414.258	967.31
414.482	977.31
414.705	991.31
414.928	985.31
415.151	997.31
415.374	992.31
415.597	952.31
415.821	929.31
416.044	930.31
416.267	926.31
416.49	940.31
416.713	974.31
416.936	949.31
417.159	960.31
417.382	979.31
417.605	939.31
417.828	953.31
418.051	958.31
418.274	957.31
418.497	956.31
418.72	1011.31
418.943	1009.31
419.166	1038.31
419.389	1066.31
419.611	1022.31
419.834	1026.31
420.057	1011.31
420.28	992.31
420.503	951.31
420.726	959.31
420.948	983.31
421.171	949.31
421.394	968.31
421.617	970.31
421.839	1019.31
422.062	982.31
422.285	1014.31
422.507	1055.31
422.73	1058.31
422.953	1011.31
423.175	1005.31
423.398	1032.31
423.621	1003.31
423.843	1035.31
424.066	1038.31
424.288	988.31
424.511	1007.31
424.733	1043.31
424.956	976.31
425.178	1005.31
425.401	986.31
425.623	990.31
425.846	982.31
426.068	942.31
426.291	946.31
426.513	924.31
426.735	912.31
426.958	950.31
427.18	910.31
427.402	908.31
427.625	916.31
427.847	893.31
428.069	894.31
428.292	912.31
428.514	910.31
428.736	917.31
428.958	873.31
429.181	884.31
429.403	867.31
429.625	851.31
429.847	857.31
430.069	874.31
430.292	867.31
430.514	847.31
430.736	916.31
430.958	874.31
431.18	868.31
431.402	874.31
431.624	874.31
431.846	820.31
432.068	848.31
432.29	857.31
432.512	869.31
432.734	888.31
432.956	882.31
433.178	914.31
433.4	898.31
433.622	922.31
433.844	886.31
434.066	873.31
434.287	860.31
434.509	876.31
434.731	911.31
434.953	946.31
435.175	938.31
435.397	940.31
435.618	917.31
435.84	874.31
436.062	865.31
436.284	891.31
436.505	899.31
436.727	883.31
436.949	873.31
437.17	850.31
437.392	881.31
437.614	851.31
437.835	821.31
438.057	846.31
438.278	831.31
438.5	844.31
438.721	851.31
438.943	892.31
439.165	880.31
439.386	915.31
439.608	912.31
439.829	908.31
440.05	918.31
440.272	904.31
440.493	929.31
440.715	939.31
440.936	958.31
441.158	989.31
441.379	985.31
441.6	1003.31
441.822	995.31
442.043	986.31
442.264	980.31
442.486	989.31
442.707	972.31
442.928	998.31
443.149	983.31
443.371	975.31
443.592	984.31
443.813	988.31
444.034	999.31
444.255	1035.31
444.476	1048.31
444.698	1120.31
444.919	1134.31
445.14	1329.31
445.361	1160.31
445.582	1034.31
445.803	968.31
446.024	968.31
446.245	958.31
446.466	972.31
446.687	938.31
446.908	972.31
447.129	931.31
447.35	905.31
447.571	903.31
447.792	897.31
448.013	902.31
448.234	881.31
448.455	910.31
448.675	871.31
448.896	868.31
449.117	850.31
449.338	854.31
449.559	836.31
449.779	845.31
450	855.31
450.221	849.31
450.442	862.31
450.662	862.31
450.883	834.31
451.104	867.31
451.324	840.31
451.545	824.31
451.766	839.31
451.986	854.31
452.207	859.31
452.428	863.31
452.648	845.31
452.869	859.31
453.089	847.31
453.31	849.31
453.53	804.31
453.751	835.31
453.971	868.31
454.192	866.31
454.412	803.31
454.633	795.31
454.853	824.31
455.073	830.31
455.294	814.31
455.514	772.31
455.734	781.31
455.955	771.31
456.175	765.31
456.395	759.31
456.616	751.31
456.836	763.31
457.056	748.31
457.276	722.31
457.497	769.31
457.717	767.31
457.937	763.31
458.157	764.31
458.377	768.31
458.598	776.31
458.818	766.31
459.038	801.31
459.258	808.31
459.478	849.31
459.698	874.31
459.918	889.31
460.138	921.31
460.358	947.31
460.578	982.31
460.798	983.31
461.018	976.31
461.238	959.31
461.458	984.31
461.678	976.31
461.898	973.31
462.118	1016.31
462.338	1014.31
462.558	1071.31
462.777	1096.31
462.997	1196.31
463.217	1197.31
463.437	1196.31
463.657	1132.31
463.876	1082.31
464.096	1110.31
464.316	1086.31
464.536	1105.31
464.755	1110.31
464.975	1053.31
465.195	1025.31
465.414	966.31
465.634	950.31
465.854	971.31
466.073	981.31
466.293	1049.31
466.512	1083.31
466.732	1102.31
466.951	1032.31
467.171	1010.31
467.391	994.31
467.61	938.31
467.829	927.31
468.049	924.31
468.268	916.31
468.488	888.31
468.707	889.31
468.927	895.31
469.146	908.31
469.365	878.31
469.585	887.31
469.804	894.31
470.023	919.31
470.243	937.31
470.462	927.31
470.681	947.31
470.901	931.31
471.12	894.31
471.339	910.31
471.558	869.31
471.777	910.31
471.997	893.31
472.216	872.31
472.435	886.31
472.654	848.31
472.873	864.31
473.092	864.31
473.311	900.31
473.53	946.31
473.749	971.31
473.968	984.31
474.187	982.31
474.406	954.31
474.625	998.31
474.844	1031.31
475.063	979.31
475.282	938.31
475.501	928.31
475.72	896.31
475.939	896.31
476.158	872.31
476.377	888.31
476.596	857.31
476.814	864.31
477.033	862.31
477.252	876.31
477.471	920.31
477.69	922.31
477.908	968.31
478.127	987.31
478.346	992.31
478.564	980.31
478.783	972.31
479.002	1024.31
479.22	1006.31
479.439	997.31
479.658	971.31
479.876	960.31
480.095	964.31
480.313	999.31
480.532	1036.31
480.751	995.31
480.969	982.31
481.188	962.31
481.406	918.31
481.624	894.31
481.843	863.31
482.061	886.31
482.28	902.31
482.498	887.31
482.717	890.31
482.935	900.31
483.153	951.31
483.372	934.31
483.59	969.31
483.808	938.31
484.027	969.31
484.245	979.31
484.463	1041.31
484.681	1056.31
484.9	1030.31
485.118	1022.31
485.336	1003.31
485.554	1007.31
485.772	1010.31
485.99	970.31
486.209	981.31
486.427	966.31
486.645	1004.31
486.863	1052.31
487.081	1053.31
487.299	1026.31
487.517	1067.31
487.735	1091.31
487.953	1059.31
488.171	1104.31
488.389	1082.31
488.607	1012.31
488.825	971.31
489.043	1014.31
489.261	1046.31
489.479	1034.31
489.696	1043.31
489.914	1013.31
490.132	1034.31
490.35	1026.31
490.568	1054.31
490.786	1048.31
491.003	1070.31
491.221	1086.31
491.439	1086.31
491.657	1096.31
491.874	1138.31
492.092	1146.31
492.31	1174.31
492.527	1118.31
492.745	1112.31
492.963	1106.31
493.18	1108.31
493.398	1111.31
493.615	1120.31
493.833	1091.31
494.05	1084.31
494.268	1097.31
494.485	1078.31
494.703	1098.31
494.92	1115.31
495.138	1087.31
495.355	1074.31
495.573	1077.31
495.79	1112.31
496.008	1100.31
496.225	1075.31
496.442	1103.31
496.66	1111.31
496.877	1111.31
497.094	1174.31
497.312	1145.31
497.529	1153.31
497.746	1162.31
497.963	1186.31
498.181	1212.31
498.398	1216.31
498.615	1302.31
498.832	1360.31
499.049	1433.31
499.267	1570.31
499.484	1670.31
