Data from SampB_HRD10591_00075.txt Node
Date: Mon Jan 19 11:33:54 EST 2026
User: Yrep
Spectrometer: HR+D1059
Trigger mode: 0
Integration Time (sec): 3.443000E-1
Scans to average: 1
Electric dark correction enabled: true
Nonlinearity correction enabled: false
Boxcar width: 0
XAxis mode: Wavelengths
Number of Pixels in Spectrum: 2048
>>>>>Begin Spectral Data<<<<<
223.165	-19.12
223.4	-19.12
223.635	-19.12
223.869	-33.12
224.104	-35.12
224.338	-14.12
224.573	-12.12
224.808	-2.12
225.042	-7.12
225.277	-5.12
225.511	1.88
225.746	-3.12
225.98	13.88
226.215	8.88
226.449	15.88
226.683	11.88
226.918	35.88
227.152	42.88
227.387	35.88
227.621	32.88
227.856	43.88
228.09	49.88
228.324	37.88
228.559	55.88
228.793	64.88
229.027	85.88
229.262	71.88
229.496	75.88
229.73	76.88
229.964	85.88
230.199	91.88
230.433	91.88
230.667	90.88
230.901	89.88
231.136	91.88
231.37	94.88
231.604	75.88
231.838	104.88
232.072	96.88
232.306	87.88
232.541	103.88
232.775	100.88
233.009	101.88
233.243	86.88
233.477	94.88
233.711	98.88
233.945	87.88
234.179	91.88
234.413	107.88
234.647	98.88
234.881	102.88
235.115	86.88
235.349	98.88
235.583	105.88
235.817	103.88
236.051	96.88
236.285	95.88
236.519	99.88
236.753	108.88
236.987	109.88
237.221	96.88
237.455	97.88
237.689	97.88
237.922	104.88
238.156	99.88
238.39	80.88
238.624	95.88
238.858	91.88
239.091	89.88
239.325	99.88
239.559	100.88
239.793	101.88
240.027	100.88
240.26	98.88
240.494	96.88
240.728	99.88
240.961	109.88
241.195	112.88
241.429	95.88
241.662	90.88
241.896	100.88
242.13	87.88
242.363	92.88
242.597	87.88
242.83	110.88
243.064	104.88
243.298	102.88
243.531	95.88
243.765	94.88
243.998	104.88
244.232	117.88
244.465	103.88
244.699	103.88
244.932	105.88
245.166	108.88
245.399	112.88
245.633	98.88
245.866	112.88
246.099	83.88
246.333	105.88
246.566	110.88
246.8	97.88
247.033	112.88
247.266	113.88
247.5	97.88
247.733	110.88
247.966	114.88
248.2	102.88
248.433	114.88
248.666	120.88
248.899	111.88
249.133	110.88
249.366	123.88
249.599	126.88
249.832	133.88
250.066	130.88
250.299	126.88
250.532	118.88
250.765	113.88
250.998	103.88
251.231	116.88
251.465	106.88
251.698	112.88
251.931	119.88
252.164	125.88
252.397	120.88
252.63	129.88
252.863	125.88
253.096	115.88
253.329	126.88
253.562	101.88
253.795	133.88
254.028	134.88
254.261	135.88
254.494	137.88
254.727	129.88
254.96	112.88
255.193	108.88
255.426	116.88
255.659	117.88
255.892	128.88
256.124	119.88
256.357	123.88
256.59	138.88
256.823	110.88
257.056	118.88
257.289	121.88
257.521	121.88
257.754	110.88
257.987	113.88
258.22	135.88
258.452	126.88
258.685	131.88
258.918	139.88
259.151	120.88
259.383	138.88
259.616	128.88
259.849	140.88
260.081	150.88
260.314	149.88
260.547	129.88
260.779	134.88
261.012	134.88
261.244	158.88
261.477	147.88
261.71	155.88
261.942	150.88
262.175	131.88
262.407	146.88
262.64	143.88
262.872	144.88
263.105	143.88
263.337	151.88
263.57	133.88
263.802	138.88
264.035	122.88
264.267	133.88
264.499	116.88
264.732	132.88
264.964	120.88
265.197	120.88
265.429	129.88
265.661	126.88
265.894	134.88
266.126	131.88
266.358	122.88
266.591	131.88
266.823	139.88
267.055	131.88
267.287	127.88
267.52	131.88
267.752	120.88
267.984	123.88
268.216	126.88
268.448	138.88
268.681	140.88
268.913	147.88
269.145	141.88
269.377	138.88
269.609	125.88
269.841	136.88
270.073	144.88
270.306	124.88
270.538	136.88
270.77	139.88
271.002	157.88
271.234	148.88
271.466	156.88
271.698	140.88
271.93	144.88
272.162	139.88
272.394	155.88
272.626	159.88
272.858	154.88
273.09	151.88
273.322	140.88
273.553	143.88
273.785	147.88
274.017	167.88
274.249	166.88
274.481	177.88
274.713	168.88
274.945	184.88
275.176	183.88
275.408	171.88
275.64	188.88
275.872	158.88
276.104	163.88
276.335	159.88
276.567	150.88
276.799	129.88
277.031	156.88
277.262	156.88
277.494	154.88
277.726	155.88
277.957	159.88
278.189	140.88
278.421	155.88
278.652	150.88
278.884	152.88
279.115	147.88
279.347	136.88
279.579	150.88
279.81	143.88
280.042	175.88
280.273	164.88
280.505	153.88
280.736	131.88
280.968	144.88
281.199	164.88
281.431	141.88
281.662	143.88
281.894	138.88
282.125	153.88
282.356	142.88
282.588	151.88
282.819	163.88
283.051	150.88
283.282	165.88
283.513	162.88
283.745	161.88
283.976	160.88
284.207	163.88
284.439	161.88
284.67	166.88
284.901	155.88
285.132	167.88
285.364	156.88
285.595	156.88
285.826	158.88
286.057	169.88
286.288	156.88
286.52	158.88
286.751	169.88
286.982	160.88
287.213	157.88
287.444	165.88
287.675	161.88
287.906	142.88
288.138	149.88
288.369	165.88
288.6	165.88
288.831	179.88
289.062	168.88
289.293	163.88
289.524	170.88
289.755	170.88
289.986	162.88
290.217	162.88
290.448	159.88
290.679	156.88
290.91	173.88
291.141	161.88
291.371	168.88
291.602	174.88
291.833	150.88
292.064	159.88
292.295	164.88
292.526	163.88
292.757	183.88
292.987	172.88
293.218	156.88
293.449	161.88
293.68	172.88
293.91	154.88
294.141	170.88
294.372	156.88
294.603	163.88
294.833	166.88
295.064	183.88
295.295	171.88
295.525	169.88
295.756	170.88
295.987	177.88
296.217	144.88
296.448	153.88
296.679	178.88
296.909	190.88
297.14	191.88
297.37	183.88
297.601	165.88
297.831	181.88
298.062	182.88
298.292	180.88
298.523	179.88
298.753	187.88
298.984	172.88
299.214	184.88
299.445	185.88
299.675	187.88
299.905	179.88
300.136	168.88
300.366	184.88
300.597	175.88
300.827	187.88
301.057	193.88
301.288	164.88
301.518	184.88
301.748	174.88
301.979	220.88
302.209	197.88
302.439	199.88
302.669	188.88
302.9	190.88
303.13	173.88
303.36	187.88
303.59	175.88
303.82	185.88
304.051	187.88
304.281	192.88
304.511	205.88
304.741	183.88
304.971	209.88
305.201	192.88
305.431	189.88
305.661	198.88
305.891	193.88
306.121	178.88
306.352	191.88
306.582	176.88
306.812	184.88
307.042	180.88
307.272	176.88
307.502	188.88
307.731	211.88
307.961	185.88
308.191	185.88
308.421	199.88
308.651	194.88
308.881	182.88
309.111	178.88
309.341	186.88
309.571	201.88
309.8	184.88
310.03	176.88
310.26	188.88
310.49	178.88
310.72	185.88
310.949	171.88
311.179	186.88
311.409	190.88
311.639	189.88
311.868	169.88
312.098	178.88
312.328	192.88
312.557	189.88
312.787	180.88
313.017	188.88
313.246	201.88
313.476	188.88
313.706	181.88
313.935	167.88
314.165	181.88
314.394	193.88
314.624	190.88
314.853	198.88
315.083	185.88
315.312	193.88
315.542	177.88
315.771	175.88
316.001	187.88
316.23	195.88
316.46	184.88
316.689	184.88
316.919	171.88
317.148	170.88
317.377	175.88
317.607	192.88
317.836	182.88
318.065	190.88
318.295	195.88
318.524	182.88
318.753	182.88
318.983	185.88
319.212	196.88
319.441	198.88
319.67	195.88
319.9	187.88
320.129	204.88
320.358	179.88
320.587	190.88
320.816	202.88
321.046	200.88
321.275	208.88
321.504	199.88
321.733	202.88
321.962	185.88
322.191	202.88
322.42	200.88
322.649	204.88
322.878	216.88
323.108	191.88
323.337	186.88
323.566	215.88
323.795	196.88
324.024	202.88
324.253	193.88
324.482	194.88
324.71	202.88
324.939	203.88
325.168	199.88
325.397	212.88
325.626	194.88
325.855	202.88
326.084	203.88
326.313	194.88
326.542	207.88
326.77	207.88
326.999	192.88
327.228	203.88
327.457	216.88
327.686	214.88
327.914	229.88
328.143	252.88
328.372	249.88
328.6	223.88
328.829	223.88
329.058	220.88
329.287	209.88
329.515	217.88
329.744	263.88
329.972	280.88
330.201	294.88
330.43	314.88
330.658	252.88
330.887	232.88
331.115	216.88
331.344	236.88
331.572	217.88
331.801	206.88
332.03	217.88
332.258	232.88
332.486	231.88
332.715	234.88
332.943	253.88
333.172	254.88
333.4	255.88
333.629	256.88
333.857	276.88
334.085	328.88
334.314	347.88
334.542	369.88
334.771	355.88
334.999	298.88
335.227	251.88
335.455	237.88
335.684	257.88
335.912	242.88
336.14	256.88
336.369	241.88
336.597	218.88
336.825	225.88
337.053	233.88
337.281	224.88
337.51	227.88
337.738	222.88
337.966	200.88
338.194	216.88
338.422	206.88
338.65	243.88
338.878	206.88
339.106	212.88
339.334	224.88
339.562	211.88
339.79	217.88
340.018	211.88
340.246	213.88
340.474	219.88
340.702	225.88
340.93	218.88
341.158	203.88
341.386	204.88
341.614	212.88
341.842	194.88
342.07	198.88
342.298	219.88
342.526	228.88
342.754	219.88
342.981	218.88
343.209	217.88
343.437	263.88
343.665	238.88
343.893	243.88
344.12	270.88
344.348	246.88
344.576	216.88
344.804	241.88
345.031	232.88
345.259	220.88
345.487	221.88
345.714	198.88
345.942	204.88
346.17	209.88
346.397	207.88
346.625	205.88
346.853	195.88
347.08	190.88
347.308	223.88
347.535	219.88
347.763	200.88
347.99	218.88
348.218	223.88
348.445	222.88
348.673	196.88
348.9	214.88
349.128	204.88
349.355	194.88
349.583	193.88
349.81	211.88
350.037	204.88
350.265	200.88
350.492	201.88
350.72	205.88
350.947	202.88
351.174	208.88
351.402	202.88
351.629	214.88
351.856	210.88
352.083	187.88
352.311	219.88
352.538	211.88
352.765	190.88
352.992	214.88
353.22	193.88
353.447	204.88
353.674	226.88
353.901	208.88
354.128	213.88
354.355	202.88
354.583	189.88
354.81	214.88
355.037	214.88
355.264	217.88
355.491	220.88
355.718	202.88
355.945	203.88
356.172	197.88
356.399	215.88
356.626	217.88
356.853	217.88
357.08	223.88
357.307	240.88
357.534	214.88
357.761	215.88
357.988	238.88
358.215	238.88
358.441	226.88
358.668	215.88
358.895	204.88
359.122	225.88
359.349	215.88
359.576	195.88
359.802	208.88
360.029	191.88
360.256	208.88
360.483	200.88
360.709	206.88
360.936	224.88
361.163	218.88
361.39	202.88
361.616	209.88
361.843	215.88
362.07	222.88
362.296	205.88
362.523	216.88
362.749	215.88
362.976	229.88
363.203	234.88
363.429	227.88
363.656	206.88
363.882	207.88
364.109	223.88
364.335	200.88
364.562	205.88
364.788	202.88
365.015	217.88
365.241	196.88
365.468	211.88
365.694	201.88
365.92	207.88
366.147	214.88
366.373	212.88
366.599	197.88
366.826	196.88
367.052	214.88
367.278	211.88
367.505	191.88
367.731	233.88
367.957	220.88
368.184	219.88
368.41	224.88
368.636	218.88
368.862	219.88
369.089	214.88
369.315	226.88
369.541	230.88
369.767	209.88
369.993	223.88
370.219	205.88
370.445	217.88
370.672	227.88
370.898	220.88
371.124	218.88
371.35	227.88
371.576	213.88
371.802	223.88
372.028	243.88
372.254	232.88
372.48	230.88
372.706	230.88
372.932	244.88
373.158	243.88
373.384	243.88
373.61	271.88
373.835	255.88
374.061	230.88
374.287	232.88
374.513	243.88
374.739	260.88
374.965	273.88
375.191	268.88
375.416	247.88
375.642	244.88
375.868	240.88
376.094	251.88
376.319	252.88
376.545	247.88
376.771	228.88
376.997	230.88
377.222	210.88
377.448	208.88
377.674	232.88
377.899	220.88
378.125	228.88
378.35	210.88
378.576	222.88
378.802	227.88
379.027	232.88
379.253	220.88
379.478	227.88
379.704	226.88
379.929	221.88
380.155	226.88
380.38	227.88
380.606	227.88
380.831	223.88
381.057	248.88
381.282	223.88
381.507	230.88
381.733	232.88
381.958	252.88
382.184	282.88
382.409	270.88
382.634	268.88
382.86	262.88
383.085	249.88
383.31	246.88
383.535	240.88
383.761	253.88
383.986	251.88
384.211	275.88
384.436	249.88
384.662	263.88
384.887	249.88
385.112	255.88
385.337	255.88
385.562	256.88
385.787	284.88
386.013	272.88
386.238	258.88
386.463	257.88
386.688	296.88
386.913	262.88
387.138	261.88
387.363	256.88
387.588	237.88
387.813	276.88
388.038	262.88
388.263	279.88
388.488	264.88
388.713	274.88
388.938	275.88
389.163	251.88
389.387	270.88
389.612	263.88
389.837	260.88
390.062	270.88
390.287	257.88
390.512	272.88
390.736	269.88
390.961	259.88
391.186	270.88
391.411	257.88
391.636	270.88
391.86	286.88
392.085	286.88
392.31	285.88
392.534	287.88
392.759	278.88
392.984	268.88
393.208	272.88
393.433	293.88
393.658	272.88
393.882	283.88
394.107	268.88
394.331	290.88
394.556	307.88
394.78	296.88
395.005	297.88
395.229	285.88
395.454	294.88
395.678	282.88
395.903	305.88
396.127	301.88
396.352	323.88
396.576	291.88
396.801	301.88
397.025	324.88
397.249	315.88
397.474	316.88
397.698	289.88
397.922	289.88
398.147	314.88
398.371	320.88
398.595	312.88
398.82	331.88
399.044	319.88
399.268	358.88
399.492	412.88
399.717	428.88
399.941	415.88
400.165	385.88
400.389	353.88
400.613	339.88
400.837	308.88
401.062	305.88
401.286	310.88
401.51	337.88
401.734	323.88
401.958	331.88
402.182	311.88
402.406	330.88
402.63	336.88
402.854	332.88
403.078	338.88
403.302	357.88
403.526	349.88
403.75	351.88
403.974	350.88
404.198	358.88
404.422	376.88
404.645	382.88
404.869	366.88
405.093	352.88
405.317	353.88
405.541	349.88
405.765	355.88
405.988	358.88
406.212	355.88
406.436	355.88
406.66	374.88
406.883	373.88
407.107	373.88
407.331	406.88
407.555	411.88
407.778	388.88
408.002	398.88
408.226	365.88
408.449	384.88
408.673	354.88
408.896	343.88
409.12	357.88
409.344	344.88
409.567	355.88
409.791	341.88
410.014	348.88
410.238	345.88
410.461	363.88
410.685	337.88
410.908	322.88
411.132	342.88
411.355	326.88
411.578	342.88
411.802	335.88
412.025	346.88
412.249	326.88
412.472	324.88
412.695	335.88
412.919	344.88
413.142	322.88
413.365	329.88
413.589	322.88
413.812	337.88
414.035	330.88
414.258	327.88
414.482	339.88
414.705	332.88
414.928	327.88
415.151	339.88
415.374	329.88
415.597	324.88
415.821	312.88
416.044	314.88
416.267	337.88
416.49	319.88
416.713	328.88
416.936	311.88
417.159	320.88
417.382	317.88
417.605	347.88
417.828	326.88
418.051	332.88
418.274	334.88
418.497	322.88
418.72	347.88
418.943	304.88
419.166	355.88
419.389	367.88
419.611	375.88
419.834	342.88
420.057	345.88
420.28	336.88
420.503	322.88
420.726	340.88
420.948	334.88
421.171	340.88
421.394	322.88
421.617	331.88
421.839	354.88
422.062	348.88
422.285	358.88
422.507	339.88
422.73	341.88
422.953	359.88
423.175	349.88
423.398	343.88
423.621	364.88
423.843	346.88
424.066	350.88
424.288	346.88
424.511	353.88
424.733	353.88
424.956	342.88
425.178	350.88
425.401	343.88
425.623	334.88
425.846	326.88
426.068	314.88
426.291	328.88
426.513	333.88
426.735	324.88
426.958	312.88
427.18	329.88
427.402	321.88
427.625	315.88
427.847	323.88
428.069	315.88
428.292	317.88
428.514	295.88
428.736	289.88
428.958	296.88
429.181	293.88
429.403	312.88
429.625	293.88
429.847	296.88
430.069	310.88
430.292	291.88
430.514	304.88
430.736	306.88
430.958	319.88
431.18	288.88
431.402	310.88
431.624	295.88
431.846	288.88
432.068	288.88
432.29	289.88
432.512	277.88
432.734	314.88
432.956	310.88
433.178	306.88
433.4	299.88
433.622	315.88
433.844	300.88
434.066	309.88
434.287	290.88
434.509	307.88
434.731	309.88
434.953	322.88
435.175	322.88
435.397	331.88
435.618	302.88
435.84	289.88
436.062	304.88
436.284	299.88
436.505	302.88
436.727	300.88
436.949	293.88
437.17	293.88
437.392	292.88
437.614	283.88
437.835	280.88
438.057	294.88
438.278	289.88
438.5	319.88
438.721	315.88
438.943	293.88
439.165	281.88
439.386	302.88
439.608	313.88
439.829	320.88
440.05	302.88
440.272	314.88
440.493	315.88
440.715	328.88
440.936	310.88
441.158	337.88
441.379	314.88
441.6	328.88
441.822	330.88
442.043	335.88
442.264	326.88
442.486	337.88
442.707	335.88
442.928	320.88
443.149	319.88
443.371	323.88
443.592	316.88
443.813	341.88
444.034	336.88
444.255	360.88
444.476	348.88
444.698	372.88
444.919	386.88
445.14	537.88
445.361	433.88
445.582	348.88
445.803	320.88
446.024	319.88
446.245	322.88
446.466	322.88
446.687	319.88
446.908	309.88
447.129	302.88
447.35	309.88
447.571	309.88
447.792	298.88
448.013	280.88
448.234	293.88
448.455	281.88
448.675	274.88
448.896	264.88
449.117	308.88
449.338	287.88
449.559	304.88
449.779	274.88
450	296.88
450.221	301.88
450.442	272.88
450.662	286.88
450.883	295.88
451.104	294.88
451.324	291.88
451.545	298.88
451.766	282.88
451.986	281.88
452.207	271.88
452.428	283.88
452.648	279.88
452.869	269.88
453.089	285.88
453.31	252.88
453.53	275.88
453.751	257.88
453.971	247.88
454.192	257.88
454.412	250.88
454.633	258.88
454.853	290.88
455.073	268.88
455.294	265.88
455.514	263.88
455.734	268.88
455.955	262.88
456.175	268.88
456.395	254.88
456.616	258.88
456.836	270.88
457.056	262.88
457.276	234.88
457.497	256.88
457.717	247.88
457.937	255.88
458.157	272.88
458.377	261.88
458.598	259.88
458.818	258.88
459.038	273.88
459.258	277.88
459.478	281.88
459.698	291.88
459.918	296.88
460.138	308.88
460.358	318.88
460.578	321.88
460.798	352.88
461.018	314.88
461.238	325.88
461.458	335.88
461.678	332.88
461.898	341.88
462.118	348.88
462.338	339.88
462.558	360.88
462.777	382.88
462.997	408.88
463.217	400.88
463.437	399.88
463.657	383.88
463.876	359.88
464.096	383.88
464.316	365.88
464.536	349.88
464.755	347.88
464.975	358.88
465.195	318.88
465.414	316.88
465.634	312.88
465.854	278.88
466.073	291.88
466.293	297.88
466.512	297.88
466.732	309.88
466.951	304.88
467.171	303.88
467.391	302.88
467.61	297.88
467.829	300.88
468.049	344.88
468.268	367.88
468.488	312.88
468.707	304.88
468.927	287.88
469.146	284.88
469.365	300.88
469.585	303.88
469.804	300.88
470.023	321.88
470.243	312.88
470.462	306.88
470.681	312.88
470.901	327.88
471.12	310.88
471.339	303.88
471.558	333.88
471.777	299.88
471.997	316.88
472.216	364.88
472.435	443.88
472.654	366.88
472.873	306.88
473.092	296.88
473.311	294.88
473.53	289.88
473.749	291.88
473.968	299.88
474.187	288.88
474.406	292.88
474.625	296.88
474.844	282.88
475.063	283.88
475.282	274.88
475.501	270.88
475.72	297.88
475.939	292.88
476.158	307.88
476.377	290.88
476.596	281.88
476.814	287.88
477.033	285.88
477.252	295.88
477.471	306.88
477.69	311.88
477.908	312.88
478.127	333.88
478.346	329.88
478.564	341.88
478.783	338.88
479.002	322.88
479.22	326.88
479.439	340.88
479.658	348.88
479.876	342.88
480.095	322.88
480.313	350.88
480.532	359.88
480.751	365.88
480.969	433.88
481.188	573.88
481.406	534.88
481.624	392.88
481.843	328.88
482.061	339.88
482.28	339.88
482.498	327.88
482.717	314.88
482.935	313.88
483.153	339.88
483.372	327.88
483.59	316.88
483.808	319.88
484.027	329.88
484.245	324.88
484.463	310.88
484.681	330.88
484.9	331.88
485.118	318.88
485.336	302.88
485.554	315.88
485.772	299.88
485.99	313.88
486.209	316.88
486.427	326.88
486.645	324.88
486.863	334.88
487.081	331.88
487.299	330.88
487.517	333.88
487.735	348.88
487.953	342.88
488.171	363.88
488.389	339.88
488.607	316.88
488.825	312.88
489.043	322.88
489.261	334.88
489.479	330.88
489.696	323.88
489.914	346.88
490.132	330.88
490.35	350.88
490.568	359.88
490.786	344.88
491.003	346.88
491.221	341.88
491.439	356.88
491.657	355.88
491.874	355.88
492.092	374.88
492.31	408.88
492.527	379.88
492.745	376.88
492.963	375.88
493.18	366.88
493.398	382.88
493.615	380.88
493.833	389.88
494.05	380.88
494.268	362.88
494.485	370.88
494.703	359.88
494.92	349.88
495.138	340.88
495.355	370.88
495.573	361.88
495.79	366.88
496.008	390.88
496.225	366.88
496.442	372.88
496.66	376.88
496.877	364.88
497.094	392.88
497.312	389.88
497.529	380.88
497.746	391.88
497.963	385.88
498.181	371.88
498.398	406.88
498.615	440.88
498.832	453.88
499.049	497.88
499.267	522.88
499.484	548.88
499.701	583.88
499.918	652.88
500.135	732.88
500.352	768.88
500.569	804.88
500.786	792.88
501.003	750.88
501.22	652.88
501.437	584.88
501.654	554.88
501.871	510.88
502.088	469.88
502.305	474.88
502.522	433.88
502.739	420.88
502.956	427.88
503.172	416.88
503.389	390.88
