Data from SampB_HRD10591_00082.txt Node
Date: Mon Jan 19 11:33:56 EST 2026
User: Yrep
Spectrometer: HR+D1059
Trigger mode: 0
Integration Time (sec): 3.443000E-1
Scans to average: 1
Electric dark correction enabled: true
Nonlinearity correction enabled: false
Boxcar width: 0
XAxis mode: Wavelengths
Number of Pixels in Spectrum: 2048
>>>>>Begin Spectral Data<<<<<
223.165	-5.25
223.4	-5.25
223.635	-5.25
223.869	-34.25
224.104	-29.25
224.338	-16.25
224.573	-22.25
224.808	-17.25
225.042	-1.25
225.277	2.75
225.511	-5.25
225.746	13.75
225.98	19.75
226.215	10.75
226.449	6.75
226.683	17.75
226.918	20.75
227.152	38.75
227.387	31.75
227.621	36.75
227.856	45.75
228.09	40.75
228.324	47.75
228.559	52.75
228.793	60.75
229.027	87.75
229.262	52.75
229.496	80.75
229.73	69.75
229.964	74.75
230.199	80.75
230.433	80.75
230.667	81.75
230.901	64.75
231.136	94.75
231.37	76.75
231.604	102.75
231.838	96.75
232.072	71.75
232.306	66.75
232.541	87.75
232.775	86.75
233.009	103.75
233.243	92.75
233.477	100.75
233.711	99.75
233.945	88.75
234.179	100.75
234.413	99.75
234.647	99.75
234.881	104.75
235.115	96.75
235.349	98.75
235.583	115.75
235.817	74.75
236.051	86.75
236.285	107.75
236.519	89.75
236.753	96.75
236.987	94.75
237.221	102.75
237.455	108.75
237.689	112.75
237.922	105.75
238.156	100.75
238.39	101.75
238.624	107.75
238.858	100.75
239.091	96.75
239.325	95.75
239.559	107.75
239.793	98.75
240.027	111.75
240.26	111.75
240.494	118.75
240.728	103.75
240.961	119.75
241.195	107.75
241.429	101.75
241.662	95.75
241.896	98.75
242.13	102.75
242.363	87.75
242.597	104.75
242.83	119.75
243.064	84.75
243.298	117.75
243.531	102.75
243.765	108.75
243.998	111.75
244.232	115.75
244.465	112.75
244.699	115.75
244.932	110.75
245.166	122.75
245.399	100.75
245.633	117.75
245.866	122.75
246.099	118.75
246.333	120.75
246.566	117.75
246.8	106.75
247.033	100.75
247.266	105.75
247.5	126.75
247.733	105.75
247.966	119.75
248.2	112.75
248.433	118.75
248.666	107.75
248.899	121.75
249.133	120.75
249.366	122.75
249.599	127.75
249.832	133.75
250.066	127.75
250.299	123.75
250.532	122.75
250.765	120.75
250.998	116.75
251.231	111.75
251.465	129.75
251.698	118.75
251.931	120.75
252.164	116.75
252.397	131.75
252.63	130.75
252.863	147.75
253.096	134.75
253.329	134.75
253.562	150.75
253.795	144.75
254.028	152.75
254.261	148.75
254.494	117.75
254.727	130.75
254.96	146.75
255.193	134.75
255.426	122.75
255.659	123.75
255.892	138.75
256.124	155.75
256.357	160.75
256.59	151.75
256.823	129.75
257.056	145.75
257.289	140.75
257.521	138.75
257.754	115.75
257.987	126.75
258.22	139.75
258.452	141.75
258.685	132.75
258.918	160.75
259.151	150.75
259.383	143.75
259.616	146.75
259.849	165.75
260.081	180.75
260.314	182.75
260.547	135.75
260.779	139.75
261.012	174.75
261.244	171.75
261.477	174.75
261.71	156.75
261.942	146.75
262.175	156.75
262.407	148.75
262.64	146.75
262.872	164.75
263.105	180.75
263.337	182.75
263.57	146.75
263.802	109.75
264.035	127.75
264.267	120.75
264.499	125.75
264.732	135.75
264.964	130.75
265.197	134.75
265.429	124.75
265.661	133.75
265.894	140.75
266.126	155.75
266.358	141.75
266.591	124.75
266.823	146.75
267.055	146.75
267.287	137.75
267.52	141.75
267.752	132.75
267.984	127.75
268.216	135.75
268.448	136.75
268.681	135.75
268.913	151.75
269.145	132.75
269.377	154.75
269.609	130.75
269.841	152.75
270.073	134.75
270.306	126.75
270.538	144.75
270.77	150.75
271.002	144.75
271.234	145.75
271.466	163.75
271.698	160.75
271.93	150.75
272.162	163.75
272.394	150.75
272.626	150.75
272.858	153.75
273.09	165.75
273.322	164.75
273.553	155.75
273.785	170.75
274.017	215.75
274.249	216.75
274.481	208.75
274.713	250.75
274.945	262.75
275.176	244.75
275.408	210.75
275.64	215.75
275.872	207.75
276.104	155.75
276.335	167.75
276.567	163.75
276.799	171.75
277.031	184.75
277.262	173.75
277.494	171.75
277.726	158.75
277.957	143.75
278.189	174.75
278.421	163.75
278.652	132.75
278.884	153.75
279.115	151.75
279.347	166.75
279.579	170.75
279.81	168.75
280.042	168.75
280.273	159.75
280.505	168.75
280.736	157.75
280.968	168.75
281.199	146.75
281.431	154.75
281.662	134.75
281.894	158.75
282.125	160.75
282.356	159.75
282.588	164.75
282.819	152.75
283.051	155.75
283.282	156.75
283.513	169.75
283.745	162.75
283.976	180.75
284.207	176.75
284.439	166.75
284.67	181.75
284.901	176.75
285.132	182.75
285.364	156.75
285.595	176.75
285.826	167.75
286.057	170.75
286.288	175.75
286.52	170.75
286.751	167.75
286.982	160.75
287.213	165.75
287.444	172.75
287.675	177.75
287.906	179.75
288.138	167.75
288.369	162.75
288.6	157.75
288.831	160.75
289.062	170.75
289.293	159.75
289.524	180.75
289.755	181.75
289.986	176.75
290.217	153.75
290.448	163.75
290.679	175.75
290.91	160.75
291.141	172.75
291.371	170.75
291.602	165.75
291.833	177.75
292.064	163.75
292.295	187.75
292.526	158.75
292.757	183.75
292.987	170.75
293.218	162.75
293.449	160.75
293.68	153.75
293.91	171.75
294.141	170.75
294.372	171.75
294.603	160.75
294.833	178.75
295.064	172.75
295.295	178.75
295.525	200.75
295.756	175.75
295.987	172.75
296.217	181.75
296.448	182.75
296.679	164.75
296.909	189.75
297.14	184.75
297.37	188.75
297.601	196.75
297.831	180.75
298.062	177.75
298.292	190.75
298.523	203.75
298.753	192.75
298.984	188.75
299.214	191.75
299.445	175.75
299.675	189.75
299.905	178.75
300.136	201.75
300.366	194.75
300.597	195.75
300.827	188.75
301.057	175.75
301.288	173.75
301.518	176.75
301.748	160.75
301.979	221.75
302.209	202.75
302.439	185.75
302.669	199.75
302.9	176.75
303.13	189.75
303.36	187.75
303.59	190.75
303.82	194.75
304.051	174.75
304.281	178.75
304.511	194.75
304.741	178.75
304.971	176.75
305.201	185.75
305.431	187.75
305.661	188.75
305.891	186.75
306.121	190.75
306.352	186.75
306.582	191.75
306.812	183.75
307.042	191.75
307.272	190.75
307.502	198.75
307.731	216.75
307.961	203.75
308.191	182.75
308.421	199.75
308.651	192.75
308.881	186.75
309.111	199.75
309.341	201.75
309.571	192.75
309.8	190.75
310.03	183.75
310.26	188.75
310.49	174.75
310.72	172.75
310.949	183.75
311.179	163.75
311.409	173.75
311.639	183.75
311.868	188.75
312.098	175.75
312.328	199.75
312.557	189.75
312.787	194.75
313.017	174.75
313.246	186.75
313.476	186.75
313.706	189.75
313.935	181.75
314.165	187.75
314.394	191.75
314.624	179.75
314.853	191.75
315.083	192.75
315.312	200.75
315.542	194.75
315.771	204.75
316.001	201.75
316.23	193.75
316.46	184.75
316.689	180.75
316.919	189.75
317.148	186.75
317.377	196.75
317.607	191.75
317.836	199.75
318.065	204.75
318.295	204.75
318.524	203.75
318.753	189.75
318.983	194.75
319.212	194.75
319.441	200.75
319.67	193.75
319.9	203.75
320.129	203.75
320.358	200.75
320.587	191.75
320.816	199.75
321.046	195.75
321.275	196.75
321.504	206.75
321.733	215.75
321.962	204.75
322.191	197.75
322.42	191.75
322.649	219.75
322.878	213.75
323.108	207.75
323.337	224.75
323.566	218.75
323.795	229.75
324.024	219.75
324.253	214.75
324.482	203.75
324.71	198.75
324.939	212.75
325.168	211.75
325.397	230.75
325.626	210.75
325.855	205.75
326.084	203.75
326.313	242.75
326.542	209.75
326.77	208.75
326.999	211.75
327.228	201.75
327.457	231.75
327.686	231.75
327.914	234.75
328.143	263.75
328.372	266.75
328.6	232.75
328.829	231.75
329.058	217.75
329.287	216.75
329.515	243.75
329.744	260.75
329.972	290.75
330.201	333.75
330.43	373.75
330.658	270.75
330.887	240.75
331.115	222.75
331.344	230.75
331.572	231.75
331.801	243.75
332.03	246.75
332.258	242.75
332.486	236.75
332.715	261.75
332.943	262.75
333.172	271.75
333.4	275.75
333.629	287.75
333.857	315.75
334.085	349.75
334.314	412.75
334.542	458.75
334.771	430.75
334.999	334.75
335.227	293.75
335.455	267.75
335.684	253.75
335.912	256.75
336.14	252.75
336.369	243.75
336.597	236.75
336.825	238.75
337.053	246.75
337.281	243.75
337.51	245.75
337.738	239.75
337.966	233.75
338.194	220.75
338.422	235.75
338.65	245.75
338.878	227.75
339.106	210.75
339.334	212.75
339.562	227.75
339.79	212.75
340.018	194.75
340.246	205.75
340.474	191.75
340.702	213.75
340.93	209.75
341.158	207.75
341.386	198.75
341.614	207.75
341.842	209.75
342.07	208.75
342.298	202.75
342.526	234.75
342.754	220.75
342.981	239.75
343.209	233.75
343.437	245.75
343.665	245.75
343.893	258.75
344.12	258.75
344.348	265.75
344.576	234.75
344.804	236.75
345.031	207.75
345.259	206.75
345.487	219.75
345.714	206.75
345.942	208.75
346.17	222.75
346.397	203.75
346.625	198.75
346.853	212.75
347.08	212.75
347.308	215.75
347.535	223.75
347.763	214.75
347.99	212.75
348.218	219.75
348.445	196.75
348.673	199.75
348.9	223.75
349.128	220.75
349.355	210.75
349.583	199.75
349.81	199.75
350.037	221.75
350.265	194.75
350.492	198.75
350.72	207.75
350.947	230.75
351.174	234.75
351.402	203.75
351.629	210.75
351.856	202.75
352.083	210.75
352.311	226.75
352.538	213.75
352.765	209.75
352.992	224.75
353.22	223.75
353.447	205.75
353.674	213.75
353.901	215.75
354.128	214.75
354.355	202.75
354.583	213.75
354.81	204.75
355.037	219.75
355.264	224.75
355.491	200.75
355.718	214.75
355.945	207.75
356.172	202.75
356.399	205.75
356.626	236.75
356.853	240.75
357.08	224.75
357.307	227.75
357.534	215.75
357.761	218.75
357.988	229.75
358.215	236.75
358.441	233.75
358.668	237.75
358.895	215.75
359.122	221.75
359.349	211.75
359.576	201.75
359.802	196.75
360.029	200.75
360.256	220.75
360.483	216.75
360.709	219.75
360.936	238.75
361.163	202.75
361.39	210.75
361.616	206.75
361.843	233.75
362.07	233.75
362.296	215.75
362.523	210.75
362.749	210.75
362.976	215.75
363.203	241.75
363.429	215.75
363.656	222.75
363.882	209.75
364.109	209.75
364.335	222.75
364.562	205.75
364.788	215.75
365.015	220.75
365.241	222.75
365.468	227.75
365.694	206.75
365.92	224.75
366.147	214.75
366.373	202.75
366.599	199.75
366.826	195.75
367.052	219.75
367.278	209.75
367.505	210.75
367.731	234.75
367.957	209.75
368.184	226.75
368.41	223.75
368.636	223.75
368.862	236.75
369.089	218.75
369.315	229.75
369.541	235.75
369.767	228.75
369.993	213.75
370.219	221.75
370.445	215.75
370.672	228.75
370.898	239.75
371.124	235.75
371.35	221.75
371.576	221.75
371.802	226.75
372.028	243.75
372.254	254.75
372.48	231.75
372.706	224.75
372.932	238.75
373.158	266.75
373.384	275.75
373.61	288.75
373.835	268.75
374.061	247.75
374.287	260.75
374.513	282.75
374.739	284.75
374.965	258.75
375.191	287.75
375.416	238.75
375.642	262.75
375.868	274.75
376.094	248.75
376.319	247.75
376.545	237.75
376.771	246.75
376.997	247.75
377.222	224.75
377.448	214.75
377.674	227.75
377.899	231.75
378.125	238.75
378.35	237.75
378.576	244.75
378.802	216.75
379.027	228.75
379.253	239.75
379.478	237.75
379.704	235.75
379.929	233.75
380.155	239.75
380.38	240.75
380.606	245.75
380.831	223.75
381.057	242.75
381.282	235.75
381.507	251.75
381.733	285.75
381.958	258.75
382.184	281.75
382.409	275.75
382.634	274.75
382.86	276.75
383.085	270.75
383.31	267.75
383.535	279.75
383.761	258.75
383.986	281.75
384.211	279.75
384.436	275.75
384.662	271.75
384.887	288.75
385.112	274.75
385.337	278.75
385.562	283.75
385.787	308.75
386.013	315.75
386.238	285.75
386.463	282.75
386.688	313.75
386.913	267.75
387.138	273.75
387.363	278.75
387.588	277.75
387.813	292.75
388.038	285.75
388.263	277.75
388.488	255.75
388.713	270.75
388.938	276.75
389.163	271.75
389.387	286.75
389.612	271.75
389.837	266.75
390.062	270.75
390.287	284.75
390.512	271.75
390.736	281.75
390.961	274.75
391.186	285.75
391.411	281.75
391.636	283.75
391.86	286.75
392.085	299.75
392.31	282.75
392.534	286.75
392.759	283.75
392.984	301.75
393.208	324.75
393.433	340.75
393.658	296.75
393.882	278.75
394.107	271.75
394.331	293.75
394.556	294.75
394.78	300.75
395.005	305.75
395.229	295.75
395.454	297.75
395.678	326.75
395.903	315.75
396.127	317.75
396.352	330.75
396.576	324.75
396.801	331.75
397.025	341.75
397.249	331.75
397.474	304.75
397.698	301.75
397.922	288.75
398.147	307.75
398.371	320.75
398.595	335.75
398.82	332.75
399.044	358.75
399.268	362.75
399.492	416.75
399.717	460.75
399.941	441.75
400.165	409.75
400.389	366.75
400.613	362.75
400.837	347.75
401.062	341.75
401.286	333.75
401.51	320.75
401.734	329.75
401.958	326.75
402.182	323.75
402.406	332.75
402.63	339.75
402.854	328.75
403.078	360.75
403.302	346.75
403.526	353.75
403.75	370.75
403.974	375.75
404.198	379.75
404.422	379.75
404.645	391.75
404.869	394.75
405.093	372.75
405.317	350.75
405.541	374.75
405.765	365.75
405.988	353.75
406.212	366.75
406.436	381.75
406.66	392.75
406.883	382.75
407.107	398.75
407.331	420.75
407.555	407.75
407.778	386.75
408.002	395.75
408.226	391.75
408.449	373.75
408.673	402.75
408.896	334.75
409.12	355.75
409.344	356.75
409.567	361.75
409.791	378.75
410.014	373.75
410.238	333.75
410.461	353.75
410.685	368.75
410.908	350.75
411.132	370.75
411.355	341.75
411.578	346.75
411.802	327.75
412.025	326.75
412.249	339.75
412.472	352.75
412.695	349.75
412.919	335.75
413.142	347.75
413.365	355.75
413.589	346.75
413.812	339.75
414.035	339.75
414.258	332.75
414.482	355.75
414.705	332.75
414.928	352.75
415.151	351.75
415.374	358.75
415.597	348.75
415.821	328.75
416.044	327.75
416.267	337.75
416.49	334.75
416.713	347.75
416.936	346.75
417.159	349.75
417.382	339.75
417.605	331.75
417.828	345.75
418.051	347.75
418.274	345.75
418.497	342.75
418.72	345.75
418.943	356.75
419.166	352.75
419.389	380.75
419.611	360.75
419.834	364.75
420.057	374.75
420.28	364.75
420.503	348.75
420.726	318.75
420.948	335.75
421.171	338.75
421.394	328.75
421.617	356.75
421.839	319.75
422.062	345.75
422.285	345.75
422.507	369.75
422.73	390.75
422.953	375.75
423.175	357.75
423.398	344.75
423.621	349.75
423.843	363.75
424.066	341.75
424.288	339.75
424.511	345.75
424.733	345.75
424.956	352.75
425.178	338.75
425.401	350.75
425.623	330.75
425.846	348.75
426.068	345.75
426.291	314.75
426.513	334.75
426.735	327.75
426.958	343.75
427.18	329.75
427.402	354.75
427.625	336.75
427.847	347.75
428.069	348.75
428.292	322.75
428.514	304.75
428.736	328.75
428.958	311.75
429.181	330.75
429.403	314.75
429.625	301.75
429.847	310.75
430.069	335.75
430.292	328.75
430.514	314.75
430.736	327.75
430.958	330.75
431.18	317.75
431.402	305.75
431.624	288.75
431.846	299.75
432.068	280.75
432.29	286.75
432.512	309.75
432.734	334.75
432.956	336.75
433.178	335.75
433.4	312.75
433.622	300.75
433.844	315.75
434.066	307.75
434.287	327.75
434.509	298.75
434.731	303.75
434.953	327.75
435.175	326.75
435.397	328.75
435.618	310.75
435.84	303.75
436.062	315.75
436.284	304.75
436.505	298.75
436.727	299.75
436.949	306.75
437.17	318.75
437.392	291.75
437.614	287.75
437.835	278.75
438.057	274.75
438.278	311.75
438.5	340.75
438.721	311.75
438.943	329.75
439.165	310.75
439.386	310.75
439.608	308.75
439.829	311.75
440.05	326.75
440.272	330.75
440.493	328.75
440.715	335.75
440.936	325.75
441.158	323.75
441.379	318.75
441.6	359.75
441.822	338.75
442.043	349.75
442.264	333.75
442.486	329.75
442.707	324.75
442.928	330.75
443.149	330.75
443.371	346.75
443.592	335.75
443.813	340.75
444.034	356.75
444.255	366.75
444.476	354.75
444.698	376.75
444.919	398.75
445.14	551.75
445.361	441.75
445.582	363.75
445.803	340.75
446.024	343.75
446.245	333.75
446.466	355.75
446.687	334.75
446.908	306.75
447.129	324.75
447.35	302.75
447.571	323.75
447.792	296.75
448.013	308.75
448.234	310.75
448.455	301.75
448.675	306.75
448.896	284.75
449.117	277.75
449.338	304.75
449.559	279.75
449.779	295.75
450	292.75
450.221	300.75
450.442	304.75
450.662	310.75
450.883	292.75
451.104	297.75
451.324	293.75
451.545	291.75
451.766	295.75
451.986	296.75
452.207	298.75
452.428	303.75
452.648	294.75
452.869	290.75
453.089	280.75
453.31	280.75
453.53	299.75
453.751	301.75
453.971	286.75
454.192	269.75
454.412	274.75
454.633	280.75
454.853	261.75
455.073	282.75
455.294	286.75
455.514	287.75
455.734	289.75
455.955	268.75
456.175	266.75
456.395	274.75
456.616	268.75
456.836	279.75
457.056	272.75
457.276	242.75
457.497	247.75
457.717	276.75
457.937	294.75
458.157	259.75
458.377	267.75
458.598	261.75
458.818	263.75
459.038	262.75
459.258	268.75
459.478	285.75
459.698	304.75
459.918	310.75
460.138	314.75
460.358	332.75
460.578	357.75
460.798	343.75
461.018	334.75
461.238	330.75
461.458	332.75
461.678	341.75
461.898	358.75
462.118	348.75
462.338	364.75
462.558	362.75
462.777	367.75
462.997	390.75
463.217	406.75
463.437	410.75
463.657	375.75
463.876	388.75
464.096	373.75
464.316	366.75
464.536	384.75
464.755	386.75
464.975	350.75
465.195	343.75
465.414	326.75
465.634	306.75
465.854	313.75
466.073	309.75
466.293	309.75
466.512	315.75
466.732	304.75
466.951	300.75
467.171	300.75
467.391	312.75
467.61	317.75
467.829	331.75
468.049	373.75
468.268	392.75
468.488	337.75
468.707	296.75
468.927	310.75
469.146	319.75
469.365	326.75
469.585	314.75
469.804	318.75
470.023	328.75
470.243	339.75
470.462	312.75
470.681	348.75
470.901	330.75
471.12	326.75
471.339	312.75
471.558	339.75
471.777	308.75
471.997	336.75
472.216	413.75
472.435	506.75
472.654	388.75
472.873	344.75
473.092	309.75
473.311	328.75
473.53	307.75
473.749	298.75
473.968	308.75
474.187	285.75
474.406	304.75
474.625	302.75
474.844	308.75
475.063	299.75
475.282	307.75
475.501	284.75
475.72	287.75
475.939	285.75
476.158	290.75
476.377	298.75
476.596	316.75
476.814	330.75
477.033	316.75
477.252	293.75
477.471	294.75
477.69	318.75
477.908	316.75
478.127	354.75
478.346	342.75
478.564	353.75
478.783	346.75
479.002	343.75
479.22	359.75
479.439	363.75
479.658	342.75
479.876	351.75
480.095	315.75
480.313	361.75
480.532	397.75
480.751	401.75
480.969	450.75
481.188	702.75
481.406	631.75
481.624	432.75
481.843	371.75
482.061	347.75
482.28	323.75
482.498	344.75
482.717	326.75
482.935	358.75
483.153	356.75
483.372	322.75
483.59	338.75
483.808	338.75
484.027	334.75
484.245	349.75
484.463	328.75
484.681	358.75
484.9	340.75
485.118	338.75
485.336	331.75
485.554	302.75
485.772	329.75
485.99	340.75
486.209	346.75
486.427	364.75
486.645	351.75
486.863	359.75
487.081	349.75
487.299	371.75
487.517	355.75
487.735	362.75
487.953	374.75
488.171	376.75
488.389	363.75
488.607	339.75
488.825	353.75
489.043	361.75
489.261	356.75
489.479	350.75
489.696	345.75
489.914	345.75
490.132	356.75
490.35	350.75
490.568	363.75
490.786	374.75
491.003	379.75
491.221	374.75
491.439	386.75
491.657	392.75
491.874	398.75
492.092	414.75
492.31	456.75
492.527	425.75
492.745	422.75
492.963	410.75
493.18	414.75
493.398	404.75
493.615	423.75
493.833	394.75
494.05	382.75
494.268	404.75
494.485	402.75
494.703	381.75
494.92	388.75
495.138	390.75
495.355	389.75
495.573	378.75
495.79	386.75
496.008	424.75
496.225	421.75
496.442	415.75
496.66	413.75
496.877	391.75
497.094	428.75
497.312	400.75
497.529	405.75
497.746	408.75
497.963	432.75
498.181	458.75
498.398	493.75
498.615	459.75
498.832	486.75
499.049	523.75
499.267	554.75
499.484	578.75
499.701	628.75
499.918	697.75
500.135	796.75
500.352	827.75
500.569	830.75
500.786	838.75
501.003	756.75
501.22	710.75
501.437	633.75
501.654	599.75
501.871	526.75
502.088	506.75
502.305	516.75
502.522	468.75
502.739	460.75
502.956	431.75
503.172	403.75
