Data from SampB_HRD10591_00013.txt Node
Date: Mon Jan 19 11:33:32 EST 2026
User: Yrep
Spectrometer: HR+D1059
Trigger mode: 0
Integration Time (sec): 3.443000E-1
Scans to average: 1
Electric dark correction enabled: true
Nonlinearity correction enabled: false
Boxcar width: 0
XAxis mode: Wavelengths
Number of Pixels in Spectrum: 2048
>>>>>Begin Spectral Data<<<<<
223.165	-26.56
223.4	-26.56
223.635	-26.56
223.869	-2.56
224.104	-22.56
224.338	-25.56
224.573	-20.56
224.808	-20.56
225.042	2.44
225.277	-4.56
225.511	-13.56
225.746	12.44
225.98	16.44
226.215	17.44
226.449	18.44
226.683	16.44
226.918	24.44
227.152	28.44
227.387	50.44
227.621	32.44
227.856	59.44
228.09	46.44
228.324	44.44
228.559	77.44
228.793	79.44
229.027	82.44
229.262	80.44
229.496	85.44
229.73	81.44
229.964	84.44
230.199	81.44
230.433	75.44
230.667	77.44
230.901	91.44
231.136	77.44
231.37	92.44
231.604	86.44
231.838	114.44
232.072	86.44
232.306	97.44
232.541	97.44
232.775	97.44
233.009	77.44
233.243	86.44
233.477	78.44
233.711	93.44
233.945	89.44
234.179	84.44
234.413	95.44
234.647	108.44
234.881	104.44
235.115	100.44
235.349	95.44
235.583	82.44
235.817	83.44
236.051	92.44
236.285	75.44
236.519	97.44
236.753	106.44
236.987	99.44
237.221	83.44
237.455	95.44
237.689	90.44
237.922	94.44
238.156	85.44
238.39	78.44
238.624	98.44
238.858	102.44
239.091	75.44
239.325	77.44
239.559	112.44
239.793	96.44
240.027	98.44
240.26	95.44
240.494	98.44
240.728	92.44
240.961	86.44
241.195	106.44
241.429	89.44
241.662	87.44
241.896	97.44
242.13	101.44
242.363	108.44
242.597	94.44
242.83	104.44
243.064	90.44
243.298	94.44
243.531	96.44
243.765	116.44
243.998	89.44
244.232	104.44
244.465	97.44
244.699	106.44
244.932	94.44
245.166	103.44
245.399	104.44
245.633	102.44
245.866	108.44
246.099	106.44
246.333	106.44
246.566	102.44
246.8	108.44
247.033	81.44
247.266	93.44
247.5	82.44
247.733	104.44
247.966	98.44
248.2	97.44
248.433	101.44
248.666	97.44
248.899	93.44
249.133	88.44
249.366	120.44
249.599	107.44
249.832	115.44
250.066	99.44
250.299	116.44
250.532	107.44
250.765	110.44
250.998	109.44
251.231	112.44
251.465	89.44
251.698	109.44
251.931	116.44
252.164	95.44
252.397	102.44
252.63	113.44
252.863	97.44
253.096	96.44
253.329	123.44
253.562	108.44
253.795	95.44
254.028	124.44
254.261	101.44
254.494	110.44
254.727	110.44
254.96	104.44
255.193	115.44
255.426	97.44
255.659	110.44
255.892	111.44
256.124	118.44
256.357	120.44
256.59	123.44
256.823	121.44
257.056	113.44
257.289	115.44
257.521	110.44
257.754	114.44
257.987	112.44
258.22	117.44
258.452	107.44
258.685	130.44
258.918	105.44
259.151	112.44
259.383	101.44
259.616	123.44
259.849	109.44
260.081	116.44
260.314	127.44
260.547	124.44
260.779	118.44
261.012	111.44
261.244	111.44
261.477	123.44
261.71	121.44
261.942	122.44
262.175	124.44
262.407	114.44
262.64	118.44
262.872	121.44
263.105	111.44
263.337	132.44
263.57	142.44
263.802	118.44
264.035	106.44
264.267	118.44
264.499	118.44
264.732	121.44
264.964	121.44
265.197	124.44
265.429	126.44
265.661	123.44
265.894	118.44
266.126	115.44
266.358	130.44
266.591	115.44
266.823	121.44
267.055	120.44
267.287	117.44
267.52	101.44
267.752	113.44
267.984	124.44
268.216	115.44
268.448	130.44
268.681	126.44
268.913	119.44
269.145	126.44
269.377	113.44
269.609	126.44
269.841	118.44
270.073	124.44
270.306	128.44
270.538	114.44
270.77	120.44
271.002	130.44
271.234	132.44
271.466	129.44
271.698	122.44
271.93	117.44
272.162	124.44
272.394	140.44
272.626	137.44
272.858	120.44
273.09	130.44
273.322	144.44
273.553	117.44
273.785	138.44
274.017	129.44
274.249	144.44
274.481	130.44
274.713	130.44
274.945	131.44
275.176	142.44
275.408	141.44
275.64	131.44
275.872	133.44
276.104	132.44
276.335	136.44
276.567	133.44
276.799	129.44
277.031	139.44
277.262	143.44
277.494	146.44
277.726	144.44
277.957	138.44
278.189	128.44
278.421	131.44
278.652	144.44
278.884	145.44
279.115	131.44
279.347	157.44
279.579	179.44
279.81	195.44
280.042	163.44
280.273	166.44
280.505	162.44
280.736	141.44
280.968	153.44
281.199	146.44
281.431	150.44
281.662	152.44
281.894	138.44
282.125	131.44
282.356	152.44
282.588	143.44
282.819	142.44
283.051	144.44
283.282	136.44
283.513	157.44
283.745	156.44
283.976	137.44
284.207	133.44
284.439	132.44
284.67	145.44
284.901	150.44
285.132	131.44
285.364	156.44
285.595	146.44
285.826	141.44
286.057	162.44
286.288	151.44
286.52	152.44
286.751	151.44
286.982	145.44
287.213	137.44
287.444	148.44
287.675	161.44
287.906	148.44
288.138	164.44
288.369	159.44
288.6	143.44
288.831	140.44
289.062	153.44
289.293	149.44
289.524	148.44
289.755	166.44
289.986	130.44
290.217	154.44
290.448	163.44
290.679	174.44
290.91	144.44
291.141	156.44
291.371	157.44
291.602	157.44
291.833	173.44
292.064	156.44
292.295	156.44
292.526	145.44
292.757	150.44
292.987	140.44
293.218	139.44
293.449	143.44
293.68	145.44
293.91	135.44
294.141	160.44
294.372	156.44
294.603	148.44
294.833	148.44
295.064	152.44
295.295	162.44
295.525	145.44
295.756	158.44
295.987	161.44
296.217	154.44
296.448	159.44
296.679	157.44
296.909	158.44
297.14	157.44
297.37	161.44
297.601	152.44
297.831	155.44
298.062	157.44
298.292	172.44
298.523	156.44
298.753	160.44
298.984	140.44
299.214	165.44
299.445	165.44
299.675	155.44
299.905	155.44
300.136	167.44
300.366	170.44
300.597	149.44
300.827	162.44
301.057	178.44
301.288	171.44
301.518	162.44
301.748	172.44
301.979	200.44
302.209	155.44
302.439	164.44
302.669	171.44
302.9	172.44
303.13	170.44
303.36	173.44
303.59	158.44
303.82	158.44
304.051	160.44
304.281	160.44
304.511	177.44
304.741	163.44
304.971	172.44
305.201	169.44
305.431	163.44
305.661	175.44
305.891	174.44
306.121	163.44
306.352	170.44
306.582	170.44
306.812	178.44
307.042	167.44
307.272	165.44
307.502	166.44
307.731	178.44
307.961	160.44
308.191	147.44
308.421	160.44
308.651	167.44
308.881	175.44
309.111	147.44
309.341	167.44
309.571	171.44
309.8	177.44
310.03	171.44
310.26	179.44
310.49	163.44
310.72	157.44
310.949	162.44
311.179	169.44
311.409	159.44
311.639	164.44
311.868	173.44
312.098	169.44
312.328	172.44
312.557	155.44
312.787	171.44
313.017	174.44
313.246	173.44
313.476	153.44
313.706	172.44
313.935	160.44
314.165	179.44
314.394	174.44
314.624	175.44
314.853	165.44
315.083	159.44
315.312	170.44
315.542	162.44
315.771	174.44
316.001	172.44
316.23	184.44
316.46	184.44
316.689	171.44
316.919	176.44
317.148	161.44
317.377	163.44
317.607	163.44
317.836	170.44
318.065	158.44
318.295	173.44
318.524	171.44
318.753	171.44
318.983	173.44
319.212	169.44
319.441	159.44
319.67	168.44
319.9	167.44
320.129	181.44
320.358	166.44
320.587	165.44
320.816	162.44
321.046	176.44
321.275	165.44
321.504	180.44
321.733	176.44
321.962	188.44
322.191	163.44
322.42	159.44
322.649	178.44
322.878	174.44
323.108	185.44
323.337	202.44
323.566	202.44
323.795	200.44
324.024	191.44
324.253	184.44
324.482	199.44
324.71	185.44
324.939	179.44
325.168	179.44
325.397	188.44
325.626	199.44
325.855	183.44
326.084	186.44
326.313	185.44
326.542	181.44
326.77	206.44
326.999	185.44
327.228	178.44
327.457	202.44
327.686	227.44
327.914	216.44
328.143	233.44
328.372	227.44
328.6	227.44
328.829	197.44
329.058	197.44
329.287	191.44
329.515	205.44
329.744	220.44
329.972	237.44
330.201	304.44
330.43	272.44
330.658	246.44
330.887	204.44
331.115	205.44
331.344	187.44
331.572	210.44
331.801	212.44
332.03	216.44
332.258	211.44
332.486	237.44
332.715	217.44
332.943	230.44
333.172	235.44
333.4	234.44
333.629	256.44
333.857	264.44
334.085	309.44
334.314	328.44
334.542	352.44
334.771	335.44
334.999	253.44
335.227	244.44
335.455	220.44
335.684	242.44
335.912	238.44
336.14	212.44
336.369	240.44
336.597	212.44
336.825	216.44
337.053	217.44
337.281	212.44
337.51	222.44
337.738	225.44
337.966	206.44
338.194	200.44
338.422	198.44
338.65	192.44
338.878	190.44
339.106	202.44
339.334	197.44
339.562	193.44
339.79	193.44
340.018	182.44
340.246	181.44
340.474	184.44
340.702	188.44
340.93	192.44
341.158	188.44
341.386	181.44
341.614	192.44
341.842	182.44
342.07	181.44
342.298	186.44
342.526	196.44
342.754	187.44
342.981	188.44
343.209	196.44
343.437	221.44
343.665	208.44
343.893	221.44
344.12	212.44
344.348	204.44
344.576	196.44
344.804	181.44
345.031	197.44
345.259	194.44
345.487	169.44
345.714	184.44
345.942	183.44
346.17	200.44
346.397	178.44
346.625	177.44
346.853	186.44
347.08	192.44
347.308	191.44
347.535	189.44
347.763	186.44
347.99	172.44
348.218	194.44
348.445	166.44
348.673	192.44
348.9	187.44
349.128	190.44
349.355	174.44
349.583	183.44
349.81	189.44
350.037	180.44
350.265	201.44
350.492	186.44
350.72	182.44
350.947	179.44
351.174	166.44
351.402	188.44
351.629	189.44
351.856	184.44
352.083	167.44
352.311	165.44
352.538	174.44
352.765	175.44
352.992	204.44
353.22	176.44
353.447	198.44
353.674	192.44
353.901	181.44
354.128	170.44
354.355	167.44
354.583	175.44
354.81	173.44
355.037	176.44
355.264	180.44
355.491	185.44
355.718	179.44
355.945	175.44
356.172	188.44
356.399	190.44
356.626	176.44
356.853	178.44
357.08	191.44
357.307	173.44
357.534	162.44
357.761	182.44
357.988	189.44
358.215	187.44
358.441	193.44
358.668	184.44
358.895	177.44
359.122	186.44
359.349	169.44
359.576	180.44
359.802	163.44
360.029	169.44
360.256	181.44
360.483	174.44
360.709	171.44
360.936	198.44
361.163	192.44
361.39	186.44
361.616	181.44
361.843	197.44
362.07	185.44
362.296	192.44
362.523	176.44
362.749	170.44
362.976	193.44
363.203	193.44
363.429	191.44
363.656	193.44
363.882	189.44
364.109	180.44
364.335	186.44
364.562	188.44
364.788	168.44
365.015	174.44
365.241	173.44
365.468	185.44
365.694	173.44
365.92	195.44
366.147	186.44
366.373	172.44
366.599	171.44
366.826	177.44
367.052	177.44
367.278	194.44
367.505	163.44
367.731	203.44
367.957	186.44
368.184	181.44
368.41	160.44
368.636	193.44
368.862	194.44
369.089	173.44
369.315	173.44
369.541	186.44
369.767	190.44
369.993	188.44
370.219	184.44
370.445	183.44
370.672	187.44
370.898	197.44
371.124	190.44
371.35	188.44
371.576	202.44
371.802	186.44
372.028	191.44
372.254	192.44
372.48	201.44
372.706	179.44
372.932	188.44
373.158	188.44
373.384	189.44
373.61	195.44
373.835	211.44
374.061	217.44
374.287	194.44
374.513	206.44
374.739	206.44
374.965	213.44
375.191	195.44
375.416	220.44
375.642	198.44
375.868	234.44
376.094	210.44
376.319	212.44
376.545	189.44
376.771	188.44
376.997	190.44
377.222	203.44
377.448	210.44
377.674	187.44
377.899	188.44
378.125	189.44
378.35	205.44
378.576	176.44
378.802	195.44
379.027	190.44
379.253	203.44
379.478	198.44
379.704	200.44
379.929	194.44
380.155	186.44
380.38	191.44
380.606	206.44
380.831	188.44
381.057	214.44
381.282	196.44
381.507	207.44
381.733	204.44
381.958	191.44
382.184	207.44
382.409	205.44
382.634	218.44
382.86	206.44
383.085	211.44
383.31	224.44
383.535	200.44
383.761	216.44
383.986	218.44
384.211	227.44
384.436	228.44
384.662	224.44
384.887	212.44
385.112	225.44
385.337	229.44
385.562	223.44
385.787	225.44
386.013	226.44
386.238	228.44
386.463	218.44
386.688	247.44
386.913	216.44
387.138	222.44
387.363	233.44
387.588	221.44
387.813	230.44
388.038	237.44
388.263	252.44
388.488	226.44
388.713	224.44
388.938	216.44
389.163	207.44
389.387	226.44
389.612	226.44
389.837	225.44
390.062	232.44
390.287	236.44
390.512	235.44
390.736	235.44
390.961	227.44
391.186	231.44
391.411	230.44
391.636	238.44
391.86	233.44
392.085	239.44
392.31	237.44
392.534	251.44
392.759	256.44
392.984	262.44
393.208	282.44
393.433	307.44
393.658	290.44
393.882	257.44
394.107	260.44
394.331	242.44
394.556	256.44
394.78	236.44
395.005	233.44
395.229	243.44
395.454	253.44
395.678	248.44
395.903	252.44
396.127	266.44
396.352	251.44
396.576	266.44
396.801	286.44
397.025	294.44
397.249	265.44
397.474	269.44
397.698	241.44
397.922	266.44
398.147	260.44
398.371	265.44
398.595	270.44
398.82	277.44
399.044	299.44
399.268	308.44
399.492	363.44
399.717	373.44
399.941	343.44
400.165	326.44
400.389	290.44
400.613	289.44
400.837	285.44
401.062	251.44
401.286	266.44
401.51	269.44
401.734	248.44
401.958	276.44
402.182	264.44
402.406	290.44
402.63	281.44
402.854	299.44
403.078	284.44
403.302	303.44
403.526	287.44
403.75	290.44
403.974	315.44
404.198	310.44
404.422	307.44
404.645	298.44
404.869	306.44
405.093	319.44
405.317	310.44
405.541	312.44
405.765	293.44
405.988	284.44
406.212	308.44
406.436	291.44
406.66	296.44
406.883	316.44
407.107	314.44
407.331	328.44
407.555	326.44
407.778	314.44
408.002	322.44
408.226	308.44
408.449	303.44
408.673	307.44
408.896	294.44
409.12	294.44
409.344	294.44
409.567	295.44
409.791	316.44
410.014	316.44
410.238	312.44
410.461	299.44
410.685	309.44
410.908	294.44
411.132	297.44
411.355	294.44
411.578	289.44
411.802	293.44
412.025	297.44
412.249	289.44
412.472	295.44
412.695	285.44
412.919	298.44
413.142	266.44
413.365	286.44
413.589	301.44
413.812	268.44
414.035	275.44
414.258	285.44
414.482	275.44
414.705	305.44
414.928	308.44
415.151	291.44
415.374	285.44
415.597	272.44
415.821	274.44
416.044	268.44
416.267	269.44
416.49	280.44
416.713	268.44
416.936	290.44
417.159	276.44
417.382	273.44
417.605	280.44
417.828	290.44
418.051	294.44
418.274	288.44
418.497	286.44
418.72	306.44
418.943	290.44
419.166	305.44
419.389	309.44
419.611	307.44
419.834	294.44
420.057	318.44
420.28	287.44
420.503	277.44
420.726	295.44
420.948	300.44
421.171	289.44
421.394	267.44
421.617	294.44
421.839	302.44
422.062	300.44
422.285	282.44
422.507	292.44
422.73	303.44
422.953	319.44
423.175	297.44
423.398	290.44
423.621	313.44
423.843	301.44
424.066	292.44
424.288	282.44
424.511	292.44
424.733	318.44
424.956	288.44
425.178	277.44
425.401	291.44
425.623	280.44
425.846	281.44
426.068	281.44
426.291	253.44
426.513	275.44
426.735	272.44
426.958	273.44
427.18	272.44
427.402	280.44
427.625	270.44
427.847	260.44
428.069	254.44
428.292	266.44
428.514	265.44
428.736	270.44
428.958	268.44
429.181	260.44
429.403	269.44
429.625	257.44
429.847	276.44
430.069	266.44
430.292	280.44
430.514	256.44
430.736	264.44
430.958	257.44
431.18	246.44
431.402	274.44
431.624	246.44
431.846	236.44
432.068	241.44
432.29	251.44
432.512	258.44
432.734	248.44
432.956	274.44
433.178	278.44
433.4	264.44
433.622	268.44
433.844	252.44
434.066	257.44
434.287	262.44
434.509	269.44
434.731	276.44
434.953	265.44
435.175	276.44
435.397	292.44
435.618	263.44
435.84	249.44
436.062	256.44
436.284	268.44
436.505	257.44
436.727	251.44
436.949	266.44
437.17	277.44
437.392	248.44
437.614	256.44
437.835	232.44
438.057	242.44
438.278	254.44
438.5	264.44
438.721	250.44
438.943	266.44
439.165	272.44
439.386	249.44
439.608	270.44
439.829	267.44
440.05	266.44
440.272	270.44
440.493	267.44
440.715	280.44
440.936	287.44
441.158	283.44
441.379	287.44
441.6	289.44
441.822	285.44
442.043	285.44
442.264	283.44
442.486	287.44
442.707	286.44
442.928	295.44
443.149	290.44
443.371	294.44
443.592	277.44
443.813	279.44
444.034	284.44
444.255	304.44
444.476	317.44
444.698	325.44
444.919	340.44
445.14	520.44
445.361	400.44
445.582	302.44
445.803	293.44
446.024	288.44
446.245	288.44
446.466	295.44
446.687	264.44
446.908	281.44
447.129	281.44
447.35	275.44
447.571	254.44
447.792	262.44
448.013	259.44
448.234	264.44
448.455	254.44
448.675	252.44
448.896	253.44
449.117	251.44
449.338	246.44
449.559	251.44
449.779	267.44
450	240.44
450.221	251.44
450.442	251.44
450.662	247.44
450.883	259.44
451.104	241.44
451.324	261.44
451.545	245.44
451.766	254.44
451.986	259.44
452.207	245.44
452.428	241.44
452.648	245.44
452.869	246.44
453.089	225.44
453.31	239.44
453.53	264.44
453.751	244.44
453.971	229.44
454.192	232.44
454.412	225.44
454.633	244.44
454.853	224.44
455.073	246.44
455.294	230.44
455.514	242.44
455.734	221.44
455.955	217.44
456.175	241.44
456.395	224.44
456.616	232.44
456.836	234.44
457.056	228.44
457.276	213.44
457.497	210.44
457.717	213.44
457.937	217.44
458.157	217.44
458.377	230.44
458.598	233.44
458.818	223.44
459.038	234.44
459.258	224.44
459.478	252.44
459.698	254.44
459.918	269.44
460.138	254.44
460.358	276.44
460.578	296.44
460.798	315.44
461.018	304.44
461.238	279.44
461.458	280.44
461.678	275.44
461.898	282.44
462.118	285.44
462.338	309.44
462.558	315.44
462.777	309.44
462.997	328.44
463.217	348.44
463.437	345.44
463.657	319.44
463.876	307.44
464.096	313.44
464.316	301.44
464.536	303.44
464.755	329.44
464.975	306.44
465.195	264.44
465.414	273.44
465.634	268.44
465.854	268.44
466.073	257.44
466.293	254.44
466.512	257.44
466.732	256.44
466.951	254.44
467.171	248.44
467.391	269.44
467.61	253.44
467.829	272.44
468.049	300.44
468.268	307.44
468.488	268.44
468.707	297.44
468.927	257.44
469.146	247.44
469.365	280.44
469.585	260.44
469.804	264.44
470.023	278.44
470.243	288.44
470.462	271.44
470.681	265.44
470.901	268.44
471.12	262.44
471.339	276.44
471.558	270.44
471.777	276.44
471.997	287.44
472.216	336.44
472.435	388.44
472.654	305.44
472.873	285.44
473.092	256.44
473.311	258.44
473.53	257.44
473.749	264.44
473.968	258.44
474.187	253.44
474.406	263.44
474.625	260.44
474.844	243.44
475.063	246.44
475.282	236.44
475.501	225.44
475.72	245.44
475.939	241.44
476.158	240.44
476.377	254.44
476.596	250.44
476.814	249.44
477.033	250.44
477.252	269.44
477.471	264.44
477.69	266.44
477.908	290.44
478.127	274.44
478.346	283.44
478.564	276.44
478.783	280.44
479.002	275.44
479.22	292.44
479.439	291.44
479.658	294.44
479.876	286.44
480.095	280.44
480.313	299.44
480.532	316.44
480.751	334.44
480.969	365.44
481.188	499.44
481.406	482.44
481.624	333.44
481.843	322.44
482.061	304.44
482.28	292.44
482.498	269.44
482.717	280.44
482.935	265.44
483.153	299.44
483.372	295.44
483.59	291.44
483.808	258.44
484.027	266.44
484.245	268.44
484.463	282.44
484.681	297.44
484.9	288.44
485.118	265.44
485.336	261.44
485.554	278.44
485.772	278.44
485.99	273.44
486.209	280.44
486.427	267.44
486.645	265.44
486.863	274.44
487.081	273.44
487.299	289.44
487.517	277.44
487.735	287.44
487.953	307.44
488.171	304.44
488.389	296.44
488.607	293.44
488.825	284.44
489.043	279.44
489.261	293.44
489.479	268.44
489.696	273.44
489.914	270.44
490.132	285.44
490.35	278.44
490.568	290.44
490.786	308.44
491.003	300.44
491.221	310.44
491.439	319.44
491.657	322.44
491.874	352.44
492.092	336.44
492.31	336.44
492.527	346.44
492.745	323.44
492.963	325.44
493.18	321.44
493.398	336.44
493.615	337.44
493.833	325.44
494.05	324.44
494.268	329.44
494.485	308.44
494.703	321.44
494.92	316.44
495.138	320.44
495.355	315.44
495.573	320.44
495.79	295.44
496.008	308.44
496.225	308.44
496.442	300.44
496.66	309.44
496.877	314.44
497.094	318.44
497.312	332.44
497.529	315.44
497.746	329.44
497.963	309.44
498.181	342.44
498.398	358.44
498.615	380.44
498.832	378.44
499.049	408.44
499.267	434.44
499.484	488.44
499.701	490.44
499.918	553.44
500.135	651.44
500.352	690.44
500.569	672.44
500.786	688.44
501.003	649.44
501.22	565.44
501.437	525.44
501.654	470.44
501.871	431.44
502.088	403.44
502.305	383.44
502.522	368.44
502.739	371.44
502.956	361.44
503.172	336.44
503.389	302.44
503.606	311.44
