Data from SampB_HRD10591_00044.txt Node
Date: Mon Jan 19 11:33:43 EST 2026
User: Yrep
Spectrometer: HR+D1059
Trigger mode: 0
Integration Time (sec): 3.443000E-1
Scans to average: 1
Electric dark correction enabled: true
Nonlinearity correction enabled: false
Boxcar width: 0
XAxis mode: Wavelengths
Number of Pixels in Spectrum: 2048
>>>>>Begin Spectral Data<<<<<
223.165	-25.69
223.4	-25.69
223.635	-25.69
223.869	-21.69
224.104	-23.69
224.338	-3.69
224.573	-20.69
224.808	1.31
225.042	-6.69
225.277	-11.69
225.511	-8.69
225.746	8.31
225.98	12.31
226.215	14.31
226.449	17.31
226.683	13.31
226.918	22.31
227.152	33.31
227.387	39.31
227.621	43.31
227.856	54.31
228.09	58.31
228.324	62.31
228.559	54.31
228.793	77.31
229.027	76.31
229.262	74.31
229.496	67.31
229.73	90.31
229.964	92.31
230.199	79.31
230.433	79.31
230.667	77.31
230.901	85.31
231.136	88.31
231.37	97.31
231.604	89.31
231.838	82.31
232.072	90.31
232.306	87.31
232.541	100.31
232.775	96.31
233.009	95.31
233.243	94.31
233.477	76.31
233.711	108.31
233.945	88.31
234.179	76.31
234.413	95.31
234.647	92.31
234.881	89.31
235.115	92.31
235.349	94.31
235.583	98.31
235.817	77.31
236.051	80.31
236.285	75.31
236.519	107.31
236.753	86.31
236.987	75.31
237.221	85.31
237.455	85.31
237.689	77.31
237.922	83.31
238.156	97.31
238.39	77.31
238.624	81.31
238.858	94.31
239.091	88.31
239.325	83.31
239.559	87.31
239.793	92.31
240.027	93.31
240.26	91.31
240.494	84.31
240.728	91.31
240.961	87.31
241.195	83.31
241.429	91.31
241.662	88.31
241.896	84.31
242.13	90.31
242.363	96.31
242.597	88.31
242.83	103.31
243.064	96.31
243.298	84.31
243.531	86.31
243.765	81.31
243.998	94.31
244.232	94.31
244.465	77.31
244.699	88.31
244.932	104.31
245.166	108.31
245.399	100.31
245.633	93.31
245.866	93.31
246.099	82.31
246.333	91.31
246.566	84.31
246.8	91.31
247.033	94.31
247.266	108.31
247.5	80.31
247.733	87.31
247.966	89.31
248.2	96.31
248.433	101.31
248.666	90.31
248.899	96.31
249.133	97.31
249.366	99.31
249.599	97.31
249.832	88.31
250.066	96.31
250.299	90.31
250.532	97.31
250.765	89.31
250.998	90.31
251.231	95.31
251.465	99.31
251.698	99.31
251.931	84.31
252.164	91.31
252.397	104.31
252.63	108.31
252.863	101.31
253.096	95.31
253.329	108.31
253.562	106.31
253.795	93.31
254.028	99.31
254.261	92.31
254.494	104.31
254.727	119.31
254.96	106.31
255.193	97.31
255.426	103.31
255.659	107.31
255.892	118.31
256.124	105.31
256.357	101.31
256.59	103.31
256.823	86.31
257.056	100.31
257.289	94.31
257.521	98.31
257.754	102.31
257.987	95.31
258.22	107.31
258.452	97.31
258.685	94.31
258.918	98.31
259.151	120.31
259.383	102.31
259.616	93.31
259.849	112.31
260.081	107.31
260.314	88.31
260.547	104.31
260.779	111.31
261.012	101.31
261.244	105.31
261.477	121.31
261.71	101.31
261.942	89.31
262.175	108.31
262.407	107.31
262.64	113.31
262.872	106.31
263.105	100.31
263.337	120.31
263.57	109.31
263.802	106.31
264.035	117.31
264.267	101.31
264.499	100.31
264.732	119.31
264.964	102.31
265.197	83.31
265.429	100.31
265.661	119.31
265.894	93.31
266.126	124.31
266.358	108.31
266.591	98.31
266.823	94.31
267.055	90.31
267.287	101.31
267.52	110.31
267.752	107.31
267.984	113.31
268.216	115.31
268.448	117.31
268.681	100.31
268.913	110.31
269.145	101.31
269.377	115.31
269.609	113.31
269.841	121.31
270.073	103.31
270.306	84.31
270.538	123.31
270.77	98.31
271.002	106.31
271.234	118.31
271.466	130.31
271.698	101.31
271.93	117.31
272.162	109.31
272.394	120.31
272.626	100.31
272.858	116.31
273.09	112.31
273.322	108.31
273.553	122.31
273.785	112.31
274.017	106.31
274.249	105.31
274.481	114.31
274.713	103.31
274.945	131.31
275.176	112.31
275.408	106.31
275.64	116.31
275.872	125.31
276.104	117.31
276.335	110.31
276.567	112.31
276.799	108.31
277.031	110.31
277.262	109.31
277.494	111.31
277.726	115.31
277.957	124.31
278.189	116.31
278.421	112.31
278.652	121.31
278.884	126.31
279.115	114.31
279.347	136.31
279.579	142.31
279.81	137.31
280.042	131.31
280.273	139.31
280.505	142.31
280.736	137.31
280.968	130.31
281.199	117.31
281.431	108.31
281.662	125.31
281.894	125.31
282.125	119.31
282.356	119.31
282.588	116.31
282.819	110.31
283.051	109.31
283.282	125.31
283.513	121.31
283.745	123.31
283.976	136.31
284.207	120.31
284.439	119.31
284.67	122.31
284.901	130.31
285.132	131.31
285.364	121.31
285.595	125.31
285.826	128.31
286.057	122.31
286.288	125.31
286.52	120.31
286.751	124.31
286.982	118.31
287.213	114.31
287.444	125.31
287.675	129.31
287.906	123.31
288.138	110.31
288.369	128.31
288.6	127.31
288.831	114.31
289.062	124.31
289.293	120.31
289.524	123.31
289.755	121.31
289.986	131.31
290.217	125.31
290.448	128.31
290.679	119.31
290.91	112.31
291.141	129.31
291.371	120.31
291.602	121.31
291.833	118.31
292.064	116.31
292.295	128.31
292.526	106.31
292.757	133.31
292.987	132.31
293.218	118.31
293.449	115.31
293.68	129.31
293.91	119.31
294.141	129.31
294.372	136.31
294.603	124.31
294.833	126.31
295.064	126.31
295.295	129.31
295.525	121.31
295.756	145.31
295.987	130.31
296.217	119.31
296.448	127.31
296.679	121.31
296.909	130.31
297.14	134.31
297.37	122.31
297.601	111.31
297.831	136.31
298.062	123.31
298.292	131.31
298.523	127.31
298.753	142.31
298.984	128.31
299.214	122.31
299.445	140.31
299.675	127.31
299.905	125.31
300.136	138.31
300.366	128.31
300.597	123.31
300.827	136.31
301.057	106.31
301.288	144.31
301.518	138.31
301.748	146.31
301.979	176.31
302.209	135.31
302.439	128.31
302.669	119.31
302.9	137.31
303.13	134.31
303.36	110.31
303.59	141.31
303.82	139.31
304.051	130.31
304.281	132.31
304.511	138.31
304.741	137.31
304.971	136.31
305.201	130.31
305.431	131.31
305.661	144.31
305.891	137.31
306.121	136.31
306.352	131.31
306.582	127.31
306.812	131.31
307.042	137.31
307.272	126.31
307.502	143.31
307.731	158.31
307.961	140.31
308.191	140.31
308.421	144.31
308.651	160.31
308.881	129.31
309.111	129.31
309.341	112.31
309.571	134.31
309.8	132.31
310.03	142.31
310.26	133.31
310.49	144.31
310.72	137.31
310.949	137.31
311.179	137.31
311.409	138.31
311.639	146.31
311.868	128.31
312.098	138.31
312.328	131.31
312.557	129.31
312.787	139.31
313.017	134.31
313.246	127.31
313.476	128.31
313.706	138.31
313.935	141.31
314.165	147.31
314.394	147.31
314.624	133.31
314.853	123.31
315.083	120.31
315.312	133.31
315.542	144.31
315.771	144.31
316.001	133.31
316.23	139.31
316.46	160.31
316.689	125.31
316.919	142.31
317.148	132.31
317.377	171.31
317.607	148.31
317.836	143.31
318.065	155.31
318.295	137.31
318.524	149.31
318.753	133.31
318.983	139.31
319.212	132.31
319.441	142.31
319.67	136.31
319.9	140.31
320.129	157.31
320.358	137.31
320.587	139.31
320.816	129.31
321.046	139.31
321.275	142.31
321.504	147.31
321.733	142.31
321.962	142.31
322.191	145.31
322.42	127.31
322.649	166.31
322.878	156.31
323.108	161.31
323.337	140.31
323.566	164.31
323.795	166.31
324.024	155.31
324.253	153.31
324.482	141.31
324.71	136.31
324.939	169.31
325.168	147.31
325.397	150.31
325.626	154.31
325.855	164.31
326.084	154.31
326.313	137.31
326.542	144.31
326.77	159.31
326.999	150.31
327.228	140.31
327.457	149.31
327.686	156.31
327.914	157.31
328.143	184.31
328.372	166.31
328.6	161.31
328.829	161.31
329.058	157.31
329.287	154.31
329.515	179.31
329.744	173.31
329.972	185.31
330.201	192.31
330.43	191.31
330.658	167.31
330.887	168.31
331.115	178.31
331.344	166.31
331.572	162.31
331.801	155.31
332.03	160.31
332.258	162.31
332.486	176.31
332.715	170.31
332.943	150.31
333.172	179.31
333.4	169.31
333.629	187.31
333.857	202.31
334.085	211.31
334.314	238.31
334.542	230.31
334.771	231.31
334.999	220.31
335.227	186.31
335.455	184.31
335.684	190.31
335.912	177.31
336.14	175.31
336.369	163.31
336.597	162.31
336.825	157.31
337.053	162.31
337.281	190.31
337.51	178.31
337.738	179.31
337.966	163.31
338.194	158.31
338.422	171.31
338.65	167.31
338.878	174.31
339.106	146.31
339.334	158.31
339.562	158.31
339.79	146.31
340.018	142.31
340.246	139.31
340.474	150.31
340.702	151.31
340.93	166.31
341.158	140.31
341.386	136.31
341.614	135.31
341.842	142.31
342.07	165.31
342.298	157.31
342.526	143.31
342.754	146.31
342.981	134.31
343.209	136.31
343.437	172.31
343.665	160.31
343.893	171.31
344.12	163.31
344.348	162.31
344.576	149.31
344.804	172.31
345.031	157.31
345.259	129.31
345.487	146.31
345.714	154.31
345.942	140.31
346.17	154.31
346.397	149.31
346.625	151.31
346.853	144.31
347.08	131.31
347.308	156.31
347.535	143.31
347.763	144.31
347.99	143.31
348.218	156.31
348.445	156.31
348.673	144.31
348.9	146.31
349.128	148.31
349.355	165.31
349.583	132.31
349.81	140.31
350.037	148.31
350.265	155.31
350.492	147.31
350.72	149.31
350.947	141.31
351.174	149.31
351.402	146.31
351.629	152.31
351.856	143.31
352.083	150.31
352.311	142.31
352.538	143.31
352.765	133.31
352.992	152.31
353.22	133.31
353.447	141.31
353.674	155.31
353.901	172.31
354.128	149.31
354.355	142.31
354.583	142.31
354.81	146.31
355.037	146.31
355.264	156.31
355.491	133.31
355.718	144.31
355.945	152.31
356.172	152.31
356.399	144.31
356.626	148.31
356.853	139.31
357.08	153.31
357.307	146.31
357.534	141.31
357.761	138.31
357.988	144.31
358.215	148.31
358.441	158.31
358.668	162.31
358.895	142.31
359.122	155.31
359.349	132.31
359.576	130.31
359.802	144.31
360.029	152.31
360.256	148.31
360.483	144.31
360.709	142.31
360.936	173.31
361.163	148.31
361.39	140.31
361.616	145.31
361.843	140.31
362.07	149.31
362.296	133.31
362.523	138.31
362.749	147.31
362.976	154.31
363.203	172.31
363.429	128.31
363.656	154.31
363.882	148.31
364.109	167.31
364.335	170.31
364.562	146.31
364.788	135.31
365.015	138.31
365.241	156.31
365.468	174.31
365.694	147.31
365.92	148.31
366.147	150.31
366.373	130.31
366.599	137.31
366.826	138.31
367.052	139.31
367.278	130.31
367.505	133.31
367.731	166.31
367.957	136.31
368.184	125.31
368.41	139.31
368.636	172.31
368.862	169.31
369.089	135.31
369.315	133.31
369.541	144.31
369.767	152.31
369.993	155.31
370.219	148.31
370.445	136.31
370.672	161.31
370.898	161.31
371.124	144.31
371.35	156.31
371.576	149.31
371.802	158.31
372.028	162.31
372.254	162.31
372.48	154.31
372.706	153.31
372.932	154.31
373.158	164.31
373.384	178.31
373.61	156.31
373.835	158.31
374.061	172.31
374.287	162.31
374.513	145.31
374.739	172.31
374.965	153.31
375.191	160.31
375.416	170.31
375.642	174.31
375.868	177.31
376.094	179.31
376.319	183.31
376.545	156.31
376.771	167.31
376.997	154.31
377.222	140.31
377.448	163.31
377.674	152.31
377.899	157.31
378.125	134.31
378.35	170.31
378.576	144.31
378.802	154.31
379.027	156.31
379.253	177.31
379.478	144.31
379.704	158.31
379.929	167.31
380.155	142.31
380.38	164.31
380.606	165.31
380.831	159.31
381.057	171.31
381.282	145.31
381.507	162.31
381.733	182.31
381.958	167.31
382.184	164.31
382.409	168.31
382.634	179.31
382.86	166.31
383.085	172.31
383.31	175.31
383.535	184.31
383.761	183.31
383.986	184.31
384.211	175.31
384.436	167.31
384.662	169.31
384.887	180.31
385.112	171.31
385.337	176.31
385.562	174.31
385.787	187.31
386.013	186.31
386.238	184.31
386.463	178.31
386.688	211.31
386.913	179.31
387.138	181.31
387.363	178.31
387.588	201.31
387.813	184.31
388.038	200.31
388.263	190.31
388.488	198.31
388.713	174.31
388.938	172.31
389.163	169.31
389.387	174.31
389.612	173.31
389.837	173.31
390.062	189.31
390.287	194.31
390.512	189.31
390.736	192.31
390.961	170.31
391.186	193.31
391.411	176.31
391.636	182.31
391.86	185.31
392.085	205.31
392.31	184.31
392.534	191.31
392.759	200.31
392.984	202.31
393.208	230.31
393.433	261.31
393.658	237.31
393.882	201.31
394.107	205.31
394.331	187.31
394.556	196.31
394.78	189.31
395.005	196.31
395.229	182.31
395.454	198.31
395.678	200.31
395.903	201.31
396.127	201.31
396.352	209.31
396.576	208.31
396.801	241.31
397.025	252.31
397.249	213.31
397.474	189.31
397.698	208.31
397.922	194.31
398.147	203.31
398.371	205.31
398.595	201.31
398.82	214.31
399.044	223.31
399.268	230.31
399.492	269.31
399.717	294.31
399.941	273.31
400.165	242.31
400.389	228.31
400.613	220.31
400.837	208.31
401.062	211.31
401.286	205.31
401.51	208.31
401.734	200.31
401.958	201.31
402.182	195.31
402.406	200.31
402.63	203.31
402.854	207.31
403.078	225.31
403.302	215.31
403.526	220.31
403.75	235.31
403.974	217.31
404.198	226.31
404.422	227.31
404.645	212.31
404.869	223.31
405.093	227.31
405.317	214.31
405.541	212.31
405.765	225.31
405.988	206.31
406.212	213.31
406.436	218.31
406.66	224.31
406.883	225.31
407.107	226.31
407.331	241.31
407.555	239.31
407.778	243.31
408.002	239.31
408.226	239.31
408.449	215.31
408.673	227.31
408.896	214.31
409.12	206.31
409.344	212.31
409.567	225.31
409.791	226.31
410.014	235.31
410.238	222.31
410.461	227.31
410.685	202.31
410.908	208.31
411.132	229.31
411.355	223.31
411.578	206.31
411.802	211.31
412.025	219.31
412.249	224.31
412.472	211.31
412.695	208.31
412.919	206.31
413.142	206.31
413.365	217.31
413.589	218.31
413.812	213.31
414.035	227.31
414.258	229.31
414.482	218.31
414.705	210.31
414.928	205.31
415.151	210.31
415.374	203.31
415.597	202.31
415.821	219.31
416.044	212.31
416.267	208.31
416.49	205.31
416.713	195.31
416.936	211.31
417.159	210.31
417.382	219.31
417.605	212.31
417.828	210.31
418.051	197.31
418.274	220.31
418.497	214.31
418.72	223.31
418.943	215.31
419.166	221.31
419.389	235.31
419.611	221.31
419.834	216.31
420.057	210.31
420.28	220.31
420.503	219.31
420.726	210.31
420.948	201.31
421.171	226.31
421.394	217.31
421.617	221.31
421.839	211.31
422.062	210.31
422.285	216.31
422.507	228.31
422.73	253.31
422.953	234.31
423.175	227.31
423.398	213.31
423.621	222.31
423.843	219.31
424.066	208.31
424.288	222.31
424.511	237.31
424.733	212.31
424.956	217.31
425.178	229.31
425.401	217.31
425.623	217.31
425.846	212.31
426.068	205.31
426.291	207.31
426.513	209.31
426.735	203.31
426.958	216.31
427.18	214.31
427.402	208.31
427.625	190.31
427.847	200.31
428.069	216.31
428.292	195.31
428.514	204.31
428.736	197.31
428.958	186.31
429.181	221.31
429.403	199.31
429.625	210.31
429.847	201.31
430.069	212.31
430.292	227.31
430.514	208.31
430.736	227.31
430.958	218.31
431.18	193.31
431.402	188.31
431.624	190.31
431.846	185.31
432.068	177.31
432.29	202.31
432.512	198.31
432.734	197.31
432.956	206.31
433.178	218.31
433.4	196.31
433.622	207.31
433.844	190.31
434.066	197.31
434.287	194.31
434.509	191.31
434.731	188.31
434.953	205.31
435.175	217.31
435.397	209.31
435.618	191.31
435.84	190.31
436.062	201.31
436.284	191.31
436.505	193.31
436.727	195.31
436.949	214.31
437.17	204.31
437.392	175.31
437.614	193.31
437.835	182.31
438.057	192.31
438.278	193.31
438.5	196.31
438.721	212.31
438.943	195.31
439.165	179.31
439.386	217.31
439.608	193.31
439.829	193.31
440.05	210.31
440.272	188.31
440.493	186.31
440.715	205.31
440.936	209.31
441.158	221.31
441.379	210.31
441.6	208.31
441.822	210.31
442.043	207.31
442.264	199.31
442.486	209.31
442.707	214.31
442.928	193.31
443.149	216.31
443.371	213.31
443.592	208.31
443.813	206.31
444.034	208.31
444.255	224.31
444.476	232.31
444.698	230.31
444.919	227.31
445.14	415.31
445.361	319.31
445.582	220.31
445.803	216.31
446.024	207.31
446.245	214.31
446.466	197.31
446.687	194.31
446.908	203.31
447.129	212.31
447.35	200.31
447.571	194.31
447.792	202.31
448.013	204.31
448.234	188.31
448.455	195.31
448.675	181.31
448.896	182.31
449.117	183.31
449.338	184.31
449.559	178.31
449.779	181.31
450	190.31
450.221	172.31
450.442	184.31
450.662	210.31
450.883	177.31
451.104	194.31
451.324	193.31
451.545	186.31
451.766	171.31
451.986	197.31
452.207	172.31
452.428	205.31
452.648	189.31
452.869	185.31
453.089	178.31
453.31	206.31
453.53	218.31
453.751	215.31
453.971	181.31
454.192	174.31
454.412	169.31
454.633	191.31
454.853	185.31
455.073	195.31
455.294	188.31
455.514	201.31
455.734	176.31
455.955	169.31
456.175	168.31
456.395	187.31
456.616	170.31
456.836	167.31
457.056	161.31
457.276	174.31
457.497	181.31
457.717	171.31
457.937	161.31
458.157	170.31
458.377	154.31
458.598	162.31
458.818	180.31
459.038	176.31
459.258	179.31
459.478	188.31
459.698	187.31
459.918	193.31
460.138	199.31
460.358	211.31
460.578	225.31
460.798	209.31
461.018	203.31
461.238	207.31
461.458	200.31
461.678	215.31
461.898	209.31
462.118	233.31
462.338	225.31
462.558	213.31
462.777	232.31
462.997	241.31
463.217	280.31
463.437	248.31
463.657	230.31
463.876	242.31
464.096	234.31
464.316	243.31
464.536	224.31
464.755	231.31
464.975	206.31
465.195	216.31
465.414	191.31
465.634	193.31
465.854	191.31
466.073	201.31
466.293	190.31
466.512	184.31
466.732	197.31
466.951	198.31
467.171	187.31
467.391	195.31
467.61	194.31
467.829	200.31
468.049	222.31
468.268	223.31
468.488	197.31
468.707	190.31
468.927	187.31
469.146	186.31
469.365	191.31
469.585	185.31
469.804	186.31
470.023	197.31
470.243	189.31
470.462	201.31
470.681	213.31
470.901	196.31
471.12	181.31
471.339	197.31
471.558	198.31
471.777	185.31
471.997	212.31
472.216	225.31
472.435	238.31
472.654	216.31
472.873	210.31
473.092	182.31
473.311	188.31
473.53	180.31
473.749	185.31
473.968	179.31
474.187	179.31
474.406	168.31
474.625	183.31
474.844	186.31
475.063	180.31
475.282	184.31
475.501	186.31
475.72	190.31
475.939	187.31
476.158	205.31
476.377	210.31
476.596	188.31
476.814	186.31
477.033	196.31
477.252	210.31
477.471	194.31
477.69	196.31
477.908	189.31
478.127	209.31
478.346	195.31
478.564	208.31
478.783	220.31
479.002	214.31
479.22	210.31
479.439	210.31
479.658	206.31
479.876	207.31
480.095	235.31
480.313	216.31
480.532	236.31
480.751	241.31
480.969	251.31
481.188	303.31
481.406	277.31
481.624	220.31
481.843	216.31
482.061	234.31
482.28	214.31
482.498	188.31
482.717	208.31
482.935	210.31
483.153	212.31
483.372	222.31
483.59	201.31
483.808	212.31
484.027	215.31
484.245	210.31
484.463	203.31
484.681	201.31
484.9	206.31
485.118	226.31
485.336	209.31
485.554	205.31
485.772	219.31
485.99	219.31
486.209	201.31
486.427	182.31
486.645	195.31
486.863	211.31
487.081	206.31
487.299	220.31
487.517	215.31
487.735	216.31
487.953	221.31
488.171	235.31
488.389	220.31
488.607	216.31
488.825	212.31
489.043	191.31
489.261	213.31
489.479	233.31
489.696	205.31
489.914	220.31
490.132	228.31
490.35	221.31
490.568	215.31
490.786	219.31
491.003	217.31
491.221	233.31
491.439	261.31
491.657	243.31
491.874	249.31
492.092	260.31
492.31	246.31
492.527	247.31
492.745	229.31
492.963	223.31
493.18	222.31
493.398	246.31
493.615	255.31
493.833	232.31
494.05	236.31
494.268	234.31
494.485	228.31
494.703	218.31
494.92	218.31
495.138	228.31
495.355	226.31
495.573	234.31
495.79	232.31
496.008	247.31
496.225	236.31
496.442	254.31
496.66	260.31
496.877	218.31
497.094	241.31
497.312	255.31
497.529	266.31
497.746	236.31
497.963	257.31
498.181	275.31
498.398	296.31
498.615	267.31
498.832	275.31
499.049	306.31
499.267	364.31
499.484	351.31
499.701	358.31
499.918	392.31
500.135	456.31
500.352	485.31
500.569	475.31
500.786	477.31
501.003	432.31
501.22	384.31
501.437	375.31
501.654	371.31
501.871	325.31
502.088	305.31
502.305	299.31
502.522	299.31
502.739	274.31
502.956	232.31
503.172	242.31
503.389	250.31
503.606	232.31
503.823	260.31
504.04	269.31
504.256	247.31
