Data from SampB_HRD10591_00088.txt Node
Date: Mon Jan 19 11:33:58 EST 2026
User: Yrep
Spectrometer: HR+D1059
Trigger mode: 0
Integration Time (sec): 3.443000E-1
Scans to average: 1
Electric dark correction enabled: true
Nonlinearity correction enabled: false
Boxcar width: 0
XAxis mode: Wavelengths
Number of Pixels in Spectrum: 2048
>>>>>Begin Spectral Data<<<<<
223.165	-10.38
223.4	-10.38
223.635	-10.38
223.869	-12.38
224.104	-28.38
224.338	-16.38
224.573	-2.38
224.808	-19.38
225.042	1.62
225.277	-13.38
225.511	-9.38
225.746	12.62
225.98	10.62
226.215	6.62
226.449	4.62
226.683	19.62
226.918	30.62
227.152	25.62
227.387	33.62
227.621	44.62
227.856	67.62
228.09	45.62
228.324	45.62
228.559	66.62
228.793	72.62
229.027	76.62
229.262	83.62
229.496	93.62
229.73	81.62
229.964	95.62
230.199	82.62
230.433	80.62
230.667	99.62
230.901	87.62
231.136	103.62
231.37	97.62
231.604	95.62
231.838	97.62
232.072	94.62
232.306	98.62
232.541	91.62
232.775	83.62
233.009	109.62
233.243	95.62
233.477	107.62
233.711	113.62
233.945	94.62
234.179	104.62
234.413	116.62
234.647	106.62
234.881	103.62
235.115	96.62
235.349	115.62
235.583	110.62
235.817	104.62
236.051	106.62
236.285	102.62
236.519	89.62
236.753	97.62
236.987	99.62
237.221	126.62
237.455	114.62
237.689	104.62
237.922	115.62
238.156	113.62
238.39	123.62
238.624	105.62
238.858	114.62
239.091	108.62
239.325	97.62
239.559	90.62
239.793	112.62
240.027	131.62
240.26	107.62
240.494	116.62
240.728	119.62
240.961	114.62
241.195	105.62
241.429	117.62
241.662	113.62
241.896	107.62
242.13	106.62
242.363	118.62
242.597	113.62
242.83	115.62
243.064	108.62
243.298	121.62
243.531	124.62
243.765	110.62
243.998	109.62
244.232	115.62
244.465	121.62
244.699	108.62
244.932	120.62
245.166	105.62
245.399	125.62
245.633	124.62
245.866	113.62
246.099	132.62
246.333	128.62
246.566	116.62
246.8	131.62
247.033	139.62
247.266	105.62
247.5	119.62
247.733	127.62
247.966	132.62
248.2	134.62
248.433	125.62
248.666	133.62
248.899	126.62
249.133	150.62
249.366	150.62
249.599	154.62
249.832	132.62
250.066	145.62
250.299	137.62
250.532	153.62
250.765	143.62
250.998	128.62
251.231	134.62
251.465	129.62
251.698	139.62
251.931	142.62
252.164	134.62
252.397	128.62
252.63	148.62
252.863	160.62
253.096	146.62
253.329	157.62
253.562	160.62
253.795	160.62
254.028	180.62
254.261	171.62
254.494	146.62
254.727	145.62
254.96	152.62
255.193	157.62
255.426	152.62
255.659	128.62
255.892	155.62
256.124	159.62
256.357	162.62
256.59	169.62
256.823	159.62
257.056	153.62
257.289	155.62
257.521	154.62
257.754	145.62
257.987	156.62
258.22	151.62
258.452	157.62
258.685	155.62
258.918	172.62
259.151	171.62
259.383	164.62
259.616	149.62
259.849	168.62
260.081	190.62
260.314	196.62
260.547	162.62
260.779	190.62
261.012	166.62
261.244	177.62
261.477	177.62
261.71	154.62
261.942	147.62
262.175	155.62
262.407	157.62
262.64	178.62
262.872	180.62
263.105	185.62
263.337	203.62
263.57	177.62
263.802	145.62
264.035	132.62
264.267	153.62
264.499	155.62
264.732	158.62
264.964	133.62
265.197	143.62
265.429	163.62
265.661	138.62
265.894	146.62
266.126	161.62
266.358	164.62
266.591	153.62
266.823	180.62
267.055	155.62
267.287	141.62
267.52	145.62
267.752	141.62
267.984	143.62
268.216	135.62
268.448	149.62
268.681	153.62
268.913	158.62
269.145	165.62
269.377	161.62
269.609	146.62
269.841	164.62
270.073	162.62
270.306	190.62
270.538	150.62
270.77	164.62
271.002	163.62
271.234	161.62
271.466	169.62
271.698	181.62
271.93	176.62
272.162	178.62
272.394	191.62
272.626	181.62
272.858	170.62
273.09	173.62
273.322	177.62
273.553	190.62
273.785	207.62
274.017	236.62
274.249	235.62
274.481	236.62
274.713	231.62
274.945	273.62
275.176	257.62
275.408	228.62
275.64	239.62
275.872	211.62
276.104	193.62
276.335	168.62
276.567	181.62
276.799	190.62
277.031	182.62
277.262	188.62
277.494	179.62
277.726	177.62
277.957	195.62
278.189	188.62
278.421	185.62
278.652	172.62
278.884	178.62
279.115	196.62
279.347	194.62
279.579	210.62
279.81	209.62
280.042	192.62
280.273	210.62
280.505	202.62
280.736	185.62
280.968	161.62
281.199	181.62
281.431	178.62
281.662	177.62
281.894	182.62
282.125	168.62
282.356	175.62
282.588	185.62
282.819	188.62
283.051	188.62
283.282	188.62
283.513	191.62
283.745	183.62
283.976	171.62
284.207	172.62
284.439	187.62
284.67	189.62
284.901	183.62
285.132	207.62
285.364	199.62
285.595	188.62
285.826	186.62
286.057	179.62
286.288	177.62
286.52	195.62
286.751	178.62
286.982	180.62
287.213	168.62
287.444	196.62
287.675	186.62
287.906	185.62
288.138	186.62
288.369	198.62
288.6	197.62
288.831	188.62
289.062	198.62
289.293	185.62
289.524	178.62
289.755	182.62
289.986	185.62
290.217	182.62
290.448	173.62
290.679	197.62
290.91	194.62
291.141	193.62
291.371	192.62
291.602	197.62
291.833	209.62
292.064	182.62
292.295	192.62
292.526	191.62
292.757	190.62
292.987	202.62
293.218	192.62
293.449	198.62
293.68	179.62
293.91	203.62
294.141	190.62
294.372	193.62
294.603	200.62
294.833	198.62
295.064	198.62
295.295	195.62
295.525	199.62
295.756	206.62
295.987	187.62
296.217	194.62
296.448	196.62
296.679	202.62
296.909	199.62
297.14	201.62
297.37	205.62
297.601	201.62
297.831	187.62
298.062	191.62
298.292	205.62
298.523	226.62
298.753	219.62
298.984	203.62
299.214	186.62
299.445	201.62
299.675	202.62
299.905	215.62
300.136	208.62
300.366	212.62
300.597	212.62
300.827	214.62
301.057	201.62
301.288	219.62
301.518	208.62
301.748	229.62
301.979	245.62
302.209	217.62
302.439	217.62
302.669	211.62
302.9	209.62
303.13	218.62
303.36	216.62
303.59	210.62
303.82	222.62
304.051	218.62
304.281	212.62
304.511	213.62
304.741	209.62
304.971	217.62
305.201	214.62
305.431	212.62
305.661	207.62
305.891	198.62
306.121	215.62
306.352	219.62
306.582	212.62
306.812	214.62
307.042	212.62
307.272	205.62
307.502	223.62
307.731	227.62
307.961	218.62
308.191	227.62
308.421	219.62
308.651	218.62
308.881	202.62
309.111	227.62
309.341	219.62
309.571	221.62
309.8	224.62
310.03	210.62
310.26	220.62
310.49	211.62
310.72	202.62
310.949	209.62
311.179	207.62
311.409	204.62
311.639	211.62
311.868	210.62
312.098	225.62
312.328	193.62
312.557	207.62
312.787	201.62
313.017	230.62
313.246	223.62
313.476	210.62
313.706	209.62
313.935	223.62
314.165	214.62
314.394	205.62
314.624	234.62
314.853	205.62
315.083	223.62
315.312	239.62
315.542	235.62
315.771	218.62
316.001	221.62
316.23	230.62
316.46	209.62
316.689	215.62
316.919	222.62
317.148	222.62
317.377	231.62
317.607	205.62
317.836	210.62
318.065	235.62
318.295	227.62
318.524	219.62
318.753	211.62
318.983	229.62
319.212	223.62
319.441	221.62
319.67	226.62
319.9	216.62
320.129	233.62
320.358	221.62
320.587	219.62
320.816	213.62
321.046	225.62
321.275	235.62
321.504	234.62
321.733	237.62
321.962	232.62
322.191	231.62
322.42	234.62
322.649	232.62
322.878	250.62
323.108	245.62
323.337	269.62
323.566	254.62
323.795	253.62
324.024	236.62
324.253	237.62
324.482	220.62
324.71	236.62
324.939	227.62
325.168	234.62
325.397	238.62
325.626	242.62
325.855	234.62
326.084	239.62
326.313	230.62
326.542	240.62
326.77	229.62
326.999	231.62
327.228	251.62
327.457	256.62
327.686	283.62
327.914	288.62
328.143	325.62
328.372	345.62
328.6	299.62
328.829	265.62
329.058	253.62
329.287	265.62
329.515	273.62
329.744	305.62
329.972	336.62
330.201	413.62
330.43	431.62
330.658	333.62
330.887	284.62
331.115	282.62
331.344	259.62
331.572	273.62
331.801	270.62
332.03	268.62
332.258	282.62
332.486	273.62
332.715	301.62
332.943	297.62
333.172	325.62
333.4	346.62
333.629	337.62
333.857	399.62
334.085	434.62
334.314	483.62
334.542	552.62
334.771	530.62
334.999	389.62
335.227	331.62
335.455	321.62
335.684	309.62
335.912	302.62
336.14	307.62
336.369	276.62
336.597	291.62
336.825	278.62
337.053	277.62
337.281	273.62
337.51	274.62
337.738	282.62
337.966	261.62
338.194	258.62
338.422	262.62
338.65	274.62
338.878	265.62
339.106	247.62
339.334	262.62
339.562	231.62
339.79	226.62
340.018	236.62
340.246	242.62
340.474	238.62
340.702	237.62
340.93	254.62
341.158	256.62
341.386	247.62
341.614	248.62
341.842	231.62
342.07	245.62
342.298	242.62
342.526	237.62
342.754	234.62
342.981	257.62
343.209	241.62
343.437	298.62
343.665	287.62
343.893	288.62
344.12	310.62
344.348	287.62
344.576	279.62
344.804	266.62
345.031	237.62
345.259	256.62
345.487	245.62
345.714	232.62
345.942	215.62
346.17	225.62
346.397	236.62
346.625	242.62
346.853	218.62
347.08	226.62
347.308	257.62
347.535	237.62
347.763	227.62
347.99	237.62
348.218	227.62
348.445	230.62
348.673	233.62
348.9	230.62
349.128	243.62
349.355	240.62
349.583	234.62
349.81	241.62
350.037	240.62
350.265	215.62
350.492	221.62
350.72	232.62
350.947	226.62
351.174	223.62
351.402	209.62
351.629	220.62
351.856	227.62
352.083	242.62
352.311	234.62
352.538	231.62
352.765	247.62
352.992	236.62
353.22	215.62
353.447	252.62
353.674	242.62
353.901	252.62
354.128	232.62
354.355	218.62
354.583	242.62
354.81	232.62
355.037	249.62
355.264	253.62
355.491	243.62
355.718	265.62
355.945	245.62
356.172	228.62
356.399	245.62
356.626	255.62
356.853	274.62
357.08	257.62
357.307	252.62
357.534	245.62
357.761	249.62
357.988	285.62
358.215	290.62
358.441	271.62
358.668	253.62
358.895	245.62
359.122	237.62
359.349	223.62
359.576	231.62
359.802	222.62
360.029	243.62
360.256	247.62
360.483	239.62
360.709	254.62
360.936	274.62
361.163	258.62
361.39	249.62
361.616	245.62
361.843	255.62
362.07	259.62
362.296	247.62
362.523	234.62
362.749	229.62
362.976	254.62
363.203	273.62
363.429	267.62
363.656	262.62
363.882	248.62
364.109	252.62
364.335	257.62
364.562	265.62
364.788	249.62
365.015	259.62
365.241	239.62
365.468	249.62
365.694	231.62
365.92	237.62
366.147	231.62
366.373	234.62
366.599	230.62
366.826	236.62
367.052	236.62
367.278	237.62
367.505	239.62
367.731	241.62
367.957	246.62
368.184	243.62
368.41	271.62
368.636	277.62
368.862	266.62
369.089	238.62
369.315	261.62
369.541	232.62
369.767	245.62
369.993	228.62
370.219	216.62
370.445	254.62
370.672	268.62
370.898	260.62
371.124	277.62
371.35	253.62
371.576	253.62
371.802	274.62
372.028	271.62
372.254	284.62
372.48	272.62
372.706	259.62
372.932	267.62
373.158	285.62
373.384	300.62
373.61	335.62
373.835	297.62
374.061	282.62
374.287	283.62
374.513	311.62
374.739	311.62
374.965	335.62
375.191	321.62
375.416	299.62
375.642	294.62
375.868	315.62
376.094	307.62
376.319	283.62
376.545	312.62
376.771	281.62
376.997	259.62
377.222	254.62
377.448	249.62
377.674	255.62
377.899	244.62
378.125	250.62
378.35	255.62
378.576	235.62
378.802	257.62
379.027	262.62
379.253	267.62
379.478	259.62
379.704	257.62
379.929	245.62
380.155	244.62
380.38	250.62
380.606	253.62
380.831	275.62
381.057	281.62
381.282	274.62
381.507	292.62
381.733	313.62
381.958	319.62
382.184	317.62
382.409	311.62
382.634	332.62
382.86	317.62
383.085	311.62
383.31	285.62
383.535	323.62
383.761	339.62
383.986	329.62
384.211	330.62
384.436	320.62
384.662	295.62
384.887	310.62
385.112	326.62
385.337	314.62
385.562	311.62
385.787	326.62
386.013	340.62
386.238	337.62
386.463	313.62
386.688	343.62
386.913	302.62
387.138	325.62
387.363	324.62
387.588	306.62
387.813	312.62
388.038	323.62
388.263	342.62
388.488	314.62
388.713	321.62
388.938	311.62
389.163	290.62
389.387	292.62
389.612	295.62
389.837	315.62
390.062	327.62
390.287	333.62
390.512	299.62
390.736	292.62
390.961	295.62
391.186	307.62
391.411	293.62
391.636	324.62
391.86	337.62
392.085	342.62
392.31	367.62
392.534	348.62
392.759	330.62
392.984	362.62
393.208	420.62
393.433	480.62
393.658	418.62
393.882	331.62
394.107	342.62
394.331	344.62
394.556	345.62
394.78	345.62
395.005	358.62
395.229	335.62
395.454	350.62
395.678	359.62
395.903	348.62
396.127	403.62
396.352	377.62
396.576	364.62
396.801	405.62
397.025	427.62
397.249	368.62
397.474	331.62
397.698	325.62
397.922	346.62
398.147	354.62
398.371	347.62
398.595	362.62
398.82	371.62
399.044	411.62
399.268	441.62
399.492	481.62
399.717	522.62
399.941	509.62
400.165	455.62
400.389	401.62
400.613	380.62
400.837	368.62
401.062	361.62
401.286	358.62
401.51	374.62
401.734	340.62
401.958	364.62
402.182	391.62
402.406	377.62
402.63	407.62
402.854	406.62
403.078	393.62
403.302	403.62
403.526	409.62
403.75	427.62
403.974	429.62
404.198	421.62
404.422	458.62
404.645	450.62
404.869	443.62
405.093	397.62
405.317	403.62
405.541	423.62
405.765	378.62
405.988	390.62
406.212	405.62
406.436	437.62
406.66	459.62
406.883	430.62
407.107	447.62
407.331	472.62
407.555	467.62
407.778	439.62
408.002	432.62
408.226	412.62
408.449	394.62
408.673	417.62
408.896	413.62
409.12	386.62
409.344	399.62
409.567	408.62
409.791	409.62
410.014	392.62
410.238	405.62
410.461	399.62
410.685	411.62
410.908	393.62
411.132	393.62
411.355	396.62
411.578	386.62
411.802	382.62
412.025	373.62
412.249	388.62
412.472	407.62
412.695	384.62
412.919	384.62
413.142	383.62
413.365	388.62
413.589	391.62
413.812	383.62
414.035	370.62
414.258	391.62
414.482	385.62
414.705	387.62
414.928	376.62
415.151	396.62
415.374	388.62
415.597	381.62
415.821	358.62
416.044	371.62
416.267	367.62
416.49	365.62
416.713	367.62
416.936	363.62
417.159	353.62
417.382	375.62
417.605	385.62
417.828	381.62
418.051	375.62
418.274	379.62
418.497	389.62
418.72	401.62
418.943	383.62
419.166	395.62
419.389	402.62
419.611	409.62
419.834	413.62
420.057	385.62
420.28	390.62
420.503	400.62
420.726	382.62
420.948	352.62
421.171	374.62
421.394	388.62
421.617	374.62
421.839	385.62
422.062	405.62
422.285	388.62
422.507	433.62
422.73	461.62
422.953	460.62
423.175	398.62
423.398	401.62
423.621	387.62
423.843	401.62
424.066	413.62
424.288	396.62
424.511	384.62
424.733	413.62
424.956	398.62
425.178	371.62
425.401	376.62
425.623	357.62
425.846	389.62
426.068	381.62
426.291	386.62
426.513	361.62
426.735	361.62
426.958	376.62
427.18	389.62
427.402	385.62
427.625	362.62
427.847	370.62
428.069	374.62
428.292	358.62
428.514	352.62
428.736	351.62
428.958	350.62
429.181	360.62
429.403	333.62
429.625	358.62
429.847	348.62
430.069	395.62
430.292	398.62
430.514	355.62
430.736	387.62
430.958	385.62
431.18	350.62
431.402	343.62
431.624	327.62
431.846	321.62
432.068	334.62
432.29	319.62
432.512	349.62
432.734	358.62
432.956	342.62
433.178	351.62
433.4	318.62
433.622	338.62
433.844	333.62
434.066	335.62
434.287	337.62
434.509	345.62
434.731	353.62
434.953	354.62
435.175	373.62
435.397	355.62
435.618	358.62
435.84	353.62
436.062	329.62
436.284	314.62
436.505	327.62
436.727	320.62
436.949	344.62
437.17	334.62
437.392	326.62
437.614	323.62
437.835	317.62
438.057	330.62
438.278	335.62
438.5	372.62
438.721	345.62
438.943	338.62
439.165	349.62
439.386	361.62
439.608	355.62
439.829	351.62
440.05	335.62
440.272	357.62
440.493	363.62
440.715	397.62
440.936	357.62
441.158	369.62
441.379	373.62
441.6	393.62
441.822	401.62
442.043	389.62
442.264	392.62
442.486	378.62
442.707	380.62
442.928	398.62
443.149	375.62
443.371	381.62
443.592	378.62
443.813	369.62
444.034	394.62
444.255	419.62
444.476	407.62
444.698	438.62
444.919	439.62
445.14	600.62
445.361	497.62
445.582	424.62
445.803	395.62
446.024	379.62
446.245	382.62
446.466	343.62
446.687	363.62
446.908	371.62
447.129	360.62
447.35	339.62
447.571	320.62
447.792	337.62
448.013	338.62
448.234	331.62
448.455	324.62
448.675	343.62
448.896	326.62
449.117	324.62
449.338	307.62
449.559	311.62
449.779	322.62
450	346.62
450.221	338.62
450.442	322.62
450.662	323.62
450.883	336.62
451.104	332.62
451.324	310.62
451.545	324.62
451.766	318.62
451.986	339.62
452.207	317.62
452.428	312.62
452.648	324.62
452.869	331.62
453.089	316.62
453.31	327.62
453.53	371.62
453.751	365.62
453.971	320.62
454.192	304.62
454.412	287.62
454.633	311.62
454.853	319.62
455.073	316.62
455.294	302.62
455.514	334.62
455.734	317.62
455.955	301.62
456.175	290.62
456.395	294.62
456.616	263.62
456.836	276.62
457.056	277.62
457.276	262.62
457.497	283.62
457.717	295.62
457.937	285.62
458.157	278.62
458.377	276.62
458.598	296.62
458.818	305.62
459.038	312.62
459.258	302.62
459.478	311.62
459.698	341.62
459.918	352.62
460.138	359.62
460.358	368.62
460.578	377.62
460.798	373.62
461.018	385.62
461.238	362.62
461.458	362.62
461.678	371.62
461.898	398.62
462.118	399.62
462.338	407.62
462.558	422.62
462.777	416.62
462.997	441.62
463.217	474.62
463.437	453.62
463.657	434.62
463.876	406.62
464.096	401.62
464.316	405.62
464.536	415.62
464.755	419.62
464.975	398.62
465.195	373.62
465.414	381.62
465.634	332.62
465.854	360.62
466.073	348.62
466.293	334.62
466.512	333.62
466.732	338.62
466.951	345.62
467.171	348.62
467.391	333.62
467.61	348.62
467.829	355.62
468.049	434.62
468.268	473.62
468.488	365.62
468.707	356.62
468.927	350.62
469.146	338.62
469.365	358.62
469.585	330.62
469.804	342.62
470.023	357.62
470.243	354.62
470.462	355.62
470.681	357.62
470.901	350.62
471.12	362.62
471.339	354.62
471.558	348.62
471.777	357.62
471.997	397.62
472.216	509.62
472.435	654.62
472.654	479.62
472.873	389.62
473.092	351.62
473.311	341.62
473.53	333.62
473.749	345.62
473.968	344.62
474.187	323.62
474.406	321.62
474.625	343.62
474.844	339.62
475.063	340.62
475.282	315.62
475.501	318.62
475.72	326.62
475.939	329.62
476.158	345.62
476.377	341.62
476.596	351.62
476.814	335.62
477.033	356.62
477.252	343.62
477.471	342.62
477.69	364.62
477.908	378.62
478.127	403.62
478.346	392.62
478.564	389.62
478.783	379.62
479.002	393.62
479.22	407.62
479.439	418.62
479.658	409.62
479.876	394.62
480.095	395.62
480.313	414.62
480.532	450.62
480.751	444.62
480.969	558.62
481.188	881.62
481.406	775.62
481.624	501.62
481.843	457.62
482.061	404.62
482.28	398.62
482.498	385.62
482.717	375.62
482.935	376.62
483.153	365.62
483.372	376.62
483.59	398.62
483.808	357.62
484.027	366.62
484.245	371.62
484.463	365.62
484.681	413.62
484.9	394.62
485.118	403.62
485.336	365.62
485.554	344.62
485.772	367.62
485.99	355.62
486.209	362.62
486.427	375.62
486.645	369.62
486.863	382.62
487.081	425.62
487.299	380.62
487.517	396.62
487.735	396.62
487.953	435.62
488.171	397.62
488.389	385.62
488.607	384.62
488.825	380.62
489.043	365.62
489.261	403.62
489.479	394.62
489.696	381.62
489.914	398.62
490.132	377.62
490.35	408.62
490.568	399.62
490.786	399.62
491.003	395.62
491.221	422.62
491.439	427.62
491.657	433.62
491.874	465.62
492.092	454.62
492.31	473.62
492.527	448.62
492.745	446.62
492.963	438.62
493.18	439.62
493.398	443.62
493.615	454.62
493.833	454.62
494.05	445.62
494.268	434.62
494.485	421.62
494.703	410.62
494.92	409.62
495.138	429.62
495.355	415.62
495.573	438.62
495.79	448.62
496.008	462.62
496.225	435.62
496.442	435.62
496.66	442.62
496.877	419.62
497.094	452.62
497.312	461.62
497.529	448.62
497.746	473.62
497.963	462.62
498.181	514.62
498.398	555.62
498.615	529.62
498.832	547.62
499.049	587.62
499.267	662.62
499.484	686.62
499.701	705.62
499.918	778.62
500.135	937.62
500.352	949.62
500.569	973.62
500.786	998.62
501.003	909.62
501.22	783.62
501.437	743.62
501.654	696.62
501.871	625.62
502.088	598.62
502.305	577.62
502.522	576.62
502.739	526.62
502.956	485.62
