Data from SampB_HRD10591_00087.txt Node
Date: Mon Jan 19 11:33:58 EST 2026
User: Yrep
Spectrometer: HR+D1059
Trigger mode: 0
Integration Time (sec): 3.443000E-1
Scans to average: 1
Electric dark correction enabled: true
Nonlinearity correction enabled: false
Boxcar width: 0
XAxis mode: Wavelengths
Number of Pixels in Spectrum: 2048
>>>>>Begin Spectral Data<<<<<
223.165	-28
223.4	-28
223.635	-28
223.869	-21
224.104	-13
224.338	-2
224.573	-20
224.808	-14
225.042	-18
225.277	-11
225.511	-10
225.746	-3
225.98	34
226.215	12
226.449	10
226.683	22
226.918	26
227.152	36
227.387	43
227.621	43
227.856	41
228.09	44
228.324	53
228.559	70
228.793	76
229.027	75
229.262	81
229.496	84
229.73	81
229.964	85
230.199	72
230.433	86
230.667	83
230.901	84
231.136	92
231.37	85
231.604	90
231.838	94
232.072	99
232.306	95
232.541	93
232.775	99
233.009	107
233.243	81
233.477	88
233.711	101
233.945	82
234.179	102
234.413	100
234.647	91
234.881	80
235.115	84
235.349	91
235.583	91
235.817	86
236.051	99
236.285	91
236.519	90
236.753	82
236.987	86
237.221	83
237.455	83
237.689	96
237.922	86
238.156	105
238.39	93
238.624	95
238.858	88
239.091	101
239.325	74
239.559	86
239.793	96
240.027	113
240.26	107
240.494	99
240.728	89
240.961	90
241.195	92
241.429	84
241.662	80
241.896	95
242.13	91
242.363	81
242.597	90
242.83	94
243.064	105
243.298	96
243.531	92
243.765	97
243.998	106
244.232	88
244.465	112
244.699	104
244.932	109
245.166	92
245.399	100
245.633	97
245.866	82
246.099	95
246.333	101
246.566	89
246.8	85
247.033	100
247.266	94
247.5	100
247.733	98
247.966	101
248.2	95
248.433	102
248.666	90
248.899	110
249.133	94
249.366	117
249.599	105
249.832	105
250.066	95
250.299	95
250.532	101
250.765	96
250.998	90
251.231	106
251.465	102
251.698	99
251.931	104
252.164	96
252.397	108
252.63	108
252.863	96
253.096	102
253.329	116
253.562	107
253.795	119
254.028	112
254.261	122
254.494	116
254.727	127
254.96	110
255.193	96
255.426	112
255.659	117
255.892	126
256.124	97
256.357	116
256.59	106
256.823	103
257.056	111
257.289	109
257.521	111
257.754	111
257.987	122
258.22	115
258.452	110
258.685	123
258.918	117
259.151	112
259.383	113
259.616	113
259.849	116
260.081	131
260.314	129
260.547	127
260.779	136
261.012	108
261.244	107
261.477	140
261.71	106
261.942	109
262.175	114
262.407	120
262.64	105
262.872	116
263.105	115
263.337	115
263.57	114
263.802	118
264.035	113
264.267	121
264.499	105
264.732	117
264.964	107
265.197	121
265.429	119
265.661	100
265.894	123
266.126	120
266.358	101
266.591	114
266.823	120
267.055	108
267.287	118
267.52	120
267.752	106
267.984	124
268.216	121
268.448	128
268.681	132
268.913	116
269.145	117
269.377	123
269.609	99
269.841	113
270.073	125
270.306	109
270.538	126
270.77	108
271.002	127
271.234	126
271.466	126
271.698	118
271.93	134
272.162	119
272.394	118
272.626	122
272.858	127
273.09	131
273.322	134
273.553	121
273.785	124
274.017	134
274.249	135
274.481	136
274.713	151
274.945	151
275.176	125
275.408	131
275.64	137
275.872	144
276.104	125
276.335	118
276.567	121
276.799	127
277.031	133
277.262	131
277.494	127
277.726	110
277.957	121
278.189	111
278.421	122
278.652	122
278.884	111
279.115	130
279.347	110
279.579	140
279.81	124
280.042	123
280.273	120
280.505	115
280.736	122
280.968	129
281.199	132
281.431	138
281.662	120
281.894	138
282.125	126
282.356	119
282.588	131
282.819	122
283.051	139
283.282	136
283.513	139
283.745	154
283.976	136
284.207	133
284.439	130
284.67	125
284.901	125
285.132	141
285.364	130
285.595	139
285.826	118
286.057	138
286.288	138
286.52	126
286.751	136
286.982	124
287.213	133
287.444	130
287.675	128
287.906	144
288.138	137
288.369	138
288.6	124
288.831	113
289.062	149
289.293	152
289.524	147
289.755	117
289.986	136
290.217	124
290.448	136
290.679	144
290.91	132
291.141	128
291.371	139
291.602	128
291.833	126
292.064	132
292.295	129
292.526	135
292.757	144
292.987	141
293.218	129
293.449	130
293.68	142
293.91	127
294.141	138
294.372	132
294.603	137
294.833	133
295.064	143
295.295	146
295.525	134
295.756	146
295.987	156
296.217	151
296.448	152
296.679	138
296.909	159
297.14	143
297.37	156
297.601	148
297.831	153
298.062	143
298.292	149
298.523	156
298.753	137
298.984	141
299.214	148
299.445	136
299.675	150
299.905	146
300.136	140
300.366	135
300.597	144
300.827	138
301.057	143
301.288	126
301.518	168
301.748	163
301.979	194
302.209	176
302.439	153
302.669	142
302.9	148
303.13	144
303.36	140
303.59	139
303.82	158
304.051	157
304.281	147
304.511	164
304.741	148
304.971	142
305.201	163
305.431	142
305.661	147
305.891	159
306.121	172
306.352	142
306.582	136
306.812	152
307.042	153
307.272	141
307.502	154
307.731	152
307.961	158
308.191	131
308.421	149
308.651	166
308.881	148
309.111	139
309.341	144
309.571	147
309.8	142
310.03	156
310.26	146
310.49	156
310.72	173
310.949	131
311.179	148
311.409	163
311.639	162
311.868	161
312.098	157
312.328	155
312.557	155
312.787	155
313.017	150
313.246	152
313.476	152
313.706	158
313.935	156
314.165	152
314.394	151
314.624	149
314.853	147
315.083	173
315.312	140
315.542	154
315.771	137
316.001	152
316.23	160
316.46	149
316.689	151
316.919	156
317.148	155
317.377	165
317.607	141
317.836	142
318.065	138
318.295	145
318.524	135
318.753	148
318.983	150
319.212	146
319.441	145
319.67	156
319.9	167
320.129	152
320.358	157
320.587	148
320.816	113
321.046	138
321.275	159
321.504	145
321.733	145
321.962	156
322.191	152
322.42	144
322.649	164
322.878	163
323.108	153
323.337	164
323.566	160
323.795	154
324.024	157
324.253	156
324.482	157
324.71	161
324.939	180
325.168	177
325.397	159
325.626	168
325.855	175
326.084	166
326.313	165
326.542	166
326.77	174
326.999	160
327.228	172
327.457	165
327.686	174
327.914	171
328.143	174
328.372	164
328.6	190
328.829	158
329.058	162
329.287	159
329.515	176
329.744	181
329.972	184
330.201	206
330.43	196
330.658	184
330.887	180
331.115	164
331.344	180
331.572	189
331.801	182
332.03	180
332.258	180
332.486	192
332.715	189
332.943	197
333.172	200
333.4	193
333.629	213
333.857	201
334.085	218
334.314	242
334.542	228
334.771	234
334.999	193
335.227	186
335.455	193
335.684	191
335.912	178
336.14	176
336.369	179
336.597	185
336.825	193
337.053	180
337.281	187
337.51	173
337.738	176
337.966	172
338.194	177
338.422	172
338.65	169
338.878	182
339.106	174
339.334	162
339.562	164
339.79	160
340.018	182
340.246	158
340.474	170
340.702	176
340.93	175
341.158	166
341.386	164
341.614	170
341.842	176
342.07	166
342.298	170
342.526	150
342.754	166
342.981	166
343.209	178
343.437	206
343.665	191
343.893	182
344.12	204
344.348	187
344.576	179
344.804	163
345.031	164
345.259	163
345.487	172
345.714	167
345.942	161
346.17	182
346.397	164
346.625	169
346.853	174
347.08	162
347.308	172
347.535	178
347.763	184
347.99	167
348.218	178
348.445	149
348.673	154
348.9	158
349.128	172
349.355	177
349.583	159
349.81	161
350.037	172
350.265	176
350.492	160
350.72	160
350.947	180
351.174	159
351.402	170
351.629	164
351.856	174
352.083	152
352.311	168
352.538	161
352.765	157
352.992	191
353.22	150
353.447	164
353.674	164
353.901	170
354.128	159
354.355	163
354.583	164
354.81	165
355.037	174
355.264	151
355.491	175
355.718	157
355.945	171
356.172	157
356.399	152
356.626	162
356.853	163
357.08	173
357.307	181
357.534	169
357.761	163
357.988	178
358.215	184
358.441	192
358.668	170
358.895	153
359.122	166
359.349	175
359.576	158
359.802	152
360.029	149
360.256	181
360.483	176
360.709	179
360.936	175
361.163	167
361.39	157
361.616	156
361.843	173
362.07	182
362.296	175
362.523	150
362.749	170
362.976	157
363.203	179
363.429	164
363.656	168
363.882	157
364.109	186
364.335	166
364.562	162
364.788	165
365.015	166
365.241	171
365.468	171
365.694	157
365.92	160
366.147	163
366.373	148
366.599	155
366.826	169
367.052	139
367.278	158
367.505	171
367.731	175
367.957	170
368.184	187
368.41	158
368.636	166
368.862	176
369.089	177
369.315	176
369.541	168
369.767	167
369.993	184
370.219	171
370.445	166
370.672	180
370.898	172
371.124	167
371.35	166
371.576	165
371.802	182
372.028	188
372.254	172
372.48	167
372.706	165
372.932	181
373.158	179
373.384	187
373.61	186
373.835	197
374.061	172
374.287	168
374.513	197
374.739	180
374.965	195
375.191	185
375.416	190
375.642	193
375.868	216
376.094	173
376.319	180
376.545	175
376.771	173
376.997	178
377.222	158
377.448	163
377.674	166
377.899	179
378.125	177
378.35	170
378.576	180
378.802	178
379.027	169
379.253	184
379.478	191
379.704	176
379.929	196
380.155	179
380.38	170
380.606	172
380.831	177
381.057	191
381.282	165
381.507	194
381.733	188
381.958	196
382.184	189
382.409	205
382.634	197
382.86	199
383.085	188
383.31	185
383.535	199
383.761	202
383.986	208
384.211	192
384.436	205
384.662	190
384.887	181
385.112	196
385.337	203
385.562	176
385.787	192
386.013	224
386.238	220
386.463	201
386.688	230
386.913	221
387.138	209
387.363	214
387.588	203
387.813	204
388.038	210
388.263	207
388.488	193
388.713	209
388.938	197
389.163	202
389.387	203
389.612	191
389.837	195
390.062	203
390.287	206
390.512	212
390.736	201
390.961	196
391.186	201
391.411	194
391.636	226
391.86	214
392.085	228
392.31	219
392.534	194
392.759	219
392.984	216
393.208	216
393.433	222
393.658	227
393.882	211
394.107	199
394.331	205
394.556	213
394.78	216
395.005	204
395.229	234
395.454	229
395.678	217
395.903	226
396.127	230
396.352	230
396.576	210
396.801	209
397.025	223
397.249	221
397.474	235
397.698	210
397.922	228
398.147	222
398.371	221
398.595	236
398.82	234
399.044	246
399.268	273
399.492	301
399.717	295
399.941	305
400.165	279
400.389	250
400.613	241
400.837	247
401.062	230
401.286	234
401.51	247
401.734	235
401.958	224
402.182	228
402.406	240
402.63	259
402.854	241
403.078	245
403.302	246
403.526	262
403.75	257
403.974	261
404.198	266
404.422	257
404.645	278
404.869	252
405.093	262
405.317	269
405.541	261
405.765	254
405.988	244
406.212	255
406.436	256
406.66	271
406.883	280
407.107	275
407.331	281
407.555	284
407.778	278
408.002	279
408.226	257
408.449	235
408.673	255
408.896	248
409.12	241
409.344	254
409.567	240
409.791	264
410.014	259
410.238	225
410.461	243
410.685	248
410.908	241
411.132	278
411.355	259
411.578	242
411.802	237
412.025	251
412.249	237
412.472	237
412.695	257
412.919	238
413.142	245
413.365	270
413.589	240
413.812	221
414.035	236
414.258	246
414.482	241
414.705	248
414.928	254
415.151	243
415.374	248
415.597	238
415.821	242
416.044	255
416.267	223
416.49	241
416.713	230
416.936	233
417.159	231
417.382	255
417.605	232
417.828	227
418.051	235
418.274	241
418.497	242
418.72	249
418.943	249
419.166	257
419.389	272
419.611	248
419.834	238
420.057	245
420.28	245
420.503	226
420.726	241
420.948	248
421.171	230
421.394	237
421.617	253
421.839	235
422.062	230
422.285	234
422.507	249
422.73	236
422.953	254
423.175	254
423.398	226
423.621	251
423.843	235
424.066	248
424.288	253
424.511	238
424.733	242
424.956	255
425.178	243
425.401	250
425.623	241
425.846	226
426.068	245
426.291	246
426.513	238
426.735	231
426.958	236
427.18	229
427.402	230
427.625	220
427.847	184
428.069	216
428.292	236
428.514	221
428.736	221
428.958	224
429.181	201
429.403	217
429.625	219
429.847	197
430.069	206
430.292	224
430.514	216
430.736	231
430.958	245
431.18	203
431.402	222
431.624	222
431.846	218
432.068	207
432.29	218
432.512	228
432.734	226
432.956	220
433.178	235
433.4	213
433.622	218
433.844	205
434.066	230
434.287	203
434.509	213
434.731	230
434.953	244
435.175	238
435.397	245
435.618	231
435.84	217
436.062	225
436.284	207
436.505	221
436.727	224
436.949	213
437.17	214
437.392	216
437.614	211
437.835	220
438.057	202
438.278	217
438.5	217
438.721	212
438.943	223
439.165	210
439.386	209
439.608	225
439.829	224
440.05	222
440.272	228
440.493	229
440.715	229
440.936	245
441.158	240
441.379	224
441.6	235
441.822	224
442.043	226
442.264	236
442.486	233
442.707	222
442.928	246
443.149	236
443.371	241
443.592	241
443.813	227
444.034	232
444.255	258
444.476	250
444.698	260
444.919	267
445.14	436
445.361	316
445.582	236
445.803	227
446.024	236
446.245	234
446.466	230
446.687	220
446.908	237
447.129	225
447.35	222
447.571	224
447.792	205
448.013	212
448.234	208
448.455	220
448.675	210
448.896	218
449.117	213
449.338	209
449.559	206
449.779	211
450	211
450.221	206
450.442	220
450.662	216
450.883	207
451.104	206
451.324	215
451.545	203
451.766	217
451.986	189
452.207	217
452.428	216
452.648	224
452.869	209
453.089	223
453.31	201
453.53	196
453.751	203
453.971	185
454.192	190
454.412	196
454.633	201
454.853	204
455.073	187
455.294	182
455.514	209
455.734	194
455.955	191
456.175	196
456.395	196
456.616	186
456.836	192
457.056	186
457.276	183
457.497	186
457.717	204
457.937	206
458.157	197
458.377	183
458.598	181
458.818	193
459.038	178
459.258	176
459.478	201
459.698	195
459.918	202
460.138	228
460.358	222
460.578	245
460.798	233
461.018	249
461.238	243
461.458	241
461.678	229
461.898	252
462.118	236
462.338	256
462.558	252
462.777	252
462.997	286
463.217	293
463.437	290
463.657	260
463.876	265
464.096	264
464.316	268
464.536	266
464.755	238
464.975	261
465.195	239
465.414	235
465.634	235
465.854	226
466.073	218
466.293	219
466.512	216
466.732	228
466.951	230
467.171	228
467.391	208
467.61	221
467.829	226
468.049	233
468.268	242
468.488	213
468.707	214
468.927	209
469.146	202
469.365	221
469.585	206
469.804	225
470.023	205
470.243	219
470.462	225
470.681	226
470.901	212
471.12	208
471.339	225
471.558	212
471.777	242
471.997	236
472.216	242
472.435	243
472.654	223
472.873	218
473.092	199
473.311	222
473.53	205
473.749	224
473.968	220
474.187	200
474.406	204
474.625	189
474.844	205
475.063	210
475.282	207
475.501	198
475.72	212
475.939	201
476.158	227
476.377	215
476.596	220
476.814	203
477.033	218
477.252	231
477.471	234
477.69	236
477.908	226
478.127	249
478.346	248
478.564	232
478.783	241
479.002	234
479.22	236
479.439	261
479.658	237
479.876	235
480.095	226
480.313	246
480.532	242
480.751	255
480.969	275
481.188	328
481.406	307
481.624	254
481.843	240
482.061	229
482.28	229
482.498	221
482.717	227
482.935	227
483.153	240
483.372	230
483.59	246
483.808	242
484.027	246
484.245	242
484.463	224
484.681	250
484.9	230
485.118	249
485.336	222
485.554	235
485.772	242
485.99	234
486.209	238
486.427	213
486.645	242
486.863	236
487.081	251
487.299	216
487.517	249
487.735	244
487.953	249
488.171	260
488.389	251
488.607	227
488.825	225
489.043	228
489.261	252
489.479	248
489.696	238
489.914	230
490.132	229
490.35	244
490.568	241
490.786	238
491.003	248
491.221	244
491.439	248
491.657	235
491.874	271
492.092	270
492.31	297
492.527	277
492.745	256
492.963	273
493.18	265
493.398	255
493.615	262
493.833	257
494.05	249
494.268	261
494.485	253
494.703	269
494.92	259
495.138	251
495.355	249
495.573	260
495.79	270
496.008	270
496.225	253
496.442	272
496.66	284
496.877	258
497.094	290
497.312	260
497.529	256
497.746	282
497.963	277
498.181	282
498.398	302
498.615	306
498.832	300
499.049	325
499.267	332
499.484	369
499.701	400
499.918	420
500.135	483
500.352	532
500.569	526
500.786	516
501.003	506
501.22	448
501.437	397
501.654	377
501.871	352
502.088	344
502.305	322
502.522	302
502.739	301
502.956	285
503.172	283
503.389	275
503.606	264
503.823	260
504.04	261
504.256	283
504.473	248
504.69	273
504.907	276
505.123	244
505.34	257
505.557	241
505.773	238
505.99	213
506.207	218
506.423	214
506.64	232
506.856	223
507.073	230
507.289	233
507.506	237
507.722	215
507.939	224
508.155	244
508.372	223
508.588	230
508.805	227
509.021	219
509.238	219
509.454	210
509.67	212
509.887	209
510.103	201
510.319	212
510.536	210
510.752	201
510.968	188
511.184	208
511.401	197
511.617	202
511.833	204
512.049	202
512.265	204
512.481	212
512.698	207
512.914	204
513.13	207
513.346	208
513.562	204
513.778	211
513.994	229
514.21	212
514.426	211
514.642	215
514.858	193
515.074	195
515.29	212
515.506	204
515.721	235
515.937	223
516.153	226
516.369	232
516.585	239
516.801	234
517.016	247
517.232	247
517.448	237
517.664	269
517.879	256
518.095	254
518.311	253
518.527	257
518.742	234
518.958	235
519.173	239
519.389	220
519.605	230
519.82	226
520.036	221
520.251	217
520.467	217
520.682	211
520.898	227
521.113	224
521.329	198
521.544	192
521.76	213
521.975	203
522.19	195
522.406	195
522.621	182
522.836	193
523.052	223
523.267	206
523.482	201
523.698	197
523.913	202
524.128	202
524.343	206
524.559	226
524.774	198
524.989	205
525.204	188
525.419	195
525.634	195
525.849	194
526.064	201
526.28	198
526.495	213
526.71	185
526.925	196
527.14	218
527.355	193
527.57	192
527.785	196
527.999	179
528.214	179
528.429	202
528.644	214
528.859	198
529.074	206
529.289	217
529.503	222
529.718	202
529.933	193
530.148	190
530.363	224
530.577	209
530.792	190
531.007	184
531.221	194
531.436	211
531.651	191
531.865	177
532.08	188
532.295	194
532.509	192
532.724	186
532.938	192
533.153	201
533.367	202
533.582	225
533.796	202
534.011	177
534.225	166
534.44	196
534.654	197
534.868	188
535.083	185
535.297	172
535.511	190
535.726	200
535.94	204
536.154	191
536.369	195
536.583	179
536.797	198
537.011	204
537.225	208
537.44	177
537.654	202
537.868	178
538.082	177
538.296	177
538.51	180
538.724	192
538.938	184
539.153	187
539.367	193
539.581	181
539.795	176
540.009	193
540.222	205
540.436	196
540.65	198
540.864	196
541.078	211
541.292	181
541.506	196
541.72	218
541.934	202
542.147	218
542.361	194
542.575	210
542.789	189
543.002	176
543.216	195
543.43	183
543.644	195
543.857	187
544.071	198
544.285	197
544.498	193
544.712	199
544.925	198
545.139	219
545.352	211
545.566	207
545.779	216
545.993	224
546.206	211
546.42	184
546.633	206
546.847	210
547.06	206
547.274	219
547.487	209
547.7	198
547.914	190
548.127	216
548.34	220
548.554	196
548.767	208
548.98	210
549.193	197
549.407	193
549.62	203
549.833	217
550.046	203
550.259	211
550.473	201
550.686	207
550.899	198
551.112	197
551.325	186
551.538	207
551.751	186
551.964	193
552.177	200
552.39	200
552.603	195
552.816	220
553.029	225
553.242	244
553.455	225
553.667	223
553.88	209
554.093	200
554.306	212
554.519	216
554.732	213
554.944	204
555.157	198
555.37	180
555.583	199
555.795	208
556.008	186
556.221	179
556.433	187
556.646	189
556.859	188
557.071	192
557.284	180
557.496	173
557.709	164
557.921	192
558.134	178
558.346	179
558.559	179
558.771	189
558.984	197
559.196	164
559.409	177
559.621	191
559.833	196
560.046	165
560.258	180
560.47	175
560.683	177
560.895	171
561.107	185
561.32	170
561.532	180
561.744	176
561.956	174
562.168	166
562.381	184
562.593	179
562.805	190
563.017	185
563.229	189
563.441	170
563.653	168
563.865	184
564.077	169
564.289	178
564.501	193
564.713	181
564.925	182
565.137	178
565.349	197
565.561	193
565.773	204
