Data from SampB_HRD10591_00028.txt Node
Date: Mon Jan 19 11:33:38 EST 2026
User: Yrep
Spectrometer: HR+D1059
Trigger mode: 0
Integration Time (sec): 3.443000E-1
Scans to average: 1
Electric dark correction enabled: true
Nonlinearity correction enabled: false
Boxcar width: 0
XAxis mode: Wavelengths
Number of Pixels in Spectrum: 2048
>>>>>Begin Spectral Data<<<<<
223.165	-23.31
223.4	-23.31
223.635	-23.31
223.869	-37.31
224.104	-25.31
224.338	-11.31
224.573	-7.31
224.808	-9.31
225.042	-10.31
225.277	-2.31
225.511	-8.31
225.746	2.69
225.98	17.69
226.215	15.69
226.449	18.69
226.683	18.69
226.918	22.69
227.152	38.69
227.387	35.69
227.621	44.69
227.856	35.69
228.09	54.69
228.324	51.69
228.559	44.69
228.793	61.69
229.027	60.69
229.262	55.69
229.496	78.69
229.73	82.69
229.964	78.69
230.199	79.69
230.433	92.69
230.667	83.69
230.901	79.69
231.136	62.69
231.37	73.69
231.604	79.69
231.838	84.69
232.072	83.69
232.306	82.69
232.541	82.69
232.775	84.69
233.009	75.69
233.243	93.69
233.477	96.69
233.711	89.69
233.945	89.69
234.179	89.69
234.413	95.69
234.647	81.69
234.881	68.69
235.115	81.69
235.349	85.69
235.583	94.69
235.817	75.69
236.051	85.69
236.285	67.69
236.519	87.69
236.753	78.69
236.987	94.69
237.221	77.69
237.455	75.69
237.689	82.69
237.922	81.69
238.156	78.69
238.39	74.69
238.624	78.69
238.858	83.69
239.091	85.69
239.325	81.69
239.559	79.69
239.793	78.69
240.027	81.69
240.26	86.69
240.494	81.69
240.728	85.69
240.961	69.69
241.195	89.69
241.429	89.69
241.662	68.69
241.896	71.69
242.13	83.69
242.363	84.69
242.597	81.69
242.83	85.69
243.064	92.69
243.298	88.69
243.531	84.69
243.765	85.69
243.998	85.69
244.232	93.69
244.465	85.69
244.699	85.69
244.932	86.69
245.166	91.69
245.399	92.69
245.633	85.69
245.866	93.69
246.099	87.69
246.333	88.69
246.566	87.69
246.8	92.69
247.033	79.69
247.266	84.69
247.5	93.69
247.733	88.69
247.966	91.69
248.2	91.69
248.433	104.69
248.666	111.69
248.899	99.69
249.133	98.69
249.366	101.69
249.599	94.69
249.832	105.69
250.066	110.69
250.299	82.69
250.532	106.69
250.765	98.69
250.998	98.69
251.231	93.69
251.465	112.69
251.698	102.69
251.931	95.69
252.164	113.69
252.397	103.69
252.63	117.69
252.863	111.69
253.096	113.69
253.329	103.69
253.562	96.69
253.795	101.69
254.028	103.69
254.261	111.69
254.494	103.69
254.727	102.69
254.96	102.69
255.193	114.69
255.426	111.69
255.659	107.69
255.892	129.69
256.124	120.69
256.357	114.69
256.59	111.69
256.823	99.69
257.056	95.69
257.289	104.69
257.521	112.69
257.754	111.69
257.987	108.69
258.22	112.69
258.452	105.69
258.685	113.69
258.918	112.69
259.151	104.69
259.383	106.69
259.616	101.69
259.849	106.69
260.081	109.69
260.314	98.69
260.547	102.69
260.779	116.69
261.012	109.69
261.244	97.69
261.477	115.69
261.71	104.69
261.942	99.69
262.175	101.69
262.407	106.69
262.64	105.69
262.872	122.69
263.105	114.69
263.337	130.69
263.57	112.69
263.802	108.69
264.035	102.69
264.267	113.69
264.499	113.69
264.732	128.69
264.964	126.69
265.197	123.69
265.429	112.69
265.661	100.69
265.894	117.69
266.126	113.69
266.358	116.69
266.591	109.69
266.823	122.69
267.055	110.69
267.287	113.69
267.52	121.69
267.752	119.69
267.984	110.69
268.216	115.69
268.448	112.69
268.681	113.69
268.913	129.69
269.145	124.69
269.377	129.69
269.609	131.69
269.841	110.69
270.073	116.69
270.306	123.69
270.538	120.69
270.77	124.69
271.002	123.69
271.234	117.69
271.466	118.69
271.698	111.69
271.93	113.69
272.162	127.69
272.394	124.69
272.626	125.69
272.858	122.69
273.09	124.69
273.322	109.69
273.553	130.69
273.785	125.69
274.017	121.69
274.249	122.69
274.481	134.69
274.713	125.69
274.945	129.69
275.176	121.69
275.408	131.69
275.64	130.69
275.872	117.69
276.104	131.69
276.335	119.69
276.567	126.69
276.799	128.69
277.031	133.69
277.262	126.69
277.494	147.69
277.726	129.69
277.957	147.69
278.189	128.69
278.421	134.69
278.652	122.69
278.884	139.69
279.115	131.69
279.347	149.69
279.579	148.69
279.81	157.69
280.042	165.69
280.273	160.69
280.505	147.69
280.736	142.69
280.968	135.69
281.199	119.69
281.431	145.69
281.662	146.69
281.894	131.69
282.125	136.69
282.356	131.69
282.588	151.69
282.819	115.69
283.051	146.69
283.282	136.69
283.513	149.69
283.745	139.69
283.976	137.69
284.207	123.69
284.439	127.69
284.67	134.69
284.901	152.69
285.132	149.69
285.364	124.69
285.595	145.69
285.826	140.69
286.057	148.69
286.288	142.69
286.52	129.69
286.751	135.69
286.982	126.69
287.213	130.69
287.444	146.69
287.675	133.69
287.906	142.69
288.138	119.69
288.369	135.69
288.6	149.69
288.831	136.69
289.062	148.69
289.293	137.69
289.524	125.69
289.755	138.69
289.986	169.69
290.217	152.69
290.448	151.69
290.679	140.69
290.91	147.69
291.141	141.69
291.371	141.69
291.602	148.69
291.833	135.69
292.064	126.69
292.295	145.69
292.526	140.69
292.757	135.69
292.987	159.69
293.218	121.69
293.449	132.69
293.68	150.69
293.91	141.69
294.141	148.69
294.372	134.69
294.603	132.69
294.833	149.69
295.064	127.69
295.295	141.69
295.525	152.69
295.756	150.69
295.987	150.69
296.217	141.69
296.448	146.69
296.679	151.69
296.909	165.69
297.14	152.69
297.37	147.69
297.601	154.69
297.831	144.69
298.062	166.69
298.292	161.69
298.523	152.69
298.753	155.69
298.984	158.69
299.214	143.69
299.445	160.69
299.675	146.69
299.905	151.69
300.136	143.69
300.366	140.69
300.597	150.69
300.827	154.69
301.057	154.69
301.288	156.69
301.518	163.69
301.748	151.69
301.979	194.69
302.209	167.69
302.439	156.69
302.669	161.69
302.9	149.69
303.13	163.69
303.36	147.69
303.59	161.69
303.82	158.69
304.051	151.69
304.281	150.69
304.511	156.69
304.741	163.69
304.971	147.69
305.201	156.69
305.431	179.69
305.661	164.69
305.891	154.69
306.121	155.69
306.352	151.69
306.582	148.69
306.812	185.69
307.042	155.69
307.272	165.69
307.502	176.69
307.731	171.69
307.961	165.69
308.191	154.69
308.421	147.69
308.651	158.69
308.881	156.69
309.111	159.69
309.341	161.69
309.571	167.69
309.8	167.69
310.03	154.69
310.26	149.69
310.49	151.69
310.72	154.69
310.949	151.69
311.179	150.69
311.409	164.69
311.639	167.69
311.868	164.69
312.098	151.69
312.328	176.69
312.557	151.69
312.787	156.69
313.017	150.69
313.246	162.69
313.476	160.69
313.706	145.69
313.935	165.69
314.165	169.69
314.394	166.69
314.624	182.69
314.853	170.69
315.083	157.69
315.312	157.69
315.542	175.69
315.771	163.69
316.001	166.69
316.23	179.69
316.46	152.69
316.689	151.69
316.919	167.69
317.148	158.69
317.377	166.69
317.607	160.69
317.836	159.69
318.065	156.69
318.295	177.69
318.524	166.69
318.753	169.69
318.983	172.69
319.212	179.69
319.441	166.69
319.67	170.69
319.9	161.69
320.129	174.69
320.358	170.69
320.587	145.69
320.816	163.69
321.046	158.69
321.275	172.69
321.504	159.69
321.733	155.69
321.962	175.69
322.191	167.69
322.42	177.69
322.649	181.69
322.878	182.69
323.108	173.69
323.337	181.69
323.566	183.69
323.795	198.69
324.024	180.69
324.253	166.69
324.482	165.69
324.71	166.69
324.939	188.69
325.168	184.69
325.397	179.69
325.626	186.69
325.855	186.69
326.084	170.69
326.313	186.69
326.542	173.69
326.77	169.69
326.999	168.69
327.228	177.69
327.457	182.69
327.686	203.69
327.914	205.69
328.143	220.69
328.372	222.69
328.6	206.69
328.829	201.69
329.058	194.69
329.287	190.69
329.515	191.69
329.744	227.69
329.972	240.69
330.201	267.69
330.43	273.69
330.658	256.69
330.887	212.69
331.115	204.69
331.344	183.69
331.572	195.69
331.801	205.69
332.03	216.69
332.258	201.69
332.486	229.69
332.715	211.69
332.943	229.69
333.172	233.69
333.4	229.69
333.629	253.69
333.857	251.69
334.085	282.69
334.314	334.69
334.542	375.69
334.771	343.69
334.999	277.69
335.227	261.69
335.455	224.69
335.684	213.69
335.912	217.69
336.14	203.69
336.369	216.69
336.597	208.69
336.825	209.69
337.053	191.69
337.281	211.69
337.51	208.69
337.738	210.69
337.966	209.69
338.194	190.69
338.422	197.69
338.65	185.69
338.878	201.69
339.106	181.69
339.334	177.69
339.562	184.69
339.79	181.69
340.018	171.69
340.246	169.69
340.474	175.69
340.702	187.69
340.93	189.69
341.158	184.69
341.386	171.69
341.614	173.69
341.842	171.69
342.07	178.69
342.298	170.69
342.526	162.69
342.754	173.69
342.981	161.69
343.209	184.69
343.437	214.69
343.665	190.69
343.893	181.69
344.12	216.69
344.348	199.69
344.576	184.69
344.804	179.69
345.031	175.69
345.259	190.69
345.487	182.69
345.714	181.69
345.942	169.69
346.17	178.69
346.397	168.69
346.625	166.69
346.853	162.69
347.08	162.69
347.308	179.69
347.535	175.69
347.763	167.69
347.99	190.69
348.218	180.69
348.445	175.69
348.673	168.69
348.9	189.69
349.128	167.69
349.355	163.69
349.583	172.69
349.81	155.69
350.037	177.69
350.265	171.69
350.492	189.69
350.72	163.69
350.947	162.69
351.174	161.69
351.402	175.69
351.629	165.69
351.856	163.69
352.083	165.69
352.311	149.69
352.538	166.69
352.765	155.69
352.992	167.69
353.22	164.69
353.447	152.69
353.674	167.69
353.901	170.69
354.128	169.69
354.355	179.69
354.583	174.69
354.81	167.69
355.037	167.69
355.264	176.69
355.491	171.69
355.718	176.69
355.945	175.69
356.172	169.69
356.399	154.69
356.626	173.69
356.853	159.69
357.08	171.69
357.307	166.69
357.534	159.69
357.761	166.69
357.988	182.69
358.215	187.69
358.441	182.69
358.668	187.69
358.895	176.69
359.122	167.69
359.349	163.69
359.576	154.69
359.802	171.69
360.029	192.69
360.256	160.69
360.483	175.69
360.709	158.69
360.936	177.69
361.163	164.69
361.39	177.69
361.616	161.69
361.843	155.69
362.07	171.69
362.296	191.69
362.523	155.69
362.749	167.69
362.976	173.69
363.203	177.69
363.429	181.69
363.656	163.69
363.882	184.69
364.109	194.69
364.335	196.69
364.562	177.69
364.788	159.69
365.015	189.69
365.241	190.69
365.468	184.69
365.694	171.69
365.92	169.69
366.147	177.69
366.373	171.69
366.599	178.69
366.826	176.69
367.052	166.69
367.278	167.69
367.505	170.69
367.731	190.69
367.957	183.69
368.184	190.69
368.41	184.69
368.636	191.69
368.862	203.69
369.089	193.69
369.315	178.69
369.541	178.69
369.767	182.69
369.993	178.69
370.219	178.69
370.445	177.69
370.672	172.69
370.898	181.69
371.124	187.69
371.35	172.69
371.576	181.69
371.802	188.69
372.028	182.69
372.254	191.69
372.48	199.69
372.706	175.69
372.932	193.69
373.158	207.69
373.384	187.69
373.61	199.69
373.835	201.69
374.061	190.69
374.287	185.69
374.513	206.69
374.739	186.69
374.965	206.69
375.191	199.69
375.416	220.69
375.642	212.69
375.868	223.69
376.094	219.69
376.319	197.69
376.545	174.69
376.771	184.69
376.997	195.69
377.222	185.69
377.448	176.69
377.674	170.69
377.899	183.69
378.125	174.69
378.35	178.69
378.576	190.69
378.802	177.69
379.027	185.69
379.253	199.69
379.478	165.69
379.704	179.69
379.929	182.69
380.155	176.69
380.38	194.69
380.606	196.69
380.831	194.69
381.057	180.69
381.282	176.69
381.507	181.69
381.733	201.69
381.958	180.69
382.184	195.69
382.409	202.69
382.634	214.69
382.86	206.69
383.085	219.69
383.31	207.69
383.535	204.69
383.761	219.69
383.986	222.69
384.211	212.69
384.436	214.69
384.662	208.69
384.887	200.69
385.112	215.69
385.337	230.69
385.562	211.69
385.787	219.69
386.013	223.69
386.238	223.69
386.463	235.69
386.688	254.69
386.913	207.69
387.138	201.69
387.363	216.69
387.588	229.69
387.813	214.69
388.038	214.69
388.263	224.69
388.488	234.69
388.713	223.69
388.938	202.69
389.163	225.69
389.387	221.69
389.612	199.69
389.837	204.69
390.062	228.69
390.287	231.69
390.512	224.69
390.736	221.69
390.961	225.69
391.186	233.69
391.411	247.69
391.636	255.69
391.86	227.69
392.085	233.69
392.31	239.69
392.534	253.69
392.759	249.69
392.984	261.69
393.208	289.69
393.433	366.69
393.658	295.69
393.882	244.69
394.107	243.69
394.331	235.69
394.556	255.69
394.78	248.69
395.005	254.69
395.229	241.69
395.454	242.69
395.678	243.69
395.903	262.69
396.127	264.69
396.352	244.69
396.576	257.69
396.801	285.69
397.025	317.69
397.249	274.69
397.474	257.69
397.698	239.69
397.922	235.69
398.147	239.69
398.371	253.69
398.595	260.69
398.82	283.69
399.044	291.69
399.268	326.69
399.492	349.69
399.717	364.69
399.941	329.69
400.165	316.69
400.389	297.69
400.613	257.69
400.837	270.69
401.062	269.69
401.286	287.69
401.51	269.69
401.734	270.69
401.958	262.69
402.182	269.69
402.406	269.69
402.63	286.69
402.854	278.69
403.078	273.69
403.302	292.69
403.526	294.69
403.75	288.69
403.974	305.69
404.198	304.69
404.422	313.69
404.645	282.69
404.869	313.69
405.093	303.69
405.317	293.69
405.541	308.69
405.765	292.69
405.988	281.69
406.212	298.69
406.436	281.69
406.66	290.69
406.883	289.69
407.107	313.69
407.331	318.69
407.555	318.69
407.778	328.69
408.002	313.69
408.226	312.69
408.449	306.69
408.673	285.69
408.896	298.69
409.12	298.69
409.344	292.69
409.567	307.69
409.791	295.69
410.014	295.69
410.238	287.69
410.461	297.69
410.685	288.69
410.908	257.69
411.132	292.69
411.355	277.69
411.578	285.69
411.802	276.69
412.025	279.69
412.249	282.69
412.472	294.69
412.695	273.69
412.919	270.69
413.142	263.69
413.365	267.69
413.589	278.69
413.812	260.69
414.035	264.69
414.258	274.69
414.482	279.69
414.705	288.69
414.928	307.69
415.151	287.69
415.374	277.69
415.597	267.69
415.821	282.69
416.044	272.69
416.267	254.69
416.49	271.69
416.713	279.69
416.936	274.69
417.159	269.69
417.382	278.69
417.605	251.69
417.828	277.69
418.051	259.69
418.274	274.69
418.497	274.69
418.72	290.69
418.943	281.69
419.166	324.69
419.389	299.69
419.611	308.69
419.834	295.69
420.057	302.69
420.28	293.69
420.503	279.69
420.726	287.69
420.948	275.69
421.171	277.69
421.394	272.69
421.617	276.69
421.839	269.69
422.062	296.69
422.285	287.69
422.507	302.69
422.73	335.69
422.953	315.69
423.175	300.69
423.398	308.69
423.621	292.69
423.843	280.69
424.066	294.69
424.288	291.69
424.511	291.69
424.733	294.69
424.956	299.69
425.178	294.69
425.401	288.69
425.623	265.69
425.846	268.69
426.068	266.69
426.291	263.69
426.513	273.69
426.735	253.69
426.958	273.69
427.18	286.69
427.402	247.69
427.625	261.69
427.847	274.69
428.069	262.69
428.292	254.69
428.514	261.69
428.736	254.69
428.958	267.69
429.181	269.69
429.403	256.69
429.625	278.69
429.847	258.69
430.069	285.69
430.292	297.69
430.514	261.69
430.736	261.69
430.958	269.69
431.18	249.69
431.402	265.69
431.624	254.69
431.846	267.69
432.068	250.69
432.29	246.69
432.512	243.69
432.734	249.69
432.956	240.69
433.178	266.69
433.4	264.69
433.622	259.69
433.844	269.69
434.066	264.69
434.287	262.69
434.509	251.69
434.731	252.69
434.953	266.69
435.175	273.69
435.397	277.69
435.618	260.69
435.84	241.69
436.062	256.69
436.284	258.69
436.505	272.69
436.727	262.69
436.949	243.69
437.17	265.69
437.392	254.69
437.614	242.69
437.835	247.69
438.057	240.69
438.278	241.69
438.5	237.69
438.721	267.69
438.943	254.69
439.165	253.69
439.386	255.69
439.608	263.69
439.829	254.69
440.05	265.69
440.272	265.69
440.493	258.69
440.715	258.69
440.936	278.69
441.158	282.69
441.379	272.69
441.6	288.69
441.822	283.69
442.043	287.69
442.264	269.69
442.486	267.69
442.707	274.69
442.928	261.69
443.149	281.69
443.371	278.69
443.592	290.69
443.813	277.69
444.034	277.69
444.255	306.69
444.476	293.69
444.698	302.69
444.919	318.69
445.14	502.69
445.361	373.69
445.582	310.69
445.803	276.69
446.024	278.69
446.245	285.69
446.466	269.69
446.687	259.69
446.908	280.69
447.129	259.69
447.35	269.69
447.571	270.69
447.792	249.69
448.013	259.69
448.234	266.69
448.455	240.69
448.675	254.69
448.896	254.69
449.117	250.69
449.338	238.69
449.559	252.69
449.779	256.69
450	233.69
450.221	221.69
450.442	252.69
450.662	269.69
450.883	250.69
451.104	246.69
451.324	237.69
451.545	247.69
451.766	258.69
451.986	265.69
452.207	263.69
452.428	234.69
452.648	231.69
452.869	230.69
453.089	219.69
453.31	241.69
453.53	279.69
453.751	286.69
453.971	259.69
454.192	220.69
454.412	219.69
454.633	221.69
454.853	238.69
455.073	231.69
455.294	244.69
455.514	244.69
455.734	250.69
455.955	231.69
456.175	209.69
456.395	219.69
456.616	233.69
456.836	233.69
457.056	223.69
457.276	219.69
457.497	210.69
457.717	211.69
457.937	220.69
458.157	221.69
458.377	222.69
458.598	218.69
458.818	236.69
459.038	232.69
459.258	216.69
459.478	221.69
459.698	250.69
459.918	246.69
460.138	267.69
460.358	271.69
460.578	284.69
460.798	278.69
461.018	258.69
461.238	264.69
461.458	299.69
461.678	262.69
461.898	276.69
462.118	291.69
462.338	298.69
462.558	289.69
462.777	300.69
462.997	309.69
463.217	339.69
463.437	336.69
463.657	324.69
463.876	302.69
464.096	311.69
464.316	296.69
464.536	299.69
464.755	314.69
464.975	300.69
465.195	279.69
465.414	288.69
465.634	244.69
465.854	243.69
466.073	233.69
466.293	247.69
466.512	252.69
466.732	254.69
466.951	247.69
467.171	261.69
467.391	252.69
467.61	248.69
467.829	254.69
468.049	305.69
468.268	287.69
468.488	284.69
468.707	248.69
468.927	243.69
469.146	257.69
469.365	271.69
469.585	250.69
469.804	249.69
470.023	257.69
470.243	268.69
470.462	247.69
470.681	290.69
470.901	265.69
471.12	287.69
471.339	277.69
471.558	269.69
471.777	283.69
471.997	279.69
472.216	340.69
472.435	390.69
472.654	297.69
472.873	273.69
473.092	277.69
473.311	251.69
473.53	248.69
473.749	239.69
473.968	260.69
474.187	229.69
474.406	223.69
474.625	251.69
474.844	250.69
475.063	249.69
475.282	237.69
475.501	245.69
475.72	254.69
475.939	252.69
476.158	257.69
476.377	237.69
476.596	251.69
476.814	229.69
477.033	235.69
477.252	238.69
477.471	245.69
477.69	276.69
477.908	265.69
478.127	265.69
478.346	277.69
478.564	274.69
478.783	275.69
479.002	296.69
479.22	295.69
479.439	301.69
479.658	268.69
479.876	281.69
480.095	299.69
480.313	291.69
480.532	312.69
480.751	331.69
480.969	377.69
481.188	526.69
481.406	483.69
481.624	354.69
481.843	292.69
482.061	280.69
482.28	280.69
482.498	280.69
482.717	285.69
482.935	286.69
483.153	293.69
483.372	279.69
483.59	286.69
483.808	269.69
484.027	277.69
484.245	289.69
484.463	272.69
484.681	268.69
484.9	290.69
485.118	299.69
485.336	266.69
485.554	268.69
485.772	271.69
485.99	273.69
486.209	263.69
486.427	270.69
486.645	254.69
486.863	283.69
487.081	270.69
487.299	267.69
487.517	285.69
487.735	288.69
487.953	302.69
488.171	324.69
488.389	289.69
488.607	294.69
488.825	261.69
489.043	262.69
489.261	288.69
489.479	279.69
489.696	299.69
489.914	288.69
490.132	289.69
490.35	305.69
490.568	299.69
490.786	305.69
491.003	302.69
491.221	303.69
491.439	310.69
491.657	330.69
491.874	325.69
492.092	330.69
492.31	334.69
492.527	339.69
492.745	326.69
492.963	319.69
493.18	339.69
493.398	349.69
493.615	335.69
493.833	326.69
494.05	311.69
494.268	299.69
494.485	316.69
494.703	299.69
494.92	321.69
495.138	294.69
495.355	311.69
495.573	318.69
495.79	312.69
496.008	320.69
496.225	313.69
496.442	293.69
496.66	316.69
496.877	329.69
497.094	309.69
497.312	317.69
497.529	325.69
497.746	314.69
497.963	334.69
498.181	372.69
498.398	400.69
498.615	379.69
498.832	361.69
499.049	423.69
499.267	463.69
499.484	467.69
499.701	487.69
499.918	557.69
500.135	666.69
500.352	652.69
500.569	684.69
500.786	662.69
501.003	630.69
501.22	561.69
501.437	539.69
501.654	500.69
501.871	439.69
502.088	423.69
502.305	410.69
502.522	385.69
502.739	362.69
502.956	329.69
503.172	341.69
503.389	318.69
503.606	324.69
503.823	346.69
504.04	337.69
