Data from SampB_HRD10591_00067.txt Node
Date: Mon Jan 19 11:33:51 EST 2026
User: Yrep
Spectrometer: HR+D1059
Trigger mode: 0
Integration Time (sec): 3.443000E-1
Scans to average: 1
Electric dark correction enabled: true
Nonlinearity correction enabled: false
Boxcar width: 0
XAxis mode: Wavelengths
Number of Pixels in Spectrum: 2048
>>>>>Begin Spectral Data<<<<<
223.165	-9.31
223.4	-9.31
223.635	-9.31
223.869	-25.31
224.104	-22.31
224.338	-19.31
224.573	-15.31
224.808	-16.31
225.042	-2.31
225.277	-19.31
225.511	-5.31
225.746	3.69
225.98	10.69
226.215	14.69
226.449	23.69
226.683	30.69
226.918	22.69
227.152	28.69
227.387	42.69
227.621	43.69
227.856	42.69
228.09	46.69
228.324	42.69
228.559	60.69
228.793	57.69
229.027	83.69
229.262	74.69
229.496	71.69
229.73	77.69
229.964	86.69
230.199	80.69
230.433	80.69
230.667	91.69
230.901	79.69
231.136	78.69
231.37	74.69
231.604	83.69
231.838	89.69
232.072	100.69
232.306	74.69
232.541	94.69
232.775	94.69
233.009	93.69
233.243	77.69
233.477	86.69
233.711	102.69
233.945	72.69
234.179	102.69
234.413	108.69
234.647	103.69
234.881	100.69
235.115	98.69
235.349	101.69
235.583	91.69
235.817	98.69
236.051	87.69
236.285	79.69
236.519	105.69
236.753	98.69
236.987	83.69
237.221	87.69
237.455	86.69
237.689	90.69
237.922	106.69
238.156	101.69
238.39	101.69
238.624	96.69
238.858	91.69
239.091	101.69
239.325	102.69
239.559	95.69
239.793	116.69
240.027	115.69
240.26	110.69
240.494	94.69
240.728	89.69
240.961	109.69
241.195	81.69
241.429	108.69
241.662	90.69
241.896	107.69
242.13	102.69
242.363	95.69
242.597	93.69
242.83	101.69
243.064	87.69
243.298	102.69
243.531	103.69
243.765	95.69
243.998	101.69
244.232	115.69
244.465	104.69
244.699	89.69
244.932	108.69
245.166	95.69
245.399	107.69
245.633	96.69
245.866	107.69
246.099	107.69
246.333	110.69
246.566	102.69
246.8	86.69
247.033	103.69
247.266	107.69
247.5	96.69
247.733	106.69
247.966	109.69
248.2	99.69
248.433	117.69
248.666	112.69
248.899	102.69
249.133	100.69
249.366	133.69
249.599	120.69
249.832	101.69
250.066	120.69
250.299	130.69
250.532	119.69
250.765	127.69
250.998	108.69
251.231	117.69
251.465	110.69
251.698	123.69
251.931	108.69
252.164	122.69
252.397	113.69
252.63	127.69
252.863	126.69
253.096	130.69
253.329	122.69
253.562	135.69
253.795	130.69
254.028	137.69
254.261	125.69
254.494	120.69
254.727	135.69
254.96	135.69
255.193	139.69
255.426	118.69
255.659	114.69
255.892	147.69
256.124	162.69
256.357	138.69
256.59	131.69
256.823	122.69
257.056	100.69
257.289	115.69
257.521	127.69
257.754	124.69
257.987	137.69
258.22	124.69
258.452	133.69
258.685	132.69
258.918	117.69
259.151	127.69
259.383	133.69
259.616	141.69
259.849	143.69
260.081	164.69
260.314	154.69
260.547	135.69
260.779	141.69
261.012	143.69
261.244	159.69
261.477	172.69
261.71	145.69
261.942	120.69
262.175	129.69
262.407	128.69
262.64	130.69
262.872	148.69
263.105	156.69
263.337	163.69
263.57	146.69
263.802	116.69
264.035	117.69
264.267	114.69
264.499	112.69
264.732	118.69
264.964	102.69
265.197	91.69
265.429	121.69
265.661	139.69
265.894	134.69
266.126	127.69
266.358	110.69
266.591	126.69
266.823	130.69
267.055	122.69
267.287	128.69
267.52	122.69
267.752	133.69
267.984	122.69
268.216	117.69
268.448	125.69
268.681	127.69
268.913	122.69
269.145	105.69
269.377	118.69
269.609	115.69
269.841	121.69
270.073	133.69
270.306	127.69
270.538	140.69
270.77	121.69
271.002	133.69
271.234	143.69
271.466	141.69
271.698	148.69
271.93	138.69
272.162	144.69
272.394	158.69
272.626	127.69
272.858	150.69
273.09	147.69
273.322	161.69
273.553	156.69
273.785	158.69
274.017	186.69
274.249	171.69
274.481	186.69
274.713	210.69
274.945	230.69
275.176	196.69
275.408	183.69
275.64	194.69
275.872	181.69
276.104	157.69
276.335	150.69
276.567	140.69
276.799	158.69
277.031	158.69
277.262	152.69
277.494	151.69
277.726	146.69
277.957	151.69
278.189	158.69
278.421	150.69
278.652	160.69
278.884	154.69
279.115	164.69
279.347	178.69
279.579	216.69
279.81	229.69
280.042	211.69
280.273	207.69
280.505	196.69
280.736	183.69
280.968	157.69
281.199	156.69
281.431	146.69
281.662	132.69
281.894	129.69
282.125	143.69
282.356	150.69
282.588	152.69
282.819	143.69
283.051	165.69
283.282	170.69
283.513	148.69
283.745	151.69
283.976	134.69
284.207	142.69
284.439	156.69
284.67	166.69
284.901	145.69
285.132	164.69
285.364	145.69
285.595	160.69
285.826	154.69
286.057	146.69
286.288	140.69
286.52	155.69
286.751	138.69
286.982	151.69
287.213	136.69
287.444	158.69
287.675	133.69
287.906	155.69
288.138	151.69
288.369	155.69
288.6	156.69
288.831	148.69
289.062	139.69
289.293	138.69
289.524	136.69
289.755	142.69
289.986	127.69
290.217	154.69
290.448	146.69
290.679	148.69
290.91	160.69
291.141	148.69
291.371	165.69
291.602	150.69
291.833	156.69
292.064	136.69
292.295	150.69
292.526	146.69
292.757	153.69
292.987	151.69
293.218	158.69
293.449	160.69
293.68	155.69
293.91	152.69
294.141	163.69
294.372	152.69
294.603	159.69
294.833	170.69
295.064	167.69
295.295	140.69
295.525	164.69
295.756	169.69
295.987	161.69
296.217	155.69
296.448	158.69
296.679	163.69
296.909	175.69
297.14	169.69
297.37	145.69
297.601	157.69
297.831	157.69
298.062	164.69
298.292	165.69
298.523	181.69
298.753	168.69
298.984	139.69
299.214	156.69
299.445	171.69
299.675	158.69
299.905	159.69
300.136	161.69
300.366	159.69
300.597	179.69
300.827	158.69
301.057	152.69
301.288	163.69
301.518	166.69
301.748	151.69
301.979	231.69
302.209	188.69
302.439	164.69
302.669	168.69
302.9	165.69
303.13	158.69
303.36	162.69
303.59	175.69
303.82	178.69
304.051	183.69
304.281	163.69
304.511	175.69
304.741	158.69
304.971	153.69
305.201	165.69
305.431	161.69
305.661	175.69
305.891	172.69
306.121	158.69
306.352	159.69
306.582	179.69
306.812	175.69
307.042	172.69
307.272	179.69
307.502	181.69
307.731	181.69
307.961	187.69
308.191	157.69
308.421	176.69
308.651	167.69
308.881	192.69
309.111	186.69
309.341	180.69
309.571	159.69
309.8	163.69
310.03	156.69
310.26	176.69
310.49	168.69
310.72	154.69
310.949	152.69
311.179	167.69
311.409	166.69
311.639	178.69
311.868	185.69
312.098	176.69
312.328	174.69
312.557	176.69
312.787	160.69
313.017	161.69
313.246	175.69
313.476	180.69
313.706	158.69
313.935	181.69
314.165	158.69
314.394	181.69
314.624	169.69
314.853	172.69
315.083	183.69
315.312	183.69
315.542	170.69
315.771	194.69
316.001	178.69
316.23	208.69
316.46	180.69
316.689	171.69
316.919	183.69
317.148	161.69
317.377	169.69
317.607	175.69
317.836	172.69
318.065	179.69
318.295	188.69
318.524	171.69
318.753	181.69
318.983	173.69
319.212	162.69
319.441	170.69
319.67	189.69
319.9	181.69
320.129	163.69
320.358	183.69
320.587	171.69
320.816	168.69
321.046	186.69
321.275	175.69
321.504	183.69
321.733	188.69
321.962	183.69
322.191	190.69
322.42	196.69
322.649	189.69
322.878	202.69
323.108	198.69
323.337	209.69
323.566	226.69
323.795	236.69
324.024	220.69
324.253	208.69
324.482	197.69
324.71	186.69
324.939	204.69
325.168	213.69
325.397	200.69
325.626	195.69
325.855	178.69
326.084	188.69
326.313	183.69
326.542	192.69
326.77	188.69
326.999	182.69
327.228	196.69
327.457	219.69
327.686	216.69
327.914	240.69
328.143	250.69
328.372	263.69
328.6	243.69
328.829	196.69
329.058	205.69
329.287	211.69
329.515	208.69
329.744	237.69
329.972	279.69
330.201	338.69
330.43	347.69
330.658	283.69
330.887	224.69
331.115	208.69
331.344	199.69
331.572	221.69
331.801	196.69
332.03	215.69
332.258	217.69
332.486	238.69
332.715	227.69
332.943	236.69
333.172	267.69
333.4	272.69
333.629	270.69
333.857	296.69
334.085	369.69
334.314	445.69
334.542	487.69
334.771	465.69
334.999	353.69
335.227	266.69
335.455	263.69
335.684	250.69
335.912	230.69
336.14	244.69
336.369	234.69
336.597	211.69
336.825	214.69
337.053	228.69
337.281	248.69
337.51	229.69
337.738	227.69
337.966	190.69
338.194	192.69
338.422	219.69
338.65	219.69
338.878	207.69
339.106	210.69
339.334	200.69
339.562	202.69
339.79	196.69
340.018	164.69
340.246	171.69
340.474	188.69
340.702	189.69
340.93	184.69
341.158	189.69
341.386	196.69
341.614	175.69
341.842	170.69
342.07	190.69
342.298	174.69
342.526	181.69
342.754	181.69
342.981	188.69
343.209	184.69
343.437	227.69
343.665	183.69
343.893	218.69
344.12	219.69
344.348	225.69
344.576	195.69
344.804	198.69
345.031	194.69
345.259	198.69
345.487	202.69
345.714	196.69
345.942	195.69
346.17	185.69
346.397	188.69
346.625	185.69
346.853	179.69
347.08	181.69
347.308	189.69
347.535	186.69
347.763	197.69
347.99	185.69
348.218	168.69
348.445	172.69
348.673	184.69
348.9	193.69
349.128	184.69
349.355	164.69
349.583	174.69
349.81	172.69
350.037	190.69
350.265	202.69
350.492	198.69
350.72	194.69
350.947	191.69
351.174	184.69
351.402	178.69
351.629	201.69
351.856	176.69
352.083	191.69
352.311	184.69
352.538	156.69
352.765	192.69
352.992	190.69
353.22	178.69
353.447	167.69
353.674	183.69
353.901	192.69
354.128	185.69
354.355	187.69
354.583	180.69
354.81	187.69
355.037	181.69
355.264	190.69
355.491	176.69
355.718	197.69
355.945	181.69
356.172	179.69
356.399	180.69
356.626	190.69
356.853	189.69
357.08	199.69
357.307	200.69
357.534	207.69
357.761	200.69
357.988	218.69
358.215	216.69
358.441	211.69
358.668	180.69
358.895	200.69
359.122	190.69
359.349	194.69
359.576	173.69
359.802	185.69
360.029	168.69
360.256	189.69
360.483	186.69
360.709	180.69
360.936	203.69
361.163	205.69
361.39	195.69
361.616	192.69
361.843	191.69
362.07	221.69
362.296	192.69
362.523	191.69
362.749	174.69
362.976	185.69
363.203	212.69
363.429	195.69
363.656	197.69
363.882	179.69
364.109	184.69
364.335	185.69
364.562	192.69
364.788	195.69
365.015	210.69
365.241	203.69
365.468	200.69
365.694	182.69
365.92	186.69
366.147	195.69
366.373	194.69
366.599	174.69
366.826	180.69
367.052	194.69
367.278	181.69
367.505	196.69
367.731	205.69
367.957	179.69
368.184	189.69
368.41	201.69
368.636	209.69
368.862	203.69
369.089	210.69
369.315	187.69
369.541	191.69
369.767	201.69
369.993	188.69
370.219	174.69
370.445	186.69
370.672	192.69
370.898	204.69
371.124	205.69
371.35	194.69
371.576	201.69
371.802	201.69
372.028	211.69
372.254	198.69
372.48	214.69
372.706	227.69
372.932	232.69
373.158	232.69
373.384	255.69
373.61	253.69
373.835	249.69
374.061	213.69
374.287	209.69
374.513	238.69
374.739	234.69
374.965	237.69
375.191	246.69
375.416	219.69
375.642	214.69
375.868	250.69
376.094	237.69
376.319	247.69
376.545	218.69
376.771	210.69
376.997	215.69
377.222	199.69
377.448	196.69
377.674	187.69
377.899	184.69
378.125	169.69
378.35	189.69
378.576	204.69
378.802	195.69
379.027	201.69
379.253	208.69
379.478	206.69
379.704	227.69
379.929	211.69
380.155	212.69
380.38	195.69
380.606	205.69
380.831	204.69
381.057	207.69
381.282	197.69
381.507	216.69
381.733	237.69
381.958	250.69
382.184	242.69
382.409	233.69
382.634	253.69
382.86	248.69
383.085	240.69
383.31	238.69
383.535	242.69
383.761	237.69
383.986	238.69
384.211	247.69
384.436	220.69
384.662	230.69
384.887	230.69
385.112	232.69
385.337	240.69
385.562	227.69
385.787	244.69
386.013	258.69
386.238	240.69
386.463	246.69
386.688	267.69
386.913	248.69
387.138	240.69
387.363	222.69
387.588	247.69
387.813	249.69
388.038	237.69
388.263	244.69
388.488	241.69
388.713	236.69
388.938	231.69
389.163	228.69
389.387	214.69
389.612	218.69
389.837	242.69
390.062	233.69
390.287	247.69
390.512	244.69
390.736	249.69
390.961	240.69
391.186	253.69
391.411	255.69
391.636	248.69
391.86	268.69
392.085	253.69
392.31	268.69
392.534	262.69
392.759	276.69
392.984	294.69
393.208	374.69
393.433	445.69
393.658	368.69
393.882	258.69
394.107	258.69
394.331	262.69
394.556	289.69
394.78	260.69
395.005	264.69
395.229	266.69
395.454	264.69
395.678	280.69
395.903	283.69
396.127	320.69
396.352	295.69
396.576	295.69
396.801	341.69
397.025	360.69
397.249	312.69
397.474	272.69
397.698	260.69
397.922	267.69
398.147	285.69
398.371	278.69
398.595	264.69
398.82	284.69
399.044	306.69
399.268	331.69
399.492	362.69
399.717	374.69
399.941	374.69
400.165	347.69
400.389	303.69
400.613	295.69
400.837	300.69
401.062	274.69
401.286	279.69
401.51	297.69
401.734	277.69
401.958	287.69
402.182	284.69
402.406	305.69
402.63	302.69
402.854	309.69
403.078	324.69
403.302	293.69
403.526	328.69
403.75	325.69
403.974	310.69
404.198	310.69
404.422	343.69
404.645	327.69
404.869	327.69
405.093	323.69
405.317	314.69
405.541	323.69
405.765	326.69
405.988	302.69
406.212	310.69
406.436	331.69
406.66	348.69
406.883	313.69
407.107	353.69
407.331	343.69
407.555	364.69
407.778	339.69
408.002	336.69
408.226	304.69
408.449	341.69
408.673	328.69
408.896	306.69
409.12	318.69
409.344	321.69
409.567	308.69
409.791	309.69
410.014	314.69
410.238	317.69
410.461	323.69
410.685	302.69
410.908	310.69
411.132	312.69
411.355	291.69
411.578	294.69
411.802	288.69
412.025	312.69
412.249	323.69
412.472	309.69
412.695	301.69
412.919	321.69
413.142	319.69
413.365	301.69
413.589	306.69
413.812	280.69
414.035	287.69
414.258	302.69
414.482	292.69
414.705	285.69
414.928	289.69
415.151	284.69
415.374	294.69
415.597	285.69
415.821	290.69
416.044	296.69
416.267	291.69
416.49	294.69
416.713	303.69
416.936	305.69
417.159	281.69
417.382	271.69
417.605	288.69
417.828	284.69
418.051	287.69
418.274	304.69
418.497	278.69
418.72	315.69
418.943	311.69
419.166	299.69
419.389	311.69
419.611	315.69
419.834	320.69
420.057	315.69
420.28	313.69
420.503	310.69
420.726	297.69
420.948	296.69
421.171	299.69
421.394	310.69
421.617	280.69
421.839	307.69
422.062	304.69
422.285	316.69
422.507	311.69
422.73	362.69
422.953	334.69
423.175	297.69
423.398	320.69
423.621	319.69
423.843	298.69
424.066	300.69
424.288	299.69
424.511	317.69
424.733	316.69
424.956	317.69
425.178	312.69
425.401	285.69
425.623	296.69
425.846	293.69
426.068	289.69
426.291	280.69
426.513	304.69
426.735	287.69
426.958	281.69
427.18	294.69
427.402	306.69
427.625	286.69
427.847	288.69
428.069	291.69
428.292	295.69
428.514	287.69
428.736	286.69
428.958	282.69
429.181	296.69
429.403	277.69
429.625	260.69
429.847	290.69
430.069	307.69
430.292	301.69
430.514	289.69
430.736	303.69
430.958	285.69
431.18	271.69
431.402	271.69
431.624	273.69
431.846	260.69
432.068	248.69
432.29	251.69
432.512	269.69
432.734	283.69
432.956	272.69
433.178	280.69
433.4	283.69
433.622	287.69
433.844	293.69
434.066	266.69
434.287	264.69
434.509	260.69
434.731	282.69
434.953	280.69
435.175	276.69
435.397	290.69
435.618	266.69
435.84	265.69
436.062	273.69
436.284	267.69
436.505	261.69
436.727	282.69
436.949	266.69
437.17	251.69
437.392	256.69
437.614	258.69
437.835	235.69
438.057	245.69
438.278	254.69
438.5	292.69
438.721	288.69
438.943	267.69
439.165	278.69
439.386	266.69
439.608	303.69
439.829	275.69
440.05	271.69
440.272	278.69
440.493	284.69
440.715	293.69
440.936	285.69
441.158	292.69
441.379	308.69
441.6	314.69
441.822	305.69
442.043	302.69
442.264	286.69
442.486	299.69
442.707	294.69
442.928	291.69
443.149	277.69
443.371	287.69
443.592	293.69
443.813	300.69
444.034	302.69
444.255	306.69
444.476	325.69
444.698	350.69
444.919	348.69
445.14	523.69
445.361	393.69
445.582	347.69
445.803	307.69
446.024	275.69
446.245	305.69
446.466	286.69
446.687	264.69
446.908	287.69
447.129	278.69
447.35	278.69
447.571	261.69
447.792	259.69
448.013	260.69
448.234	272.69
448.455	277.69
448.675	273.69
448.896	261.69
449.117	275.69
449.338	268.69
449.559	256.69
449.779	250.69
450	256.69
450.221	264.69
450.442	268.69
450.662	275.69
450.883	264.69
451.104	280.69
451.324	268.69
451.545	263.69
451.766	281.69
451.986	266.69
452.207	276.69
452.428	248.69
452.648	250.69
452.869	227.69
453.089	264.69
453.31	262.69
453.53	292.69
453.751	287.69
453.971	251.69
454.192	251.69
454.412	250.69
454.633	241.69
454.853	246.69
455.073	253.69
455.294	256.69
455.514	260.69
455.734	241.69
455.955	243.69
456.175	234.69
456.395	209.69
456.616	231.69
456.836	234.69
457.056	229.69
457.276	219.69
457.497	236.69
457.717	230.69
457.937	221.69
458.157	237.69
458.377	220.69
458.598	231.69
458.818	222.69
459.038	232.69
459.258	232.69
459.478	236.69
459.698	247.69
459.918	265.69
460.138	268.69
460.358	279.69
460.578	294.69
460.798	289.69
461.018	304.69
461.238	301.69
461.458	299.69
461.678	275.69
461.898	290.69
462.118	310.69
462.338	336.69
462.558	323.69
462.777	324.69
462.997	346.69
463.217	352.69
463.437	355.69
463.657	324.69
463.876	327.69
464.096	311.69
464.316	322.69
464.536	306.69
464.755	322.69
464.975	301.69
465.195	292.69
465.414	306.69
465.634	288.69
465.854	261.69
466.073	267.69
466.293	251.69
466.512	264.69
466.732	266.69
466.951	284.69
467.171	273.69
467.391	272.69
467.61	280.69
467.829	294.69
468.049	327.69
468.268	357.69
468.488	303.69
468.707	280.69
468.927	298.69
469.146	272.69
469.365	279.69
469.585	268.69
469.804	272.69
470.023	281.69
470.243	286.69
470.462	282.69
470.681	306.69
470.901	277.69
471.12	275.69
471.339	286.69
471.558	284.69
471.777	280.69
471.997	319.69
472.216	370.69
472.435	484.69
472.654	370.69
472.873	298.69
473.092	288.69
473.311	271.69
473.53	269.69
473.749	256.69
473.968	274.69
474.187	258.69
474.406	259.69
474.625	272.69
474.844	277.69
475.063	269.69
475.282	256.69
475.501	237.69
475.72	260.69
475.939	281.69
476.158	280.69
476.377	285.69
476.596	286.69
476.814	288.69
477.033	258.69
477.252	268.69
477.471	265.69
477.69	276.69
477.908	290.69
478.127	311.69
478.346	302.69
478.564	294.69
478.783	291.69
479.002	315.69
479.22	316.69
479.439	323.69
479.658	304.69
479.876	306.69
480.095	299.69
480.313	318.69
480.532	322.69
480.751	357.69
480.969	430.69
481.188	677.69
481.406	628.69
481.624	410.69
481.843	346.69
482.061	311.69
482.28	324.69
482.498	306.69
482.717	283.69
482.935	283.69
483.153	305.69
483.372	301.69
483.59	287.69
483.808	265.69
484.027	279.69
484.245	291.69
484.463	295.69
484.681	326.69
484.9	287.69
485.118	303.69
485.336	295.69
485.554	298.69
485.772	285.69
485.99	300.69
486.209	308.69
486.427	292.69
486.645	277.69
486.863	308.69
487.081	299.69
487.299	309.69
487.517	308.69
487.735	317.69
487.953	324.69
488.171	332.69
488.389	311.69
488.607	315.69
488.825	284.69
489.043	296.69
489.261	335.69
489.479	326.69
489.696	289.69
489.914	296.69
490.132	309.69
490.35	306.69
490.568	322.69
490.786	316.69
491.003	320.69
491.221	332.69
491.439	346.69
491.657	342.69
491.874	369.69
492.092	379.69
492.31	389.69
492.527	365.69
492.745	360.69
492.963	373.69
493.18	372.69
493.398	351.69
493.615	367.69
493.833	354.69
494.05	358.69
494.268	357.69
494.485	335.69
494.703	348.69
494.92	340.69
495.138	327.69
495.355	342.69
495.573	340.69
495.79	367.69
496.008	368.69
496.225	351.69
496.442	338.69
496.66	345.69
496.877	340.69
497.094	361.69
497.312	344.69
497.529	358.69
497.746	362.69
497.963	345.69
498.181	387.69
498.398	468.69
498.615	402.69
498.832	421.69
499.049	454.69
499.267	508.69
499.484	501.69
499.701	549.69
499.918	614.69
500.135	714.69
500.352	726.69
500.569	729.69
500.786	724.69
501.003	718.69
501.22	606.69
501.437	553.69
501.654	544.69
501.871	472.69
502.088	431.69
502.305	424.69
502.522	412.69
502.739	407.69
502.956	379.69
503.172	367.69
503.389	342.69
