Data from SampB_HRD10591_00098.txt Node
Date: Mon Jan 19 11:34:02 EST 2026
User: Yrep
Spectrometer: HR+D1059
Trigger mode: 0
Integration Time (sec): 3.443000E-1
Scans to average: 1
Electric dark correction enabled: true
Nonlinearity correction enabled: false
Boxcar width: 0
XAxis mode: Wavelengths
Number of Pixels in Spectrum: 2048
>>>>>Begin Spectral Data<<<<<
223.165	-19.38
223.4	-19.38
223.635	-19.38
223.869	-13.38
224.104	-14.38
224.338	-9.38
224.573	-25.38
224.808	-19.38
225.042	-12.38
225.277	-6.38
225.511	1.62
225.746	8.62
225.98	2.62
226.215	3.62
226.449	16.62
226.683	19.62
226.918	35.62
227.152	31.62
227.387	31.62
227.621	34.62
227.856	39.62
228.09	49.62
228.324	44.62
228.559	63.62
228.793	66.62
229.027	63.62
229.262	55.62
229.496	70.62
229.73	63.62
229.964	75.62
230.199	75.62
230.433	63.62
230.667	73.62
230.901	83.62
231.136	71.62
231.37	72.62
231.604	70.62
231.838	64.62
232.072	67.62
232.306	79.62
232.541	70.62
232.775	79.62
233.009	71.62
233.243	82.62
233.477	70.62
233.711	80.62
233.945	93.62
234.179	71.62
234.413	78.62
234.647	83.62
234.881	74.62
235.115	74.62
235.349	90.62
235.583	92.62
235.817	66.62
236.051	78.62
236.285	72.62
236.519	61.62
236.753	89.62
236.987	59.62
237.221	71.62
237.455	77.62
237.689	72.62
237.922	79.62
238.156	73.62
238.39	88.62
238.624	72.62
238.858	66.62
239.091	74.62
239.325	71.62
239.559	70.62
239.793	74.62
240.027	98.62
240.26	85.62
240.494	71.62
240.728	77.62
240.961	82.62
241.195	83.62
241.429	87.62
241.662	78.62
241.896	86.62
242.13	67.62
242.363	72.62
242.597	65.62
242.83	74.62
243.064	76.62
243.298	89.62
243.531	78.62
243.765	81.62
243.998	75.62
244.232	74.62
244.465	77.62
244.699	78.62
244.932	93.62
245.166	93.62
245.399	90.62
245.633	88.62
245.866	73.62
246.099	83.62
246.333	81.62
246.566	65.62
246.8	75.62
247.033	82.62
247.266	74.62
247.5	70.62
247.733	68.62
247.966	82.62
248.2	83.62
248.433	65.62
248.666	68.62
248.899	79.62
249.133	88.62
249.366	87.62
249.599	67.62
249.832	61.62
250.066	85.62
250.299	74.62
250.532	73.62
250.765	66.62
250.998	62.62
251.231	74.62
251.465	78.62
251.698	81.62
251.931	81.62
252.164	83.62
252.397	97.62
252.63	81.62
252.863	65.62
253.096	73.62
253.329	80.62
253.562	86.62
253.795	78.62
254.028	75.62
254.261	75.62
254.494	81.62
254.727	91.62
254.96	72.62
255.193	76.62
255.426	76.62
255.659	78.62
255.892	83.62
256.124	82.62
256.357	79.62
256.59	65.62
256.823	71.62
257.056	73.62
257.289	68.62
257.521	78.62
257.754	90.62
257.987	97.62
258.22	88.62
258.452	72.62
258.685	69.62
258.918	93.62
259.151	70.62
259.383	84.62
259.616	81.62
259.849	84.62
260.081	71.62
260.314	72.62
260.547	79.62
260.779	76.62
261.012	88.62
261.244	91.62
261.477	101.62
261.71	79.62
261.942	92.62
262.175	86.62
262.407	82.62
262.64	58.62
262.872	81.62
263.105	91.62
263.337	93.62
263.57	79.62
263.802	81.62
264.035	79.62
264.267	86.62
264.499	78.62
264.732	89.62
264.964	67.62
265.197	91.62
265.429	80.62
265.661	95.62
265.894	109.62
266.126	91.62
266.358	82.62
266.591	84.62
266.823	73.62
267.055	66.62
267.287	72.62
267.52	91.62
267.752	83.62
267.984	89.62
268.216	79.62
268.448	83.62
268.681	88.62
268.913	92.62
269.145	78.62
269.377	78.62
269.609	67.62
269.841	79.62
270.073	87.62
270.306	67.62
270.538	81.62
270.77	79.62
271.002	68.62
271.234	87.62
271.466	83.62
271.698	62.62
271.93	84.62
272.162	86.62
272.394	88.62
272.626	81.62
272.858	91.62
273.09	88.62
273.322	96.62
273.553	65.62
273.785	97.62
274.017	67.62
274.249	81.62
274.481	96.62
274.713	88.62
274.945	100.62
275.176	82.62
275.408	92.62
275.64	89.62
275.872	74.62
276.104	75.62
276.335	89.62
276.567	69.62
276.799	73.62
277.031	87.62
277.262	82.62
277.494	85.62
277.726	78.62
277.957	77.62
278.189	75.62
278.421	89.62
278.652	83.62
278.884	82.62
279.115	76.62
279.347	82.62
279.579	80.62
279.81	74.62
280.042	74.62
280.273	80.62
280.505	84.62
280.736	63.62
280.968	63.62
281.199	70.62
281.431	80.62
281.662	76.62
281.894	89.62
282.125	87.62
282.356	83.62
282.588	67.62
282.819	83.62
283.051	74.62
283.282	92.62
283.513	81.62
283.745	65.62
283.976	84.62
284.207	82.62
284.439	93.62
284.67	89.62
284.901	91.62
285.132	84.62
285.364	94.62
285.595	79.62
285.826	74.62
286.057	78.62
286.288	86.62
286.52	76.62
286.751	80.62
286.982	90.62
287.213	80.62
287.444	86.62
287.675	81.62
287.906	89.62
288.138	72.62
288.369	83.62
288.6	104.62
288.831	89.62
289.062	87.62
289.293	86.62
289.524	88.62
289.755	78.62
289.986	82.62
290.217	80.62
290.448	81.62
290.679	89.62
290.91	73.62
291.141	82.62
291.371	91.62
291.602	79.62
291.833	92.62
292.064	83.62
292.295	82.62
292.526	78.62
292.757	101.62
292.987	91.62
293.218	83.62
293.449	82.62
293.68	69.62
293.91	74.62
294.141	87.62
294.372	81.62
294.603	88.62
294.833	73.62
295.064	71.62
295.295	86.62
295.525	76.62
295.756	89.62
295.987	84.62
296.217	76.62
296.448	78.62
296.679	88.62
296.909	98.62
297.14	74.62
297.37	89.62
297.601	89.62
297.831	77.62
298.062	78.62
298.292	89.62
298.523	85.62
298.753	89.62
298.984	87.62
299.214	62.62
299.445	92.62
299.675	89.62
299.905	82.62
300.136	84.62
300.366	82.62
300.597	74.62
300.827	83.62
301.057	81.62
301.288	80.62
301.518	79.62
301.748	86.62
301.979	107.62
302.209	97.62
302.439	65.62
302.669	83.62
302.9	85.62
303.13	81.62
303.36	77.62
303.59	78.62
303.82	89.62
304.051	88.62
304.281	82.62
304.511	96.62
304.741	84.62
304.971	83.62
305.201	82.62
305.431	88.62
305.661	80.62
305.891	84.62
306.121	94.62
306.352	74.62
306.582	78.62
306.812	78.62
307.042	73.62
307.272	76.62
307.502	88.62
307.731	97.62
307.961	89.62
308.191	76.62
308.421	89.62
308.651	87.62
308.881	84.62
309.111	73.62
309.341	77.62
309.571	73.62
309.8	83.62
310.03	79.62
310.26	84.62
310.49	72.62
310.72	95.62
310.949	79.62
311.179	90.62
311.409	82.62
311.639	87.62
311.868	77.62
312.098	81.62
312.328	86.62
312.557	87.62
312.787	92.62
313.017	91.62
313.246	81.62
313.476	87.62
313.706	67.62
313.935	88.62
314.165	70.62
314.394	81.62
314.624	98.62
314.853	91.62
315.083	72.62
315.312	84.62
315.542	72.62
315.771	72.62
316.001	80.62
316.23	72.62
316.46	86.62
316.689	90.62
316.919	84.62
317.148	86.62
317.377	88.62
317.607	87.62
317.836	95.62
318.065	97.62
318.295	83.62
318.524	89.62
318.753	73.62
318.983	91.62
319.212	98.62
319.441	83.62
319.67	87.62
319.9	87.62
320.129	83.62
320.358	88.62
320.587	89.62
320.816	84.62
321.046	72.62
321.275	89.62
321.504	83.62
321.733	93.62
321.962	83.62
322.191	73.62
322.42	94.62
322.649	74.62
322.878	73.62
323.108	96.62
323.337	92.62
323.566	83.62
323.795	88.62
324.024	89.62
324.253	79.62
324.482	83.62
324.71	73.62
324.939	99.62
325.168	78.62
325.397	80.62
325.626	86.62
325.855	94.62
326.084	79.62
326.313	73.62
326.542	85.62
326.77	91.62
326.999	81.62
327.228	96.62
327.457	82.62
327.686	72.62
327.914	81.62
328.143	77.62
328.372	76.62
328.6	83.62
328.829	87.62
329.058	98.62
329.287	84.62
329.515	77.62
329.744	83.62
329.972	74.62
330.201	82.62
330.43	100.62
330.658	79.62
330.887	88.62
331.115	87.62
331.344	85.62
331.572	93.62
331.801	70.62
332.03	78.62
332.258	102.62
332.486	73.62
332.715	60.62
332.943	73.62
333.172	82.62
333.4	71.62
333.629	82.62
333.857	81.62
334.085	82.62
334.314	95.62
334.542	76.62
334.771	76.62
334.999	87.62
335.227	76.62
335.455	79.62
335.684	97.62
335.912	76.62
336.14	90.62
336.369	100.62
336.597	90.62
336.825	79.62
337.053	80.62
337.281	94.62
337.51	80.62
337.738	93.62
337.966	70.62
338.194	77.62
338.422	75.62
338.65	96.62
338.878	89.62
339.106	76.62
339.334	89.62
339.562	70.62
339.79	81.62
340.018	67.62
340.246	79.62
340.474	86.62
340.702	82.62
340.93	84.62
341.158	85.62
341.386	72.62
341.614	77.62
341.842	90.62
342.07	78.62
342.298	79.62
342.526	89.62
342.754	78.62
342.981	78.62
343.209	91.62
343.437	119.62
343.665	80.62
343.893	104.62
344.12	95.62
344.348	89.62
344.576	76.62
344.804	84.62
345.031	80.62
345.259	82.62
345.487	91.62
345.714	84.62
345.942	93.62
346.17	97.62
346.397	88.62
346.625	88.62
346.853	67.62
347.08	80.62
347.308	91.62
347.535	86.62
347.763	79.62
347.99	94.62
348.218	78.62
348.445	86.62
348.673	92.62
348.9	93.62
349.128	90.62
349.355	68.62
349.583	78.62
349.81	89.62
350.037	75.62
350.265	88.62
350.492	88.62
350.72	72.62
350.947	98.62
351.174	89.62
351.402	80.62
351.629	74.62
351.856	80.62
352.083	88.62
352.311	88.62
352.538	66.62
352.765	78.62
352.992	102.62
353.22	82.62
353.447	63.62
353.674	86.62
353.901	89.62
354.128	76.62
354.355	86.62
354.583	94.62
354.81	90.62
355.037	88.62
355.264	86.62
355.491	74.62
355.718	82.62
355.945	88.62
356.172	82.62
356.399	89.62
356.626	87.62
356.853	87.62
357.08	84.62
357.307	89.62
357.534	77.62
357.761	84.62
357.988	84.62
358.215	97.62
358.441	89.62
358.668	84.62
358.895	85.62
359.122	83.62
359.349	73.62
359.576	89.62
359.802	77.62
360.029	78.62
360.256	79.62
360.483	69.62
360.709	73.62
360.936	88.62
361.163	90.62
361.39	84.62
361.616	75.62
361.843	88.62
362.07	83.62
362.296	77.62
362.523	74.62
362.749	84.62
362.976	86.62
363.203	104.62
363.429	72.62
363.656	74.62
363.882	87.62
364.109	92.62
364.335	72.62
364.562	87.62
364.788	74.62
365.015	88.62
365.241	76.62
365.468	94.62
365.694	74.62
365.92	89.62
366.147	82.62
366.373	88.62
366.599	83.62
366.826	85.62
367.052	88.62
367.278	98.62
367.505	81.62
367.731	114.62
367.957	95.62
368.184	72.62
368.41	66.62
368.636	77.62
368.862	91.62
369.089	96.62
369.315	78.62
369.541	94.62
369.767	91.62
369.993	79.62
370.219	86.62
370.445	91.62
370.672	77.62
370.898	90.62
371.124	84.62
371.35	72.62
371.576	89.62
371.802	86.62
372.028	78.62
372.254	74.62
372.48	73.62
372.706	86.62
372.932	71.62
373.158	87.62
373.384	89.62
373.61	98.62
373.835	76.62
374.061	89.62
374.287	83.62
374.513	93.62
374.739	81.62
374.965	89.62
375.191	86.62
375.416	85.62
375.642	88.62
375.868	88.62
376.094	104.62
376.319	85.62
376.545	82.62
376.771	96.62
376.997	86.62
377.222	82.62
377.448	83.62
377.674	81.62
377.899	87.62
378.125	76.62
378.35	78.62
378.576	83.62
378.802	70.62
379.027	86.62
379.253	92.62
379.478	80.62
379.704	83.62
379.929	88.62
380.155	86.62
380.38	105.62
380.606	94.62
380.831	97.62
381.057	95.62
381.282	82.62
381.507	91.62
381.733	84.62
381.958	86.62
382.184	88.62
382.409	101.62
382.634	90.62
382.86	93.62
383.085	93.62
383.31	83.62
383.535	82.62
383.761	95.62
383.986	74.62
384.211	79.62
384.436	80.62
384.662	91.62
384.887	74.62
385.112	84.62
385.337	85.62
385.562	79.62
385.787	80.62
386.013	91.62
386.238	88.62
386.463	75.62
386.688	106.62
386.913	83.62
387.138	80.62
387.363	84.62
387.588	92.62
387.813	86.62
388.038	92.62
388.263	91.62
388.488	77.62
388.713	71.62
388.938	75.62
389.163	88.62
389.387	90.62
389.612	91.62
389.837	87.62
390.062	92.62
390.287	87.62
390.512	92.62
390.736	94.62
390.961	85.62
391.186	86.62
391.411	75.62
391.636	83.62
391.86	82.62
392.085	87.62
392.31	89.62
392.534	89.62
392.759	88.62
392.984	90.62
393.208	62.62
393.433	84.62
393.658	79.62
393.882	106.62
394.107	78.62
394.331	85.62
394.556	84.62
394.78	92.62
395.005	94.62
395.229	91.62
395.454	92.62
395.678	72.62
395.903	88.62
396.127	74.62
396.352	85.62
396.576	93.62
396.801	81.62
397.025	92.62
397.249	88.62
397.474	98.62
397.698	106.62
397.922	94.62
398.147	91.62
398.371	91.62
398.595	95.62
398.82	85.62
399.044	81.62
399.268	95.62
399.492	97.62
399.717	105.62
399.941	74.62
400.165	98.62
400.389	88.62
400.613	89.62
400.837	92.62
401.062	81.62
401.286	86.62
401.51	101.62
401.734	83.62
401.958	91.62
402.182	92.62
402.406	96.62
402.63	92.62
402.854	86.62
403.078	112.62
403.302	86.62
403.526	90.62
403.75	96.62
403.974	88.62
404.198	88.62
404.422	85.62
404.645	108.62
404.869	110.62
405.093	99.62
405.317	112.62
405.541	92.62
405.765	100.62
405.988	93.62
406.212	100.62
406.436	90.62
406.66	93.62
406.883	95.62
407.107	105.62
407.331	102.62
407.555	82.62
407.778	99.62
408.002	95.62
408.226	111.62
408.449	97.62
408.673	104.62
408.896	88.62
409.12	103.62
409.344	93.62
409.567	99.62
409.791	98.62
410.014	109.62
410.238	95.62
410.461	95.62
410.685	96.62
410.908	93.62
411.132	120.62
411.355	95.62
411.578	89.62
411.802	109.62
412.025	88.62
412.249	89.62
412.472	96.62
412.695	104.62
412.919	97.62
413.142	102.62
413.365	110.62
413.589	89.62
413.812	93.62
414.035	107.62
414.258	110.62
414.482	108.62
414.705	86.62
414.928	93.62
415.151	95.62
415.374	108.62
415.597	89.62
415.821	102.62
416.044	102.62
416.267	109.62
416.49	97.62
416.713	94.62
416.936	92.62
417.159	103.62
417.382	92.62
417.605	102.62
417.828	92.62
418.051	92.62
418.274	110.62
418.497	98.62
418.72	112.62
418.943	95.62
419.166	91.62
419.389	106.62
419.611	85.62
419.834	105.62
420.057	99.62
420.28	94.62
420.503	102.62
420.726	94.62
420.948	96.62
421.171	99.62
421.394	114.62
421.617	108.62
421.839	95.62
422.062	107.62
422.285	106.62
422.507	101.62
422.73	90.62
422.953	96.62
423.175	98.62
423.398	106.62
423.621	105.62
423.843	92.62
424.066	101.62
424.288	105.62
424.511	105.62
424.733	102.62
424.956	89.62
425.178	98.62
425.401	90.62
425.623	105.62
425.846	95.62
426.068	109.62
426.291	111.62
426.513	97.62
426.735	107.62
426.958	109.62
427.18	98.62
427.402	103.62
427.625	106.62
427.847	103.62
428.069	98.62
428.292	104.62
428.514	88.62
428.736	94.62
428.958	88.62
429.181	103.62
429.403	87.62
429.625	98.62
429.847	88.62
430.069	99.62
430.292	108.62
430.514	104.62
430.736	100.62
430.958	119.62
431.18	88.62
431.402	107.62
431.624	98.62
431.846	84.62
432.068	83.62
432.29	88.62
432.512	100.62
432.734	103.62
432.956	108.62
433.178	124.62
433.4	94.62
433.622	96.62
433.844	82.62
434.066	90.62
434.287	93.62
434.509	62.62
434.731	98.62
434.953	83.62
435.175	87.62
435.397	100.62
435.618	113.62
435.84	103.62
436.062	100.62
436.284	100.62
436.505	104.62
436.727	111.62
436.949	104.62
437.17	97.62
437.392	98.62
437.614	102.62
437.835	67.62
438.057	85.62
438.278	101.62
438.5	83.62
438.721	84.62
438.943	110.62
439.165	103.62
439.386	88.62
439.608	119.62
439.829	87.62
440.05	95.62
440.272	106.62
440.493	94.62
440.715	93.62
440.936	120.62
441.158	108.62
441.379	116.62
441.6	125.62
441.822	100.62
442.043	108.62
442.264	105.62
442.486	104.62
442.707	83.62
442.928	118.62
443.149	97.62
443.371	99.62
443.592	114.62
443.813	110.62
444.034	86.62
444.255	111.62
444.476	95.62
444.698	104.62
444.919	96.62
445.14	314.62
445.361	198.62
445.582	116.62
445.803	111.62
446.024	108.62
446.245	123.62
446.466	113.62
446.687	116.62
446.908	125.62
447.129	97.62
447.35	112.62
447.571	93.62
447.792	115.62
448.013	103.62
448.234	98.62
448.455	111.62
448.675	103.62
448.896	109.62
449.117	104.62
449.338	104.62
449.559	118.62
449.779	98.62
450	102.62
450.221	99.62
450.442	99.62
450.662	94.62
450.883	90.62
451.104	98.62
451.324	99.62
451.545	83.62
451.766	95.62
451.986	100.62
452.207	103.62
452.428	90.62
452.648	92.62
452.869	90.62
453.089	100.62
453.31	98.62
453.53	96.62
453.751	77.62
453.971	82.62
454.192	90.62
454.412	83.62
454.633	96.62
454.853	105.62
455.073	86.62
455.294	84.62
455.514	91.62
455.734	89.62
455.955	111.62
456.175	94.62
456.395	101.62
456.616	101.62
456.836	87.62
457.056	88.62
457.276	88.62
457.497	94.62
457.717	94.62
457.937	92.62
458.157	95.62
458.377	84.62
458.598	93.62
458.818	86.62
459.038	90.62
459.258	103.62
459.478	65.62
459.698	77.62
459.918	88.62
460.138	96.62
460.358	90.62
460.578	93.62
460.798	91.62
461.018	91.62
461.238	89.62
461.458	93.62
461.678	101.62
461.898	94.62
462.118	97.62
462.338	100.62
462.558	88.62
462.777	90.62
462.997	74.62
463.217	91.62
463.437	88.62
463.657	77.62
463.876	84.62
464.096	96.62
464.316	82.62
464.536	83.62
464.755	106.62
464.975	94.62
465.195	90.62
465.414	96.62
465.634	93.62
465.854	88.62
466.073	98.62
466.293	94.62
466.512	99.62
466.732	96.62
466.951	87.62
467.171	95.62
467.391	91.62
467.61	97.62
467.829	93.62
468.049	100.62
468.268	100.62
468.488	104.62
468.707	94.62
468.927	100.62
469.146	99.62
469.365	94.62
469.585	110.62
469.804	95.62
470.023	99.62
470.243	110.62
470.462	108.62
470.681	95.62
470.901	96.62
471.12	88.62
471.339	101.62
471.558	91.62
471.777	110.62
471.997	99.62
472.216	106.62
472.435	99.62
472.654	84.62
472.873	100.62
473.092	83.62
473.311	95.62
473.53	96.62
473.749	87.62
473.968	105.62
474.187	102.62
474.406	94.62
474.625	88.62
474.844	102.62
475.063	99.62
475.282	94.62
475.501	91.62
475.72	86.62
475.939	105.62
476.158	108.62
476.377	106.62
476.596	95.62
476.814	93.62
477.033	87.62
477.252	84.62
477.471	103.62
477.69	98.62
477.908	106.62
478.127	103.62
478.346	100.62
478.564	101.62
478.783	97.62
479.002	91.62
479.22	82.62
479.439	105.62
479.658	104.62
479.876	94.62
480.095	93.62
480.313	100.62
480.532	91.62
480.751	82.62
480.969	90.62
481.188	69.62
481.406	99.62
481.624	89.62
481.843	87.62
482.061	87.62
482.28	87.62
482.498	99.62
482.717	105.62
482.935	92.62
483.153	110.62
483.372	93.62
483.59	107.62
483.808	92.62
484.027	100.62
484.245	104.62
484.463	104.62
484.681	118.62
484.9	99.62
485.118	88.62
485.336	76.62
485.554	87.62
485.772	79.62
485.99	84.62
486.209	87.62
486.427	101.62
486.645	91.62
486.863	92.62
487.081	90.62
487.299	82.62
487.517	107.62
487.735	105.62
487.953	114.62
488.171	127.62
488.389	103.62
488.607	93.62
488.825	96.62
489.043	102.62
489.261	96.62
489.479	107.62
489.696	106.62
489.914	111.62
490.132	90.62
490.35	106.62
490.568	96.62
490.786	108.62
491.003	118.62
491.221	100.62
491.439	120.62
491.657	123.62
491.874	125.62
492.092	144.62
492.31	140.62
492.527	127.62
492.745	122.62
492.963	126.62
493.18	129.62
493.398	119.62
493.615	110.62
493.833	108.62
494.05	105.62
494.268	108.62
494.485	108.62
494.703	115.62
494.92	120.62
495.138	107.62
495.355	120.62
495.573	119.62
495.79	98.62
496.008	105.62
496.225	112.62
496.442	107.62
496.66	117.62
496.877	102.62
497.094	108.62
497.312	121.62
497.529	104.62
497.746	105.62
497.963	97.62
498.181	92.62
498.398	77.62
498.615	92.62
498.832	97.62
499.049	90.62
499.267	98.62
499.484	95.62
499.701	97.62
499.918	114.62
500.135	105.62
500.352	118.62
500.569	93.62
500.786	97.62
501.003	107.62
501.22	96.62
501.437	101.62
501.654	98.62
501.871	99.62
502.088	84.62
502.305	104.62
502.522	94.62
502.739	90.62
502.956	97.62
503.172	98.62
503.389	98.62
503.606	95.62
503.823	79.62
504.04	97.62
504.256	86.62
504.473	90.62
504.69	95.62
504.907	112.62
505.123	100.62
505.34	99.62
505.557	94.62
505.773	79.62
505.99	98.62
506.207	78.62
506.423	88.62
506.64	102.62
506.856	94.62
507.073	87.62
507.289	102.62
507.506	91.62
507.722	77.62
507.939	91.62
508.155	77.62
508.372	87.62
508.588	86.62
508.805	90.62
509.021	92.62
509.238	90.62
509.454	88.62
509.67	92.62
509.887	91.62
510.103	86.62
510.319	93.62
510.536	90.62
510.752	80.62
510.968	97.62
511.184	91.62
511.401	82.62
511.617	88.62
511.833	77.62
512.049	84.62
512.265	78.62
512.481	80.62
512.698	74.62
512.914	90.62
513.13	88.62
513.346	103.62
513.562	75.62
513.778	88.62
513.994	87.62
514.21	94.62
514.426	98.62
514.642	83.62
514.858	90.62
515.074	85.62
515.29	92.62
515.506	70.62
515.721	96.62
515.937	93.62
516.153	88.62
516.369	89.62
516.585	93.62
516.801	83.62
517.016	91.62
