Data from SampB_HRD10591_00053.txt Node
Date: Mon Jan 19 11:33:46 EST 2026
User: Yrep
Spectrometer: HR+D1059
Trigger mode: 0
Integration Time (sec): 3.443000E-1
Scans to average: 1
Electric dark correction enabled: true
Nonlinearity correction enabled: false
Boxcar width: 0
XAxis mode: Wavelengths
Number of Pixels in Spectrum: 2048
>>>>>Begin Spectral Data<<<<<
223.165	-20.31
223.4	-20.31
223.635	-20.31
223.869	-16.31
224.104	-24.31
224.338	-12.31
224.573	-9.31
224.808	-16.31
225.042	-5.31
225.277	-14.31
225.511	-0.31
225.746	-2.31
225.98	22.69
226.215	17.69
226.449	17.69
226.683	11.69
226.918	21.69
227.152	29.69
227.387	39.69
227.621	19.69
227.856	46.69
228.09	49.69
228.324	68.69
228.559	54.69
228.793	67.69
229.027	66.69
229.262	80.69
229.496	71.69
229.73	74.69
229.964	85.69
230.199	80.69
230.433	81.69
230.667	86.69
230.901	77.69
231.136	87.69
231.37	81.69
231.604	92.69
231.838	94.69
232.072	98.69
232.306	95.69
232.541	106.69
232.775	99.69
233.009	83.69
233.243	92.69
233.477	109.69
233.711	99.69
233.945	95.69
234.179	88.69
234.413	101.69
234.647	98.69
234.881	81.69
235.115	96.69
235.349	93.69
235.583	98.69
235.817	110.69
236.051	88.69
236.285	99.69
236.519	99.69
236.753	88.69
236.987	100.69
237.221	85.69
237.455	99.69
237.689	103.69
237.922	107.69
238.156	101.69
238.39	101.69
238.624	98.69
238.858	112.69
239.091	88.69
239.325	89.69
239.559	100.69
239.793	97.69
240.027	112.69
240.26	113.69
240.494	115.69
240.728	102.69
240.961	100.69
241.195	109.69
241.429	96.69
241.662	99.69
241.896	99.69
242.13	103.69
242.363	99.69
242.597	106.69
242.83	108.69
243.064	92.69
243.298	104.69
243.531	122.69
243.765	95.69
243.998	96.69
244.232	109.69
244.465	98.69
244.699	97.69
244.932	96.69
245.166	97.69
245.399	105.69
245.633	93.69
245.866	103.69
246.099	119.69
246.333	111.69
246.566	99.69
246.8	101.69
247.033	100.69
247.266	97.69
247.5	95.69
247.733	90.69
247.966	93.69
248.2	121.69
248.433	118.69
248.666	115.69
248.899	128.69
249.133	114.69
249.366	128.69
249.599	113.69
249.832	125.69
250.066	118.69
250.299	124.69
250.532	116.69
250.765	108.69
250.998	116.69
251.231	122.69
251.465	112.69
251.698	113.69
251.931	106.69
252.164	121.69
252.397	114.69
252.63	137.69
252.863	133.69
253.096	134.69
253.329	132.69
253.562	121.69
253.795	120.69
254.028	130.69
254.261	123.69
254.494	128.69
254.727	137.69
254.96	128.69
255.193	140.69
255.426	117.69
255.659	116.69
255.892	134.69
256.124	128.69
256.357	153.69
256.59	144.69
256.823	122.69
257.056	120.69
257.289	123.69
257.521	143.69
257.754	119.69
257.987	126.69
258.22	128.69
258.452	117.69
258.685	147.69
258.918	137.69
259.151	136.69
259.383	123.69
259.616	136.69
259.849	135.69
260.081	155.69
260.314	162.69
260.547	129.69
260.779	139.69
261.012	149.69
261.244	149.69
261.477	164.69
261.71	131.69
261.942	149.69
262.175	144.69
262.407	151.69
262.64	139.69
262.872	163.69
263.105	151.69
263.337	155.69
263.57	148.69
263.802	103.69
264.035	104.69
264.267	141.69
264.499	120.69
264.732	134.69
264.964	127.69
265.197	126.69
265.429	126.69
265.661	129.69
265.894	125.69
266.126	137.69
266.358	151.69
266.591	129.69
266.823	129.69
267.055	125.69
267.287	138.69
267.52	131.69
267.752	116.69
267.984	137.69
268.216	130.69
268.448	161.69
268.681	135.69
268.913	116.69
269.145	149.69
269.377	125.69
269.609	121.69
269.841	121.69
270.073	133.69
270.306	122.69
270.538	127.69
270.77	133.69
271.002	131.69
271.234	135.69
271.466	154.69
271.698	147.69
271.93	154.69
272.162	144.69
272.394	139.69
272.626	138.69
272.858	151.69
273.09	154.69
273.322	141.69
273.553	164.69
273.785	169.69
274.017	170.69
274.249	190.69
274.481	198.69
274.713	194.69
274.945	206.69
275.176	213.69
275.408	171.69
275.64	177.69
275.872	167.69
276.104	169.69
276.335	154.69
276.567	143.69
276.799	151.69
277.031	170.69
277.262	174.69
277.494	175.69
277.726	152.69
277.957	146.69
278.189	170.69
278.421	161.69
278.652	161.69
278.884	158.69
279.115	155.69
279.347	175.69
279.579	184.69
279.81	201.69
280.042	185.69
280.273	197.69
280.505	177.69
280.736	181.69
280.968	150.69
281.199	154.69
281.431	156.69
281.662	163.69
281.894	169.69
282.125	155.69
282.356	137.69
282.588	161.69
282.819	154.69
283.051	173.69
283.282	153.69
283.513	164.69
283.745	163.69
283.976	152.69
284.207	157.69
284.439	167.69
284.67	166.69
284.901	167.69
285.132	162.69
285.364	173.69
285.595	169.69
285.826	163.69
286.057	176.69
286.288	151.69
286.52	157.69
286.751	155.69
286.982	155.69
287.213	161.69
287.444	146.69
287.675	154.69
287.906	169.69
288.138	155.69
288.369	184.69
288.6	153.69
288.831	154.69
289.062	182.69
289.293	153.69
289.524	160.69
289.755	167.69
289.986	159.69
290.217	166.69
290.448	153.69
290.679	161.69
290.91	157.69
291.141	156.69
291.371	174.69
291.602	151.69
291.833	171.69
292.064	174.69
292.295	153.69
292.526	161.69
292.757	158.69
292.987	157.69
293.218	167.69
293.449	159.69
293.68	156.69
293.91	169.69
294.141	177.69
294.372	162.69
294.603	163.69
294.833	180.69
295.064	165.69
295.295	183.69
295.525	173.69
295.756	162.69
295.987	154.69
296.217	166.69
296.448	163.69
296.679	180.69
296.909	167.69
297.14	167.69
297.37	171.69
297.601	175.69
297.831	170.69
298.062	176.69
298.292	184.69
298.523	185.69
298.753	175.69
298.984	177.69
299.214	172.69
299.445	174.69
299.675	176.69
299.905	178.69
300.136	173.69
300.366	172.69
300.597	173.69
300.827	192.69
301.057	200.69
301.288	186.69
301.518	185.69
301.748	202.69
301.979	240.69
302.209	198.69
302.439	179.69
302.669	170.69
302.9	179.69
303.13	174.69
303.36	175.69
303.59	181.69
303.82	180.69
304.051	187.69
304.281	184.69
304.511	191.69
304.741	169.69
304.971	179.69
305.201	189.69
305.431	172.69
305.661	177.69
305.891	177.69
306.121	178.69
306.352	184.69
306.582	188.69
306.812	178.69
307.042	200.69
307.272	201.69
307.502	185.69
307.731	210.69
307.961	204.69
308.191	190.69
308.421	204.69
308.651	204.69
308.881	193.69
309.111	193.69
309.341	200.69
309.571	192.69
309.8	189.69
310.03	179.69
310.26	190.69
310.49	178.69
310.72	167.69
310.949	181.69
311.179	198.69
311.409	178.69
311.639	194.69
311.868	188.69
312.098	179.69
312.328	195.69
312.557	186.69
312.787	174.69
313.017	173.69
313.246	176.69
313.476	193.69
313.706	180.69
313.935	192.69
314.165	213.69
314.394	194.69
314.624	190.69
314.853	190.69
315.083	186.69
315.312	203.69
315.542	193.69
315.771	192.69
316.001	183.69
316.23	183.69
316.46	178.69
316.689	194.69
316.919	204.69
317.148	185.69
317.377	195.69
317.607	200.69
317.836	181.69
318.065	200.69
318.295	200.69
318.524	205.69
318.753	198.69
318.983	202.69
319.212	187.69
319.441	200.69
319.67	197.69
319.9	201.69
320.129	205.69
320.358	198.69
320.587	203.69
320.816	188.69
321.046	185.69
321.275	198.69
321.504	188.69
321.733	195.69
321.962	215.69
322.191	204.69
322.42	208.69
322.649	211.69
322.878	218.69
323.108	209.69
323.337	201.69
323.566	226.69
323.795	239.69
324.024	225.69
324.253	207.69
324.482	190.69
324.71	222.69
324.939	205.69
325.168	215.69
325.397	215.69
325.626	211.69
325.855	205.69
326.084	194.69
326.313	219.69
326.542	216.69
326.77	206.69
326.999	193.69
327.228	203.69
327.457	210.69
327.686	240.69
327.914	275.69
328.143	288.69
328.372	303.69
328.6	250.69
328.829	257.69
329.058	223.69
329.287	236.69
329.515	236.69
329.744	285.69
329.972	319.69
330.201	408.69
330.43	433.69
330.658	339.69
330.887	255.69
331.115	239.69
331.344	249.69
331.572	221.69
331.801	210.69
332.03	246.69
332.258	242.69
332.486	247.69
332.715	261.69
332.943	269.69
333.172	290.69
333.4	259.69
333.629	293.69
333.857	327.69
334.085	373.69
334.314	448.69
334.542	545.69
334.771	499.69
334.999	361.69
335.227	295.69
335.455	263.69
335.684	272.69
335.912	262.69
336.14	270.69
336.369	254.69
336.597	232.69
336.825	215.69
337.053	239.69
337.281	253.69
337.51	237.69
337.738	243.69
337.966	243.69
338.194	227.69
338.422	235.69
338.65	246.69
338.878	224.69
339.106	217.69
339.334	248.69
339.562	211.69
339.79	227.69
340.018	199.69
340.246	218.69
340.474	215.69
340.702	216.69
340.93	211.69
341.158	193.69
341.386	197.69
341.614	223.69
341.842	205.69
342.07	201.69
342.298	203.69
342.526	199.69
342.754	196.69
342.981	211.69
343.209	203.69
343.437	266.69
343.665	237.69
343.893	249.69
344.12	258.69
344.348	237.69
344.576	229.69
344.804	212.69
345.031	210.69
345.259	218.69
345.487	203.69
345.714	192.69
345.942	200.69
346.17	206.69
346.397	197.69
346.625	183.69
346.853	200.69
347.08	197.69
347.308	214.69
347.535	219.69
347.763	190.69
347.99	214.69
348.218	208.69
348.445	203.69
348.673	199.69
348.9	205.69
349.128	215.69
349.355	218.69
349.583	199.69
349.81	201.69
350.037	207.69
350.265	204.69
350.492	183.69
350.72	183.69
350.947	191.69
351.174	192.69
351.402	209.69
351.629	192.69
351.856	194.69
352.083	209.69
352.311	207.69
352.538	208.69
352.765	190.69
352.992	197.69
353.22	205.69
353.447	211.69
353.674	200.69
353.901	204.69
354.128	200.69
354.355	205.69
354.583	193.69
354.81	199.69
355.037	205.69
355.264	204.69
355.491	211.69
355.718	198.69
355.945	211.69
356.172	204.69
356.399	217.69
356.626	220.69
356.853	206.69
357.08	244.69
357.307	228.69
357.534	202.69
357.761	213.69
357.988	227.69
358.215	240.69
358.441	208.69
358.668	209.69
358.895	213.69
359.122	213.69
359.349	187.69
359.576	207.69
359.802	203.69
360.029	208.69
360.256	198.69
360.483	203.69
360.709	208.69
360.936	203.69
361.163	221.69
361.39	201.69
361.616	209.69
361.843	211.69
362.07	224.69
362.296	216.69
362.523	198.69
362.749	199.69
362.976	182.69
363.203	225.69
363.429	197.69
363.656	224.69
363.882	203.69
364.109	211.69
364.335	217.69
364.562	208.69
364.788	221.69
365.015	218.69
365.241	213.69
365.468	214.69
365.694	211.69
365.92	207.69
366.147	210.69
366.373	209.69
366.599	204.69
366.826	199.69
367.052	193.69
367.278	207.69
367.505	199.69
367.731	220.69
367.957	213.69
368.184	213.69
368.41	213.69
368.636	223.69
368.862	229.69
369.089	207.69
369.315	192.69
369.541	211.69
369.767	216.69
369.993	206.69
370.219	207.69
370.445	195.69
370.672	199.69
370.898	221.69
371.124	205.69
371.35	220.69
371.576	218.69
371.802	223.69
372.028	241.69
372.254	217.69
372.48	206.69
372.706	215.69
372.932	239.69
373.158	231.69
373.384	259.69
373.61	275.69
373.835	242.69
374.061	225.69
374.287	239.69
374.513	245.69
374.739	260.69
374.965	252.69
375.191	262.69
375.416	251.69
375.642	249.69
375.868	254.69
376.094	249.69
376.319	255.69
376.545	223.69
376.771	235.69
376.997	232.69
377.222	204.69
377.448	214.69
377.674	227.69
377.899	199.69
378.125	191.69
378.35	218.69
378.576	209.69
378.802	203.69
379.027	232.69
379.253	211.69
379.478	219.69
379.704	221.69
379.929	233.69
380.155	225.69
380.38	205.69
380.606	199.69
380.831	198.69
381.057	232.69
381.282	213.69
381.507	231.69
381.733	253.69
381.958	242.69
382.184	247.69
382.409	242.69
382.634	246.69
382.86	257.69
383.085	253.69
383.31	255.69
383.535	248.69
383.761	256.69
383.986	253.69
384.211	245.69
384.436	238.69
384.662	246.69
384.887	264.69
385.112	266.69
385.337	266.69
385.562	253.69
385.787	271.69
386.013	269.69
386.238	262.69
386.463	262.69
386.688	269.69
386.913	254.69
387.138	238.69
387.363	251.69
387.588	274.69
387.813	247.69
388.038	256.69
388.263	263.69
388.488	273.69
388.713	259.69
388.938	245.69
389.163	250.69
389.387	246.69
389.612	249.69
389.837	262.69
390.062	261.69
390.287	251.69
390.512	252.69
390.736	241.69
390.961	252.69
391.186	260.69
391.411	264.69
391.636	270.69
391.86	264.69
392.085	269.69
392.31	283.69
392.534	279.69
392.759	275.69
392.984	291.69
393.208	341.69
393.433	385.69
393.658	333.69
393.882	282.69
394.107	269.69
394.331	283.69
394.556	316.69
394.78	286.69
395.005	290.69
395.229	297.69
395.454	293.69
395.678	297.69
395.903	306.69
396.127	320.69
396.352	320.69
396.576	311.69
396.801	355.69
397.025	375.69
397.249	321.69
397.474	290.69
397.698	279.69
397.922	281.69
398.147	299.69
398.371	300.69
398.595	303.69
398.82	316.69
399.044	333.69
399.268	365.69
399.492	415.69
399.717	445.69
399.941	418.69
400.165	376.69
400.389	326.69
400.613	316.69
400.837	325.69
401.062	291.69
401.286	293.69
401.51	316.69
401.734	309.69
401.958	318.69
402.182	321.69
402.406	328.69
402.63	315.69
402.854	346.69
403.078	308.69
403.302	329.69
403.526	339.69
403.75	319.69
403.974	336.69
404.198	347.69
404.422	380.69
404.645	354.69
404.869	361.69
405.093	356.69
405.317	332.69
405.541	343.69
405.765	328.69
405.988	345.69
406.212	365.69
406.436	328.69
406.66	346.69
406.883	362.69
407.107	366.69
407.331	413.69
407.555	383.69
407.778	377.69
408.002	359.69
408.226	345.69
408.449	354.69
408.673	341.69
408.896	347.69
409.12	363.69
409.344	339.69
409.567	353.69
409.791	341.69
410.014	338.69
410.238	323.69
410.461	338.69
410.685	331.69
410.908	319.69
411.132	328.69
411.355	334.69
411.578	336.69
411.802	340.69
412.025	323.69
412.249	321.69
412.472	314.69
412.695	346.69
412.919	306.69
413.142	324.69
413.365	299.69
413.589	311.69
413.812	318.69
414.035	328.69
414.258	325.69
414.482	323.69
414.705	304.69
414.928	332.69
415.151	333.69
415.374	342.69
415.597	309.69
415.821	316.69
416.044	301.69
416.267	307.69
416.49	290.69
416.713	327.69
416.936	318.69
417.159	312.69
417.382	303.69
417.605	320.69
417.828	311.69
418.051	333.69
418.274	327.69
418.497	315.69
418.72	342.69
418.943	334.69
419.166	344.69
419.389	329.69
419.611	329.69
419.834	337.69
420.057	347.69
420.28	320.69
420.503	312.69
420.726	291.69
420.948	317.69
421.171	313.69
421.394	311.69
421.617	327.69
421.839	332.69
422.062	335.69
422.285	317.69
422.507	371.69
422.73	369.69
422.953	375.69
423.175	339.69
423.398	348.69
423.621	338.69
423.843	325.69
424.066	333.69
424.288	333.69
424.511	345.69
424.733	335.69
424.956	328.69
425.178	338.69
425.401	315.69
425.623	309.69
425.846	325.69
426.068	315.69
426.291	334.69
426.513	307.69
426.735	293.69
426.958	299.69
427.18	301.69
427.402	321.69
427.625	305.69
427.847	297.69
428.069	311.69
428.292	297.69
428.514	310.69
428.736	289.69
428.958	303.69
429.181	313.69
429.403	313.69
429.625	298.69
429.847	303.69
430.069	312.69
430.292	331.69
430.514	314.69
430.736	310.69
430.958	309.69
431.18	275.69
431.402	285.69
431.624	294.69
431.846	291.69
432.068	271.69
432.29	273.69
432.512	302.69
432.734	304.69
432.956	297.69
433.178	301.69
433.4	282.69
433.622	293.69
433.844	279.69
434.066	273.69
434.287	278.69
434.509	275.69
434.731	281.69
434.953	317.69
435.175	312.69
435.397	305.69
435.618	293.69
435.84	273.69
436.062	277.69
436.284	268.69
436.505	283.69
436.727	287.69
436.949	307.69
437.17	303.69
437.392	292.69
437.614	271.69
437.835	254.69
438.057	281.69
438.278	290.69
438.5	302.69
438.721	286.69
438.943	290.69
439.165	275.69
439.386	286.69
439.608	308.69
439.829	281.69
440.05	292.69
440.272	285.69
440.493	296.69
440.715	325.69
440.936	302.69
441.158	323.69
441.379	319.69
441.6	354.69
441.822	319.69
442.043	318.69
442.264	322.69
442.486	325.69
442.707	331.69
442.928	337.69
443.149	312.69
443.371	337.69
443.592	317.69
443.813	330.69
444.034	322.69
444.255	343.69
444.476	346.69
444.698	369.69
444.919	370.69
445.14	559.69
445.361	426.69
445.582	339.69
445.803	330.69
446.024	301.69
446.245	289.69
446.466	288.69
446.687	306.69
446.908	310.69
447.129	321.69
447.35	289.69
447.571	290.69
447.792	297.69
448.013	295.69
448.234	285.69
448.455	289.69
448.675	287.69
448.896	282.69
449.117	301.69
449.338	289.69
449.559	276.69
449.779	281.69
450	274.69
450.221	287.69
450.442	265.69
450.662	289.69
450.883	272.69
451.104	288.69
451.324	273.69
451.545	282.69
451.766	278.69
451.986	269.69
452.207	287.69
452.428	271.69
452.648	272.69
452.869	265.69
453.089	271.69
453.31	256.69
453.53	301.69
453.751	306.69
453.971	256.69
454.192	256.69
454.412	249.69
454.633	253.69
454.853	266.69
455.073	251.69
455.294	269.69
455.514	277.69
455.734	273.69
455.955	258.69
456.175	253.69
456.395	258.69
456.616	249.69
456.836	256.69
457.056	246.69
457.276	233.69
457.497	232.69
457.717	253.69
457.937	254.69
458.157	249.69
458.377	251.69
458.598	253.69
458.818	257.69
459.038	256.69
459.258	266.69
459.478	266.69
459.698	269.69
459.918	282.69
460.138	293.69
460.358	290.69
460.578	323.69
460.798	326.69
461.018	321.69
461.238	319.69
461.458	322.69
461.678	314.69
461.898	326.69
462.118	336.69
462.338	325.69
462.558	326.69
462.777	344.69
462.997	375.69
463.217	402.69
463.437	374.69
463.657	352.69
463.876	362.69
464.096	366.69
464.316	355.69
464.536	338.69
464.755	331.69
464.975	326.69
465.195	309.69
465.414	304.69
465.634	311.69
465.854	290.69
466.073	287.69
466.293	290.69
466.512	281.69
466.732	282.69
466.951	303.69
467.171	293.69
467.391	302.69
467.61	299.69
467.829	322.69
468.049	391.69
468.268	432.69
468.488	337.69
468.707	286.69
468.927	315.69
469.146	301.69
469.365	299.69
469.585	295.69
469.804	322.69
470.023	298.69
470.243	307.69
470.462	300.69
470.681	315.69
470.901	295.69
471.12	325.69
471.339	314.69
471.558	308.69
471.777	301.69
471.997	339.69
472.216	496.69
472.435	619.69
472.654	423.69
472.873	309.69
473.092	291.69
473.311	283.69
473.53	288.69
473.749	280.69
473.968	290.69
474.187	291.69
474.406	283.69
474.625	279.69
474.844	301.69
475.063	291.69
475.282	273.69
475.501	281.69
475.72	303.69
475.939	283.69
476.158	303.69
476.377	294.69
476.596	279.69
476.814	271.69
477.033	291.69
477.252	278.69
477.471	278.69
477.69	306.69
477.908	332.69
478.127	348.69
478.346	344.69
478.564	326.69
478.783	318.69
479.002	328.69
479.22	331.69
479.439	346.69
479.658	326.69
479.876	336.69
480.095	351.69
480.313	363.69
480.532	360.69
480.751	382.69
480.969	498.69
481.188	901.69
481.406	737.69
481.624	441.69
481.843	357.69
482.061	327.69
482.28	337.69
482.498	322.69
482.717	321.69
482.935	315.69
483.153	331.69
483.372	341.69
483.59	327.69
483.808	304.69
484.027	309.69
484.245	317.69
484.463	319.69
484.681	327.69
484.9	318.69
485.118	319.69
485.336	330.69
485.554	298.69
485.772	313.69
485.99	301.69
486.209	309.69
486.427	312.69
486.645	318.69
486.863	318.69
487.081	340.69
487.299	329.69
487.517	336.69
487.735	338.69
487.953	356.69
488.171	342.69
488.389	334.69
488.607	308.69
488.825	331.69
489.043	319.69
489.261	336.69
489.479	329.69
489.696	310.69
489.914	318.69
490.132	342.69
490.35	314.69
490.568	327.69
490.786	357.69
491.003	366.69
491.221	342.69
491.439	379.69
491.657	365.69
491.874	383.69
492.092	385.69
492.31	382.69
492.527	368.69
492.745	377.69
492.963	376.69
493.18	371.69
493.398	363.69
493.615	390.69
493.833	357.69
494.05	359.69
494.268	351.69
494.485	352.69
494.703	363.69
494.92	361.69
495.138	360.69
495.355	362.69
495.573	366.69
495.79	373.69
496.008	372.69
496.225	349.69
496.442	365.69
496.66	351.69
496.877	362.69
497.094	370.69
497.312	370.69
497.529	366.69
497.746	380.69
497.963	397.69
498.181	409.69
498.398	455.69
498.615	436.69
498.832	456.69
499.049	478.69
499.267	549.69
499.484	543.69
499.701	573.69
499.918	647.69
500.135	733.69
500.352	802.69
500.569	778.69
500.786	781.69
501.003	759.69
501.22	661.69
501.437	610.69
501.654	570.69
501.871	505.69
502.088	480.69
502.305	470.69
502.522	469.69
502.739	414.69
502.956	409.69
503.172	395.69
503.389	359.69
