Data from SampB_HRD10591_00022.txt Node
Date: Mon Jan 19 11:33:36 EST 2026
User: Yrep
Spectrometer: HR+D1059
Trigger mode: 0
Integration Time (sec): 3.443000E-1
Scans to average: 1
Electric dark correction enabled: true
Nonlinearity correction enabled: false
Boxcar width: 0
XAxis mode: Wavelengths
Number of Pixels in Spectrum: 2048
>>>>>Begin Spectral Data<<<<<
223.165	-30.56
223.4	-30.56
223.635	-30.56
223.869	-26.56
224.104	-15.56
224.338	-17.56
224.573	-24.56
224.808	-25.56
225.042	8.44
225.277	1.44
225.511	-7.56
225.746	5.44
225.98	9.44
226.215	5.44
226.449	24.44
226.683	22.44
226.918	32.44
227.152	38.44
227.387	28.44
227.621	37.44
227.856	52.44
228.09	64.44
228.324	49.44
228.559	62.44
228.793	66.44
229.027	68.44
229.262	75.44
229.496	86.44
229.73	84.44
229.964	77.44
230.199	70.44
230.433	72.44
230.667	86.44
230.901	85.44
231.136	91.44
231.37	89.44
231.604	75.44
231.838	86.44
232.072	87.44
232.306	88.44
232.541	83.44
232.775	90.44
233.009	92.44
233.243	92.44
233.477	90.44
233.711	96.44
233.945	93.44
234.179	96.44
234.413	93.44
234.647	93.44
234.881	87.44
235.115	89.44
235.349	82.44
235.583	93.44
235.817	89.44
236.051	83.44
236.285	91.44
236.519	97.44
236.753	83.44
236.987	89.44
237.221	93.44
237.455	90.44
237.689	97.44
237.922	77.44
238.156	98.44
238.39	85.44
238.624	94.44
238.858	93.44
239.091	81.44
239.325	96.44
239.559	94.44
239.793	83.44
240.027	96.44
240.26	80.44
240.494	88.44
240.728	94.44
240.961	72.44
241.195	102.44
241.429	97.44
241.662	87.44
241.896	95.44
242.13	70.44
242.363	80.44
242.597	89.44
242.83	93.44
243.064	94.44
243.298	109.44
243.531	99.44
243.765	88.44
243.998	99.44
244.232	89.44
244.465	97.44
244.699	89.44
244.932	105.44
245.166	80.44
245.399	88.44
245.633	92.44
245.866	93.44
246.099	88.44
246.333	93.44
246.566	96.44
246.8	102.44
247.033	87.44
247.266	105.44
247.5	97.44
247.733	96.44
247.966	89.44
248.2	95.44
248.433	97.44
248.666	106.44
248.899	96.44
249.133	94.44
249.366	101.44
249.599	97.44
249.832	93.44
250.066	111.44
250.299	102.44
250.532	96.44
250.765	81.44
250.998	103.44
251.231	97.44
251.465	117.44
251.698	95.44
251.931	101.44
252.164	97.44
252.397	97.44
252.63	104.44
252.863	113.44
253.096	96.44
253.329	100.44
253.562	105.44
253.795	99.44
254.028	112.44
254.261	98.44
254.494	101.44
254.727	109.44
254.96	102.44
255.193	98.44
255.426	100.44
255.659	91.44
255.892	129.44
256.124	115.44
256.357	107.44
256.59	110.44
256.823	102.44
257.056	111.44
257.289	99.44
257.521	102.44
257.754	108.44
257.987	109.44
258.22	117.44
258.452	96.44
258.685	106.44
258.918	112.44
259.151	112.44
259.383	107.44
259.616	104.44
259.849	102.44
260.081	116.44
260.314	117.44
260.547	106.44
260.779	100.44
261.012	112.44
261.244	90.44
261.477	112.44
261.71	113.44
261.942	107.44
262.175	117.44
262.407	114.44
262.64	109.44
262.872	120.44
263.105	110.44
263.337	131.44
263.57	110.44
263.802	107.44
264.035	128.44
264.267	113.44
264.499	121.44
264.732	109.44
264.964	128.44
265.197	112.44
265.429	95.44
265.661	117.44
265.894	129.44
266.126	102.44
266.358	107.44
266.591	104.44
266.823	104.44
267.055	123.44
267.287	115.44
267.52	106.44
267.752	111.44
267.984	112.44
268.216	113.44
268.448	114.44
268.681	131.44
268.913	124.44
269.145	115.44
269.377	114.44
269.609	109.44
269.841	110.44
270.073	113.44
270.306	106.44
270.538	105.44
270.77	109.44
271.002	100.44
271.234	122.44
271.466	122.44
271.698	127.44
271.93	104.44
272.162	117.44
272.394	113.44
272.626	117.44
272.858	118.44
273.09	111.44
273.322	113.44
273.553	112.44
273.785	134.44
274.017	110.44
274.249	129.44
274.481	115.44
274.713	126.44
274.945	116.44
275.176	119.44
275.408	122.44
275.64	144.44
275.872	122.44
276.104	124.44
276.335	132.44
276.567	112.44
276.799	133.44
277.031	107.44
277.262	116.44
277.494	127.44
277.726	122.44
277.957	127.44
278.189	115.44
278.421	126.44
278.652	128.44
278.884	133.44
279.115	149.44
279.347	130.44
279.579	147.44
279.81	153.44
280.042	144.44
280.273	160.44
280.505	133.44
280.736	128.44
280.968	122.44
281.199	128.44
281.431	131.44
281.662	116.44
281.894	133.44
282.125	136.44
282.356	137.44
282.588	126.44
282.819	134.44
283.051	120.44
283.282	115.44
283.513	138.44
283.745	122.44
283.976	143.44
284.207	132.44
284.439	138.44
284.67	139.44
284.901	144.44
285.132	135.44
285.364	124.44
285.595	130.44
285.826	131.44
286.057	151.44
286.288	126.44
286.52	139.44
286.751	133.44
286.982	128.44
287.213	117.44
287.444	137.44
287.675	122.44
287.906	123.44
288.138	138.44
288.369	140.44
288.6	142.44
288.831	122.44
289.062	140.44
289.293	140.44
289.524	126.44
289.755	140.44
289.986	132.44
290.217	135.44
290.448	128.44
290.679	136.44
290.91	134.44
291.141	131.44
291.371	136.44
291.602	130.44
291.833	126.44
292.064	136.44
292.295	137.44
292.526	134.44
292.757	132.44
292.987	146.44
293.218	134.44
293.449	137.44
293.68	138.44
293.91	130.44
294.141	138.44
294.372	122.44
294.603	119.44
294.833	147.44
295.064	128.44
295.295	124.44
295.525	132.44
295.756	140.44
295.987	141.44
296.217	135.44
296.448	140.44
296.679	130.44
296.909	140.44
297.14	131.44
297.37	143.44
297.601	126.44
297.831	146.44
298.062	150.44
298.292	135.44
298.523	144.44
298.753	128.44
298.984	136.44
299.214	138.44
299.445	152.44
299.675	124.44
299.905	131.44
300.136	129.44
300.366	131.44
300.597	131.44
300.827	139.44
301.057	140.44
301.288	137.44
301.518	154.44
301.748	134.44
301.979	179.44
302.209	152.44
302.439	147.44
302.669	132.44
302.9	141.44
303.13	137.44
303.36	146.44
303.59	158.44
303.82	144.44
304.051	141.44
304.281	160.44
304.511	156.44
304.741	133.44
304.971	131.44
305.201	166.44
305.431	138.44
305.661	136.44
305.891	124.44
306.121	143.44
306.352	154.44
306.582	147.44
306.812	150.44
307.042	152.44
307.272	154.44
307.502	150.44
307.731	140.44
307.961	136.44
308.191	143.44
308.421	157.44
308.651	148.44
308.881	140.44
309.111	132.44
309.341	148.44
309.571	143.44
309.8	141.44
310.03	149.44
310.26	150.44
310.49	156.44
310.72	137.44
310.949	140.44
311.179	146.44
311.409	137.44
311.639	134.44
311.868	162.44
312.098	149.44
312.328	152.44
312.557	154.44
312.787	134.44
313.017	134.44
313.246	138.44
313.476	128.44
313.706	145.44
313.935	136.44
314.165	159.44
314.394	151.44
314.624	171.44
314.853	157.44
315.083	150.44
315.312	145.44
315.542	134.44
315.771	169.44
316.001	141.44
316.23	165.44
316.46	150.44
316.689	123.44
316.919	134.44
317.148	142.44
317.377	153.44
317.607	147.44
317.836	142.44
318.065	143.44
318.295	151.44
318.524	155.44
318.753	138.44
318.983	142.44
319.212	124.44
319.441	138.44
319.67	137.44
319.9	158.44
320.129	152.44
320.358	145.44
320.587	152.44
320.816	142.44
321.046	143.44
321.275	154.44
321.504	141.44
321.733	166.44
321.962	141.44
322.191	151.44
322.42	153.44
322.649	150.44
322.878	162.44
323.108	153.44
323.337	147.44
323.566	172.44
323.795	160.44
324.024	157.44
324.253	150.44
324.482	157.44
324.71	150.44
324.939	157.44
325.168	145.44
325.397	154.44
325.626	159.44
325.855	150.44
326.084	156.44
326.313	167.44
326.542	148.44
326.77	160.44
326.999	172.44
327.228	164.44
327.457	179.44
327.686	175.44
327.914	187.44
328.143	201.44
328.372	198.44
328.6	182.44
328.829	169.44
329.058	160.44
329.287	150.44
329.515	181.44
329.744	195.44
329.972	204.44
330.201	235.44
330.43	251.44
330.658	191.44
330.887	180.44
331.115	183.44
331.344	179.44
331.572	165.44
331.801	163.44
332.03	174.44
332.258	170.44
332.486	180.44
332.715	183.44
332.943	188.44
333.172	198.44
333.4	194.44
333.629	209.44
333.857	226.44
334.085	226.44
334.314	253.44
334.542	276.44
334.771	272.44
334.999	247.44
335.227	186.44
335.455	179.44
335.684	192.44
335.912	192.44
336.14	186.44
336.369	182.44
336.597	176.44
336.825	172.44
337.053	172.44
337.281	174.44
337.51	178.44
337.738	180.44
337.966	169.44
338.194	148.44
338.422	178.44
338.65	177.44
338.878	160.44
339.106	164.44
339.334	169.44
339.562	179.44
339.79	181.44
340.018	168.44
340.246	161.44
340.474	160.44
340.702	138.44
340.93	165.44
341.158	167.44
341.386	145.44
341.614	149.44
341.842	149.44
342.07	149.44
342.298	145.44
342.526	150.44
342.754	172.44
342.981	154.44
343.209	154.44
343.437	193.44
343.665	162.44
343.893	187.44
344.12	192.44
344.348	168.44
344.576	157.44
344.804	149.44
345.031	156.44
345.259	153.44
345.487	155.44
345.714	172.44
345.942	161.44
346.17	156.44
346.397	166.44
346.625	155.44
346.853	158.44
347.08	155.44
347.308	139.44
347.535	158.44
347.763	152.44
347.99	160.44
348.218	159.44
348.445	155.44
348.673	134.44
348.9	168.44
349.128	154.44
349.355	150.44
349.583	162.44
349.81	155.44
350.037	175.44
350.265	158.44
350.492	160.44
350.72	153.44
350.947	153.44
351.174	145.44
351.402	152.44
351.629	147.44
351.856	156.44
352.083	160.44
352.311	171.44
352.538	147.44
352.765	145.44
352.992	165.44
353.22	144.44
353.447	142.44
353.674	162.44
353.901	160.44
354.128	151.44
354.355	148.44
354.583	153.44
354.81	147.44
355.037	149.44
355.264	153.44
355.491	150.44
355.718	158.44
355.945	150.44
356.172	170.44
356.399	166.44
356.626	152.44
356.853	151.44
357.08	160.44
357.307	158.44
357.534	142.44
357.761	165.44
357.988	150.44
358.215	165.44
358.441	141.44
358.668	159.44
358.895	160.44
359.122	156.44
359.349	137.44
359.576	136.44
359.802	150.44
360.029	146.44
360.256	145.44
360.483	153.44
360.709	153.44
360.936	158.44
361.163	161.44
361.39	173.44
361.616	151.44
361.843	154.44
362.07	156.44
362.296	170.44
362.523	164.44
362.749	166.44
362.976	161.44
363.203	166.44
363.429	148.44
363.656	167.44
363.882	142.44
364.109	158.44
364.335	167.44
364.562	163.44
364.788	150.44
365.015	131.44
365.241	154.44
365.468	155.44
365.694	156.44
365.92	170.44
366.147	149.44
366.373	157.44
366.599	155.44
366.826	159.44
367.052	157.44
367.278	149.44
367.505	162.44
367.731	153.44
367.957	170.44
368.184	171.44
368.41	164.44
368.636	154.44
368.862	171.44
369.089	172.44
369.315	141.44
369.541	174.44
369.767	147.44
369.993	165.44
370.219	148.44
370.445	152.44
370.672	164.44
370.898	159.44
371.124	165.44
371.35	165.44
371.576	174.44
371.802	163.44
372.028	171.44
372.254	179.44
372.48	166.44
372.706	155.44
372.932	174.44
373.158	170.44
373.384	166.44
373.61	187.44
373.835	171.44
374.061	175.44
374.287	157.44
374.513	178.44
374.739	179.44
374.965	182.44
375.191	180.44
375.416	181.44
375.642	184.44
375.868	194.44
376.094	188.44
376.319	169.44
376.545	154.44
376.771	164.44
376.997	170.44
377.222	176.44
377.448	153.44
377.674	172.44
377.899	165.44
378.125	170.44
378.35	162.44
378.576	149.44
378.802	162.44
379.027	176.44
379.253	174.44
379.478	167.44
379.704	160.44
379.929	170.44
380.155	172.44
380.38	166.44
380.606	167.44
380.831	166.44
381.057	176.44
381.282	181.44
381.507	162.44
381.733	175.44
381.958	171.44
382.184	166.44
382.409	175.44
382.634	184.44
382.86	177.44
383.085	184.44
383.31	177.44
383.535	181.44
383.761	188.44
383.986	184.44
384.211	176.44
384.436	167.44
384.662	171.44
384.887	188.44
385.112	180.44
385.337	180.44
385.562	188.44
385.787	187.44
386.013	195.44
386.238	191.44
386.463	207.44
386.688	201.44
386.913	180.44
387.138	179.44
387.363	181.44
387.588	198.44
387.813	192.44
388.038	207.44
388.263	191.44
388.488	186.44
388.713	191.44
388.938	192.44
389.163	177.44
389.387	196.44
389.612	184.44
389.837	194.44
390.062	189.44
390.287	205.44
390.512	189.44
390.736	198.44
390.961	193.44
391.186	178.44
391.411	173.44
391.636	212.44
391.86	194.44
392.085	201.44
392.31	190.44
392.534	208.44
392.759	203.44
392.984	208.44
393.208	219.44
393.433	240.44
393.658	228.44
393.882	188.44
394.107	203.44
394.331	195.44
394.556	197.44
394.78	191.44
395.005	201.44
395.229	193.44
395.454	193.44
395.678	205.44
395.903	206.44
396.127	204.44
396.352	220.44
396.576	201.44
396.801	203.44
397.025	238.44
397.249	208.44
397.474	221.44
397.698	198.44
397.922	213.44
398.147	211.44
398.371	224.44
398.595	225.44
398.82	221.44
399.044	241.44
399.268	252.44
399.492	264.44
399.717	289.44
399.941	261.44
400.165	260.44
400.389	227.44
400.613	255.44
400.837	213.44
401.062	237.44
401.286	225.44
401.51	223.44
401.734	208.44
401.958	229.44
402.182	217.44
402.406	218.44
402.63	220.44
402.854	228.44
403.078	242.44
403.302	240.44
403.526	238.44
403.75	245.44
403.974	251.44
404.198	243.44
404.422	241.44
404.645	239.44
404.869	229.44
405.093	248.44
405.317	246.44
405.541	264.44
405.765	237.44
405.988	225.44
406.212	218.44
406.436	229.44
406.66	233.44
406.883	260.44
407.107	237.44
407.331	250.44
407.555	237.44
407.778	257.44
408.002	249.44
408.226	240.44
408.449	239.44
408.673	241.44
408.896	243.44
409.12	226.44
409.344	220.44
409.567	225.44
409.791	245.44
410.014	246.44
410.238	230.44
410.461	216.44
410.685	230.44
410.908	225.44
411.132	227.44
411.355	230.44
411.578	233.44
411.802	228.44
412.025	236.44
412.249	236.44
412.472	226.44
412.695	234.44
412.919	217.44
413.142	207.44
413.365	213.44
413.589	214.44
413.812	212.44
414.035	238.44
414.258	215.44
414.482	217.44
414.705	218.44
414.928	224.44
415.151	214.44
415.374	209.44
415.597	217.44
415.821	221.44
416.044	227.44
416.267	214.44
416.49	218.44
416.713	204.44
416.936	226.44
417.159	236.44
417.382	217.44
417.605	218.44
417.828	225.44
418.051	217.44
418.274	213.44
418.497	232.44
418.72	224.44
418.943	220.44
419.166	226.44
419.389	238.44
419.611	232.44
419.834	235.44
420.057	236.44
420.28	222.44
420.503	225.44
420.726	241.44
420.948	212.44
421.171	217.44
421.394	230.44
421.617	229.44
421.839	214.44
422.062	224.44
422.285	223.44
422.507	239.44
422.73	235.44
422.953	249.44
423.175	225.44
423.398	241.44
423.621	228.44
423.843	240.44
424.066	247.44
424.288	234.44
424.511	228.44
424.733	237.44
424.956	226.44
425.178	224.44
425.401	230.44
425.623	230.44
425.846	216.44
426.068	219.44
426.291	237.44
426.513	204.44
426.735	221.44
426.958	223.44
427.18	216.44
427.402	237.44
427.625	210.44
427.847	214.44
428.069	219.44
428.292	218.44
428.514	210.44
428.736	209.44
428.958	198.44
429.181	197.44
429.403	191.44
429.625	202.44
429.847	213.44
430.069	218.44
430.292	224.44
430.514	205.44
430.736	199.44
430.958	213.44
431.18	192.44
431.402	209.44
431.624	199.44
431.846	208.44
432.068	192.44
432.29	217.44
432.512	207.44
432.734	212.44
432.956	210.44
433.178	200.44
433.4	202.44
433.622	209.44
433.844	221.44
434.066	214.44
434.287	197.44
434.509	211.44
434.731	218.44
434.953	221.44
435.175	219.44
435.397	215.44
435.618	221.44
435.84	203.44
436.062	204.44
436.284	194.44
436.505	203.44
436.727	208.44
436.949	203.44
437.17	208.44
437.392	194.44
437.614	190.44
437.835	193.44
438.057	196.44
438.278	187.44
438.5	189.44
438.721	219.44
438.943	200.44
439.165	197.44
439.386	193.44
439.608	222.44
439.829	200.44
440.05	207.44
440.272	204.44
440.493	216.44
440.715	211.44
440.936	204.44
441.158	219.44
441.379	202.44
441.6	233.44
441.822	238.44
442.043	212.44
442.264	218.44
442.486	231.44
442.707	217.44
442.928	237.44
443.149	215.44
443.371	205.44
443.592	227.44
443.813	238.44
444.034	207.44
444.255	237.44
444.476	252.44
444.698	251.44
444.919	242.44
445.14	426.44
445.361	323.44
445.582	246.44
445.803	220.44
446.024	224.44
446.245	219.44
446.466	212.44
446.687	218.44
446.908	222.44
447.129	230.44
447.35	209.44
447.571	198.44
447.792	204.44
448.013	202.44
448.234	206.44
448.455	213.44
448.675	200.44
448.896	208.44
449.117	188.44
449.338	182.44
449.559	201.44
449.779	183.44
450	195.44
450.221	184.44
450.442	182.44
450.662	189.44
450.883	210.44
451.104	201.44
451.324	205.44
451.545	197.44
451.766	198.44
451.986	196.44
452.207	197.44
452.428	202.44
452.648	208.44
452.869	176.44
453.089	194.44
453.31	193.44
453.53	210.44
453.751	196.44
453.971	181.44
454.192	176.44
454.412	186.44
454.633	182.44
454.853	175.44
455.073	188.44
455.294	190.44
455.514	200.44
455.734	183.44
455.955	169.44
456.175	190.44
456.395	170.44
456.616	189.44
456.836	184.44
457.056	191.44
457.276	177.44
457.497	166.44
457.717	179.44
457.937	182.44
458.157	179.44
458.377	173.44
458.598	177.44
458.818	183.44
459.038	174.44
459.258	183.44
459.478	177.44
459.698	189.44
459.918	208.44
460.138	217.44
460.358	227.44
460.578	214.44
460.798	229.44
461.018	217.44
461.238	224.44
461.458	203.44
461.678	228.44
461.898	224.44
462.118	224.44
462.338	225.44
462.558	235.44
462.777	242.44
462.997	253.44
463.217	272.44
463.437	264.44
463.657	253.44
463.876	245.44
464.096	241.44
464.316	234.44
464.536	244.44
464.755	243.44
464.975	223.44
465.195	223.44
465.414	238.44
465.634	208.44
465.854	193.44
466.073	205.44
466.293	200.44
466.512	211.44
466.732	206.44
466.951	194.44
467.171	206.44
467.391	198.44
467.61	205.44
467.829	210.44
468.049	225.44
468.268	232.44
468.488	218.44
468.707	192.44
468.927	198.44
469.146	203.44
469.365	188.44
469.585	203.44
469.804	208.44
470.023	210.44
470.243	220.44
470.462	208.44
470.681	195.44
470.901	192.44
471.12	203.44
471.339	202.44
471.558	214.44
471.777	198.44
471.997	220.44
472.216	276.44
472.435	299.44
472.654	262.44
472.873	211.44
473.092	214.44
473.311	216.44
473.53	205.44
473.749	202.44
473.968	209.44
474.187	196.44
474.406	210.44
474.625	213.44
474.844	200.44
475.063	190.44
475.282	196.44
475.501	187.44
475.72	215.44
475.939	203.44
476.158	193.44
476.377	200.44
476.596	200.44
476.814	205.44
477.033	202.44
477.252	208.44
477.471	193.44
477.69	219.44
477.908	202.44
478.127	222.44
478.346	219.44
478.564	216.44
478.783	226.44
479.002	234.44
479.22	217.44
479.439	217.44
479.658	228.44
479.876	229.44
480.095	225.44
480.313	239.44
480.532	225.44
480.751	261.44
480.969	281.44
481.188	384.44
481.406	399.44
481.624	257.44
481.843	235.44
482.061	216.44
482.28	211.44
482.498	204.44
482.717	213.44
482.935	217.44
483.153	211.44
483.372	228.44
483.59	216.44
483.808	227.44
484.027	218.44
484.245	221.44
484.463	223.44
484.681	232.44
484.9	220.44
485.118	227.44
485.336	228.44
485.554	211.44
485.772	211.44
485.99	213.44
486.209	218.44
486.427	226.44
486.645	216.44
486.863	223.44
487.081	209.44
487.299	214.44
487.517	228.44
487.735	239.44
487.953	225.44
488.171	222.44
488.389	219.44
488.607	211.44
488.825	214.44
489.043	226.44
489.261	217.44
489.479	220.44
489.696	215.44
489.914	224.44
490.132	242.44
490.35	217.44
490.568	229.44
490.786	249.44
491.003	234.44
491.221	233.44
491.439	240.44
491.657	238.44
491.874	244.44
492.092	252.44
492.31	270.44
492.527	242.44
492.745	229.44
492.963	259.44
493.18	254.44
493.398	256.44
493.615	251.44
493.833	243.44
494.05	248.44
494.268	221.44
494.485	241.44
494.703	234.44
494.92	235.44
495.138	251.44
495.355	225.44
495.573	251.44
495.79	229.44
496.008	236.44
496.225	237.44
496.442	234.44
496.66	250.44
496.877	245.44
497.094	258.44
497.312	242.44
497.529	228.44
497.746	258.44
497.963	254.44
498.181	266.44
498.398	276.44
498.615	284.44
498.832	295.44
499.049	300.44
499.267	348.44
499.484	348.44
499.701	383.44
499.918	377.44
500.135	469.44
500.352	493.44
500.569	490.44
500.786	471.44
501.003	478.44
501.22	406.44
501.437	386.44
501.654	353.44
501.871	322.44
502.088	314.44
502.305	310.44
502.522	293.44
502.739	289.44
502.956	268.44
503.172	260.44
503.389	244.44
503.606	251.44
503.823	249.44
504.04	256.44
