Data from SampB_HRD10591_00041.txt Node
Date: Mon Jan 19 11:33:42 EST 2026
User: Yrep
Spectrometer: HR+D1059
Trigger mode: 0
Integration Time (sec): 3.443000E-1
Scans to average: 1
Electric dark correction enabled: true
Nonlinearity correction enabled: false
Boxcar width: 0
XAxis mode: Wavelengths
Number of Pixels in Spectrum: 2048
>>>>>Begin Spectral Data<<<<<
223.165	-14.38
223.4	-14.38
223.635	-14.38
223.869	-24.38
224.104	-34.38
224.338	-17.38
224.573	-18.38
224.808	-18.38
225.042	10.62
225.277	1.62
225.511	-0.38
225.746	5.62
225.98	7.62
226.215	8.62
226.449	16.62
226.683	25.62
226.918	29.62
227.152	21.62
227.387	33.62
227.621	44.62
227.856	44.62
228.09	31.62
228.324	54.62
228.559	55.62
228.793	65.62
229.027	69.62
229.262	80.62
229.496	71.62
229.73	71.62
229.964	80.62
230.199	87.62
230.433	75.62
230.667	91.62
230.901	81.62
231.136	75.62
231.37	78.62
231.604	95.62
231.838	86.62
232.072	94.62
232.306	94.62
232.541	93.62
232.775	85.62
233.009	96.62
233.243	94.62
233.477	89.62
233.711	104.62
233.945	97.62
234.179	98.62
234.413	102.62
234.647	91.62
234.881	99.62
235.115	103.62
235.349	77.62
235.583	84.62
235.817	84.62
236.051	81.62
236.285	93.62
236.519	95.62
236.753	101.62
236.987	95.62
237.221	104.62
237.455	101.62
237.689	94.62
237.922	101.62
238.156	87.62
238.39	91.62
238.624	91.62
238.858	94.62
239.091	87.62
239.325	95.62
239.559	84.62
239.793	85.62
240.027	112.62
240.26	99.62
240.494	95.62
240.728	99.62
240.961	93.62
241.195	95.62
241.429	101.62
241.662	100.62
241.896	99.62
242.13	81.62
242.363	93.62
242.597	99.62
242.83	98.62
243.064	111.62
243.298	99.62
243.531	93.62
243.765	103.62
243.998	112.62
244.232	113.62
244.465	109.62
244.699	108.62
244.932	96.62
245.166	101.62
245.399	104.62
245.633	103.62
245.866	99.62
246.099	104.62
246.333	114.62
246.566	108.62
246.8	89.62
247.033	105.62
247.266	85.62
247.5	87.62
247.733	87.62
247.966	106.62
248.2	89.62
248.433	106.62
248.666	93.62
248.899	109.62
249.133	113.62
249.366	121.62
249.599	112.62
249.832	117.62
250.066	115.62
250.299	113.62
250.532	128.62
250.765	127.62
250.998	127.62
251.231	126.62
251.465	115.62
251.698	107.62
251.931	108.62
252.164	125.62
252.397	109.62
252.63	115.62
252.863	115.62
253.096	113.62
253.329	121.62
253.562	134.62
253.795	116.62
254.028	124.62
254.261	119.62
254.494	119.62
254.727	121.62
254.96	125.62
255.193	122.62
255.426	114.62
255.659	114.62
255.892	133.62
256.124	123.62
256.357	136.62
256.59	149.62
256.823	120.62
257.056	112.62
257.289	117.62
257.521	122.62
257.754	118.62
257.987	108.62
258.22	127.62
258.452	114.62
258.685	129.62
258.918	133.62
259.151	121.62
259.383	131.62
259.616	143.62
259.849	124.62
260.081	135.62
260.314	152.62
260.547	114.62
260.779	121.62
261.012	131.62
261.244	135.62
261.477	144.62
261.71	135.62
261.942	137.62
262.175	137.62
262.407	135.62
262.64	126.62
262.872	137.62
263.105	138.62
263.337	125.62
263.57	138.62
263.802	119.62
264.035	121.62
264.267	122.62
264.499	127.62
264.732	133.62
264.964	136.62
265.197	128.62
265.429	135.62
265.661	129.62
265.894	135.62
266.126	138.62
266.358	136.62
266.591	128.62
266.823	135.62
267.055	123.62
267.287	135.62
267.52	139.62
267.752	126.62
267.984	131.62
268.216	145.62
268.448	139.62
268.681	139.62
268.913	142.62
269.145	153.62
269.377	122.62
269.609	123.62
269.841	143.62
270.073	117.62
270.306	148.62
270.538	135.62
270.77	137.62
271.002	138.62
271.234	136.62
271.466	141.62
271.698	147.62
271.93	136.62
272.162	136.62
272.394	163.62
272.626	147.62
272.858	135.62
273.09	151.62
273.322	162.62
273.553	144.62
273.785	148.62
274.017	163.62
274.249	161.62
274.481	155.62
274.713	166.62
274.945	176.62
275.176	174.62
275.408	169.62
275.64	169.62
275.872	169.62
276.104	164.62
276.335	141.62
276.567	156.62
276.799	137.62
277.031	158.62
277.262	160.62
277.494	163.62
277.726	160.62
277.957	153.62
278.189	154.62
278.421	154.62
278.652	156.62
278.884	156.62
279.115	162.62
279.347	155.62
279.579	169.62
279.81	185.62
280.042	174.62
280.273	178.62
280.505	174.62
280.736	166.62
280.968	149.62
281.199	157.62
281.431	151.62
281.662	147.62
281.894	149.62
282.125	153.62
282.356	158.62
282.588	158.62
282.819	160.62
283.051	169.62
283.282	162.62
283.513	168.62
283.745	155.62
283.976	157.62
284.207	157.62
284.439	165.62
284.67	170.62
284.901	166.62
285.132	167.62
285.364	156.62
285.595	165.62
285.826	171.62
286.057	170.62
286.288	162.62
286.52	176.62
286.751	153.62
286.982	160.62
287.213	170.62
287.444	175.62
287.675	162.62
287.906	172.62
288.138	146.62
288.369	165.62
288.6	175.62
288.831	163.62
289.062	180.62
289.293	174.62
289.524	169.62
289.755	171.62
289.986	174.62
290.217	169.62
290.448	157.62
290.679	170.62
290.91	174.62
291.141	162.62
291.371	181.62
291.602	159.62
291.833	144.62
292.064	169.62
292.295	153.62
292.526	160.62
292.757	175.62
292.987	165.62
293.218	161.62
293.449	170.62
293.68	173.62
293.91	176.62
294.141	174.62
294.372	158.62
294.603	174.62
294.833	165.62
295.064	168.62
295.295	162.62
295.525	167.62
295.756	169.62
295.987	163.62
296.217	165.62
296.448	186.62
296.679	192.62
296.909	183.62
297.14	176.62
297.37	177.62
297.601	174.62
297.831	177.62
298.062	175.62
298.292	175.62
298.523	179.62
298.753	174.62
298.984	167.62
299.214	168.62
299.445	181.62
299.675	174.62
299.905	177.62
300.136	183.62
300.366	179.62
300.597	190.62
300.827	193.62
301.057	193.62
301.288	179.62
301.518	182.62
301.748	191.62
301.979	222.62
302.209	203.62
302.439	181.62
302.669	186.62
302.9	211.62
303.13	202.62
303.36	201.62
303.59	176.62
303.82	192.62
304.051	194.62
304.281	177.62
304.511	187.62
304.741	190.62
304.971	173.62
305.201	184.62
305.431	175.62
305.661	177.62
305.891	175.62
306.121	198.62
306.352	188.62
306.582	182.62
306.812	191.62
307.042	191.62
307.272	195.62
307.502	197.62
307.731	190.62
307.961	196.62
308.191	192.62
308.421	179.62
308.651	178.62
308.881	195.62
309.111	178.62
309.341	183.62
309.571	184.62
309.8	204.62
310.03	197.62
310.26	178.62
310.49	192.62
310.72	165.62
310.949	186.62
311.179	182.62
311.409	174.62
311.639	205.62
311.868	195.62
312.098	185.62
312.328	186.62
312.557	206.62
312.787	187.62
313.017	183.62
313.246	187.62
313.476	190.62
313.706	184.62
313.935	185.62
314.165	210.62
314.394	201.62
314.624	209.62
314.853	188.62
315.083	206.62
315.312	191.62
315.542	183.62
315.771	187.62
316.001	193.62
316.23	190.62
316.46	192.62
316.689	208.62
316.919	207.62
317.148	206.62
317.377	204.62
317.607	219.62
317.836	194.62
318.065	197.62
318.295	197.62
318.524	200.62
318.753	192.62
318.983	188.62
319.212	197.62
319.441	193.62
319.67	205.62
319.9	199.62
320.129	207.62
320.358	209.62
320.587	203.62
320.816	194.62
321.046	186.62
321.275	198.62
321.504	192.62
321.733	205.62
321.962	190.62
322.191	205.62
322.42	211.62
322.649	197.62
322.878	199.62
323.108	210.62
323.337	213.62
323.566	216.62
323.795	220.62
324.024	214.62
324.253	221.62
324.482	204.62
324.71	208.62
324.939	199.62
325.168	223.62
325.397	207.62
325.626	211.62
325.855	214.62
326.084	226.62
326.313	216.62
326.542	210.62
326.77	210.62
326.999	219.62
327.228	213.62
327.457	227.62
327.686	224.62
327.914	261.62
328.143	263.62
328.372	270.62
328.6	241.62
328.829	225.62
329.058	236.62
329.287	221.62
329.515	222.62
329.744	271.62
329.972	291.62
330.201	341.62
330.43	370.62
330.658	278.62
330.887	247.62
331.115	240.62
331.344	233.62
331.572	253.62
331.801	241.62
332.03	226.62
332.258	244.62
332.486	253.62
332.715	254.62
332.943	259.62
333.172	279.62
333.4	285.62
333.629	285.62
333.857	301.62
334.085	348.62
334.314	411.62
334.542	477.62
334.771	429.62
334.999	310.62
335.227	308.62
335.455	266.62
335.684	259.62
335.912	251.62
336.14	247.62
336.369	231.62
336.597	245.62
336.825	255.62
337.053	240.62
337.281	265.62
337.51	251.62
337.738	233.62
337.966	222.62
338.194	234.62
338.422	234.62
338.65	234.62
338.878	238.62
339.106	252.62
339.334	238.62
339.562	226.62
339.79	228.62
340.018	221.62
340.246	206.62
340.474	208.62
340.702	225.62
340.93	226.62
341.158	224.62
341.386	210.62
341.614	217.62
341.842	209.62
342.07	205.62
342.298	207.62
342.526	206.62
342.754	226.62
342.981	216.62
343.209	227.62
343.437	240.62
343.665	251.62
343.893	256.62
344.12	251.62
344.348	222.62
344.576	237.62
344.804	236.62
345.031	235.62
345.259	211.62
345.487	209.62
345.714	218.62
345.942	205.62
346.17	224.62
346.397	216.62
346.625	206.62
346.853	211.62
347.08	216.62
347.308	209.62
347.535	222.62
347.763	226.62
347.99	205.62
348.218	208.62
348.445	201.62
348.673	217.62
348.9	212.62
349.128	213.62
349.355	208.62
349.583	193.62
349.81	214.62
350.037	223.62
350.265	204.62
350.492	194.62
350.72	222.62
350.947	211.62
351.174	204.62
351.402	205.62
351.629	209.62
351.856	216.62
352.083	194.62
352.311	209.62
352.538	197.62
352.765	205.62
352.992	218.62
353.22	205.62
353.447	210.62
353.674	220.62
353.901	203.62
354.128	203.62
354.355	204.62
354.583	215.62
354.81	201.62
355.037	218.62
355.264	240.62
355.491	218.62
355.718	197.62
355.945	213.62
356.172	198.62
356.399	206.62
356.626	197.62
356.853	204.62
357.08	213.62
357.307	210.62
357.534	218.62
357.761	211.62
357.988	229.62
358.215	236.62
358.441	207.62
358.668	216.62
358.895	210.62
359.122	211.62
359.349	203.62
359.576	206.62
359.802	184.62
360.029	190.62
360.256	206.62
360.483	203.62
360.709	224.62
360.936	223.62
361.163	214.62
361.39	207.62
361.616	220.62
361.843	210.62
362.07	221.62
362.296	214.62
362.523	198.62
362.749	205.62
362.976	187.62
363.203	218.62
363.429	203.62
363.656	221.62
363.882	205.62
364.109	226.62
364.335	220.62
364.562	200.62
364.788	218.62
365.015	222.62
365.241	218.62
365.468	216.62
365.694	216.62
365.92	217.62
366.147	214.62
366.373	204.62
366.599	210.62
366.826	203.62
367.052	217.62
367.278	201.62
367.505	211.62
367.731	219.62
367.957	211.62
368.184	205.62
368.41	235.62
368.636	227.62
368.862	232.62
369.089	223.62
369.315	210.62
369.541	218.62
369.767	232.62
369.993	210.62
370.219	215.62
370.445	199.62
370.672	223.62
370.898	203.62
371.124	222.62
371.35	213.62
371.576	213.62
371.802	216.62
372.028	224.62
372.254	237.62
372.48	237.62
372.706	222.62
372.932	250.62
373.158	245.62
373.384	249.62
373.61	241.62
373.835	245.62
374.061	238.62
374.287	247.62
374.513	237.62
374.739	229.62
374.965	259.62
375.191	261.62
375.416	253.62
375.642	219.62
375.868	250.62
376.094	245.62
376.319	238.62
376.545	233.62
376.771	242.62
376.997	237.62
377.222	216.62
377.448	227.62
377.674	226.62
377.899	222.62
378.125	232.62
378.35	225.62
378.576	219.62
378.802	221.62
379.027	223.62
379.253	232.62
379.478	228.62
379.704	218.62
379.929	237.62
380.155	217.62
380.38	222.62
380.606	214.62
380.831	224.62
381.057	234.62
381.282	216.62
381.507	222.62
381.733	241.62
381.958	241.62
382.184	241.62
382.409	254.62
382.634	248.62
382.86	257.62
383.085	236.62
383.31	237.62
383.535	255.62
383.761	247.62
383.986	229.62
384.211	272.62
384.436	271.62
384.662	268.62
384.887	255.62
385.112	254.62
385.337	259.62
385.562	279.62
385.787	273.62
386.013	272.62
386.238	277.62
386.463	270.62
386.688	295.62
386.913	276.62
387.138	257.62
387.363	267.62
387.588	273.62
387.813	282.62
388.038	264.62
388.263	286.62
388.488	273.62
388.713	270.62
388.938	265.62
389.163	277.62
389.387	265.62
389.612	240.62
389.837	257.62
390.062	251.62
390.287	275.62
390.512	279.62
390.736	276.62
390.961	289.62
391.186	282.62
391.411	274.62
391.636	302.62
391.86	279.62
392.085	298.62
392.31	289.62
392.534	290.62
392.759	306.62
392.984	309.62
393.208	353.62
393.433	380.62
393.658	363.62
393.882	287.62
394.107	276.62
394.331	316.62
394.556	306.62
394.78	312.62
395.005	292.62
395.229	280.62
395.454	310.62
395.678	310.62
395.903	307.62
396.127	332.62
396.352	313.62
396.576	307.62
396.801	333.62
397.025	354.62
397.249	328.62
397.474	316.62
397.698	312.62
397.922	301.62
398.147	298.62
398.371	316.62
398.595	338.62
398.82	338.62
399.044	359.62
399.268	407.62
399.492	437.62
399.717	474.62
399.941	444.62
400.165	397.62
400.389	375.62
400.613	328.62
400.837	333.62
401.062	315.62
401.286	332.62
401.51	341.62
401.734	341.62
401.958	340.62
402.182	335.62
402.406	338.62
402.63	335.62
402.854	338.62
403.078	340.62
403.302	369.62
403.526	381.62
403.75	373.62
403.974	394.62
404.198	361.62
404.422	360.62
404.645	381.62
404.869	378.62
405.093	385.62
405.317	388.62
405.541	382.62
405.765	355.62
405.988	339.62
406.212	364.62
406.436	377.62
406.66	361.62
406.883	366.62
407.107	381.62
407.331	402.62
407.555	407.62
407.778	395.62
408.002	402.62
408.226	385.62
408.449	368.62
408.673	343.62
408.896	389.62
409.12	359.62
409.344	374.62
409.567	351.62
409.791	370.62
410.014	376.62
410.238	383.62
410.461	351.62
410.685	343.62
410.908	358.62
411.132	354.62
411.355	356.62
411.578	373.62
411.802	340.62
412.025	329.62
412.249	345.62
412.472	354.62
412.695	358.62
412.919	341.62
413.142	334.62
413.365	344.62
413.589	332.62
413.812	342.62
414.035	341.62
414.258	364.62
414.482	333.62
414.705	352.62
414.928	329.62
415.151	319.62
415.374	326.62
415.597	354.62
415.821	332.62
416.044	322.62
416.267	336.62
416.49	334.62
416.713	331.62
416.936	362.62
417.159	344.62
417.382	332.62
417.605	342.62
417.828	341.62
418.051	342.62
418.274	350.62
418.497	351.62
418.72	334.62
418.943	352.62
419.166	368.62
419.389	382.62
419.611	373.62
419.834	358.62
420.057	352.62
420.28	362.62
420.503	338.62
420.726	359.62
420.948	338.62
421.171	346.62
421.394	342.62
421.617	361.62
421.839	342.62
422.062	350.62
422.285	341.62
422.507	371.62
422.73	368.62
422.953	367.62
423.175	350.62
423.398	379.62
423.621	361.62
423.843	355.62
424.066	356.62
424.288	340.62
424.511	355.62
424.733	368.62
424.956	355.62
425.178	346.62
425.401	357.62
425.623	341.62
425.846	334.62
426.068	333.62
426.291	337.62
426.513	312.62
426.735	338.62
426.958	317.62
427.18	343.62
427.402	334.62
427.625	315.62
427.847	318.62
428.069	312.62
428.292	319.62
428.514	304.62
428.736	322.62
428.958	333.62
429.181	323.62
429.403	305.62
429.625	317.62
429.847	307.62
430.069	308.62
430.292	331.62
430.514	299.62
430.736	313.62
430.958	315.62
431.18	307.62
431.402	303.62
431.624	314.62
431.846	302.62
432.068	278.62
432.29	288.62
432.512	312.62
432.734	312.62
432.956	304.62
433.178	330.62
433.4	299.62
433.622	333.62
433.844	321.62
434.066	315.62
434.287	301.62
434.509	304.62
434.731	302.62
434.953	336.62
435.175	332.62
435.397	317.62
435.618	303.62
435.84	296.62
436.062	301.62
436.284	318.62
436.505	310.62
436.727	291.62
436.949	311.62
437.17	322.62
437.392	298.62
437.614	290.62
437.835	284.62
438.057	303.62
438.278	284.62
438.5	298.62
438.721	296.62
438.943	318.62
439.165	311.62
439.386	278.62
439.608	296.62
439.829	320.62
440.05	298.62
440.272	335.62
440.493	322.62
440.715	319.62
440.936	312.62
441.158	350.62
441.379	342.62
441.6	343.62
441.822	344.62
442.043	333.62
442.264	346.62
442.486	350.62
442.707	353.62
442.928	342.62
443.149	339.62
443.371	358.62
443.592	336.62
443.813	350.62
444.034	338.62
444.255	356.62
444.476	376.62
444.698	391.62
444.919	389.62
445.14	579.62
445.361	453.62
445.582	338.62
445.803	334.62
446.024	310.62
446.245	354.62
446.466	340.62
446.687	316.62
446.908	334.62
447.129	317.62
447.35	306.62
447.571	318.62
447.792	293.62
448.013	286.62
448.234	313.62
448.455	291.62
448.675	282.62
448.896	281.62
449.117	279.62
449.338	286.62
449.559	279.62
449.779	296.62
450	305.62
450.221	284.62
450.442	299.62
450.662	297.62
450.883	307.62
451.104	310.62
451.324	297.62
451.545	287.62
451.766	302.62
451.986	286.62
452.207	298.62
452.428	294.62
452.648	295.62
452.869	278.62
453.089	283.62
453.31	278.62
453.53	289.62
453.751	276.62
453.971	275.62
454.192	265.62
454.412	264.62
454.633	282.62
454.853	286.62
455.073	265.62
455.294	265.62
455.514	297.62
455.734	292.62
455.955	259.62
456.175	279.62
456.395	267.62
456.616	250.62
456.836	249.62
457.056	259.62
457.276	254.62
457.497	272.62
457.717	247.62
457.937	263.62
458.157	274.62
458.377	280.62
458.598	256.62
458.818	272.62
459.038	275.62
459.258	291.62
459.478	277.62
459.698	313.62
459.918	306.62
460.138	325.62
460.358	343.62
460.578	337.62
460.798	328.62
461.018	350.62
461.238	334.62
461.458	342.62
461.678	325.62
461.898	322.62
462.118	346.62
462.338	379.62
462.558	378.62
462.777	393.62
462.997	407.62
463.217	431.62
463.437	417.62
463.657	395.62
463.876	369.62
464.096	386.62
464.316	372.62
464.536	395.62
464.755	377.62
464.975	351.62
465.195	336.62
465.414	334.62
465.634	304.62
465.854	331.62
466.073	315.62
466.293	320.62
466.512	298.62
466.732	313.62
466.951	297.62
467.171	294.62
467.391	300.62
467.61	314.62
467.829	311.62
468.049	345.62
468.268	374.62
468.488	311.62
468.707	301.62
468.927	295.62
469.146	299.62
469.365	299.62
469.585	318.62
469.804	299.62
470.023	312.62
470.243	325.62
470.462	309.62
470.681	329.62
470.901	312.62
471.12	309.62
471.339	308.62
471.558	289.62
471.777	316.62
471.997	339.62
472.216	427.62
472.435	529.62
472.654	373.62
472.873	334.62
473.092	304.62
473.311	293.62
473.53	311.62
473.749	315.62
473.968	280.62
474.187	289.62
474.406	294.62
474.625	275.62
474.844	305.62
475.063	291.62
475.282	299.62
475.501	295.62
475.72	308.62
475.939	298.62
476.158	296.62
476.377	307.62
476.596	298.62
476.814	313.62
477.033	299.62
477.252	310.62
477.471	295.62
477.69	305.62
477.908	335.62
478.127	350.62
478.346	322.62
478.564	350.62
478.783	361.62
479.002	355.62
479.22	358.62
479.439	341.62
479.658	343.62
479.876	337.62
480.095	352.62
480.313	374.62
480.532	392.62
480.751	409.62
480.969	445.62
481.188	685.62
481.406	609.62
481.624	419.62
481.843	364.62
482.061	349.62
482.28	346.62
482.498	330.62
482.717	322.62
482.935	324.62
483.153	333.62
483.372	342.62
483.59	336.62
483.808	329.62
484.027	318.62
484.245	326.62
484.463	306.62
484.681	353.62
484.9	342.62
485.118	343.62
485.336	355.62
485.554	316.62
485.772	335.62
485.99	319.62
486.209	320.62
486.427	327.62
486.645	322.62
486.863	337.62
487.081	336.62
487.299	340.62
487.517	346.62
487.735	348.62
487.953	361.62
488.171	353.62
488.389	351.62
488.607	349.62
488.825	349.62
489.043	325.62
489.261	320.62
489.479	353.62
489.696	325.62
489.914	336.62
490.132	355.62
490.35	336.62
490.568	357.62
490.786	350.62
491.003	339.62
491.221	361.62
491.439	379.62
491.657	388.62
491.874	397.62
492.092	405.62
492.31	394.62
492.527	405.62
492.745	394.62
492.963	402.62
493.18	400.62
493.398	387.62
493.615	400.62
493.833	380.62
494.05	379.62
494.268	377.62
494.485	375.62
494.703	378.62
494.92	368.62
495.138	377.62
495.355	376.62
495.573	374.62
495.79	370.62
496.008	392.62
496.225	378.62
496.442	368.62
496.66	402.62
496.877	383.62
497.094	411.62
497.312	400.62
497.529	403.62
497.746	395.62
497.963	416.62
498.181	403.62
498.398	469.62
498.615	459.62
498.832	474.62
499.049	507.62
499.267	537.62
499.484	575.62
499.701	646.62
499.918	702.62
500.135	825.62
500.352	870.62
500.569	881.62
500.786	858.62
501.003	799.62
501.22	723.62
501.437	639.62
501.654	586.62
501.871	538.62
502.088	486.62
502.305	470.62
502.522	464.62
502.739	448.62
502.956	433.62
503.172	412.62
503.389	379.62
503.606	385.62
