Data from SampB_HRD10591_00005.txt Node
Date: Mon Jan 19 11:33:30 EST 2026
User: Yrep
Spectrometer: HR+D1059
Trigger mode: 0
Integration Time (sec): 3.443000E-1
Scans to average: 1
Electric dark correction enabled: true
Nonlinearity correction enabled: false
Boxcar width: 0
XAxis mode: Wavelengths
Number of Pixels in Spectrum: 2048
>>>>>Begin Spectral Data<<<<<
223.165	-25.31
223.4	-25.31
223.635	-25.31
223.869	-16.31
224.104	-22.31
224.338	-5.31
224.573	4.69
224.808	-9.31
225.042	-13.31
225.277	-0.31
225.511	0.69
225.746	2.69
225.98	0.69
226.215	6.69
226.449	-3.31
226.683	26.69
226.918	31.69
227.152	21.69
227.387	40.69
227.621	45.69
227.856	55.69
228.09	56.69
228.324	61.69
228.559	64.69
228.793	60.69
229.027	67.69
229.262	74.69
229.496	71.69
229.73	68.69
229.964	89.69
230.199	81.69
230.433	78.69
230.667	83.69
230.901	83.69
231.136	72.69
231.37	87.69
231.604	87.69
231.838	103.69
232.072	96.69
232.306	99.69
232.541	95.69
232.775	83.69
233.009	102.69
233.243	105.69
233.477	82.69
233.711	87.69
233.945	93.69
234.179	89.69
234.413	101.69
234.647	99.69
234.881	97.69
235.115	89.69
235.349	95.69
235.583	91.69
235.817	75.69
236.051	79.69
236.285	82.69
236.519	82.69
236.753	100.69
236.987	79.69
237.221	91.69
237.455	90.69
237.689	93.69
237.922	103.69
238.156	83.69
238.39	89.69
238.624	89.69
238.858	88.69
239.091	102.69
239.325	90.69
239.559	95.69
239.793	105.69
240.027	101.69
240.26	87.69
240.494	79.69
240.728	89.69
240.961	92.69
241.195	101.69
241.429	95.69
241.662	98.69
241.896	91.69
242.13	93.69
242.363	104.69
242.597	85.69
242.83	97.69
243.064	94.69
243.298	87.69
243.531	87.69
243.765	97.69
243.998	111.69
244.232	100.69
244.465	100.69
244.699	81.69
244.932	92.69
245.166	87.69
245.399	106.69
245.633	110.69
245.866	85.69
246.099	90.69
246.333	100.69
246.566	92.69
246.8	91.69
247.033	100.69
247.266	100.69
247.5	101.69
247.733	92.69
247.966	102.69
248.2	107.69
248.433	99.69
248.666	94.69
248.899	106.69
249.133	107.69
249.366	96.69
249.599	99.69
249.832	123.69
250.066	112.69
250.299	115.69
250.532	112.69
250.765	99.69
250.998	110.69
251.231	101.69
251.465	115.69
251.698	109.69
251.931	96.69
252.164	100.69
252.397	108.69
252.63	107.69
252.863	100.69
253.096	98.69
253.329	119.69
253.562	111.69
253.795	93.69
254.028	116.69
254.261	104.69
254.494	117.69
254.727	125.69
254.96	111.69
255.193	109.69
255.426	101.69
255.659	105.69
255.892	117.69
256.124	105.69
256.357	111.69
256.59	126.69
256.823	122.69
257.056	111.69
257.289	114.69
257.521	119.69
257.754	130.69
257.987	116.69
258.22	110.69
258.452	105.69
258.685	111.69
258.918	123.69
259.151	114.69
259.383	114.69
259.616	117.69
259.849	118.69
260.081	120.69
260.314	119.69
260.547	128.69
260.779	131.69
261.012	111.69
261.244	104.69
261.477	121.69
261.71	107.69
261.942	106.69
262.175	132.69
262.407	127.69
262.64	113.69
262.872	121.69
263.105	111.69
263.337	112.69
263.57	127.69
263.802	136.69
264.035	119.69
264.267	130.69
264.499	127.69
264.732	125.69
264.964	112.69
265.197	119.69
265.429	135.69
265.661	129.69
265.894	130.69
266.126	124.69
266.358	131.69
266.591	114.69
266.823	130.69
267.055	132.69
267.287	127.69
267.52	113.69
267.752	120.69
267.984	120.69
268.216	122.69
268.448	134.69
268.681	126.69
268.913	121.69
269.145	103.69
269.377	141.69
269.609	123.69
269.841	128.69
270.073	130.69
270.306	131.69
270.538	128.69
270.77	136.69
271.002	121.69
271.234	118.69
271.466	135.69
271.698	124.69
271.93	139.69
272.162	120.69
272.394	132.69
272.626	143.69
272.858	137.69
273.09	148.69
273.322	141.69
273.553	131.69
273.785	144.69
274.017	128.69
274.249	137.69
274.481	141.69
274.713	158.69
274.945	146.69
275.176	140.69
275.408	141.69
275.64	147.69
275.872	146.69
276.104	150.69
276.335	130.69
276.567	130.69
276.799	139.69
277.031	140.69
277.262	139.69
277.494	155.69
277.726	138.69
277.957	153.69
278.189	133.69
278.421	140.69
278.652	138.69
278.884	130.69
279.115	127.69
279.347	151.69
279.579	137.69
279.81	156.69
280.042	155.69
280.273	156.69
280.505	160.69
280.736	171.69
280.968	131.69
281.199	151.69
281.431	142.69
281.662	159.69
281.894	141.69
282.125	127.69
282.356	158.69
282.588	148.69
282.819	159.69
283.051	149.69
283.282	158.69
283.513	162.69
283.745	155.69
283.976	140.69
284.207	138.69
284.439	163.69
284.67	167.69
284.901	176.69
285.132	156.69
285.364	145.69
285.595	165.69
285.826	141.69
286.057	152.69
286.288	145.69
286.52	151.69
286.751	163.69
286.982	175.69
287.213	151.69
287.444	165.69
287.675	156.69
287.906	172.69
288.138	153.69
288.369	146.69
288.6	168.69
288.831	183.69
289.062	155.69
289.293	163.69
289.524	149.69
289.755	164.69
289.986	152.69
290.217	149.69
290.448	163.69
290.679	155.69
290.91	157.69
291.141	171.69
291.371	163.69
291.602	161.69
291.833	143.69
292.064	164.69
292.295	152.69
292.526	133.69
292.757	170.69
292.987	163.69
293.218	167.69
293.449	169.69
293.68	161.69
293.91	153.69
294.141	153.69
294.372	153.69
294.603	170.69
294.833	166.69
295.064	174.69
295.295	180.69
295.525	160.69
295.756	150.69
295.987	171.69
296.217	160.69
296.448	181.69
296.679	154.69
296.909	171.69
297.14	169.69
297.37	160.69
297.601	180.69
297.831	181.69
298.062	167.69
298.292	161.69
298.523	184.69
298.753	180.69
298.984	189.69
299.214	166.69
299.445	169.69
299.675	162.69
299.905	157.69
300.136	179.69
300.366	171.69
300.597	157.69
300.827	181.69
301.057	182.69
301.288	166.69
301.518	161.69
301.748	171.69
301.979	220.69
302.209	173.69
302.439	182.69
302.669	169.69
302.9	176.69
303.13	180.69
303.36	167.69
303.59	178.69
303.82	181.69
304.051	176.69
304.281	168.69
304.511	183.69
304.741	173.69
304.971	167.69
305.201	180.69
305.431	166.69
305.661	191.69
305.891	168.69
306.121	179.69
306.352	180.69
306.582	172.69
306.812	175.69
307.042	165.69
307.272	185.69
307.502	186.69
307.731	176.69
307.961	183.69
308.191	156.69
308.421	178.69
308.651	183.69
308.881	165.69
309.111	174.69
309.341	187.69
309.571	181.69
309.8	176.69
310.03	176.69
310.26	170.69
310.49	179.69
310.72	173.69
310.949	172.69
311.179	170.69
311.409	188.69
311.639	179.69
311.868	189.69
312.098	182.69
312.328	189.69
312.557	184.69
312.787	193.69
313.017	199.69
313.246	201.69
313.476	191.69
313.706	171.69
313.935	176.69
314.165	185.69
314.394	185.69
314.624	190.69
314.853	195.69
315.083	182.69
315.312	197.69
315.542	203.69
315.771	201.69
316.001	179.69
316.23	188.69
316.46	171.69
316.689	163.69
316.919	186.69
317.148	201.69
317.377	188.69
317.607	205.69
317.836	184.69
318.065	178.69
318.295	176.69
318.524	183.69
318.753	193.69
318.983	196.69
319.212	192.69
319.441	187.69
319.67	188.69
319.9	182.69
320.129	180.69
320.358	177.69
320.587	183.69
320.816	179.69
321.046	181.69
321.275	200.69
321.504	186.69
321.733	171.69
321.962	205.69
322.191	179.69
322.42	196.69
322.649	184.69
322.878	199.69
323.108	190.69
323.337	199.69
323.566	193.69
323.795	211.69
324.024	190.69
324.253	196.69
324.482	208.69
324.71	203.69
324.939	217.69
325.168	190.69
325.397	199.69
325.626	210.69
325.855	195.69
326.084	186.69
326.313	207.69
326.542	184.69
326.77	207.69
326.999	204.69
327.228	193.69
327.457	201.69
327.686	205.69
327.914	200.69
328.143	226.69
328.372	207.69
328.6	214.69
328.829	195.69
329.058	215.69
329.287	193.69
329.515	212.69
329.744	242.69
329.972	224.69
330.201	228.69
330.43	239.69
330.658	222.69
330.887	210.69
331.115	207.69
331.344	208.69
331.572	227.69
331.801	219.69
332.03	217.69
332.258	210.69
332.486	225.69
332.715	228.69
332.943	248.69
333.172	243.69
333.4	242.69
333.629	249.69
333.857	267.69
334.085	268.69
334.314	289.69
334.542	273.69
334.771	283.69
334.999	268.69
335.227	233.69
335.455	237.69
335.684	249.69
335.912	244.69
336.14	234.69
336.369	209.69
336.597	231.69
336.825	242.69
337.053	226.69
337.281	203.69
337.51	217.69
337.738	226.69
337.966	216.69
338.194	221.69
338.422	213.69
338.65	219.69
338.878	227.69
339.106	211.69
339.334	228.69
339.562	203.69
339.79	205.69
340.018	206.69
340.246	208.69
340.474	184.69
340.702	212.69
340.93	206.69
341.158	188.69
341.386	201.69
341.614	210.69
341.842	196.69
342.07	220.69
342.298	211.69
342.526	209.69
342.754	204.69
342.981	199.69
343.209	218.69
343.437	242.69
343.665	251.69
343.893	250.69
344.12	250.69
344.348	235.69
344.576	231.69
344.804	213.69
345.031	223.69
345.259	220.69
345.487	221.69
345.714	207.69
345.942	211.69
346.17	210.69
346.397	199.69
346.625	204.69
346.853	180.69
347.08	201.69
347.308	195.69
347.535	212.69
347.763	205.69
347.99	212.69
348.218	221.69
348.445	193.69
348.673	195.69
348.9	209.69
349.128	215.69
349.355	207.69
349.583	210.69
349.81	204.69
350.037	190.69
350.265	212.69
350.492	191.69
350.72	207.69
350.947	199.69
351.174	213.69
351.402	184.69
351.629	189.69
351.856	187.69
352.083	192.69
352.311	221.69
352.538	183.69
352.765	183.69
352.992	225.69
353.22	199.69
353.447	207.69
353.674	218.69
353.901	219.69
354.128	190.69
354.355	197.69
354.583	185.69
354.81	209.69
355.037	223.69
355.264	205.69
355.491	208.69
355.718	194.69
355.945	201.69
356.172	211.69
356.399	220.69
356.626	191.69
356.853	184.69
357.08	203.69
357.307	210.69
357.534	192.69
357.761	212.69
357.988	216.69
358.215	201.69
358.441	209.69
358.668	205.69
358.895	206.69
359.122	214.69
359.349	218.69
359.576	209.69
359.802	215.69
360.029	209.69
360.256	206.69
360.483	187.69
360.709	204.69
360.936	213.69
361.163	191.69
361.39	199.69
361.616	210.69
361.843	196.69
362.07	184.69
362.296	187.69
362.523	176.69
362.749	200.69
362.976	186.69
363.203	226.69
363.429	204.69
363.656	218.69
363.882	188.69
364.109	193.69
364.335	207.69
364.562	201.69
364.788	207.69
365.015	213.69
365.241	206.69
365.468	206.69
365.694	227.69
365.92	206.69
366.147	213.69
366.373	209.69
366.599	188.69
366.826	220.69
367.052	196.69
367.278	211.69
367.505	202.69
367.731	216.69
367.957	195.69
368.184	215.69
368.41	207.69
368.636	215.69
368.862	218.69
369.089	210.69
369.315	207.69
369.541	207.69
369.767	200.69
369.993	203.69
370.219	203.69
370.445	213.69
370.672	217.69
370.898	197.69
371.124	209.69
371.35	217.69
371.576	228.69
371.802	216.69
372.028	205.69
372.254	215.69
372.48	216.69
372.706	226.69
372.932	237.69
373.158	225.69
373.384	242.69
373.61	218.69
373.835	229.69
374.061	218.69
374.287	216.69
374.513	204.69
374.739	216.69
374.965	232.69
375.191	214.69
375.416	230.69
375.642	233.69
375.868	235.69
376.094	203.69
376.319	218.69
376.545	236.69
376.771	229.69
376.997	223.69
377.222	223.69
377.448	221.69
377.674	223.69
377.899	222.69
378.125	217.69
378.35	216.69
378.576	216.69
378.802	207.69
379.027	218.69
379.253	220.69
379.478	217.69
379.704	210.69
379.929	228.69
380.155	219.69
380.38	216.69
380.606	215.69
380.831	217.69
381.057	227.69
381.282	211.69
381.507	222.69
381.733	230.69
381.958	238.69
382.184	223.69
382.409	238.69
382.634	247.69
382.86	238.69
383.085	257.69
383.31	242.69
383.535	241.69
383.761	228.69
383.986	236.69
384.211	259.69
384.436	236.69
384.662	238.69
384.887	248.69
385.112	264.69
385.337	256.69
385.562	265.69
385.787	263.69
386.013	264.69
386.238	270.69
386.463	253.69
386.688	275.69
386.913	265.69
387.138	254.69
387.363	260.69
387.588	263.69
387.813	247.69
388.038	264.69
388.263	259.69
388.488	258.69
388.713	260.69
388.938	247.69
389.163	254.69
389.387	258.69
389.612	265.69
389.837	258.69
390.062	247.69
390.287	254.69
390.512	268.69
390.736	251.69
390.961	269.69
391.186	262.69
391.411	278.69
391.636	292.69
391.86	285.69
392.085	278.69
392.31	279.69
392.534	259.69
392.759	289.69
392.984	272.69
393.208	267.69
393.433	272.69
393.658	287.69
393.882	269.69
394.107	269.69
394.331	284.69
394.556	270.69
394.78	279.69
395.005	269.69
395.229	291.69
395.454	302.69
395.678	284.69
395.903	297.69
396.127	291.69
396.352	263.69
396.576	280.69
396.801	271.69
397.025	281.69
397.249	305.69
397.474	292.69
397.698	299.69
397.922	282.69
398.147	293.69
398.371	300.69
398.595	312.69
398.82	329.69
399.044	332.69
399.268	372.69
399.492	414.69
399.717	448.69
399.941	408.69
400.165	388.69
400.389	347.69
400.613	352.69
400.837	317.69
401.062	318.69
401.286	334.69
401.51	314.69
401.734	318.69
401.958	322.69
402.182	321.69
402.406	340.69
402.63	320.69
402.854	335.69
403.078	351.69
403.302	346.69
403.526	355.69
403.75	361.69
403.974	351.69
404.198	355.69
404.422	352.69
404.645	354.69
404.869	331.69
405.093	350.69
405.317	343.69
405.541	341.69
405.765	345.69
405.988	341.69
406.212	353.69
406.436	353.69
406.66	359.69
406.883	361.69
407.107	372.69
407.331	394.69
407.555	405.69
407.778	381.69
408.002	377.69
408.226	361.69
408.449	337.69
408.673	356.69
408.896	343.69
409.12	354.69
409.344	349.69
409.567	344.69
409.791	332.69
410.014	367.69
410.238	347.69
410.461	364.69
410.685	339.69
410.908	349.69
411.132	354.69
411.355	315.69
411.578	336.69
411.802	322.69
412.025	339.69
412.249	345.69
412.472	336.69
412.695	346.69
412.919	330.69
413.142	340.69
413.365	351.69
413.589	334.69
413.812	321.69
414.035	318.69
414.258	333.69
414.482	327.69
414.705	332.69
414.928	318.69
415.151	328.69
415.374	335.69
415.597	297.69
415.821	321.69
416.044	317.69
416.267	316.69
416.49	332.69
416.713	315.69
416.936	346.69
417.159	325.69
417.382	324.69
417.605	304.69
417.828	337.69
418.051	338.69
418.274	340.69
418.497	340.69
418.72	340.69
418.943	340.69
419.166	339.69
419.389	376.69
419.611	353.69
419.834	337.69
420.057	348.69
420.28	336.69
420.503	331.69
420.726	311.69
420.948	319.69
421.171	333.69
421.394	324.69
421.617	311.69
421.839	340.69
422.062	305.69
422.285	317.69
422.507	331.69
422.73	324.69
422.953	332.69
423.175	347.69
423.398	351.69
423.621	341.69
423.843	336.69
424.066	352.69
424.288	328.69
424.511	339.69
424.733	333.69
424.956	323.69
425.178	321.69
425.401	332.69
425.623	329.69
425.846	309.69
426.068	304.69
426.291	305.69
426.513	312.69
426.735	310.69
426.958	316.69
427.18	296.69
427.402	324.69
427.625	323.69
427.847	303.69
428.069	292.69
428.292	308.69
428.514	325.69
428.736	297.69
428.958	307.69
429.181	294.69
429.403	301.69
429.625	303.69
429.847	277.69
430.069	300.69
430.292	285.69
430.514	289.69
430.736	307.69
430.958	295.69
431.18	285.69
431.402	288.69
431.624	282.69
431.846	289.69
432.068	295.69
432.29	310.69
432.512	324.69
432.734	298.69
432.956	295.69
433.178	293.69
433.4	304.69
433.622	311.69
433.844	315.69
434.066	292.69
434.287	292.69
434.509	288.69
434.731	312.69
434.953	328.69
435.175	338.69
435.397	313.69
435.618	311.69
435.84	301.69
436.062	290.69
436.284	310.69
436.505	301.69
436.727	297.69
436.949	320.69
437.17	292.69
437.392	285.69
437.614	292.69
437.835	277.69
438.057	271.69
438.278	282.69
438.5	284.69
438.721	299.69
438.943	299.69
439.165	312.69
439.386	300.69
439.608	310.69
439.829	307.69
440.05	317.69
440.272	305.69
440.493	312.69
440.715	301.69
440.936	317.69
441.158	324.69
441.379	323.69
441.6	361.69
441.822	331.69
442.043	315.69
442.264	316.69
442.486	317.69
442.707	330.69
442.928	310.69
443.149	327.69
443.371	329.69
443.592	356.69
443.813	318.69
444.034	333.69
444.255	341.69
444.476	347.69
444.698	365.69
444.919	376.69
445.14	548.69
445.361	434.69
445.582	329.69
445.803	319.69
446.024	330.69
446.245	313.69
446.466	306.69
446.687	303.69
446.908	289.69
447.129	313.69
447.35	300.69
447.571	301.69
447.792	298.69
448.013	285.69
448.234	310.69
448.455	282.69
448.675	290.69
448.896	290.69
449.117	283.69
449.338	296.69
449.559	289.69
449.779	290.69
450	275.69
450.221	285.69
450.442	273.69
450.662	276.69
450.883	275.69
451.104	293.69
451.324	287.69
451.545	282.69
451.766	287.69
451.986	267.69
452.207	290.69
452.428	287.69
452.648	264.69
452.869	279.69
453.089	275.69
453.31	269.69
453.53	268.69
453.751	259.69
453.971	249.69
454.192	275.69
454.412	252.69
454.633	273.69
454.853	272.69
455.073	263.69
455.294	266.69
455.514	253.69
455.734	283.69
455.955	245.69
456.175	265.69
456.395	243.69
456.616	244.69
456.836	245.69
457.056	244.69
457.276	250.69
457.497	233.69
457.717	240.69
457.937	261.69
458.157	257.69
458.377	248.69
458.598	255.69
458.818	269.69
459.038	269.69
459.258	277.69
459.478	291.69
459.698	272.69
459.918	302.69
460.138	299.69
460.358	323.69
460.578	335.69
460.798	331.69
461.018	331.69
461.238	331.69
461.458	350.69
461.678	329.69
461.898	339.69
462.118	335.69
462.338	345.69
462.558	351.69
462.777	349.69
462.997	392.69
463.217	419.69
463.437	384.69
463.657	374.69
463.876	362.69
464.096	354.69
464.316	355.69
464.536	360.69
464.755	369.69
464.975	339.69
465.195	345.69
465.414	314.69
465.634	320.69
465.854	302.69
466.073	294.69
466.293	291.69
466.512	297.69
466.732	294.69
466.951	294.69
467.171	292.69
467.391	281.69
467.61	301.69
467.829	291.69
468.049	311.69
468.268	301.69
468.488	286.69
468.707	297.69
468.927	287.69
469.146	292.69
469.365	297.69
469.585	292.69
469.804	297.69
470.023	316.69
470.243	307.69
470.462	309.69
470.681	309.69
470.901	315.69
471.12	289.69
471.339	278.69
471.558	275.69
471.777	295.69
471.997	281.69
472.216	297.69
472.435	319.69
472.654	292.69
472.873	287.69
473.092	299.69
473.311	269.69
473.53	277.69
473.749	268.69
473.968	273.69
474.187	276.69
474.406	263.69
474.625	287.69
474.844	276.69
475.063	274.69
475.282	283.69
475.501	281.69
475.72	286.69
475.939	282.69
476.158	284.69
476.377	288.69
476.596	270.69
476.814	283.69
477.033	277.69
477.252	292.69
477.471	281.69
477.69	302.69
477.908	325.69
478.127	327.69
478.346	341.69
478.564	309.69
478.783	315.69
479.002	329.69
479.22	333.69
479.439	329.69
479.658	313.69
479.876	321.69
480.095	322.69
480.313	345.69
480.532	350.69
480.751	330.69
480.969	328.69
481.188	393.69
481.406	354.69
481.624	327.69
481.843	307.69
482.061	309.69
482.28	300.69
482.498	293.69
482.717	304.69
482.935	307.69
483.153	313.69
483.372	317.69
483.59	310.69
483.808	298.69
484.027	292.69
484.245	317.69
484.463	308.69
484.681	326.69
484.9	337.69
485.118	323.69
485.336	303.69
485.554	312.69
485.772	299.69
485.99	306.69
486.209	309.69
486.427	301.69
486.645	303.69
486.863	321.69
487.081	308.69
487.299	323.69
487.517	337.69
487.735	329.69
487.953	339.69
488.171	353.69
488.389	343.69
488.607	317.69
488.825	316.69
489.043	299.69
489.261	323.69
489.479	326.69
489.696	310.69
489.914	316.69
490.132	338.69
490.35	327.69
490.568	331.69
490.786	336.69
491.003	338.69
491.221	346.69
491.439	351.69
491.657	349.69
491.874	360.69
492.092	365.69
492.31	379.69
492.527	368.69
492.745	367.69
492.963	351.69
493.18	361.69
493.398	355.69
493.615	348.69
493.833	361.69
494.05	350.69
494.268	365.69
494.485	365.69
494.703	346.69
494.92	333.69
495.138	344.69
495.355	356.69
495.573	360.69
495.79	349.69
496.008	346.69
496.225	360.69
496.442	342.69
496.66	380.69
496.877	375.69
497.094	378.69
497.312	362.69
497.529	356.69
497.746	389.69
497.963	378.69
498.181	384.69
498.398	400.69
498.615	413.69
498.832	453.69
499.049	468.69
499.267	511.69
499.484	539.69
499.701	591.69
499.918	654.69
500.135	729.69
500.352	773.69
500.569	771.69
500.786	785.69
501.003	721.69
501.22	654.69
501.437	608.69
501.654	549.69
501.871	503.69
502.088	465.69
502.305	458.69
502.522	426.69
502.739	423.69
502.956	398.69
503.172	380.69
503.389	356.69
503.606	364.69
503.823	376.69
