Data from SampB_HRD10591_00090.txt Node
Date: Mon Jan 19 11:33:59 EST 2026
User: Yrep
Spectrometer: HR+D1059
Trigger mode: 0
Integration Time (sec): 3.443000E-1
Scans to average: 1
Electric dark correction enabled: true
Nonlinearity correction enabled: false
Boxcar width: 0
XAxis mode: Wavelengths
Number of Pixels in Spectrum: 2048
>>>>>Begin Spectral Data<<<<<
223.165	-23.12
223.4	-23.12
223.635	-23.12
223.869	-25.12
224.104	-22.12
224.338	-5.12
224.573	-14.12
224.808	-22.12
225.042	5.88
225.277	-9.12
225.511	-8.12
225.746	6.88
225.98	-0.12
226.215	11.88
226.449	18.88
226.683	17.88
226.918	26.88
227.152	40.88
227.387	41.88
227.621	37.88
227.856	65.88
228.09	45.88
228.324	40.88
228.559	73.88
228.793	48.88
229.027	59.88
229.262	71.88
229.496	68.88
229.73	60.88
229.964	70.88
230.199	71.88
230.433	73.88
230.667	77.88
230.901	86.88
231.136	72.88
231.37	80.88
231.604	84.88
231.838	80.88
232.072	84.88
232.306	74.88
232.541	69.88
232.775	77.88
233.009	79.88
233.243	65.88
233.477	82.88
233.711	79.88
233.945	86.88
234.179	99.88
234.413	76.88
234.647	82.88
234.881	74.88
235.115	70.88
235.349	90.88
235.583	71.88
235.817	86.88
236.051	73.88
236.285	80.88
236.519	77.88
236.753	80.88
236.987	79.88
237.221	69.88
237.455	72.88
237.689	80.88
237.922	93.88
238.156	72.88
238.39	81.88
238.624	71.88
238.858	78.88
239.091	69.88
239.325	56.88
239.559	80.88
239.793	73.88
240.027	86.88
240.26	80.88
240.494	87.88
240.728	75.88
240.961	74.88
241.195	70.88
241.429	74.88
241.662	65.88
241.896	70.88
242.13	77.88
242.363	77.88
242.597	75.88
242.83	73.88
243.064	84.88
243.298	72.88
243.531	77.88
243.765	76.88
243.998	72.88
244.232	70.88
244.465	70.88
244.699	61.88
244.932	80.88
245.166	82.88
245.399	80.88
245.633	81.88
245.866	79.88
246.099	63.88
246.333	81.88
246.566	76.88
246.8	72.88
247.033	71.88
247.266	73.88
247.5	69.88
247.733	68.88
247.966	69.88
248.2	79.88
248.433	59.88
248.666	76.88
248.899	68.88
249.133	76.88
249.366	84.88
249.599	71.88
249.832	79.88
250.066	93.88
250.299	81.88
250.532	73.88
250.765	77.88
250.998	79.88
251.231	69.88
251.465	84.88
251.698	68.88
251.931	79.88
252.164	79.88
252.397	81.88
252.63	72.88
252.863	85.88
253.096	72.88
253.329	100.88
253.562	77.88
253.795	81.88
254.028	89.88
254.261	70.88
254.494	80.88
254.727	81.88
254.96	76.88
255.193	71.88
255.426	74.88
255.659	84.88
255.892	81.88
256.124	83.88
256.357	77.88
256.59	79.88
256.823	72.88
257.056	78.88
257.289	80.88
257.521	83.88
257.754	76.88
257.987	81.88
258.22	78.88
258.452	80.88
258.685	83.88
258.918	79.88
259.151	95.88
259.383	88.88
259.616	67.88
259.849	79.88
260.081	84.88
260.314	85.88
260.547	89.88
260.779	63.88
261.012	64.88
261.244	84.88
261.477	97.88
261.71	87.88
261.942	71.88
262.175	77.88
262.407	82.88
262.64	75.88
262.872	76.88
263.105	76.88
263.337	77.88
263.57	82.88
263.802	78.88
264.035	74.88
264.267	79.88
264.499	72.88
264.732	82.88
264.964	80.88
265.197	82.88
265.429	85.88
265.661	74.88
265.894	75.88
266.126	87.88
266.358	83.88
266.591	91.88
266.823	87.88
267.055	83.88
267.287	76.88
267.52	90.88
267.752	86.88
267.984	93.88
268.216	90.88
268.448	77.88
268.681	85.88
268.913	81.88
269.145	63.88
269.377	80.88
269.609	69.88
269.841	80.88
270.073	70.88
270.306	71.88
270.538	81.88
270.77	87.88
271.002	61.88
271.234	72.88
271.466	84.88
271.698	89.88
271.93	92.88
272.162	86.88
272.394	89.88
272.626	86.88
272.858	82.88
273.09	88.88
273.322	65.88
273.553	72.88
273.785	73.88
274.017	80.88
274.249	80.88
274.481	80.88
274.713	73.88
274.945	78.88
275.176	91.88
275.408	82.88
275.64	88.88
275.872	71.88
276.104	89.88
276.335	93.88
276.567	83.88
276.799	72.88
277.031	88.88
277.262	78.88
277.494	90.88
277.726	82.88
277.957	86.88
278.189	71.88
278.421	72.88
278.652	84.88
278.884	74.88
279.115	79.88
279.347	86.88
279.579	80.88
279.81	87.88
280.042	66.88
280.273	85.88
280.505	85.88
280.736	79.88
280.968	93.88
281.199	74.88
281.431	80.88
281.662	76.88
281.894	69.88
282.125	81.88
282.356	91.88
282.588	87.88
282.819	79.88
283.051	76.88
283.282	88.88
283.513	83.88
283.745	80.88
283.976	77.88
284.207	87.88
284.439	85.88
284.67	90.88
284.901	84.88
285.132	73.88
285.364	77.88
285.595	94.88
285.826	75.88
286.057	85.88
286.288	79.88
286.52	81.88
286.751	56.88
286.982	72.88
287.213	87.88
287.444	87.88
287.675	80.88
287.906	74.88
288.138	90.88
288.369	90.88
288.6	69.88
288.831	79.88
289.062	78.88
289.293	86.88
289.524	79.88
289.755	70.88
289.986	79.88
290.217	68.88
290.448	74.88
290.679	98.88
290.91	85.88
291.141	90.88
291.371	88.88
291.602	76.88
291.833	61.88
292.064	81.88
292.295	81.88
292.526	77.88
292.757	93.88
292.987	68.88
293.218	81.88
293.449	86.88
293.68	85.88
293.91	83.88
294.141	65.88
294.372	75.88
294.603	73.88
294.833	74.88
295.064	100.88
295.295	90.88
295.525	78.88
295.756	88.88
295.987	80.88
296.217	79.88
296.448	84.88
296.679	76.88
296.909	89.88
297.14	100.88
297.37	72.88
297.601	65.88
297.831	74.88
298.062	83.88
298.292	84.88
298.523	94.88
298.753	90.88
298.984	85.88
299.214	86.88
299.445	77.88
299.675	87.88
299.905	81.88
300.136	71.88
300.366	70.88
300.597	77.88
300.827	95.88
301.057	81.88
301.288	77.88
301.518	78.88
301.748	83.88
301.979	115.88
302.209	77.88
302.439	79.88
302.669	81.88
302.9	77.88
303.13	64.88
303.36	82.88
303.59	68.88
303.82	76.88
304.051	87.88
304.281	88.88
304.511	85.88
304.741	86.88
304.971	81.88
305.201	79.88
305.431	81.88
305.661	77.88
305.891	82.88
306.121	76.88
306.352	72.88
306.582	74.88
306.812	74.88
307.042	74.88
307.272	71.88
307.502	78.88
307.731	75.88
307.961	86.88
308.191	72.88
308.421	78.88
308.651	83.88
308.881	81.88
309.111	70.88
309.341	78.88
309.571	79.88
309.8	80.88
310.03	74.88
310.26	77.88
310.49	76.88
310.72	74.88
310.949	83.88
311.179	92.88
311.409	73.88
311.639	75.88
311.868	85.88
312.098	85.88
312.328	85.88
312.557	87.88
312.787	74.88
313.017	82.88
313.246	82.88
313.476	70.88
313.706	95.88
313.935	92.88
314.165	91.88
314.394	85.88
314.624	69.88
314.853	86.88
315.083	77.88
315.312	91.88
315.542	84.88
315.771	81.88
316.001	88.88
316.23	73.88
316.46	76.88
316.689	78.88
316.919	87.88
317.148	93.88
317.377	88.88
317.607	77.88
317.836	75.88
318.065	90.88
318.295	72.88
318.524	85.88
318.753	66.88
318.983	70.88
319.212	87.88
319.441	85.88
319.67	97.88
319.9	75.88
320.129	82.88
320.358	61.88
320.587	75.88
320.816	69.88
321.046	81.88
321.275	88.88
321.504	75.88
321.733	93.88
321.962	94.88
322.191	74.88
322.42	84.88
322.649	85.88
322.878	100.88
323.108	86.88
323.337	91.88
323.566	85.88
323.795	91.88
324.024	68.88
324.253	85.88
324.482	77.88
324.71	71.88
324.939	87.88
325.168	71.88
325.397	85.88
325.626	102.88
325.855	80.88
326.084	79.88
326.313	88.88
326.542	76.88
326.77	74.88
326.999	75.88
327.228	77.88
327.457	83.88
327.686	77.88
327.914	71.88
328.143	81.88
328.372	77.88
328.6	88.88
328.829	80.88
329.058	80.88
329.287	85.88
329.515	77.88
329.744	87.88
329.972	81.88
330.201	82.88
330.43	85.88
330.658	82.88
330.887	81.88
331.115	98.88
331.344	80.88
331.572	97.88
331.801	66.88
332.03	72.88
332.258	87.88
332.486	80.88
332.715	76.88
332.943	86.88
333.172	77.88
333.4	90.88
333.629	77.88
333.857	75.88
334.085	88.88
334.314	78.88
334.542	88.88
334.771	87.88
334.999	77.88
335.227	68.88
335.455	81.88
335.684	92.88
335.912	85.88
336.14	83.88
336.369	82.88
336.597	85.88
336.825	78.88
337.053	84.88
337.281	84.88
337.51	87.88
337.738	90.88
337.966	83.88
338.194	72.88
338.422	76.88
338.65	79.88
338.878	85.88
339.106	81.88
339.334	94.88
339.562	73.88
339.79	85.88
340.018	81.88
340.246	81.88
340.474	89.88
340.702	73.88
340.93	92.88
341.158	77.88
341.386	68.88
341.614	85.88
341.842	66.88
342.07	78.88
342.298	77.88
342.526	76.88
342.754	78.88
342.981	84.88
343.209	74.88
343.437	100.88
343.665	75.88
343.893	79.88
344.12	101.88
344.348	82.88
344.576	86.88
344.804	76.88
345.031	84.88
345.259	85.88
345.487	80.88
345.714	80.88
345.942	73.88
346.17	82.88
346.397	76.88
346.625	80.88
346.853	78.88
347.08	75.88
347.308	82.88
347.535	84.88
347.763	86.88
347.99	69.88
348.218	95.88
348.445	74.88
348.673	76.88
348.9	83.88
349.128	93.88
349.355	81.88
349.583	91.88
349.81	82.88
350.037	83.88
350.265	82.88
350.492	82.88
350.72	76.88
350.947	95.88
351.174	85.88
351.402	82.88
351.629	74.88
351.856	74.88
352.083	95.88
352.311	77.88
352.538	84.88
352.765	65.88
352.992	93.88
353.22	84.88
353.447	79.88
353.674	96.88
353.901	75.88
354.128	75.88
354.355	65.88
354.583	87.88
354.81	91.88
355.037	72.88
355.264	74.88
355.491	90.88
355.718	79.88
355.945	95.88
356.172	79.88
356.399	79.88
356.626	76.88
356.853	59.88
357.08	75.88
357.307	100.88
357.534	78.88
357.761	78.88
357.988	79.88
358.215	71.88
358.441	97.88
358.668	77.88
358.895	75.88
359.122	72.88
359.349	91.88
359.576	91.88
359.802	76.88
360.029	79.88
360.256	81.88
360.483	88.88
360.709	74.88
360.936	89.88
361.163	76.88
361.39	64.88
361.616	79.88
361.843	88.88
362.07	84.88
362.296	84.88
362.523	84.88
362.749	66.88
362.976	64.88
363.203	104.88
363.429	80.88
363.656	87.88
363.882	84.88
364.109	84.88
364.335	76.88
364.562	80.88
364.788	71.88
365.015	73.88
365.241	88.88
365.468	85.88
365.694	80.88
365.92	88.88
366.147	79.88
366.373	80.88
366.599	89.88
366.826	86.88
367.052	88.88
367.278	75.88
367.505	80.88
367.731	103.88
367.957	78.88
368.184	77.88
368.41	79.88
368.636	66.88
368.862	68.88
369.089	73.88
369.315	82.88
369.541	88.88
369.767	88.88
369.993	64.88
370.219	76.88
370.445	83.88
370.672	75.88
370.898	79.88
371.124	85.88
371.35	79.88
371.576	76.88
371.802	84.88
372.028	84.88
372.254	79.88
372.48	64.88
372.706	81.88
372.932	77.88
373.158	72.88
373.384	78.88
373.61	85.88
373.835	78.88
374.061	68.88
374.287	69.88
374.513	79.88
374.739	80.88
374.965	78.88
375.191	85.88
375.416	90.88
375.642	89.88
375.868	82.88
376.094	91.88
376.319	81.88
376.545	83.88
376.771	75.88
376.997	80.88
377.222	102.88
377.448	84.88
377.674	78.88
377.899	94.88
378.125	71.88
378.35	84.88
378.576	77.88
378.802	86.88
379.027	83.88
379.253	84.88
379.478	85.88
379.704	86.88
379.929	96.88
380.155	81.88
380.38	69.88
380.606	80.88
380.831	94.88
381.057	102.88
381.282	86.88
381.507	90.88
381.733	97.88
381.958	84.88
382.184	80.88
382.409	78.88
382.634	81.88
382.86	87.88
383.085	79.88
383.31	90.88
383.535	80.88
383.761	88.88
383.986	95.88
384.211	87.88
384.436	81.88
384.662	88.88
384.887	84.88
385.112	72.88
385.337	93.88
385.562	85.88
385.787	84.88
386.013	81.88
386.238	86.88
386.463	77.88
386.688	111.88
386.913	86.88
387.138	76.88
387.363	70.88
387.588	96.88
387.813	99.88
388.038	78.88
388.263	78.88
388.488	82.88
388.713	78.88
388.938	81.88
389.163	79.88
389.387	78.88
389.612	77.88
389.837	80.88
390.062	79.88
390.287	81.88
390.512	81.88
390.736	74.88
390.961	89.88
391.186	85.88
391.411	90.88
391.636	79.88
391.86	81.88
392.085	85.88
392.31	76.88
392.534	71.88
392.759	87.88
392.984	80.88
393.208	83.88
393.433	78.88
393.658	84.88
393.882	71.88
394.107	86.88
394.331	81.88
394.556	78.88
394.78	90.88
395.005	83.88
395.229	84.88
395.454	91.88
395.678	77.88
395.903	76.88
396.127	87.88
396.352	90.88
396.576	73.88
396.801	84.88
397.025	88.88
397.249	90.88
397.474	92.88
397.698	84.88
397.922	86.88
398.147	98.88
398.371	77.88
398.595	99.88
398.82	85.88
399.044	89.88
399.268	91.88
399.492	92.88
399.717	90.88
399.941	84.88
400.165	84.88
400.389	102.88
400.613	108.88
400.837	93.88
401.062	78.88
401.286	84.88
401.51	79.88
401.734	74.88
401.958	85.88
402.182	96.88
402.406	84.88
402.63	87.88
402.854	82.88
403.078	103.88
403.302	88.88
403.526	79.88
403.75	82.88
403.974	76.88
404.198	94.88
404.422	107.88
404.645	92.88
404.869	94.88
405.093	105.88
405.317	86.88
405.541	75.88
405.765	72.88
405.988	87.88
406.212	95.88
406.436	78.88
406.66	89.88
406.883	98.88
407.107	89.88
407.331	98.88
407.555	85.88
407.778	84.88
408.002	79.88
408.226	93.88
408.449	96.88
408.673	95.88
408.896	92.88
409.12	93.88
409.344	86.88
409.567	82.88
409.791	86.88
410.014	102.88
410.238	88.88
410.461	84.88
410.685	88.88
410.908	90.88
411.132	106.88
411.355	86.88
411.578	99.88
411.802	97.88
412.025	88.88
412.249	100.88
412.472	81.88
412.695	102.88
412.919	100.88
413.142	101.88
413.365	75.88
413.589	114.88
413.812	95.88
414.035	95.88
414.258	109.88
414.482	97.88
414.705	87.88
414.928	98.88
415.151	97.88
415.374	93.88
415.597	77.88
415.821	84.88
416.044	91.88
416.267	103.88
416.49	102.88
416.713	98.88
416.936	91.88
417.159	73.88
417.382	80.88
417.605	89.88
417.828	102.88
418.051	94.88
418.274	90.88
418.497	84.88
418.72	116.88
418.943	104.88
419.166	92.88
419.389	97.88
419.611	99.88
419.834	81.88
420.057	94.88
420.28	94.88
420.503	85.88
420.726	107.88
420.948	92.88
421.171	103.88
421.394	86.88
421.617	98.88
421.839	96.88
422.062	93.88
422.285	98.88
422.507	86.88
422.73	88.88
422.953	89.88
423.175	84.88
423.398	88.88
423.621	86.88
423.843	95.88
424.066	92.88
424.288	90.88
424.511	91.88
424.733	96.88
424.956	91.88
425.178	91.88
425.401	89.88
425.623	86.88
425.846	81.88
426.068	72.88
426.291	104.88
426.513	94.88
426.735	96.88
426.958	88.88
427.18	94.88
427.402	92.88
427.625	92.88
427.847	121.88
428.069	92.88
428.292	95.88
428.514	90.88
428.736	86.88
428.958	89.88
429.181	92.88
429.403	80.88
429.625	90.88
429.847	100.88
430.069	97.88
430.292	102.88
430.514	98.88
430.736	94.88
430.958	110.88
431.18	88.88
431.402	91.88
431.624	104.88
431.846	85.88
432.068	72.88
432.29	74.88
432.512	86.88
432.734	93.88
432.956	110.88
433.178	96.88
433.4	96.88
433.622	88.88
433.844	107.88
434.066	90.88
434.287	95.88
434.509	77.88
434.731	79.88
434.953	88.88
435.175	87.88
435.397	100.88
435.618	91.88
435.84	95.88
436.062	90.88
436.284	78.88
436.505	85.88
436.727	108.88
436.949	90.88
437.17	86.88
437.392	112.88
437.614	94.88
437.835	76.88
438.057	83.88
438.278	82.88
438.5	96.88
438.721	104.88
438.943	96.88
439.165	96.88
439.386	93.88
439.608	91.88
439.829	88.88
440.05	105.88
440.272	100.88
440.493	97.88
440.715	102.88
440.936	102.88
441.158	85.88
441.379	94.88
441.6	101.88
441.822	90.88
442.043	98.88
442.264	105.88
442.486	116.88
442.707	98.88
442.928	87.88
443.149	89.88
443.371	98.88
443.592	88.88
443.813	98.88
444.034	97.88
444.255	96.88
444.476	88.88
444.698	92.88
444.919	102.88
445.14	360.88
445.361	211.88
445.582	97.88
445.803	85.88
446.024	102.88
446.245	97.88
446.466	113.88
446.687	103.88
446.908	95.88
447.129	105.88
447.35	101.88
447.571	96.88
447.792	98.88
448.013	100.88
448.234	101.88
448.455	82.88
448.675	81.88
448.896	98.88
449.117	107.88
449.338	97.88
449.559	110.88
449.779	87.88
450	96.88
450.221	84.88
450.442	101.88
450.662	84.88
450.883	95.88
451.104	92.88
451.324	94.88
451.545	92.88
451.766	89.88
451.986	85.88
452.207	98.88
452.428	89.88
452.648	91.88
452.869	81.88
453.089	86.88
453.31	90.88
453.53	83.88
453.751	86.88
453.971	98.88
454.192	78.88
454.412	86.88
454.633	75.88
454.853	101.88
455.073	93.88
455.294	98.88
455.514	98.88
455.734	90.88
455.955	94.88
456.175	84.88
456.395	73.88
456.616	86.88
456.836	86.88
457.056	73.88
457.276	78.88
457.497	87.88
457.717	84.88
457.937	84.88
458.157	70.88
458.377	78.88
458.598	79.88
458.818	81.88
459.038	77.88
459.258	64.88
459.478	78.88
459.698	87.88
459.918	94.88
460.138	78.88
460.358	70.88
460.578	97.88
460.798	96.88
461.018	83.88
461.238	88.88
461.458	100.88
461.678	82.88
461.898	89.88
462.118	86.88
462.338	89.88
462.558	99.88
462.777	94.88
462.997	84.88
463.217	78.88
463.437	84.88
463.657	79.88
463.876	75.88
464.096	92.88
464.316	83.88
464.536	90.88
464.755	87.88
464.975	92.88
465.195	96.88
465.414	92.88
465.634	90.88
465.854	81.88
466.073	81.88
466.293	87.88
466.512	92.88
466.732	95.88
466.951	77.88
467.171	88.88
467.391	92.88
467.61	99.88
467.829	91.88
468.049	93.88
468.268	103.88
468.488	105.88
468.707	84.88
468.927	103.88
469.146	86.88
469.365	89.88
469.585	84.88
469.804	87.88
470.023	75.88
470.243	98.88
470.462	99.88
470.681	104.88
470.901	98.88
471.12	86.88
471.339	96.88
471.558	96.88
471.777	78.88
471.997	89.88
472.216	93.88
472.435	78.88
472.654	93.88
472.873	78.88
473.092	72.88
473.311	85.88
473.53	90.88
473.749	87.88
473.968	110.88
474.187	89.88
474.406	86.88
474.625	87.88
474.844	94.88
475.063	74.88
475.282	82.88
475.501	72.88
475.72	69.88
475.939	93.88
476.158	87.88
476.377	78.88
476.596	86.88
476.814	90.88
477.033	76.88
477.252	85.88
477.471	89.88
477.69	92.88
477.908	91.88
478.127	106.88
478.346	99.88
478.564	102.88
478.783	96.88
479.002	93.88
479.22	94.88
479.439	101.88
479.658	86.88
479.876	90.88
480.095	85.88
480.313	97.88
480.532	97.88
480.751	93.88
480.969	77.88
481.188	79.88
481.406	82.88
481.624	91.88
481.843	70.88
482.061	75.88
482.28	106.88
482.498	89.88
482.717	86.88
482.935	88.88
483.153	90.88
483.372	90.88
483.59	91.88
483.808	88.88
484.027	101.88
484.245	93.88
484.463	93.88
484.681	97.88
484.9	90.88
485.118	98.88
485.336	80.88
485.554	86.88
485.772	84.88
485.99	90.88
486.209	98.88
486.427	92.88
486.645	86.88
486.863	89.88
487.081	81.88
487.299	93.88
487.517	115.88
487.735	99.88
487.953	92.88
488.171	93.88
488.389	102.88
488.607	88.88
488.825	91.88
489.043	84.88
489.261	91.88
489.479	79.88
489.696	88.88
489.914	104.88
490.132	103.88
490.35	88.88
490.568	97.88
490.786	123.88
491.003	90.88
491.221	101.88
491.439	107.88
491.657	116.88
491.874	113.88
492.092	114.88
492.31	112.88
492.527	125.88
492.745	110.88
492.963	102.88
493.18	112.88
493.398	108.88
493.615	113.88
493.833	103.88
494.05	112.88
494.268	105.88
494.485	99.88
494.703	112.88
494.92	100.88
495.138	98.88
495.355	111.88
495.573	118.88
495.79	96.88
496.008	98.88
496.225	99.88
496.442	100.88
496.66	104.88
496.877	98.88
497.094	107.88
497.312	85.88
497.529	98.88
497.746	92.88
497.963	90.88
498.181	94.88
498.398	92.88
498.615	91.88
498.832	86.88
499.049	96.88
499.267	103.88
499.484	93.88
499.701	90.88
499.918	92.88
500.135	77.88
500.352	95.88
500.569	87.88
500.786	90.88
501.003	98.88
501.22	85.88
501.437	102.88
501.654	87.88
501.871	96.88
502.088	78.88
502.305	97.88
502.522	91.88
502.739	84.88
502.956	88.88
503.172	90.88
503.389	92.88
503.606	81.88
503.823	89.88
504.04	87.88
504.256	87.88
504.473	79.88
504.69	85.88
504.907	97.88
505.123	81.88
505.34	82.88
505.557	100.88
505.773	90.88
505.99	86.88
506.207	91.88
506.423	92.88
506.64	85.88
506.856	72.88
507.073	89.88
507.289	93.88
507.506	97.88
507.722	87.88
507.939	94.88
508.155	81.88
508.372	74.88
508.588	88.88
508.805	80.88
509.021	102.88
509.238	86.88
509.454	81.88
509.67	84.88
509.887	80.88
510.103	84.88
510.319	81.88
510.536	93.88
510.752	90.88
510.968	90.88
511.184	82.88
511.401	86.88
511.617	80.88
511.833	92.88
512.049	86.88
512.265	76.88
512.481	89.88
512.698	82.88
512.914	93.88
513.13	90.88
513.346	85.88
513.562	63.88
513.778	92.88
513.994	72.88
514.21	75.88
514.426	82.88
514.642	97.88
514.858	77.88
515.074	84.88
515.29	92.88
515.506	78.88
515.721	85.88
515.937	94.88
516.153	94.88
516.369	89.88
516.585	81.88
516.801	79.88
517.016	89.88
517.232	85.88
517.448	72.88
517.664	92.88
517.879	86.88
518.095	88.88
518.311	82.88
518.527	92.88
518.742	88.88
