Data from SampB_HRD10591_00074.txt Node
Date: Mon Jan 19 11:33:53 EST 2026
User: Yrep
Spectrometer: HR+D1059
Trigger mode: 0
Integration Time (sec): 3.443000E-1
Scans to average: 1
Electric dark correction enabled: true
Nonlinearity correction enabled: false
Boxcar width: 0
XAxis mode: Wavelengths
Number of Pixels in Spectrum: 2048
>>>>>Begin Spectral Data<<<<<
223.165	-14.81
223.4	-14.81
223.635	-14.81
223.869	-27.81
224.104	-24.81
224.338	-15.81
224.573	-18.81
224.808	-9.81
225.042	3.19
225.277	-1.81
225.511	-1.81
225.746	10.19
225.98	13.19
226.215	15.19
226.449	2.19
226.683	18.19
226.918	31.19
227.152	22.19
227.387	22.19
227.621	31.19
227.856	53.19
228.09	45.19
228.324	37.19
228.559	58.19
228.793	64.19
229.027	77.19
229.262	72.19
229.496	53.19
229.73	73.19
229.964	77.19
230.199	81.19
230.433	79.19
230.667	92.19
230.901	90.19
231.136	69.19
231.37	56.19
231.604	79.19
231.838	87.19
232.072	83.19
232.306	84.19
232.541	83.19
232.775	96.19
233.009	87.19
233.243	83.19
233.477	91.19
233.711	94.19
233.945	83.19
234.179	94.19
234.413	95.19
234.647	99.19
234.881	90.19
235.115	100.19
235.349	93.19
235.583	103.19
235.817	94.19
236.051	93.19
236.285	90.19
236.519	100.19
236.753	92.19
236.987	110.19
237.221	110.19
237.455	92.19
237.689	95.19
237.922	107.19
238.156	90.19
238.39	86.19
238.624	90.19
238.858	101.19
239.091	91.19
239.325	93.19
239.559	91.19
239.793	96.19
240.027	101.19
240.26	103.19
240.494	103.19
240.728	100.19
240.961	102.19
241.195	100.19
241.429	111.19
241.662	94.19
241.896	91.19
242.13	108.19
242.363	93.19
242.597	94.19
242.83	96.19
243.064	98.19
243.298	100.19
243.531	98.19
243.765	109.19
243.998	106.19
244.232	115.19
244.465	87.19
244.699	101.19
244.932	108.19
245.166	100.19
245.399	101.19
245.633	106.19
245.866	95.19
246.099	104.19
246.333	96.19
246.566	122.19
246.8	100.19
247.033	113.19
247.266	104.19
247.5	116.19
247.733	113.19
247.966	96.19
248.2	95.19
248.433	110.19
248.666	111.19
248.899	124.19
249.133	127.19
249.366	149.19
249.599	121.19
249.832	122.19
250.066	115.19
250.299	123.19
250.532	127.19
250.765	118.19
250.998	111.19
251.231	110.19
251.465	117.19
251.698	99.19
251.931	118.19
252.164	123.19
252.397	132.19
252.63	133.19
252.863	122.19
253.096	132.19
253.329	118.19
253.562	133.19
253.795	143.19
254.028	135.19
254.261	143.19
254.494	131.19
254.727	131.19
254.96	131.19
255.193	123.19
255.426	111.19
255.659	118.19
255.892	118.19
256.124	120.19
256.357	137.19
256.59	121.19
256.823	125.19
257.056	118.19
257.289	115.19
257.521	121.19
257.754	116.19
257.987	130.19
258.22	135.19
258.452	144.19
258.685	127.19
258.918	141.19
259.151	124.19
259.383	132.19
259.616	139.19
259.849	157.19
260.081	164.19
260.314	149.19
260.547	131.19
260.779	154.19
261.012	130.19
261.244	135.19
261.477	149.19
261.71	138.19
261.942	137.19
262.175	144.19
262.407	143.19
262.64	147.19
262.872	155.19
263.105	143.19
263.337	151.19
263.57	149.19
263.802	135.19
264.035	123.19
264.267	120.19
264.499	117.19
264.732	134.19
264.964	132.19
265.197	103.19
265.429	134.19
265.661	127.19
265.894	143.19
266.126	156.19
266.358	135.19
266.591	143.19
266.823	149.19
267.055	117.19
267.287	131.19
267.52	129.19
267.752	149.19
267.984	134.19
268.216	115.19
268.448	153.19
268.681	119.19
268.913	144.19
269.145	149.19
269.377	142.19
269.609	132.19
269.841	141.19
270.073	135.19
270.306	148.19
270.538	151.19
270.77	137.19
271.002	144.19
271.234	149.19
271.466	166.19
271.698	158.19
271.93	148.19
272.162	148.19
272.394	152.19
272.626	143.19
272.858	136.19
273.09	171.19
273.322	148.19
273.553	160.19
273.785	160.19
274.017	187.19
274.249	203.19
274.481	187.19
274.713	168.19
274.945	210.19
275.176	196.19
275.408	172.19
275.64	176.19
275.872	176.19
276.104	162.19
276.335	139.19
276.567	139.19
276.799	173.19
277.031	168.19
277.262	183.19
277.494	154.19
277.726	163.19
277.957	166.19
278.189	167.19
278.421	151.19
278.652	154.19
278.884	166.19
279.115	167.19
279.347	139.19
279.579	160.19
279.81	151.19
280.042	174.19
280.273	165.19
280.505	179.19
280.736	154.19
280.968	160.19
281.199	148.19
281.431	157.19
281.662	155.19
281.894	154.19
282.125	152.19
282.356	133.19
282.588	168.19
282.819	160.19
283.051	151.19
283.282	165.19
283.513	164.19
283.745	179.19
283.976	166.19
284.207	168.19
284.439	163.19
284.67	156.19
284.901	172.19
285.132	157.19
285.364	166.19
285.595	174.19
285.826	159.19
286.057	178.19
286.288	158.19
286.52	179.19
286.751	171.19
286.982	169.19
287.213	165.19
287.444	151.19
287.675	163.19
287.906	178.19
288.138	173.19
288.369	155.19
288.6	162.19
288.831	162.19
289.062	156.19
289.293	160.19
289.524	161.19
289.755	166.19
289.986	174.19
290.217	172.19
290.448	167.19
290.679	172.19
290.91	173.19
291.141	173.19
291.371	168.19
291.602	182.19
291.833	163.19
292.064	158.19
292.295	164.19
292.526	170.19
292.757	162.19
292.987	181.19
293.218	166.19
293.449	160.19
293.68	165.19
293.91	161.19
294.141	169.19
294.372	171.19
294.603	175.19
294.833	183.19
295.064	174.19
295.295	180.19
295.525	159.19
295.756	173.19
295.987	170.19
296.217	167.19
296.448	158.19
296.679	165.19
296.909	195.19
297.14	170.19
297.37	189.19
297.601	176.19
297.831	166.19
298.062	174.19
298.292	181.19
298.523	192.19
298.753	171.19
298.984	169.19
299.214	166.19
299.445	177.19
299.675	178.19
299.905	177.19
300.136	169.19
300.366	187.19
300.597	187.19
300.827	192.19
301.057	181.19
301.288	180.19
301.518	196.19
301.748	171.19
301.979	224.19
302.209	208.19
302.439	211.19
302.669	192.19
302.9	171.19
303.13	179.19
303.36	172.19
303.59	176.19
303.82	190.19
304.051	201.19
304.281	196.19
304.511	186.19
304.741	182.19
304.971	206.19
305.201	196.19
305.431	185.19
305.661	192.19
305.891	190.19
306.121	205.19
306.352	181.19
306.582	167.19
306.812	190.19
307.042	195.19
307.272	172.19
307.502	198.19
307.731	195.19
307.961	192.19
308.191	197.19
308.421	189.19
308.651	186.19
308.881	166.19
309.111	181.19
309.341	205.19
309.571	195.19
309.8	174.19
310.03	182.19
310.26	164.19
310.49	183.19
310.72	186.19
310.949	181.19
311.179	176.19
311.409	181.19
311.639	191.19
311.868	181.19
312.098	188.19
312.328	174.19
312.557	184.19
312.787	187.19
313.017	208.19
313.246	198.19
313.476	205.19
313.706	188.19
313.935	188.19
314.165	205.19
314.394	189.19
314.624	181.19
314.853	191.19
315.083	194.19
315.312	198.19
315.542	188.19
315.771	201.19
316.001	191.19
316.23	185.19
316.46	192.19
316.689	196.19
316.919	191.19
317.148	194.19
317.377	201.19
317.607	190.19
317.836	188.19
318.065	196.19
318.295	202.19
318.524	196.19
318.753	207.19
318.983	206.19
319.212	203.19
319.441	195.19
319.67	198.19
319.9	187.19
320.129	189.19
320.358	188.19
320.587	197.19
320.816	206.19
321.046	200.19
321.275	219.19
321.504	197.19
321.733	204.19
321.962	198.19
322.191	211.19
322.42	198.19
322.649	202.19
322.878	209.19
323.108	207.19
323.337	197.19
323.566	205.19
323.795	215.19
324.024	200.19
324.253	197.19
324.482	202.19
324.71	202.19
324.939	209.19
325.168	201.19
325.397	186.19
325.626	199.19
325.855	198.19
326.084	212.19
326.313	221.19
326.542	204.19
326.77	221.19
326.999	211.19
327.228	210.19
327.457	222.19
327.686	223.19
327.914	234.19
328.143	277.19
328.372	265.19
328.6	253.19
328.829	226.19
329.058	217.19
329.287	219.19
329.515	235.19
329.744	259.19
329.972	263.19
330.201	320.19
330.43	346.19
330.658	286.19
330.887	240.19
331.115	218.19
331.344	227.19
331.572	224.19
331.801	235.19
332.03	228.19
332.258	246.19
332.486	248.19
332.715	243.19
332.943	258.19
333.172	269.19
333.4	278.19
333.629	281.19
333.857	308.19
334.085	318.19
334.314	388.19
334.542	455.19
334.771	416.19
334.999	311.19
335.227	257.19
335.455	250.19
335.684	263.19
335.912	243.19
336.14	249.19
336.369	256.19
336.597	234.19
336.825	232.19
337.053	233.19
337.281	251.19
337.51	251.19
337.738	245.19
337.966	216.19
338.194	214.19
338.422	225.19
338.65	238.19
338.878	228.19
339.106	224.19
339.334	235.19
339.562	205.19
339.79	206.19
340.018	203.19
340.246	206.19
340.474	204.19
340.702	203.19
340.93	211.19
341.158	218.19
341.386	217.19
341.614	192.19
341.842	212.19
342.07	203.19
342.298	225.19
342.526	215.19
342.754	232.19
342.981	220.19
343.209	235.19
343.437	263.19
343.665	246.19
343.893	256.19
344.12	256.19
344.348	262.19
344.576	238.19
344.804	215.19
345.031	216.19
345.259	211.19
345.487	238.19
345.714	204.19
345.942	211.19
346.17	216.19
346.397	185.19
346.625	207.19
346.853	228.19
347.08	213.19
347.308	210.19
347.535	214.19
347.763	226.19
347.99	206.19
348.218	199.19
348.445	197.19
348.673	190.19
348.9	212.19
349.128	205.19
349.355	208.19
349.583	216.19
349.81	202.19
350.037	216.19
350.265	206.19
350.492	207.19
350.72	199.19
350.947	210.19
351.174	213.19
351.402	202.19
351.629	211.19
351.856	204.19
352.083	209.19
352.311	202.19
352.538	203.19
352.765	211.19
352.992	224.19
353.22	205.19
353.447	191.19
353.674	217.19
353.901	214.19
354.128	218.19
354.355	211.19
354.583	215.19
354.81	219.19
355.037	217.19
355.264	203.19
355.491	210.19
355.718	198.19
355.945	221.19
356.172	216.19
356.399	204.19
356.626	212.19
356.853	238.19
357.08	239.19
357.307	216.19
357.534	218.19
357.761	224.19
357.988	234.19
358.215	253.19
358.441	248.19
358.668	207.19
358.895	208.19
359.122	203.19
359.349	208.19
359.576	212.19
359.802	205.19
360.029	202.19
360.256	214.19
360.483	180.19
360.709	218.19
360.936	253.19
361.163	204.19
361.39	219.19
361.616	229.19
361.843	216.19
362.07	228.19
362.296	200.19
362.523	202.19
362.749	223.19
362.976	198.19
363.203	240.19
363.429	217.19
363.656	220.19
363.882	215.19
364.109	204.19
364.335	219.19
364.562	224.19
364.788	220.19
365.015	230.19
365.241	222.19
365.468	229.19
365.694	219.19
365.92	203.19
366.147	198.19
366.373	222.19
366.599	211.19
366.826	212.19
367.052	209.19
367.278	207.19
367.505	202.19
367.731	219.19
367.957	205.19
368.184	210.19
368.41	223.19
368.636	210.19
368.862	222.19
369.089	206.19
369.315	222.19
369.541	232.19
369.767	213.19
369.993	206.19
370.219	214.19
370.445	240.19
370.672	232.19
370.898	215.19
371.124	237.19
371.35	214.19
371.576	239.19
371.802	235.19
372.028	252.19
372.254	246.19
372.48	239.19
372.706	249.19
372.932	256.19
373.158	254.19
373.384	268.19
373.61	280.19
373.835	268.19
374.061	239.19
374.287	260.19
374.513	231.19
374.739	276.19
374.965	285.19
375.191	268.19
375.416	258.19
375.642	268.19
375.868	256.19
376.094	251.19
376.319	237.19
376.545	223.19
376.771	251.19
376.997	235.19
377.222	233.19
377.448	224.19
377.674	222.19
377.899	212.19
378.125	231.19
378.35	218.19
378.576	222.19
378.802	228.19
379.027	236.19
379.253	232.19
379.478	208.19
379.704	240.19
379.929	246.19
380.155	227.19
380.38	222.19
380.606	243.19
380.831	224.19
381.057	237.19
381.282	246.19
381.507	256.19
381.733	268.19
381.958	264.19
382.184	267.19
382.409	287.19
382.634	297.19
382.86	282.19
383.085	264.19
383.31	264.19
383.535	267.19
383.761	252.19
383.986	272.19
384.211	269.19
384.436	270.19
384.662	248.19
384.887	271.19
385.112	268.19
385.337	279.19
385.562	273.19
385.787	275.19
386.013	282.19
386.238	280.19
386.463	259.19
386.688	307.19
386.913	261.19
387.138	270.19
387.363	269.19
387.588	267.19
387.813	275.19
388.038	282.19
388.263	270.19
388.488	280.19
388.713	271.19
388.938	287.19
389.163	253.19
389.387	262.19
389.612	267.19
389.837	266.19
390.062	279.19
390.287	274.19
390.512	259.19
390.736	256.19
390.961	278.19
391.186	270.19
391.411	271.19
391.636	281.19
391.86	307.19
392.085	300.19
392.31	283.19
392.534	312.19
392.759	295.19
392.984	283.19
393.208	312.19
393.433	332.19
393.658	317.19
393.882	290.19
394.107	283.19
394.331	295.19
394.556	316.19
394.78	306.19
395.005	289.19
395.229	294.19
395.454	295.19
395.678	288.19
395.903	302.19
396.127	313.19
396.352	314.19
396.576	303.19
396.801	322.19
397.025	325.19
397.249	314.19
397.474	298.19
397.698	293.19
397.922	307.19
398.147	305.19
398.371	293.19
398.595	318.19
398.82	323.19
399.044	356.19
399.268	392.19
399.492	434.19
399.717	450.19
399.941	425.19
400.165	367.19
400.389	382.19
400.613	349.19
400.837	330.19
401.062	335.19
401.286	344.19
401.51	328.19
401.734	321.19
401.958	319.19
402.182	345.19
402.406	345.19
402.63	332.19
402.854	342.19
403.078	343.19
403.302	343.19
403.526	377.19
403.75	373.19
403.974	393.19
404.198	366.19
404.422	389.19
404.645	399.19
404.869	383.19
405.093	388.19
405.317	375.19
405.541	377.19
405.765	362.19
405.988	356.19
406.212	374.19
406.436	389.19
406.66	398.19
406.883	387.19
407.107	411.19
407.331	404.19
407.555	400.19
407.778	395.19
408.002	387.19
408.226	366.19
408.449	370.19
408.673	354.19
408.896	356.19
409.12	351.19
409.344	366.19
409.567	362.19
409.791	359.19
410.014	353.19
410.238	359.19
410.461	355.19
410.685	356.19
410.908	347.19
411.132	369.19
411.355	335.19
411.578	341.19
411.802	344.19
412.025	341.19
412.249	356.19
412.472	347.19
412.695	342.19
412.919	330.19
413.142	332.19
413.365	343.19
413.589	343.19
413.812	339.19
414.035	338.19
414.258	346.19
414.482	353.19
414.705	338.19
414.928	362.19
415.151	346.19
415.374	355.19
415.597	344.19
415.821	349.19
416.044	329.19
416.267	324.19
416.49	331.19
416.713	347.19
416.936	329.19
417.159	328.19
417.382	311.19
417.605	331.19
417.828	353.19
418.051	338.19
418.274	367.19
418.497	327.19
418.72	351.19
418.943	352.19
419.166	346.19
419.389	375.19
419.611	358.19
419.834	362.19
420.057	359.19
420.28	340.19
420.503	340.19
420.726	343.19
420.948	330.19
421.171	343.19
421.394	337.19
421.617	336.19
421.839	339.19
422.062	347.19
422.285	352.19
422.507	356.19
422.73	372.19
422.953	350.19
423.175	352.19
423.398	351.19
423.621	356.19
423.843	371.19
424.066	360.19
424.288	348.19
424.511	353.19
424.733	350.19
424.956	349.19
425.178	342.19
425.401	354.19
425.623	333.19
425.846	345.19
426.068	333.19
426.291	325.19
426.513	327.19
426.735	310.19
426.958	327.19
427.18	327.19
427.402	326.19
427.625	337.19
427.847	334.19
428.069	313.19
428.292	316.19
428.514	300.19
428.736	301.19
428.958	316.19
429.181	299.19
429.403	312.19
429.625	300.19
429.847	306.19
430.069	303.19
430.292	318.19
430.514	316.19
430.736	308.19
430.958	318.19
431.18	310.19
431.402	299.19
431.624	315.19
431.846	295.19
432.068	290.19
432.29	305.19
432.512	327.19
432.734	332.19
432.956	324.19
433.178	327.19
433.4	315.19
433.622	314.19
433.844	306.19
434.066	291.19
434.287	305.19
434.509	311.19
434.731	309.19
434.953	336.19
435.175	335.19
435.397	327.19
435.618	314.19
435.84	298.19
436.062	302.19
436.284	300.19
436.505	311.19
436.727	308.19
436.949	312.19
437.17	318.19
437.392	304.19
437.614	293.19
437.835	289.19
438.057	278.19
438.278	288.19
438.5	337.19
438.721	332.19
438.943	298.19
439.165	303.19
439.386	307.19
439.608	328.19
439.829	318.19
440.05	310.19
440.272	327.19
440.493	334.19
440.715	305.19
440.936	327.19
441.158	339.19
441.379	348.19
441.6	340.19
441.822	352.19
442.043	344.19
442.264	342.19
442.486	328.19
442.707	326.19
442.928	360.19
443.149	340.19
443.371	346.19
443.592	334.19
443.813	317.19
444.034	344.19
444.255	342.19
444.476	378.19
444.698	388.19
444.919	381.19
445.14	565.19
445.361	453.19
445.582	365.19
445.803	323.19
446.024	338.19
446.245	326.19
446.466	320.19
446.687	317.19
446.908	309.19
447.129	324.19
447.35	314.19
447.571	312.19
447.792	309.19
448.013	311.19
448.234	302.19
448.455	292.19
448.675	306.19
448.896	287.19
449.117	303.19
449.338	284.19
449.559	294.19
449.779	288.19
450	278.19
450.221	289.19
450.442	280.19
450.662	298.19
450.883	280.19
451.104	301.19
451.324	294.19
451.545	295.19
451.766	298.19
451.986	268.19
452.207	283.19
452.428	276.19
452.648	277.19
452.869	272.19
453.089	277.19
453.31	278.19
453.53	284.19
453.751	272.19
453.971	264.19
454.192	277.19
454.412	257.19
454.633	271.19
454.853	262.19
455.073	269.19
455.294	273.19
455.514	286.19
455.734	274.19
455.955	279.19
456.175	268.19
456.395	235.19
456.616	260.19
456.836	258.19
457.056	238.19
457.276	243.19
457.497	266.19
457.717	258.19
457.937	268.19
458.157	248.19
458.377	268.19
458.598	247.19
458.818	260.19
459.038	274.19
459.258	288.19
459.478	277.19
459.698	296.19
459.918	310.19
460.138	307.19
460.358	318.19
460.578	330.19
460.798	330.19
461.018	318.19
461.238	334.19
461.458	325.19
461.678	327.19
461.898	359.19
462.118	335.19
462.338	375.19
462.558	370.19
462.777	374.19
462.997	420.19
463.217	426.19
463.437	404.19
463.657	386.19
463.876	393.19
464.096	380.19
464.316	383.19
464.536	365.19
464.755	370.19
464.975	353.19
465.195	335.19
465.414	322.19
465.634	324.19
465.854	302.19
466.073	290.19
466.293	311.19
466.512	312.19
466.732	300.19
466.951	305.19
467.171	306.19
467.391	332.19
467.61	303.19
467.829	323.19
468.049	386.19
468.268	394.19
468.488	318.19
468.707	299.19
468.927	320.19
469.146	306.19
469.365	289.19
469.585	304.19
469.804	311.19
470.023	329.19
470.243	314.19
470.462	309.19
470.681	306.19
470.901	305.19
471.12	302.19
471.339	306.19
471.558	300.19
471.777	306.19
471.997	335.19
472.216	424.19
472.435	498.19
472.654	384.19
472.873	316.19
473.092	292.19
473.311	302.19
473.53	296.19
473.749	303.19
473.968	290.19
474.187	285.19
474.406	295.19
474.625	288.19
474.844	282.19
475.063	297.19
475.282	285.19
475.501	286.19
475.72	310.19
475.939	305.19
476.158	292.19
476.377	292.19
476.596	308.19
476.814	301.19
477.033	304.19
477.252	296.19
477.471	301.19
477.69	312.19
477.908	339.19
478.127	359.19
478.346	347.19
478.564	348.19
478.783	344.19
479.002	344.19
479.22	344.19
479.439	335.19
479.658	336.19
479.876	332.19
480.095	339.19
480.313	364.19
480.532	367.19
480.751	373.19
480.969	452.19
481.188	685.19
481.406	596.19
481.624	386.19
481.843	344.19
482.061	344.19
482.28	335.19
482.498	339.19
482.717	324.19
482.935	315.19
483.153	314.19
483.372	330.19
483.59	334.19
483.808	322.19
484.027	340.19
484.245	334.19
484.463	313.19
484.681	343.19
484.9	331.19
485.118	347.19
485.336	339.19
485.554	309.19
485.772	318.19
485.99	323.19
486.209	333.19
486.427	339.19
486.645	338.19
486.863	328.19
487.081	352.19
487.299	345.19
487.517	339.19
487.735	362.19
487.953	358.19
488.171	367.19
488.389	333.19
488.607	326.19
488.825	323.19
489.043	342.19
489.261	355.19
489.479	334.19
489.696	332.19
489.914	328.19
490.132	351.19
490.35	358.19
490.568	340.19
490.786	356.19
491.003	370.19
491.221	365.19
491.439	349.19
491.657	369.19
491.874	387.19
492.092	402.19
492.31	430.19
492.527	389.19
492.745	372.19
492.963	400.19
493.18	377.19
493.398	376.19
493.615	403.19
493.833	383.19
494.05	372.19
494.268	364.19
494.485	373.19
494.703	366.19
494.92	374.19
495.138	369.19
495.355	378.19
495.573	388.19
495.79	372.19
496.008	405.19
496.225	379.19
496.442	377.19
496.66	383.19
496.877	375.19
497.094	401.19
497.312	400.19
497.529	378.19
497.746	387.19
497.963	397.19
498.181	409.19
498.398	434.19
498.615	442.19
498.832	458.19
499.049	495.19
499.267	543.19
499.484	563.19
499.701	630.19
499.918	699.19
500.135	788.19
500.352	812.19
500.569	859.19
500.786	851.19
501.003	784.19
501.22	720.19
501.437	641.19
501.654	579.19
501.871	526.19
502.088	473.19
502.305	498.19
502.522	455.19
502.739	444.19
502.956	438.19
503.172	398.19
503.389	387.19
