Data from SampB_HRD10591_00012.txt Node
Date: Mon Jan 19 11:33:32 EST 2026
User: Yrep
Spectrometer: HR+D1059
Trigger mode: 0
Integration Time (sec): 3.443000E-1
Scans to average: 1
Electric dark correction enabled: true
Nonlinearity correction enabled: false
Boxcar width: 0
XAxis mode: Wavelengths
Number of Pixels in Spectrum: 2048
>>>>>Begin Spectral Data<<<<<
223.165	-27.56
223.4	-27.56
223.635	-27.56
223.869	-13.56
224.104	-27.56
224.338	-3.56
224.573	-10.56
224.808	-17.56
225.042	-15.56
225.277	-13.56
225.511	-11.56
225.746	7.44
225.98	14.44
226.215	20.44
226.449	14.44
226.683	23.44
226.918	25.44
227.152	35.44
227.387	36.44
227.621	32.44
227.856	44.44
228.09	44.44
228.324	39.44
228.559	58.44
228.793	66.44
229.027	80.44
229.262	71.44
229.496	73.44
229.73	73.44
229.964	75.44
230.199	80.44
230.433	83.44
230.667	87.44
230.901	78.44
231.136	79.44
231.37	85.44
231.604	102.44
231.838	108.44
232.072	79.44
232.306	97.44
232.541	89.44
232.775	86.44
233.009	94.44
233.243	83.44
233.477	83.44
233.711	83.44
233.945	90.44
234.179	88.44
234.413	80.44
234.647	96.44
234.881	91.44
235.115	99.44
235.349	90.44
235.583	90.44
235.817	95.44
236.051	94.44
236.285	73.44
236.519	81.44
236.753	86.44
236.987	86.44
237.221	92.44
237.455	94.44
237.689	90.44
237.922	102.44
238.156	79.44
238.39	92.44
238.624	87.44
238.858	98.44
239.091	90.44
239.325	100.44
239.559	90.44
239.793	87.44
240.027	97.44
240.26	79.44
240.494	99.44
240.728	80.44
240.961	95.44
241.195	90.44
241.429	104.44
241.662	110.44
241.896	106.44
242.13	94.44
242.363	87.44
242.597	91.44
242.83	94.44
243.064	101.44
243.298	93.44
243.531	110.44
243.765	93.44
243.998	99.44
244.232	90.44
244.465	93.44
244.699	105.44
244.932	99.44
245.166	104.44
245.399	93.44
245.633	97.44
245.866	109.44
246.099	101.44
246.333	90.44
246.566	98.44
246.8	95.44
247.033	118.44
247.266	99.44
247.5	101.44
247.733	117.44
247.966	119.44
248.2	95.44
248.433	102.44
248.666	96.44
248.899	110.44
249.133	107.44
249.366	114.44
249.599	118.44
249.832	113.44
250.066	114.44
250.299	103.44
250.532	112.44
250.765	105.44
250.998	106.44
251.231	101.44
251.465	111.44
251.698	119.44
251.931	109.44
252.164	122.44
252.397	89.44
252.63	117.44
252.863	125.44
253.096	119.44
253.329	118.44
253.562	119.44
253.795	116.44
254.028	102.44
254.261	119.44
254.494	94.44
254.727	114.44
254.96	116.44
255.193	114.44
255.426	98.44
255.659	127.44
255.892	116.44
256.124	115.44
256.357	109.44
256.59	129.44
256.823	119.44
257.056	116.44
257.289	125.44
257.521	121.44
257.754	147.44
257.987	102.44
258.22	118.44
258.452	117.44
258.685	130.44
258.918	125.44
259.151	111.44
259.383	106.44
259.616	114.44
259.849	122.44
260.081	128.44
260.314	116.44
260.547	111.44
260.779	130.44
261.012	129.44
261.244	125.44
261.477	152.44
261.71	120.44
261.942	132.44
262.175	130.44
262.407	111.44
262.64	122.44
262.872	130.44
263.105	135.44
263.337	131.44
263.57	122.44
263.802	114.44
264.035	116.44
264.267	115.44
264.499	112.44
264.732	113.44
264.964	121.44
265.197	118.44
265.429	118.44
265.661	114.44
265.894	111.44
266.126	125.44
266.358	126.44
266.591	109.44
266.823	129.44
267.055	110.44
267.287	128.44
267.52	136.44
267.752	116.44
267.984	116.44
268.216	124.44
268.448	113.44
268.681	121.44
268.913	137.44
269.145	119.44
269.377	122.44
269.609	121.44
269.841	121.44
270.073	113.44
270.306	117.44
270.538	120.44
270.77	122.44
271.002	120.44
271.234	142.44
271.466	143.44
271.698	134.44
271.93	140.44
272.162	135.44
272.394	125.44
272.626	127.44
272.858	144.44
273.09	125.44
273.322	144.44
273.553	125.44
273.785	141.44
274.017	145.44
274.249	152.44
274.481	137.44
274.713	162.44
274.945	163.44
275.176	142.44
275.408	138.44
275.64	138.44
275.872	142.44
276.104	140.44
276.335	133.44
276.567	140.44
276.799	140.44
277.031	154.44
277.262	155.44
277.494	158.44
277.726	140.44
277.957	150.44
278.189	141.44
278.421	131.44
278.652	134.44
278.884	157.44
279.115	146.44
279.347	167.44
279.579	178.44
279.81	173.44
280.042	160.44
280.273	186.44
280.505	155.44
280.736	168.44
280.968	134.44
281.199	154.44
281.431	135.44
281.662	156.44
281.894	139.44
282.125	122.44
282.356	139.44
282.588	152.44
282.819	142.44
283.051	153.44
283.282	144.44
283.513	153.44
283.745	155.44
283.976	151.44
284.207	157.44
284.439	157.44
284.67	161.44
284.901	154.44
285.132	151.44
285.364	161.44
285.595	163.44
285.826	152.44
286.057	142.44
286.288	155.44
286.52	153.44
286.751	144.44
286.982	144.44
287.213	137.44
287.444	135.44
287.675	155.44
287.906	162.44
288.138	150.44
288.369	165.44
288.6	133.44
288.831	163.44
289.062	163.44
289.293	139.44
289.524	165.44
289.755	159.44
289.986	152.44
290.217	147.44
290.448	153.44
290.679	149.44
290.91	164.44
291.141	142.44
291.371	136.44
291.602	141.44
291.833	142.44
292.064	145.44
292.295	167.44
292.526	161.44
292.757	142.44
292.987	152.44
293.218	161.44
293.449	149.44
293.68	150.44
293.91	164.44
294.141	159.44
294.372	148.44
294.603	160.44
294.833	157.44
295.064	154.44
295.295	156.44
295.525	145.44
295.756	181.44
295.987	169.44
296.217	163.44
296.448	169.44
296.679	176.44
296.909	173.44
297.14	165.44
297.37	171.44
297.601	155.44
297.831	159.44
298.062	152.44
298.292	163.44
298.523	186.44
298.753	147.44
298.984	167.44
299.214	167.44
299.445	155.44
299.675	145.44
299.905	152.44
300.136	171.44
300.366	167.44
300.597	169.44
300.827	179.44
301.057	155.44
301.288	171.44
301.518	162.44
301.748	168.44
301.979	217.44
302.209	163.44
302.439	153.44
302.669	159.44
302.9	176.44
303.13	155.44
303.36	176.44
303.59	158.44
303.82	167.44
304.051	175.44
304.281	175.44
304.511	185.44
304.741	170.44
304.971	150.44
305.201	174.44
305.431	180.44
305.661	159.44
305.891	174.44
306.121	171.44
306.352	177.44
306.582	151.44
306.812	169.44
307.042	169.44
307.272	178.44
307.502	189.44
307.731	183.44
307.961	178.44
308.191	167.44
308.421	179.44
308.651	172.44
308.881	177.44
309.111	162.44
309.341	160.44
309.571	175.44
309.8	161.44
310.03	158.44
310.26	169.44
310.49	173.44
310.72	185.44
310.949	157.44
311.179	150.44
311.409	166.44
311.639	160.44
311.868	153.44
312.098	167.44
312.328	169.44
312.557	181.44
312.787	170.44
313.017	177.44
313.246	175.44
313.476	166.44
313.706	162.44
313.935	157.44
314.165	169.44
314.394	178.44
314.624	181.44
314.853	186.44
315.083	168.44
315.312	182.44
315.542	166.44
315.771	163.44
316.001	175.44
316.23	197.44
316.46	188.44
316.689	186.44
316.919	165.44
317.148	174.44
317.377	187.44
317.607	178.44
317.836	164.44
318.065	177.44
318.295	176.44
318.524	168.44
318.753	184.44
318.983	180.44
319.212	179.44
319.441	188.44
319.67	197.44
319.9	170.44
320.129	189.44
320.358	192.44
320.587	189.44
320.816	185.44
321.046	184.44
321.275	190.44
321.504	189.44
321.733	171.44
321.962	181.44
322.191	182.44
322.42	198.44
322.649	194.44
322.878	197.44
323.108	199.44
323.337	197.44
323.566	206.44
323.795	229.44
324.024	218.44
324.253	201.44
324.482	208.44
324.71	198.44
324.939	199.44
325.168	213.44
325.397	203.44
325.626	208.44
325.855	194.44
326.084	197.44
326.313	205.44
326.542	188.44
326.77	201.44
326.999	188.44
327.228	194.44
327.457	205.44
327.686	207.44
327.914	237.44
328.143	265.44
328.372	254.44
328.6	237.44
328.829	226.44
329.058	216.44
329.287	223.44
329.515	214.44
329.744	254.44
329.972	268.44
330.201	317.44
330.43	316.44
330.658	249.44
330.887	217.44
331.115	214.44
331.344	215.44
331.572	218.44
331.801	215.44
332.03	225.44
332.258	233.44
332.486	223.44
332.715	244.44
332.943	252.44
333.172	248.44
333.4	254.44
333.629	263.44
333.857	282.44
334.085	336.44
334.314	369.44
334.542	444.44
334.771	392.44
334.999	312.44
335.227	278.44
335.455	244.44
335.684	246.44
335.912	250.44
336.14	247.44
336.369	232.44
336.597	237.44
336.825	230.44
337.053	232.44
337.281	228.44
337.51	220.44
337.738	221.44
337.966	210.44
338.194	206.44
338.422	220.44
338.65	219.44
338.878	221.44
339.106	217.44
339.334	200.44
339.562	196.44
339.79	200.44
340.018	192.44
340.246	185.44
340.474	182.44
340.702	187.44
340.93	187.44
341.158	195.44
341.386	203.44
341.614	188.44
341.842	183.44
342.07	187.44
342.298	189.44
342.526	178.44
342.754	192.44
342.981	209.44
343.209	192.44
343.437	205.44
343.665	209.44
343.893	218.44
344.12	219.44
344.348	204.44
344.576	204.44
344.804	183.44
345.031	193.44
345.259	196.44
345.487	199.44
345.714	172.44
345.942	182.44
346.17	177.44
346.397	185.44
346.625	193.44
346.853	189.44
347.08	190.44
347.308	180.44
347.535	181.44
347.763	181.44
347.99	187.44
348.218	190.44
348.445	195.44
348.673	175.44
348.9	166.44
349.128	191.44
349.355	185.44
349.583	187.44
349.81	170.44
350.037	180.44
350.265	188.44
350.492	193.44
350.72	203.44
350.947	192.44
351.174	191.44
351.402	192.44
351.629	183.44
351.856	184.44
352.083	193.44
352.311	193.44
352.538	183.44
352.765	172.44
352.992	193.44
353.22	190.44
353.447	166.44
353.674	185.44
353.901	177.44
354.128	181.44
354.355	165.44
354.583	172.44
354.81	192.44
355.037	183.44
355.264	194.44
355.491	177.44
355.718	182.44
355.945	178.44
356.172	193.44
356.399	197.44
356.626	193.44
356.853	184.44
357.08	189.44
357.307	199.44
357.534	179.44
357.761	183.44
357.988	188.44
358.215	202.44
358.441	189.44
358.668	174.44
358.895	167.44
359.122	187.44
359.349	171.44
359.576	175.44
359.802	181.44
360.029	186.44
360.256	192.44
360.483	192.44
360.709	189.44
360.936	178.44
361.163	192.44
361.39	172.44
361.616	200.44
361.843	192.44
362.07	186.44
362.296	213.44
362.523	197.44
362.749	199.44
362.976	187.44
363.203	199.44
363.429	187.44
363.656	207.44
363.882	200.44
364.109	193.44
364.335	202.44
364.562	197.44
364.788	181.44
365.015	188.44
365.241	186.44
365.468	196.44
365.694	193.44
365.92	198.44
366.147	207.44
366.373	174.44
366.599	191.44
366.826	181.44
367.052	170.44
367.278	186.44
367.505	166.44
367.731	192.44
367.957	190.44
368.184	198.44
368.41	207.44
368.636	214.44
368.862	219.44
369.089	188.44
369.315	188.44
369.541	196.44
369.767	186.44
369.993	220.44
370.219	186.44
370.445	201.44
370.672	181.44
370.898	215.44
371.124	203.44
371.35	198.44
371.576	190.44
371.802	192.44
372.028	200.44
372.254	207.44
372.48	228.44
372.706	219.44
372.932	211.44
373.158	222.44
373.384	210.44
373.61	223.44
373.835	223.44
374.061	233.44
374.287	206.44
374.513	206.44
374.739	220.44
374.965	230.44
375.191	226.44
375.416	231.44
375.642	242.44
375.868	261.44
376.094	227.44
376.319	237.44
376.545	183.44
376.771	209.44
376.997	193.44
377.222	211.44
377.448	198.44
377.674	187.44
377.899	199.44
378.125	190.44
378.35	206.44
378.576	201.44
378.802	198.44
379.027	190.44
379.253	196.44
379.478	206.44
379.704	211.44
379.929	199.44
380.155	204.44
380.38	221.44
380.606	208.44
380.831	210.44
381.057	210.44
381.282	191.44
381.507	197.44
381.733	215.44
381.958	209.44
382.184	201.44
382.409	216.44
382.634	227.44
382.86	224.44
383.085	222.44
383.31	230.44
383.535	241.44
383.761	231.44
383.986	250.44
384.211	227.44
384.436	243.44
384.662	230.44
384.887	219.44
385.112	229.44
385.337	242.44
385.562	239.44
385.787	235.44
386.013	229.44
386.238	217.44
386.463	239.44
386.688	248.44
386.913	237.44
387.138	241.44
387.363	236.44
387.588	246.44
387.813	240.44
388.038	240.44
388.263	254.44
388.488	235.44
388.713	228.44
388.938	243.44
389.163	238.44
389.387	222.44
389.612	222.44
389.837	215.44
390.062	238.44
390.287	254.44
390.512	242.44
390.736	225.44
390.961	246.44
391.186	259.44
391.411	245.44
391.636	250.44
391.86	250.44
392.085	261.44
392.31	258.44
392.534	257.44
392.759	271.44
392.984	297.44
393.208	363.44
393.433	422.44
393.658	361.44
393.882	277.44
394.107	272.44
394.331	268.44
394.556	276.44
394.78	275.44
395.005	277.44
395.229	251.44
395.454	261.44
395.678	288.44
395.903	301.44
396.127	299.44
396.352	286.44
396.576	311.44
396.801	348.44
397.025	365.44
397.249	281.44
397.474	280.44
397.698	257.44
397.922	279.44
398.147	271.44
398.371	278.44
398.595	282.44
398.82	294.44
399.044	323.44
399.268	356.44
399.492	369.44
399.717	417.44
399.941	382.44
400.165	338.44
400.389	327.44
400.613	310.44
400.837	300.44
401.062	312.44
401.286	281.44
401.51	301.44
401.734	279.44
401.958	279.44
402.182	312.44
402.406	305.44
402.63	302.44
402.854	290.44
403.078	294.44
403.302	315.44
403.526	317.44
403.75	321.44
403.974	315.44
404.198	323.44
404.422	321.44
404.645	315.44
404.869	303.44
405.093	312.44
405.317	312.44
405.541	313.44
405.765	296.44
405.988	304.44
406.212	319.44
406.436	307.44
406.66	330.44
406.883	331.44
407.107	338.44
407.331	374.44
407.555	354.44
407.778	350.44
408.002	349.44
408.226	310.44
408.449	317.44
408.673	335.44
408.896	303.44
409.12	299.44
409.344	294.44
409.567	318.44
409.791	337.44
410.014	294.44
410.238	333.44
410.461	329.44
410.685	307.44
410.908	318.44
411.132	298.44
411.355	299.44
411.578	297.44
411.802	306.44
412.025	315.44
412.249	305.44
412.472	305.44
412.695	317.44
412.919	304.44
413.142	297.44
413.365	312.44
413.589	305.44
413.812	278.44
414.035	306.44
414.258	301.44
414.482	297.44
414.705	285.44
414.928	304.44
415.151	303.44
415.374	301.44
415.597	297.44
415.821	303.44
416.044	286.44
416.267	292.44
416.49	278.44
416.713	273.44
416.936	284.44
417.159	296.44
417.382	296.44
417.605	297.44
417.828	301.44
418.051	301.44
418.274	303.44
418.497	302.44
418.72	297.44
418.943	298.44
419.166	291.44
419.389	327.44
419.611	322.44
419.834	297.44
420.057	309.44
420.28	308.44
420.503	291.44
420.726	310.44
420.948	297.44
421.171	290.44
421.394	288.44
421.617	297.44
421.839	306.44
422.062	298.44
422.285	329.44
422.507	346.44
422.73	414.44
422.953	391.44
423.175	321.44
423.398	301.44
423.621	307.44
423.843	327.44
424.066	305.44
424.288	306.44
424.511	306.44
424.733	285.44
424.956	322.44
425.178	326.44
425.401	310.44
425.623	279.44
425.846	282.44
426.068	279.44
426.291	281.44
426.513	264.44
426.735	292.44
426.958	287.44
427.18	277.44
427.402	294.44
427.625	286.44
427.847	297.44
428.069	310.44
428.292	285.44
428.514	278.44
428.736	299.44
428.958	302.44
429.181	286.44
429.403	286.44
429.625	272.44
429.847	300.44
430.069	322.44
430.292	322.44
430.514	278.44
430.736	298.44
430.958	293.44
431.18	269.44
431.402	282.44
431.624	264.44
431.846	264.44
432.068	259.44
432.29	279.44
432.512	251.44
432.734	258.44
432.956	285.44
433.178	272.44
433.4	284.44
433.622	284.44
433.844	281.44
434.066	279.44
434.287	267.44
434.509	267.44
434.731	267.44
434.953	277.44
435.175	279.44
435.397	282.44
435.618	280.44
435.84	275.44
436.062	261.44
436.284	264.44
436.505	274.44
436.727	261.44
436.949	281.44
437.17	248.44
437.392	257.44
437.614	265.44
437.835	254.44
438.057	236.44
438.278	250.44
438.5	269.44
438.721	271.44
438.943	268.44
439.165	269.44
439.386	277.44
439.608	285.44
439.829	279.44
440.05	278.44
440.272	286.44
440.493	273.44
440.715	283.44
440.936	273.44
441.158	280.44
441.379	280.44
441.6	311.44
441.822	307.44
442.043	286.44
442.264	279.44
442.486	287.44
442.707	307.44
442.928	280.44
443.149	296.44
443.371	298.44
443.592	315.44
443.813	314.44
444.034	304.44
444.255	326.44
444.476	313.44
444.698	330.44
444.919	341.44
445.14	540.44
445.361	433.44
445.582	349.44
445.803	321.44
446.024	298.44
446.245	290.44
446.466	310.44
446.687	292.44
446.908	271.44
447.129	291.44
447.35	263.44
447.571	278.44
447.792	271.44
448.013	270.44
448.234	274.44
448.455	268.44
448.675	274.44
448.896	256.44
449.117	269.44
449.338	261.44
449.559	258.44
449.779	269.44
450	259.44
450.221	250.44
450.442	268.44
450.662	267.44
450.883	259.44
451.104	287.44
451.324	268.44
451.545	258.44
451.766	261.44
451.986	267.44
452.207	262.44
452.428	263.44
452.648	251.44
452.869	258.44
453.089	240.44
453.31	277.44
453.53	324.44
453.751	307.44
453.971	253.44
454.192	242.44
454.412	239.44
454.633	224.44
454.853	257.44
455.073	257.44
455.294	263.44
455.514	268.44
455.734	254.44
455.955	242.44
456.175	237.44
456.395	239.44
456.616	227.44
456.836	223.44
457.056	245.44
457.276	222.44
457.497	245.44
457.717	223.44
457.937	253.44
458.157	226.44
458.377	227.44
458.598	232.44
458.818	238.44
459.038	245.44
459.258	252.44
459.478	249.44
459.698	265.44
459.918	250.44
460.138	290.44
460.358	292.44
460.578	301.44
460.798	285.44
461.018	294.44
461.238	281.44
461.458	306.44
461.678	300.44
461.898	318.44
462.118	317.44
462.338	325.44
462.558	322.44
462.777	315.44
462.997	359.44
463.217	379.44
463.437	360.44
463.657	331.44
463.876	319.44
464.096	351.44
464.316	328.44
464.536	330.44
464.755	312.44
464.975	322.44
465.195	306.44
465.414	281.44
465.634	281.44
465.854	265.44
466.073	280.44
466.293	265.44
466.512	277.44
466.732	267.44
466.951	269.44
467.171	272.44
467.391	267.44
467.61	283.44
467.829	287.44
468.049	336.44
468.268	386.44
468.488	294.44
468.707	281.44
468.927	278.44
469.146	275.44
469.365	283.44
469.585	280.44
469.804	270.44
470.023	269.44
470.243	287.44
470.462	289.44
470.681	291.44
470.901	276.44
471.12	273.44
471.339	287.44
471.558	281.44
471.777	288.44
471.997	301.44
472.216	423.44
472.435	497.44
472.654	365.44
472.873	302.44
473.092	290.44
473.311	276.44
473.53	261.44
473.749	267.44
473.968	276.44
474.187	254.44
474.406	257.44
474.625	274.44
474.844	253.44
475.063	253.44
475.282	266.44
475.501	273.44
475.72	273.44
475.939	265.44
476.158	275.44
476.377	276.44
476.596	281.44
476.814	251.44
477.033	251.44
477.252	277.44
477.471	297.44
477.69	273.44
477.908	302.44
478.127	310.44
478.346	305.44
478.564	317.44
478.783	297.44
479.002	302.44
479.22	310.44
479.439	312.44
479.658	307.44
479.876	310.44
480.095	302.44
480.313	305.44
480.532	333.44
480.751	360.44
480.969	439.44
481.188	701.44
481.406	565.44
481.624	378.44
481.843	341.44
482.061	324.44
482.28	309.44
482.498	303.44
482.717	303.44
482.935	302.44
483.153	293.44
483.372	305.44
483.59	295.44
483.808	297.44
484.027	306.44
484.245	306.44
484.463	305.44
484.681	291.44
484.9	310.44
485.118	300.44
485.336	301.44
485.554	299.44
485.772	293.44
485.99	295.44
486.209	296.44
486.427	281.44
486.645	284.44
486.863	304.44
487.081	321.44
487.299	310.44
487.517	297.44
487.735	319.44
487.953	323.44
488.171	331.44
488.389	301.44
488.607	309.44
488.825	307.44
489.043	298.44
489.261	305.44
489.479	304.44
489.696	310.44
489.914	314.44
490.132	313.44
490.35	320.44
490.568	313.44
490.786	324.44
491.003	320.44
491.221	341.44
491.439	323.44
491.657	335.44
491.874	350.44
492.092	360.44
492.31	381.44
492.527	339.44
492.745	335.44
492.963	343.44
493.18	336.44
493.398	340.44
493.615	370.44
493.833	332.44
494.05	321.44
494.268	343.44
494.485	338.44
494.703	327.44
494.92	337.44
495.138	314.44
495.355	321.44
495.573	330.44
495.79	333.44
496.008	331.44
496.225	355.44
496.442	314.44
496.66	363.44
496.877	355.44
497.094	338.44
497.312	353.44
497.529	347.44
497.746	383.44
497.963	374.44
498.181	395.44
498.398	470.44
498.615	408.44
498.832	397.44
499.049	457.44
499.267	566.44
499.484	535.44
499.701	534.44
499.918	611.44
500.135	728.44
500.352	737.44
500.569	741.44
500.786	766.44
501.003	754.44
501.22	625.44
501.437	567.44
501.654	569.44
501.871	483.44
502.088	449.44
502.305	446.44
502.522	426.44
502.739	424.44
502.956	384.44
503.172	359.44
503.389	343.44
503.606	358.44
