Data from SampB_HRD10591_00100.txt Node
Date: Mon Jan 19 11:34:02 EST 2026
User: Yrep
Spectrometer: HR+D1059
Trigger mode: 0
Integration Time (sec): 3.443000E-1
Scans to average: 1
Electric dark correction enabled: true
Nonlinearity correction enabled: false
Boxcar width: 0
XAxis mode: Wavelengths
Number of Pixels in Spectrum: 2048
>>>>>Begin Spectral Data<<<<<
223.165	-16.62
223.4	-16.62
223.635	-16.62
223.869	-19.62
224.104	-28.62
224.338	-23.62
224.573	-24.62
224.808	-11.62
225.042	-5.62
225.277	5.38
225.511	-10.62
225.746	3.38
225.98	14.38
226.215	13.38
226.449	19.38
226.683	22.38
226.918	31.38
227.152	31.38
227.387	45.38
227.621	30.38
227.856	42.38
228.09	48.38
228.324	47.38
228.559	74.38
228.793	57.38
229.027	65.38
229.262	72.38
229.496	73.38
229.73	81.38
229.964	76.38
230.199	70.38
230.433	75.38
230.667	67.38
230.901	78.38
231.136	83.38
231.37	72.38
231.604	71.38
231.838	86.38
232.072	73.38
232.306	85.38
232.541	74.38
232.775	77.38
233.009	90.38
233.243	80.38
233.477	85.38
233.711	78.38
233.945	75.38
234.179	92.38
234.413	82.38
234.647	93.38
234.881	79.38
235.115	81.38
235.349	72.38
235.583	83.38
235.817	80.38
236.051	82.38
236.285	71.38
236.519	83.38
236.753	96.38
236.987	72.38
237.221	83.38
237.455	64.38
237.689	82.38
237.922	81.38
238.156	75.38
238.39	75.38
238.624	58.38
238.858	79.38
239.091	71.38
239.325	63.38
239.559	75.38
239.793	62.38
240.027	73.38
240.26	89.38
240.494	83.38
240.728	79.38
240.961	80.38
241.195	88.38
241.429	76.38
241.662	65.38
241.896	85.38
242.13	73.38
242.363	79.38
242.597	67.38
242.83	84.38
243.064	72.38
243.298	64.38
243.531	65.38
243.765	81.38
243.998	87.38
244.232	87.38
244.465	73.38
244.699	77.38
244.932	56.38
245.166	82.38
245.399	73.38
245.633	64.38
245.866	74.38
246.099	63.38
246.333	80.38
246.566	73.38
246.8	70.38
247.033	93.38
247.266	73.38
247.5	85.38
247.733	72.38
247.966	75.38
248.2	81.38
248.433	80.38
248.666	69.38
248.899	80.38
249.133	90.38
249.366	89.38
249.599	77.38
249.832	71.38
250.066	102.38
250.299	75.38
250.532	85.38
250.765	86.38
250.998	62.38
251.231	78.38
251.465	85.38
251.698	79.38
251.931	71.38
252.164	85.38
252.397	70.38
252.63	81.38
252.863	74.38
253.096	79.38
253.329	87.38
253.562	71.38
253.795	82.38
254.028	86.38
254.261	83.38
254.494	85.38
254.727	74.38
254.96	83.38
255.193	83.38
255.426	80.38
255.659	80.38
255.892	73.38
256.124	75.38
256.357	84.38
256.59	80.38
256.823	80.38
257.056	93.38
257.289	65.38
257.521	85.38
257.754	85.38
257.987	75.38
258.22	90.38
258.452	69.38
258.685	66.38
258.918	89.38
259.151	73.38
259.383	84.38
259.616	66.38
259.849	82.38
260.081	74.38
260.314	82.38
260.547	82.38
260.779	71.38
261.012	86.38
261.244	75.38
261.477	86.38
261.71	80.38
261.942	80.38
262.175	62.38
262.407	66.38
262.64	73.38
262.872	94.38
263.105	99.38
263.337	77.38
263.57	87.38
263.802	78.38
264.035	81.38
264.267	94.38
264.499	89.38
264.732	79.38
264.964	75.38
265.197	78.38
265.429	72.38
265.661	88.38
265.894	78.38
266.126	85.38
266.358	82.38
266.591	74.38
266.823	81.38
267.055	77.38
267.287	93.38
267.52	78.38
267.752	87.38
267.984	89.38
268.216	82.38
268.448	81.38
268.681	76.38
268.913	82.38
269.145	91.38
269.377	81.38
269.609	70.38
269.841	91.38
270.073	86.38
270.306	83.38
270.538	75.38
270.77	76.38
271.002	79.38
271.234	81.38
271.466	87.38
271.698	77.38
271.93	73.38
272.162	82.38
272.394	81.38
272.626	81.38
272.858	78.38
273.09	82.38
273.322	85.38
273.553	77.38
273.785	78.38
274.017	83.38
274.249	87.38
274.481	90.38
274.713	83.38
274.945	81.38
275.176	60.38
275.408	90.38
275.64	65.38
275.872	73.38
276.104	78.38
276.335	67.38
276.567	63.38
276.799	70.38
277.031	71.38
277.262	86.38
277.494	93.38
277.726	87.38
277.957	77.38
278.189	86.38
278.421	82.38
278.652	69.38
278.884	81.38
279.115	93.38
279.347	76.38
279.579	88.38
279.81	87.38
280.042	82.38
280.273	82.38
280.505	80.38
280.736	74.38
280.968	85.38
281.199	82.38
281.431	85.38
281.662	79.38
281.894	100.38
282.125	74.38
282.356	82.38
282.588	80.38
282.819	80.38
283.051	75.38
283.282	72.38
283.513	101.38
283.745	82.38
283.976	74.38
284.207	70.38
284.439	69.38
284.67	94.38
284.901	90.38
285.132	69.38
285.364	83.38
285.595	81.38
285.826	85.38
286.057	79.38
286.288	83.38
286.52	95.38
286.751	73.38
286.982	71.38
287.213	86.38
287.444	90.38
287.675	89.38
287.906	84.38
288.138	86.38
288.369	94.38
288.6	87.38
288.831	66.38
289.062	74.38
289.293	80.38
289.524	92.38
289.755	86.38
289.986	102.38
290.217	79.38
290.448	83.38
290.679	87.38
290.91	75.38
291.141	87.38
291.371	82.38
291.602	101.38
291.833	81.38
292.064	80.38
292.295	85.38
292.526	95.38
292.757	80.38
292.987	73.38
293.218	75.38
293.449	85.38
293.68	70.38
293.91	82.38
294.141	97.38
294.372	91.38
294.603	77.38
294.833	56.38
295.064	66.38
295.295	87.38
295.525	77.38
295.756	79.38
295.987	75.38
296.217	70.38
296.448	78.38
296.679	76.38
296.909	83.38
297.14	83.38
297.37	102.38
297.601	65.38
297.831	65.38
298.062	95.38
298.292	78.38
298.523	89.38
298.753	86.38
298.984	89.38
299.214	95.38
299.445	73.38
299.675	76.38
299.905	86.38
300.136	76.38
300.366	90.38
300.597	80.38
300.827	89.38
301.057	86.38
301.288	82.38
301.518	67.38
301.748	79.38
301.979	101.38
302.209	83.38
302.439	85.38
302.669	84.38
302.9	90.38
303.13	93.38
303.36	83.38
303.59	76.38
303.82	89.38
304.051	87.38
304.281	86.38
304.511	84.38
304.741	88.38
304.971	80.38
305.201	69.38
305.431	87.38
305.661	98.38
305.891	85.38
306.121	85.38
306.352	80.38
306.582	72.38
306.812	89.38
307.042	83.38
307.272	82.38
307.502	85.38
307.731	93.38
307.961	77.38
308.191	66.38
308.421	83.38
308.651	83.38
308.881	66.38
309.111	91.38
309.341	62.38
309.571	75.38
309.8	95.38
310.03	91.38
310.26	78.38
310.49	94.38
310.72	75.38
310.949	73.38
311.179	85.38
311.409	72.38
311.639	79.38
311.868	87.38
312.098	86.38
312.328	88.38
312.557	78.38
312.787	64.38
313.017	81.38
313.246	94.38
313.476	81.38
313.706	70.38
313.935	89.38
314.165	84.38
314.394	83.38
314.624	79.38
314.853	93.38
315.083	94.38
315.312	74.38
315.542	71.38
315.771	92.38
316.001	69.38
316.23	78.38
316.46	77.38
316.689	84.38
316.919	85.38
317.148	80.38
317.377	89.38
317.607	79.38
317.836	81.38
318.065	88.38
318.295	63.38
318.524	77.38
318.753	85.38
318.983	86.38
319.212	75.38
319.441	86.38
319.67	85.38
319.9	73.38
320.129	81.38
320.358	92.38
320.587	87.38
320.816	82.38
321.046	102.38
321.275	77.38
321.504	71.38
321.733	88.38
321.962	93.38
322.191	82.38
322.42	67.38
322.649	78.38
322.878	95.38
323.108	87.38
323.337	86.38
323.566	93.38
323.795	74.38
324.024	73.38
324.253	87.38
324.482	87.38
324.71	88.38
324.939	93.38
325.168	65.38
325.397	81.38
325.626	75.38
325.855	77.38
326.084	88.38
326.313	95.38
326.542	86.38
326.77	85.38
326.999	83.38
327.228	85.38
327.457	80.38
327.686	69.38
327.914	98.38
328.143	92.38
328.372	76.38
328.6	76.38
328.829	83.38
329.058	90.38
329.287	84.38
329.515	75.38
329.744	87.38
329.972	87.38
330.201	74.38
330.43	90.38
330.658	85.38
330.887	82.38
331.115	77.38
331.344	80.38
331.572	91.38
331.801	82.38
332.03	91.38
332.258	94.38
332.486	70.38
332.715	79.38
332.943	80.38
333.172	89.38
333.4	83.38
333.629	91.38
333.857	70.38
334.085	75.38
334.314	81.38
334.542	69.38
334.771	71.38
334.999	82.38
335.227	101.38
335.455	90.38
335.684	90.38
335.912	85.38
336.14	80.38
336.369	90.38
336.597	87.38
336.825	78.38
337.053	89.38
337.281	71.38
337.51	77.38
337.738	95.38
337.966	73.38
338.194	81.38
338.422	89.38
338.65	88.38
338.878	82.38
339.106	87.38
339.334	96.38
339.562	90.38
339.79	86.38
340.018	91.38
340.246	76.38
340.474	81.38
340.702	71.38
340.93	81.38
341.158	83.38
341.386	85.38
341.614	69.38
341.842	78.38
342.07	64.38
342.298	79.38
342.526	66.38
342.754	85.38
342.981	84.38
343.209	63.38
343.437	108.38
343.665	91.38
343.893	81.38
344.12	88.38
344.348	83.38
344.576	85.38
344.804	70.38
345.031	88.38
345.259	75.38
345.487	89.38
345.714	93.38
345.942	85.38
346.17	95.38
346.397	69.38
346.625	77.38
346.853	94.38
347.08	79.38
347.308	82.38
347.535	80.38
347.763	76.38
347.99	98.38
348.218	79.38
348.445	88.38
348.673	97.38
348.9	90.38
349.128	95.38
349.355	76.38
349.583	80.38
349.81	86.38
350.037	95.38
350.265	88.38
350.492	63.38
350.72	75.38
350.947	87.38
351.174	80.38
351.402	71.38
351.629	89.38
351.856	88.38
352.083	83.38
352.311	81.38
352.538	85.38
352.765	94.38
352.992	101.38
353.22	75.38
353.447	90.38
353.674	76.38
353.901	75.38
354.128	83.38
354.355	85.38
354.583	67.38
354.81	94.38
355.037	87.38
355.264	80.38
355.491	79.38
355.718	73.38
355.945	74.38
356.172	75.38
356.399	81.38
356.626	86.38
356.853	93.38
357.08	92.38
357.307	89.38
357.534	72.38
357.761	97.38
357.988	87.38
358.215	94.38
358.441	70.38
358.668	70.38
358.895	75.38
359.122	77.38
359.349	78.38
359.576	90.38
359.802	89.38
360.029	89.38
360.256	69.38
360.483	79.38
360.709	78.38
360.936	95.38
361.163	79.38
361.39	71.38
361.616	88.38
361.843	94.38
362.07	89.38
362.296	86.38
362.523	84.38
362.749	76.38
362.976	63.38
363.203	99.38
363.429	75.38
363.656	86.38
363.882	76.38
364.109	86.38
364.335	77.38
364.562	86.38
364.788	73.38
365.015	102.38
365.241	99.38
365.468	74.38
365.694	74.38
365.92	78.38
366.147	84.38
366.373	89.38
366.599	90.38
366.826	86.38
367.052	73.38
367.278	94.38
367.505	80.38
367.731	92.38
367.957	90.38
368.184	77.38
368.41	73.38
368.636	89.38
368.862	90.38
369.089	83.38
369.315	85.38
369.541	93.38
369.767	85.38
369.993	99.38
370.219	92.38
370.445	82.38
370.672	85.38
370.898	71.38
371.124	85.38
371.35	87.38
371.576	70.38
371.802	84.38
372.028	80.38
372.254	85.38
372.48	77.38
372.706	82.38
372.932	78.38
373.158	78.38
373.384	84.38
373.61	79.38
373.835	76.38
374.061	87.38
374.287	89.38
374.513	78.38
374.739	85.38
374.965	93.38
375.191	72.38
375.416	82.38
375.642	90.38
375.868	93.38
376.094	87.38
376.319	92.38
376.545	67.38
376.771	85.38
376.997	74.38
377.222	82.38
377.448	88.38
377.674	77.38
377.899	76.38
378.125	70.38
378.35	83.38
378.576	96.38
378.802	82.38
379.027	100.38
379.253	98.38
379.478	96.38
379.704	76.38
379.929	82.38
380.155	85.38
380.38	88.38
380.606	79.38
380.831	96.38
381.057	99.38
381.282	92.38
381.507	91.38
381.733	90.38
381.958	74.38
382.184	87.38
382.409	90.38
382.634	99.38
382.86	81.38
383.085	95.38
383.31	75.38
383.535	84.38
383.761	98.38
383.986	87.38
384.211	81.38
384.436	87.38
384.662	73.38
384.887	71.38
385.112	87.38
385.337	99.38
385.562	75.38
385.787	88.38
386.013	88.38
386.238	85.38
386.463	82.38
386.688	118.38
386.913	93.38
387.138	78.38
387.363	90.38
387.588	94.38
387.813	67.38
388.038	73.38
388.263	89.38
388.488	77.38
388.713	91.38
388.938	76.38
389.163	53.38
389.387	99.38
389.612	82.38
389.837	80.38
390.062	86.38
390.287	85.38
390.512	88.38
390.736	81.38
390.961	87.38
391.186	79.38
391.411	95.38
391.636	85.38
391.86	90.38
392.085	97.38
392.31	82.38
392.534	100.38
392.759	96.38
392.984	61.38
393.208	79.38
393.433	78.38
393.658	78.38
393.882	86.38
394.107	113.38
394.331	89.38
394.556	82.38
394.78	91.38
395.005	111.38
395.229	84.38
395.454	91.38
395.678	88.38
395.903	88.38
396.127	94.38
396.352	87.38
396.576	89.38
396.801	96.38
397.025	87.38
397.249	69.38
397.474	105.38
397.698	92.38
397.922	96.38
398.147	89.38
398.371	71.38
398.595	89.38
398.82	92.38
399.044	95.38
399.268	85.38
399.492	94.38
399.717	87.38
399.941	82.38
400.165	99.38
400.389	89.38
400.613	90.38
400.837	87.38
401.062	103.38
401.286	105.38
401.51	87.38
401.734	80.38
401.958	83.38
402.182	91.38
402.406	82.38
402.63	96.38
402.854	76.38
403.078	86.38
403.302	80.38
403.526	105.38
403.75	103.38
403.974	80.38
404.198	97.38
404.422	89.38
404.645	93.38
404.869	95.38
405.093	93.38
405.317	91.38
405.541	110.38
405.765	103.38
405.988	101.38
406.212	84.38
406.436	87.38
406.66	100.38
406.883	114.38
407.107	94.38
407.331	97.38
407.555	89.38
407.778	92.38
408.002	80.38
408.226	105.38
408.449	84.38
408.673	91.38
408.896	105.38
409.12	86.38
409.344	111.38
409.567	101.38
409.791	104.38
410.014	91.38
410.238	90.38
410.461	91.38
410.685	88.38
410.908	94.38
411.132	97.38
411.355	93.38
411.578	96.38
411.802	89.38
412.025	94.38
412.249	94.38
412.472	82.38
412.695	94.38
412.919	98.38
413.142	100.38
413.365	97.38
413.589	102.38
413.812	88.38
414.035	102.38
414.258	85.38
414.482	91.38
414.705	93.38
414.928	96.38
415.151	98.38
415.374	94.38
415.597	77.38
415.821	93.38
416.044	90.38
416.267	98.38
416.49	103.38
416.713	94.38
416.936	100.38
417.159	89.38
417.382	89.38
417.605	86.38
417.828	102.38
418.051	95.38
418.274	97.38
418.497	105.38
418.72	103.38
418.943	93.38
419.166	101.38
419.389	102.38
419.611	101.38
419.834	103.38
420.057	95.38
420.28	99.38
420.503	99.38
420.726	83.38
420.948	101.38
421.171	91.38
421.394	99.38
421.617	97.38
421.839	92.38
422.062	93.38
422.285	118.38
422.507	96.38
422.73	85.38
422.953	101.38
423.175	98.38
423.398	98.38
423.621	112.38
423.843	95.38
424.066	101.38
424.288	110.38
424.511	98.38
424.733	114.38
424.956	114.38
425.178	107.38
425.401	91.38
425.623	98.38
425.846	99.38
426.068	99.38
426.291	99.38
426.513	95.38
426.735	103.38
426.958	101.38
427.18	104.38
427.402	111.38
427.625	112.38
427.847	110.38
428.069	96.38
428.292	87.38
428.514	91.38
428.736	90.38
428.958	98.38
429.181	96.38
429.403	109.38
429.625	91.38
429.847	96.38
430.069	90.38
430.292	114.38
430.514	103.38
430.736	92.38
430.958	97.38
431.18	105.38
431.402	109.38
431.624	103.38
431.846	90.38
432.068	72.38
432.29	64.38
432.512	96.38
432.734	98.38
432.956	94.38
433.178	107.38
433.4	105.38
433.622	108.38
433.844	99.38
434.066	99.38
434.287	95.38
434.509	81.38
434.731	90.38
434.953	100.38
435.175	98.38
435.397	93.38
435.618	90.38
435.84	97.38
436.062	93.38
436.284	74.38
436.505	84.38
436.727	95.38
436.949	103.38
437.17	94.38
437.392	89.38
437.614	89.38
437.835	80.38
438.057	78.38
438.278	86.38
438.5	85.38
438.721	106.38
438.943	98.38
439.165	98.38
439.386	99.38
439.608	102.38
439.829	109.38
440.05	85.38
440.272	111.38
440.493	105.38
440.715	95.38
440.936	115.38
441.158	108.38
441.379	103.38
441.6	105.38
441.822	105.38
442.043	110.38
442.264	95.38
442.486	97.38
442.707	97.38
442.928	95.38
443.149	85.38
443.371	106.38
443.592	85.38
443.813	99.38
444.034	104.38
444.255	98.38
444.476	104.38
444.698	102.38
444.919	99.38
445.14	288.38
445.361	189.38
445.582	122.38
445.803	94.38
446.024	104.38
446.245	104.38
446.466	112.38
446.687	106.38
446.908	120.38
447.129	110.38
447.35	105.38
447.571	95.38
447.792	110.38
448.013	99.38
448.234	108.38
448.455	102.38
448.675	110.38
448.896	111.38
449.117	104.38
449.338	97.38
449.559	101.38
449.779	113.38
450	113.38
450.221	109.38
450.442	108.38
450.662	103.38
450.883	111.38
451.104	109.38
451.324	97.38
451.545	111.38
451.766	101.38
451.986	104.38
452.207	106.38
452.428	99.38
452.648	93.38
452.869	106.38
453.089	83.38
453.31	73.38
453.53	99.38
453.751	80.38
453.971	93.38
454.192	74.38
454.412	92.38
454.633	85.38
454.853	94.38
455.073	82.38
455.294	85.38
455.514	93.38
455.734	86.38
455.955	92.38
456.175	97.38
456.395	97.38
456.616	80.38
456.836	85.38
457.056	82.38
457.276	87.38
457.497	83.38
457.717	85.38
457.937	91.38
458.157	86.38
458.377	83.38
458.598	82.38
458.818	82.38
459.038	72.38
459.258	77.38
459.478	79.38
459.698	77.38
459.918	76.38
460.138	94.38
460.358	76.38
460.578	92.38
460.798	97.38
461.018	92.38
461.238	87.38
461.458	89.38
461.678	81.38
461.898	99.38
462.118	88.38
462.338	95.38
462.558	90.38
462.777	91.38
462.997	91.38
463.217	82.38
463.437	100.38
463.657	87.38
463.876	91.38
464.096	90.38
464.316	83.38
464.536	96.38
464.755	105.38
464.975	76.38
465.195	84.38
465.414	92.38
465.634	99.38
465.854	96.38
466.073	92.38
466.293	106.38
466.512	114.38
466.732	95.38
466.951	85.38
467.171	97.38
467.391	93.38
467.61	90.38
467.829	95.38
468.049	95.38
468.268	103.38
468.488	106.38
468.707	102.38
468.927	103.38
469.146	91.38
469.365	85.38
469.585	108.38
469.804	107.38
470.023	92.38
470.243	116.38
470.462	83.38
470.681	101.38
470.901	98.38
471.12	90.38
471.339	115.38
471.558	97.38
471.777	111.38
471.997	105.38
472.216	88.38
472.435	91.38
472.654	82.38
472.873	87.38
473.092	87.38
473.311	96.38
473.53	98.38
473.749	89.38
473.968	94.38
474.187	88.38
474.406	95.38
474.625	103.38
474.844	100.38
475.063	87.38
475.282	88.38
475.501	85.38
475.72	112.38
475.939	93.38
476.158	94.38
476.377	90.38
476.596	95.38
476.814	82.38
477.033	83.38
477.252	91.38
477.471	110.38
477.69	114.38
477.908	115.38
478.127	114.38
478.346	87.38
478.564	91.38
478.783	91.38
479.002	90.38
479.22	90.38
479.439	94.38
479.658	89.38
479.876	89.38
480.095	81.38
480.313	93.38
480.532	80.38
480.751	99.38
480.969	77.38
481.188	69.38
481.406	87.38
481.624	82.38
481.843	78.38
482.061	101.38
482.28	85.38
482.498	84.38
482.717	87.38
482.935	89.38
483.153	100.38
483.372	115.38
483.59	112.38
483.808	97.38
484.027	93.38
484.245	90.38
484.463	89.38
484.681	101.38
484.9	99.38
485.118	93.38
485.336	87.38
485.554	73.38
485.772	73.38
485.99	98.38
486.209	85.38
486.427	81.38
486.645	83.38
486.863	102.38
487.081	97.38
487.299	78.38
487.517	93.38
487.735	107.38
487.953	121.38
488.171	121.38
488.389	85.38
488.607	88.38
488.825	82.38
489.043	102.38
489.261	111.38
489.479	112.38
489.696	111.38
489.914	109.38
490.132	98.38
490.35	109.38
490.568	107.38
490.786	121.38
491.003	102.38
491.221	106.38
491.439	107.38
491.657	119.38
491.874	123.38
492.092	121.38
492.31	147.38
492.527	122.38
492.745	114.38
492.963	107.38
493.18	113.38
493.398	110.38
493.615	122.38
493.833	117.38
494.05	113.38
494.268	128.38
494.485	118.38
494.703	106.38
494.92	115.38
495.138	109.38
495.355	107.38
495.573	102.38
495.79	118.38
496.008	108.38
496.225	115.38
496.442	105.38
496.66	103.38
496.877	121.38
497.094	120.38
497.312	101.38
497.529	107.38
497.746	93.38
497.963	84.38
498.181	101.38
498.398	91.38
498.615	96.38
498.832	81.38
499.049	86.38
499.267	99.38
499.484	87.38
499.701	94.38
499.918	94.38
500.135	99.38
500.352	102.38
500.569	95.38
500.786	110.38
501.003	106.38
501.22	109.38
501.437	111.38
501.654	106.38
501.871	101.38
502.088	99.38
502.305	97.38
502.522	88.38
502.739	98.38
502.956	94.38
503.172	89.38
503.389	86.38
503.606	93.38
503.823	104.38
504.04	106.38
504.256	108.38
504.473	83.38
504.69	105.38
504.907	107.38
505.123	90.38
505.34	98.38
505.557	96.38
505.773	94.38
505.99	95.38
506.207	91.38
506.423	92.38
506.64	98.38
506.856	94.38
507.073	75.38
507.289	95.38
507.506	94.38
507.722	97.38
507.939	93.38
508.155	95.38
508.372	91.38
508.588	94.38
508.805	92.38
509.021	87.38
509.238	87.38
509.454	86.38
509.67	75.38
509.887	72.38
510.103	90.38
510.319	80.38
510.536	89.38
510.752	72.38
510.968	81.38
511.184	82.38
511.401	71.38
511.617	77.38
511.833	70.38
512.049	81.38
512.265	94.38
512.481	81.38
512.698	76.38
512.914	74.38
513.13	85.38
513.346	73.38
513.562	93.38
513.778	87.38
513.994	91.38
514.21	79.38
514.426	87.38
514.642	85.38
514.858	82.38
515.074	85.38
515.29	90.38
515.506	57.38
515.721	85.38
515.937	95.38
516.153	81.38
516.369	76.38
516.585	90.38
516.801	75.38
517.016	88.38
517.232	78.38
517.448	85.38
