Data from SampB_HRD10591_00081.txt Node
Date: Mon Jan 19 11:33:56 EST 2026
User: Yrep
Spectrometer: HR+D1059
Trigger mode: 0
Integration Time (sec): 3.443000E-1
Scans to average: 1
Electric dark correction enabled: true
Nonlinearity correction enabled: false
Boxcar width: 0
XAxis mode: Wavelengths
Number of Pixels in Spectrum: 2048
>>>>>Begin Spectral Data<<<<<
223.165	-20.56
223.4	-20.56
223.635	-20.56
223.869	-20.56
224.104	-23.56
224.338	-21.56
224.573	-10.56
224.808	2.44
225.042	-11.56
225.277	-0.56
225.511	10.44
225.746	-15.56
225.98	-1.56
226.215	18.44
226.449	18.44
226.683	8.44
226.918	38.44
227.152	29.44
227.387	50.44
227.621	62.44
227.856	44.44
228.09	43.44
228.324	47.44
228.559	61.44
228.793	68.44
229.027	69.44
229.262	80.44
229.496	82.44
229.73	83.44
229.964	89.44
230.199	86.44
230.433	93.44
230.667	102.44
230.901	98.44
231.136	96.44
231.37	114.44
231.604	101.44
231.838	110.44
232.072	108.44
232.306	91.44
232.541	104.44
232.775	73.44
233.009	100.44
233.243	98.44
233.477	111.44
233.711	104.44
233.945	104.44
234.179	116.44
234.413	105.44
234.647	114.44
234.881	104.44
235.115	98.44
235.349	103.44
235.583	108.44
235.817	110.44
236.051	106.44
236.285	106.44
236.519	102.44
236.753	112.44
236.987	112.44
237.221	102.44
237.455	115.44
237.689	115.44
237.922	92.44
238.156	113.44
238.39	110.44
238.624	99.44
238.858	114.44
239.091	98.44
239.325	111.44
239.559	108.44
239.793	123.44
240.027	118.44
240.26	104.44
240.494	100.44
240.728	100.44
240.961	111.44
241.195	128.44
241.429	121.44
241.662	114.44
241.896	104.44
242.13	117.44
242.363	117.44
242.597	125.44
242.83	125.44
243.064	119.44
243.298	132.44
243.531	118.44
243.765	117.44
243.998	115.44
244.232	135.44
244.465	115.44
244.699	127.44
244.932	127.44
245.166	118.44
245.399	119.44
245.633	123.44
245.866	125.44
246.099	135.44
246.333	118.44
246.566	118.44
246.8	124.44
247.033	104.44
247.266	125.44
247.5	119.44
247.733	127.44
247.966	125.44
248.2	131.44
248.433	132.44
248.666	124.44
248.899	129.44
249.133	119.44
249.366	144.44
249.599	143.44
249.832	162.44
250.066	150.44
250.299	133.44
250.532	149.44
250.765	135.44
250.998	126.44
251.231	134.44
251.465	144.44
251.698	128.44
251.931	143.44
252.164	127.44
252.397	147.44
252.63	142.44
252.863	147.44
253.096	166.44
253.329	161.44
253.562	160.44
253.795	154.44
254.028	177.44
254.261	152.44
254.494	164.44
254.727	165.44
254.96	140.44
255.193	159.44
255.426	156.44
255.659	155.44
255.892	163.44
256.124	162.44
256.357	159.44
256.59	162.44
256.823	148.44
257.056	143.44
257.289	123.44
257.521	149.44
257.754	159.44
257.987	162.44
258.22	174.44
258.452	154.44
258.685	161.44
258.918	155.44
259.151	149.44
259.383	153.44
259.616	174.44
259.849	156.44
260.081	191.44
260.314	203.44
260.547	163.44
260.779	171.44
261.012	164.44
261.244	169.44
261.477	189.44
261.71	169.44
261.942	162.44
262.175	168.44
262.407	147.44
262.64	165.44
262.872	173.44
263.105	166.44
263.337	176.44
263.57	161.44
263.802	156.44
264.035	146.44
264.267	161.44
264.499	136.44
264.732	162.44
264.964	158.44
265.197	159.44
265.429	146.44
265.661	154.44
265.894	154.44
266.126	168.44
266.358	153.44
266.591	162.44
266.823	166.44
267.055	158.44
267.287	158.44
267.52	160.44
267.752	162.44
267.984	181.44
268.216	161.44
268.448	185.44
268.681	173.44
268.913	167.44
269.145	162.44
269.377	159.44
269.609	164.44
269.841	164.44
270.073	139.44
270.306	169.44
270.538	158.44
270.77	174.44
271.002	180.44
271.234	173.44
271.466	186.44
271.698	192.44
271.93	186.44
272.162	195.44
272.394	197.44
272.626	176.44
272.858	172.44
273.09	187.44
273.322	172.44
273.553	182.44
273.785	192.44
274.017	214.44
274.249	227.44
274.481	236.44
274.713	234.44
274.945	244.44
275.176	238.44
275.408	213.44
275.64	218.44
275.872	199.44
276.104	206.44
276.335	189.44
276.567	186.44
276.799	174.44
277.031	193.44
277.262	200.44
277.494	188.44
277.726	187.44
277.957	209.44
278.189	212.44
278.421	198.44
278.652	204.44
278.884	200.44
279.115	193.44
279.347	188.44
279.579	170.44
279.81	195.44
280.042	195.44
280.273	203.44
280.505	200.44
280.736	198.44
280.968	192.44
281.199	189.44
281.431	188.44
281.662	197.44
281.894	199.44
282.125	194.44
282.356	174.44
282.588	194.44
282.819	178.44
283.051	196.44
283.282	183.44
283.513	206.44
283.745	213.44
283.976	189.44
284.207	213.44
284.439	214.44
284.67	204.44
284.901	194.44
285.132	178.44
285.364	174.44
285.595	196.44
285.826	199.44
286.057	216.44
286.288	206.44
286.52	196.44
286.751	202.44
286.982	202.44
287.213	221.44
287.444	203.44
287.675	216.44
287.906	223.44
288.138	187.44
288.369	198.44
288.6	212.44
288.831	189.44
289.062	196.44
289.293	211.44
289.524	184.44
289.755	200.44
289.986	208.44
290.217	199.44
290.448	198.44
290.679	214.44
290.91	212.44
291.141	210.44
291.371	213.44
291.602	197.44
291.833	211.44
292.064	202.44
292.295	195.44
292.526	210.44
292.757	214.44
292.987	199.44
293.218	199.44
293.449	214.44
293.68	200.44
293.91	207.44
294.141	230.44
294.372	220.44
294.603	213.44
294.833	204.44
295.064	230.44
295.295	209.44
295.525	230.44
295.756	219.44
295.987	221.44
296.217	231.44
296.448	235.44
296.679	214.44
296.909	221.44
297.14	218.44
297.37	222.44
297.601	215.44
297.831	224.44
298.062	213.44
298.292	214.44
298.523	228.44
298.753	230.44
298.984	226.44
299.214	221.44
299.445	225.44
299.675	220.44
299.905	206.44
300.136	224.44
300.366	235.44
300.597	232.44
300.827	237.44
301.057	232.44
301.288	244.44
301.518	230.44
301.748	243.44
301.979	269.44
302.209	256.44
302.439	225.44
302.669	235.44
302.9	236.44
303.13	232.44
303.36	246.44
303.59	226.44
303.82	211.44
304.051	246.44
304.281	225.44
304.511	238.44
304.741	226.44
304.971	219.44
305.201	238.44
305.431	250.44
305.661	241.44
305.891	244.44
306.121	240.44
306.352	235.44
306.582	223.44
306.812	224.44
307.042	236.44
307.272	237.44
307.502	237.44
307.731	252.44
307.961	244.44
308.191	234.44
308.421	224.44
308.651	242.44
308.881	242.44
309.111	236.44
309.341	227.44
309.571	239.44
309.8	252.44
310.03	221.44
310.26	221.44
310.49	228.44
310.72	230.44
310.949	230.44
311.179	218.44
311.409	220.44
311.639	227.44
311.868	225.44
312.098	226.44
312.328	242.44
312.557	243.44
312.787	238.44
313.017	232.44
313.246	236.44
313.476	245.44
313.706	235.44
313.935	234.44
314.165	245.44
314.394	266.44
314.624	242.44
314.853	237.44
315.083	237.44
315.312	261.44
315.542	247.44
315.771	231.44
316.001	246.44
316.23	235.44
316.46	229.44
316.689	234.44
316.919	230.44
317.148	253.44
317.377	246.44
317.607	247.44
317.836	235.44
318.065	241.44
318.295	239.44
318.524	238.44
318.753	235.44
318.983	237.44
319.212	225.44
319.441	247.44
319.67	247.44
319.9	246.44
320.129	234.44
320.358	243.44
320.587	247.44
320.816	232.44
321.046	239.44
321.275	278.44
321.504	246.44
321.733	242.44
321.962	251.44
322.191	244.44
322.42	240.44
322.649	246.44
322.878	264.44
323.108	262.44
323.337	256.44
323.566	268.44
323.795	260.44
324.024	266.44
324.253	251.44
324.482	239.44
324.71	276.44
324.939	266.44
325.168	267.44
325.397	270.44
325.626	250.44
325.855	258.44
326.084	284.44
326.313	274.44
326.542	286.44
326.77	268.44
326.999	267.44
327.228	273.44
327.457	269.44
327.686	278.44
327.914	288.44
328.143	324.44
328.372	306.44
328.6	266.44
328.829	300.44
329.058	300.44
329.287	295.44
329.515	286.44
329.744	333.44
329.972	336.44
330.201	367.44
330.43	391.44
330.658	327.44
330.887	312.44
331.115	294.44
331.344	301.44
331.572	299.44
331.801	278.44
332.03	296.44
332.258	307.44
332.486	314.44
332.715	307.44
332.943	317.44
333.172	326.44
333.4	328.44
333.629	363.44
333.857	349.44
334.085	397.44
334.314	432.44
334.542	479.44
334.771	455.44
334.999	382.44
335.227	342.44
335.455	305.44
335.684	337.44
335.912	314.44
336.14	334.44
336.369	308.44
336.597	304.44
336.825	302.44
337.053	316.44
337.281	301.44
337.51	295.44
337.738	298.44
337.966	267.44
338.194	295.44
338.422	293.44
338.65	284.44
338.878	286.44
339.106	281.44
339.334	295.44
339.562	282.44
339.79	271.44
340.018	286.44
340.246	270.44
340.474	268.44
340.702	275.44
340.93	284.44
341.158	269.44
341.386	260.44
341.614	272.44
341.842	278.44
342.07	282.44
342.298	274.44
342.526	282.44
342.754	274.44
342.981	279.44
343.209	277.44
343.437	314.44
343.665	304.44
343.893	326.44
344.12	351.44
344.348	304.44
344.576	295.44
344.804	289.44
345.031	278.44
345.259	278.44
345.487	286.44
345.714	277.44
345.942	261.44
346.17	282.44
346.397	273.44
346.625	250.44
346.853	290.44
347.08	266.44
347.308	274.44
347.535	256.44
347.763	261.44
347.99	271.44
348.218	282.44
348.445	258.44
348.673	274.44
348.9	269.44
349.128	269.44
349.355	270.44
349.583	281.44
349.81	258.44
350.037	260.44
350.265	246.44
350.492	251.44
350.72	258.44
350.947	279.44
351.174	268.44
351.402	266.44
351.629	254.44
351.856	254.44
352.083	260.44
352.311	255.44
352.538	254.44
352.765	271.44
352.992	252.44
353.22	274.44
353.447	267.44
353.674	258.44
353.901	270.44
354.128	269.44
354.355	253.44
354.583	275.44
354.81	253.44
355.037	282.44
355.264	274.44
355.491	266.44
355.718	271.44
355.945	269.44
356.172	258.44
356.399	268.44
356.626	268.44
356.853	286.44
357.08	297.44
357.307	303.44
357.534	258.44
357.761	279.44
357.988	286.44
358.215	312.44
358.441	283.44
358.668	290.44
358.895	276.44
359.122	262.44
359.349	270.44
359.576	249.44
359.802	254.44
360.029	256.44
360.256	266.44
360.483	280.44
360.709	280.44
360.936	304.44
361.163	297.44
361.39	272.44
361.616	285.44
361.843	278.44
362.07	292.44
362.296	279.44
362.523	273.44
362.749	280.44
362.976	265.44
363.203	293.44
363.429	285.44
363.656	295.44
363.882	248.44
364.109	270.44
364.335	268.44
364.562	262.44
364.788	272.44
365.015	290.44
365.241	275.44
365.468	277.44
365.694	244.44
365.92	266.44
366.147	264.44
366.373	270.44
366.599	258.44
366.826	261.44
367.052	264.44
367.278	271.44
367.505	263.44
367.731	289.44
367.957	268.44
368.184	255.44
368.41	262.44
368.636	294.44
368.862	275.44
369.089	278.44
369.315	272.44
369.541	287.44
369.767	270.44
369.993	271.44
370.219	269.44
370.445	259.44
370.672	286.44
370.898	292.44
371.124	278.44
371.35	279.44
371.576	291.44
371.802	311.44
372.028	310.44
372.254	303.44
372.48	314.44
372.706	314.44
372.932	296.44
373.158	323.44
373.384	339.44
373.61	363.44
373.835	331.44
374.061	306.44
374.287	310.44
374.513	334.44
374.739	358.44
374.965	359.44
375.191	341.44
375.416	315.44
375.642	308.44
375.868	337.44
376.094	305.44
376.319	324.44
376.545	307.44
376.771	304.44
376.997	281.44
377.222	294.44
377.448	274.44
377.674	275.44
377.899	287.44
378.125	285.44
378.35	304.44
378.576	282.44
378.802	277.44
379.027	292.44
379.253	285.44
379.478	290.44
379.704	305.44
379.929	291.44
380.155	287.44
380.38	286.44
380.606	288.44
380.831	303.44
381.057	306.44
381.282	299.44
381.507	310.44
381.733	323.44
381.958	324.44
382.184	347.44
382.409	343.44
382.634	364.44
382.86	353.44
383.085	326.44
383.31	329.44
383.535	337.44
383.761	331.44
383.986	341.44
384.211	332.44
384.436	343.44
384.662	338.44
384.887	339.44
385.112	319.44
385.337	357.44
385.562	336.44
385.787	341.44
386.013	356.44
386.238	365.44
386.463	336.44
386.688	364.44
386.913	339.44
387.138	320.44
387.363	338.44
387.588	368.44
387.813	352.44
388.038	356.44
388.263	356.44
388.488	366.44
388.713	354.44
388.938	347.44
389.163	337.44
389.387	339.44
389.612	331.44
389.837	329.44
390.062	338.44
390.287	336.44
390.512	319.44
390.736	316.44
390.961	356.44
391.186	343.44
391.411	346.44
391.636	365.44
391.86	360.44
392.085	391.44
392.31	349.44
392.534	373.44
392.759	362.44
392.984	365.44
393.208	379.44
393.433	383.44
393.658	374.44
393.882	357.44
394.107	373.44
394.331	365.44
394.556	374.44
394.78	384.44
395.005	387.44
395.229	395.44
395.454	386.44
395.678	385.44
395.903	394.44
396.127	381.44
396.352	418.44
396.576	373.44
396.801	408.44
397.025	406.44
397.249	388.44
397.474	384.44
397.698	385.44
397.922	394.44
398.147	386.44
398.371	403.44
398.595	396.44
398.82	433.44
399.044	462.44
399.268	513.44
399.492	528.44
399.717	578.44
399.941	558.44
400.165	517.44
400.389	481.44
400.613	464.44
400.837	441.44
401.062	428.44
401.286	412.44
401.51	425.44
401.734	412.44
401.958	412.44
402.182	442.44
402.406	436.44
402.63	435.44
402.854	454.44
403.078	454.44
403.302	460.44
403.526	461.44
403.75	461.44
403.974	485.44
404.198	465.44
404.422	507.44
404.645	504.44
404.869	482.44
405.093	462.44
405.317	466.44
405.541	475.44
405.765	465.44
405.988	473.44
406.212	472.44
406.436	477.44
406.66	510.44
406.883	480.44
407.107	522.44
407.331	517.44
407.555	517.44
407.778	481.44
408.002	478.44
408.226	493.44
408.449	480.44
408.673	469.44
408.896	456.44
409.12	455.44
409.344	445.44
409.567	463.44
409.791	460.44
410.014	446.44
410.238	467.44
410.461	468.44
410.685	466.44
410.908	442.44
411.132	450.44
411.355	437.44
411.578	431.44
411.802	436.44
412.025	446.44
412.249	435.44
412.472	455.44
412.695	440.44
412.919	423.44
413.142	442.44
413.365	438.44
413.589	427.44
413.812	454.44
414.035	437.44
414.258	440.44
414.482	430.44
414.705	446.44
414.928	420.44
415.151	429.44
415.374	438.44
415.597	425.44
415.821	410.44
416.044	421.44
416.267	397.44
416.49	416.44
416.713	412.44
416.936	413.44
417.159	418.44
417.382	430.44
417.605	405.44
417.828	428.44
418.051	433.44
418.274	463.44
418.497	434.44
418.72	442.44
418.943	443.44
419.166	445.44
419.389	474.44
419.611	482.44
419.834	460.44
420.057	450.44
420.28	444.44
420.503	455.44
420.726	434.44
420.948	424.44
421.171	439.44
421.394	436.44
421.617	434.44
421.839	432.44
422.062	427.44
422.285	436.44
422.507	439.44
422.73	435.44
422.953	458.44
423.175	428.44
423.398	426.44
423.621	429.44
423.843	463.44
424.066	461.44
424.288	445.44
424.511	449.44
424.733	452.44
424.956	422.44
425.178	433.44
425.401	414.44
425.623	427.44
425.846	421.44
426.068	416.44
426.291	428.44
426.513	413.44
426.735	432.44
426.958	422.44
427.18	424.44
427.402	441.44
427.625	413.44
427.847	402.44
428.069	408.44
428.292	412.44
428.514	401.44
428.736	375.44
428.958	396.44
429.181	372.44
429.403	378.44
429.625	405.44
429.847	388.44
430.069	381.44
430.292	379.44
430.514	388.44
430.736	399.44
430.958	412.44
431.18	396.44
431.402	411.44
431.624	371.44
431.846	379.44
432.068	367.44
432.29	367.44
432.512	403.44
432.734	423.44
432.956	388.44
433.178	385.44
433.4	375.44
433.622	396.44
433.844	387.44
434.066	371.44
434.287	354.44
434.509	391.44
434.731	383.44
434.953	408.44
435.175	410.44
435.397	390.44
435.618	381.44
435.84	361.44
436.062	370.44
436.284	380.44
436.505	366.44
436.727	373.44
436.949	381.44
437.17	381.44
437.392	373.44
437.614	371.44
437.835	371.44
438.057	381.44
438.278	376.44
438.5	403.44
438.721	384.44
438.943	386.44
439.165	409.44
439.386	397.44
439.608	402.44
439.829	390.44
440.05	403.44
440.272	406.44
440.493	405.44
440.715	407.44
440.936	418.44
441.158	388.44
441.379	419.44
441.6	431.44
441.822	431.44
442.043	420.44
442.264	410.44
442.486	426.44
442.707	410.44
442.928	429.44
443.149	430.44
443.371	418.44
443.592	410.44
443.813	451.44
444.034	441.44
444.255	462.44
444.476	463.44
444.698	468.44
444.919	508.44
445.14	642.44
445.361	527.44
445.582	434.44
445.803	404.44
446.024	412.44
446.245	428.44
446.466	409.44
446.687	394.44
446.908	405.44
447.129	399.44
447.35	394.44
447.571	379.44
447.792	367.44
448.013	385.44
448.234	368.44
448.455	374.44
448.675	358.44
448.896	358.44
449.117	351.44
449.338	342.44
449.559	357.44
449.779	364.44
450	333.44
450.221	360.44
450.442	360.44
450.662	370.44
450.883	363.44
451.104	367.44
451.324	366.44
451.545	352.44
451.766	343.44
451.986	359.44
452.207	354.44
452.428	346.44
452.648	325.44
452.869	332.44
453.089	348.44
453.31	343.44
453.53	336.44
453.751	350.44
453.971	324.44
454.192	336.44
454.412	322.44
454.633	332.44
454.853	352.44
455.073	340.44
455.294	325.44
455.514	339.44
455.734	342.44
455.955	331.44
456.175	314.44
456.395	316.44
456.616	310.44
456.836	336.44
457.056	327.44
457.276	321.44
457.497	339.44
457.717	321.44
457.937	324.44
458.157	318.44
458.377	316.44
458.598	328.44
458.818	349.44
459.038	333.44
459.258	343.44
459.478	347.44
459.698	375.44
459.918	403.44
460.138	420.44
460.358	412.44
460.578	422.44
460.798	446.44
461.018	434.44
461.238	436.44
461.458	439.44
461.678	401.44
461.898	429.44
462.118	418.44
462.338	464.44
462.558	474.44
462.777	474.44
462.997	496.44
463.217	499.44
463.437	496.44
463.657	464.44
463.876	469.44
464.096	468.44
464.316	465.44
464.536	477.44
464.755	453.44
464.975	443.44
465.195	447.44
465.414	430.44
465.634	372.44
465.854	387.44
466.073	394.44
466.293	379.44
466.512	386.44
466.732	388.44
466.951	376.44
467.171	390.44
467.391	388.44
467.61	374.44
467.829	396.44
468.049	447.44
468.268	461.44
468.488	404.44
468.707	364.44
468.927	380.44
469.146	375.44
469.365	383.44
469.585	377.44
469.804	376.44
470.023	385.44
470.243	369.44
470.462	386.44
470.681	382.44
470.901	396.44
471.12	395.44
471.339	380.44
471.558	381.44
471.777	379.44
471.997	407.44
472.216	493.44
472.435	557.44
472.654	453.44
472.873	387.44
473.092	385.44
473.311	371.44
473.53	350.44
473.749	362.44
473.968	364.44
474.187	353.44
474.406	360.44
474.625	377.44
474.844	364.44
475.063	366.44
475.282	363.44
475.501	362.44
475.72	368.44
475.939	365.44
476.158	384.44
476.377	368.44
476.596	365.44
476.814	360.44
477.033	373.44
477.252	372.44
477.471	394.44
477.69	412.44
477.908	412.44
478.127	414.44
478.346	399.44
478.564	430.44
478.783	428.44
479.002	445.44
479.22	458.44
479.439	427.44
479.658	430.44
479.876	416.44
480.095	433.44
480.313	475.44
480.532	471.44
480.751	474.44
480.969	510.44
481.188	735.44
481.406	663.44
481.624	500.44
481.843	459.44
482.061	426.44
482.28	435.44
482.498	422.44
482.717	406.44
482.935	406.44
483.153	421.44
483.372	389.44
483.59	416.44
483.808	412.44
484.027	412.44
484.245	419.44
484.463	408.44
484.681	412.44
484.9	402.44
485.118	427.44
485.336	389.44
485.554	400.44
485.772	397.44
485.99	395.44
486.209	407.44
486.427	412.44
486.645	391.44
486.863	414.44
487.081	408.44
487.299	438.44
487.517	405.44
487.735	431.44
487.953	445.44
488.171	438.44
488.389	437.44
488.607	434.44
488.825	423.44
489.043	411.44
489.261	428.44
489.479	413.44
489.696	417.44
489.914	413.44
490.132	420.44
490.35	421.44
490.568	434.44
490.786	415.44
491.003	451.44
491.221	461.44
491.439	454.44
491.657	444.44
491.874	484.44
492.092	498.44
492.31	510.44
492.527	519.44
492.745	472.44
492.963	477.44
493.18	458.44
493.398	474.44
493.615	475.44
493.833	470.44
494.05	457.44
494.268	465.44
494.485	463.44
494.703	469.44
494.92	474.44
495.138	439.44
495.355	464.44
495.573	480.44
495.79	482.44
496.008	503.44
496.225	488.44
496.442	483.44
496.66	463.44
496.877	476.44
497.094	488.44
497.312	496.44
497.529	502.44
497.746	503.44
497.963	495.44
498.181	528.44
498.398	589.44
498.615	564.44
498.832	610.44
499.049	613.44
499.267	680.44
499.484	739.44
499.701	801.44
499.918	848.44
500.135	946.44
500.352	1053.44
500.569	1058.44
500.786	1052.44
501.003	970.44
501.22	882.44
501.437	804.44
501.654	751.44
501.871	658.44
502.088	628.44
502.305	611.44
502.522	579.44
502.739	571.44
502.956	571.44
