Data from SampB_HRD10591_00038.txt Node
Date: Mon Jan 19 11:33:41 EST 2026
User: Yrep
Spectrometer: HR+D1059
Trigger mode: 0
Integration Time (sec): 3.443000E-1
Scans to average: 1
Electric dark correction enabled: true
Nonlinearity correction enabled: false
Boxcar width: 0
XAxis mode: Wavelengths
Number of Pixels in Spectrum: 2048
>>>>>Begin Spectral Data<<<<<
223.165	-15.69
223.4	-15.69
223.635	-15.69
223.869	-22.69
224.104	-22.69
224.338	-23.69
224.573	-22.69
224.808	-5.69
225.042	9.31
225.277	-0.69
225.511	-7.69
225.746	-5.69
225.98	12.31
226.215	-3.69
226.449	16.31
226.683	20.31
226.918	28.31
227.152	44.31
227.387	43.31
227.621	50.31
227.856	35.31
228.09	47.31
228.324	50.31
228.559	56.31
228.793	63.31
229.027	76.31
229.262	76.31
229.496	77.31
229.73	71.31
229.964	86.31
230.199	81.31
230.433	94.31
230.667	90.31
230.901	89.31
231.136	84.31
231.37	93.31
231.604	87.31
231.838	83.31
232.072	80.31
232.306	88.31
232.541	107.31
232.775	66.31
233.009	84.31
233.243	80.31
233.477	90.31
233.711	88.31
233.945	108.31
234.179	87.31
234.413	92.31
234.647	84.31
234.881	80.31
235.115	90.31
235.349	85.31
235.583	93.31
235.817	95.31
236.051	90.31
236.285	80.31
236.519	88.31
236.753	88.31
236.987	70.31
237.221	89.31
237.455	91.31
237.689	82.31
237.922	85.31
238.156	80.31
238.39	86.31
238.624	92.31
238.858	91.31
239.091	98.31
239.325	91.31
239.559	95.31
239.793	89.31
240.027	98.31
240.26	83.31
240.494	99.31
240.728	90.31
240.961	93.31
241.195	108.31
241.429	101.31
241.662	93.31
241.896	90.31
242.13	98.31
242.363	92.31
242.597	95.31
242.83	109.31
243.064	97.31
243.298	93.31
243.531	86.31
243.765	105.31
243.998	96.31
244.232	98.31
244.465	91.31
244.699	103.31
244.932	98.31
245.166	92.31
245.399	86.31
245.633	116.31
245.866	97.31
246.099	100.31
246.333	104.31
246.566	93.31
246.8	102.31
247.033	97.31
247.266	118.31
247.5	83.31
247.733	97.31
247.966	100.31
248.2	94.31
248.433	100.31
248.666	79.31
248.899	108.31
249.133	116.31
249.366	120.31
249.599	109.31
249.832	107.31
250.066	110.31
250.299	107.31
250.532	117.31
250.765	97.31
250.998	95.31
251.231	120.31
251.465	109.31
251.698	103.31
251.931	111.31
252.164	112.31
252.397	85.31
252.63	108.31
252.863	113.31
253.096	108.31
253.329	115.31
253.562	102.31
253.795	124.31
254.028	110.31
254.261	118.31
254.494	113.31
254.727	121.31
254.96	98.31
255.193	108.31
255.426	122.31
255.659	122.31
255.892	138.31
256.124	140.31
256.357	131.31
256.59	133.31
256.823	113.31
257.056	128.31
257.289	110.31
257.521	116.31
257.754	111.31
257.987	104.31
258.22	128.31
258.452	124.31
258.685	111.31
258.918	135.31
259.151	108.31
259.383	114.31
259.616	123.31
259.849	126.31
260.081	136.31
260.314	139.31
260.547	126.31
260.779	111.31
261.012	127.31
261.244	129.31
261.477	130.31
261.71	120.31
261.942	137.31
262.175	142.31
262.407	116.31
262.64	117.31
262.872	129.31
263.105	136.31
263.337	136.31
263.57	116.31
263.802	121.31
264.035	128.31
264.267	109.31
264.499	123.31
264.732	123.31
264.964	110.31
265.197	113.31
265.429	118.31
265.661	124.31
265.894	127.31
266.126	120.31
266.358	115.31
266.591	127.31
266.823	120.31
267.055	116.31
267.287	117.31
267.52	125.31
267.752	125.31
267.984	109.31
268.216	113.31
268.448	139.31
268.681	136.31
268.913	119.31
269.145	128.31
269.377	123.31
269.609	117.31
269.841	130.31
270.073	129.31
270.306	127.31
270.538	128.31
270.77	111.31
271.002	131.31
271.234	124.31
271.466	142.31
271.698	127.31
271.93	146.31
272.162	138.31
272.394	136.31
272.626	122.31
272.858	135.31
273.09	120.31
273.322	130.31
273.553	120.31
273.785	139.31
274.017	132.31
274.249	152.31
274.481	157.31
274.713	162.31
274.945	161.31
275.176	157.31
275.408	158.31
275.64	158.31
275.872	156.31
276.104	149.31
276.335	151.31
276.567	148.31
276.799	132.31
277.031	157.31
277.262	158.31
277.494	163.31
277.726	137.31
277.957	145.31
278.189	131.31
278.421	127.31
278.652	154.31
278.884	135.31
279.115	136.31
279.347	151.31
279.579	161.31
279.81	178.31
280.042	166.31
280.273	174.31
280.505	167.31
280.736	157.31
280.968	144.31
281.199	137.31
281.431	153.31
281.662	149.31
281.894	142.31
282.125	133.31
282.356	133.31
282.588	134.31
282.819	132.31
283.051	153.31
283.282	147.31
283.513	168.31
283.745	136.31
283.976	148.31
284.207	144.31
284.439	156.31
284.67	169.31
284.901	158.31
285.132	141.31
285.364	158.31
285.595	150.31
285.826	128.31
286.057	148.31
286.288	127.31
286.52	150.31
286.751	153.31
286.982	146.31
287.213	128.31
287.444	153.31
287.675	156.31
287.906	166.31
288.138	152.31
288.369	154.31
288.6	152.31
288.831	143.31
289.062	162.31
289.293	158.31
289.524	152.31
289.755	142.31
289.986	152.31
290.217	150.31
290.448	151.31
290.679	156.31
290.91	136.31
291.141	168.31
291.371	138.31
291.602	151.31
291.833	144.31
292.064	135.31
292.295	151.31
292.526	147.31
292.757	151.31
292.987	144.31
293.218	135.31
293.449	158.31
293.68	162.31
293.91	161.31
294.141	177.31
294.372	152.31
294.603	159.31
294.833	157.31
295.064	158.31
295.295	152.31
295.525	154.31
295.756	173.31
295.987	154.31
296.217	160.31
296.448	158.31
296.679	171.31
296.909	178.31
297.14	166.31
297.37	158.31
297.601	154.31
297.831	149.31
298.062	162.31
298.292	164.31
298.523	166.31
298.753	155.31
298.984	157.31
299.214	156.31
299.445	154.31
299.675	163.31
299.905	169.31
300.136	169.31
300.366	165.31
300.597	163.31
300.827	178.31
301.057	175.31
301.288	174.31
301.518	156.31
301.748	158.31
301.979	211.31
302.209	177.31
302.439	156.31
302.669	186.31
302.9	148.31
303.13	175.31
303.36	162.31
303.59	178.31
303.82	175.31
304.051	189.31
304.281	158.31
304.511	167.31
304.741	191.31
304.971	181.31
305.201	173.31
305.431	162.31
305.661	158.31
305.891	160.31
306.121	172.31
306.352	167.31
306.582	177.31
306.812	181.31
307.042	171.31
307.272	179.31
307.502	188.31
307.731	196.31
307.961	185.31
308.191	192.31
308.421	169.31
308.651	180.31
308.881	187.31
309.111	181.31
309.341	162.31
309.571	168.31
309.8	167.31
310.03	167.31
310.26	171.31
310.49	179.31
310.72	169.31
310.949	166.31
311.179	152.31
311.409	165.31
311.639	168.31
311.868	160.31
312.098	185.31
312.328	181.31
312.557	169.31
312.787	179.31
313.017	184.31
313.246	179.31
313.476	172.31
313.706	166.31
313.935	173.31
314.165	163.31
314.394	170.31
314.624	169.31
314.853	188.31
315.083	172.31
315.312	175.31
315.542	186.31
315.771	178.31
316.001	175.31
316.23	159.31
316.46	192.31
316.689	184.31
316.919	171.31
317.148	168.31
317.377	185.31
317.607	168.31
317.836	184.31
318.065	175.31
318.295	178.31
318.524	159.31
318.753	186.31
318.983	184.31
319.212	182.31
319.441	177.31
319.67	191.31
319.9	174.31
320.129	170.31
320.358	178.31
320.587	184.31
320.816	155.31
321.046	186.31
321.275	202.31
321.504	186.31
321.733	173.31
321.962	186.31
322.191	179.31
322.42	190.31
322.649	190.31
322.878	200.31
323.108	204.31
323.337	196.31
323.566	212.31
323.795	210.31
324.024	205.31
324.253	200.31
324.482	182.31
324.71	179.31
324.939	206.31
325.168	200.31
325.397	201.31
325.626	190.31
325.855	189.31
326.084	193.31
326.313	209.31
326.542	194.31
326.77	197.31
326.999	183.31
327.228	188.31
327.457	210.31
327.686	204.31
327.914	247.31
328.143	253.31
328.372	255.31
328.6	228.31
328.829	214.31
329.058	220.31
329.287	209.31
329.515	196.31
329.744	248.31
329.972	281.31
330.201	337.31
330.43	348.31
330.658	279.31
330.887	221.31
331.115	208.31
331.344	221.31
331.572	217.31
331.801	233.31
332.03	224.31
332.258	223.31
332.486	224.31
332.715	236.31
332.943	227.31
333.172	242.31
333.4	257.31
333.629	280.31
333.857	299.31
334.085	332.31
334.314	410.31
334.542	464.31
334.771	429.31
334.999	311.31
335.227	287.31
335.455	247.31
335.684	229.31
335.912	247.31
336.14	258.31
336.369	234.31
336.597	235.31
336.825	223.31
337.053	228.31
337.281	240.31
337.51	240.31
337.738	224.31
337.966	217.31
338.194	218.31
338.422	224.31
338.65	237.31
338.878	208.31
339.106	210.31
339.334	215.31
339.562	189.31
339.79	195.31
340.018	200.31
340.246	186.31
340.474	196.31
340.702	183.31
340.93	192.31
341.158	196.31
341.386	174.31
341.614	172.31
341.842	201.31
342.07	175.31
342.298	180.31
342.526	184.31
342.754	180.31
342.981	176.31
343.209	197.31
343.437	225.31
343.665	203.31
343.893	201.31
344.12	226.31
344.348	210.31
344.576	218.31
344.804	202.31
345.031	192.31
345.259	192.31
345.487	167.31
345.714	176.31
345.942	184.31
346.17	189.31
346.397	192.31
346.625	177.31
346.853	188.31
347.08	180.31
347.308	176.31
347.535	170.31
347.763	196.31
347.99	197.31
348.218	209.31
348.445	185.31
348.673	186.31
348.9	209.31
349.128	200.31
349.355	180.31
349.583	163.31
349.81	172.31
350.037	181.31
350.265	184.31
350.492	175.31
350.72	173.31
350.947	191.31
351.174	174.31
351.402	172.31
351.629	171.31
351.856	181.31
352.083	184.31
352.311	176.31
352.538	180.31
352.765	189.31
352.992	189.31
353.22	187.31
353.447	200.31
353.674	192.31
353.901	188.31
354.128	175.31
354.355	173.31
354.583	179.31
354.81	191.31
355.037	194.31
355.264	175.31
355.491	160.31
355.718	192.31
355.945	185.31
356.172	179.31
356.399	203.31
356.626	190.31
356.853	207.31
357.08	194.31
357.307	210.31
357.534	192.31
357.761	196.31
357.988	218.31
358.215	215.31
358.441	186.31
358.668	198.31
358.895	205.31
359.122	205.31
359.349	178.31
359.576	182.31
359.802	183.31
360.029	185.31
360.256	198.31
360.483	192.31
360.709	185.31
360.936	212.31
361.163	189.31
361.39	175.31
361.616	196.31
361.843	174.31
362.07	190.31
362.296	193.31
362.523	178.31
362.749	176.31
362.976	183.31
363.203	198.31
363.429	168.31
363.656	180.31
363.882	188.31
364.109	196.31
364.335	213.31
364.562	204.31
364.788	196.31
365.015	201.31
365.241	213.31
365.468	206.31
365.694	193.31
365.92	175.31
366.147	187.31
366.373	185.31
366.599	185.31
366.826	188.31
367.052	195.31
367.278	202.31
367.505	183.31
367.731	220.31
367.957	189.31
368.184	190.31
368.41	204.31
368.636	208.31
368.862	198.31
369.089	188.31
369.315	198.31
369.541	187.31
369.767	184.31
369.993	207.31
370.219	173.31
370.445	183.31
370.672	202.31
370.898	210.31
371.124	209.31
371.35	201.31
371.576	197.31
371.802	208.31
372.028	194.31
372.254	196.31
372.48	212.31
372.706	220.31
372.932	202.31
373.158	210.31
373.384	217.31
373.61	229.31
373.835	223.31
374.061	206.31
374.287	228.31
374.513	225.31
374.739	232.31
374.965	235.31
375.191	240.31
375.416	230.31
375.642	235.31
375.868	251.31
376.094	236.31
376.319	234.31
376.545	212.31
376.771	209.31
376.997	208.31
377.222	197.31
377.448	217.31
377.674	192.31
377.899	203.31
378.125	215.31
378.35	213.31
378.576	201.31
378.802	213.31
379.027	209.31
379.253	201.31
379.478	215.31
379.704	201.31
379.929	206.31
380.155	213.31
380.38	224.31
380.606	204.31
380.831	202.31
381.057	223.31
381.282	207.31
381.507	219.31
381.733	225.31
381.958	223.31
382.184	229.31
382.409	224.31
382.634	226.31
382.86	240.31
383.085	229.31
383.31	224.31
383.535	252.31
383.761	234.31
383.986	234.31
384.211	245.31
384.436	238.31
384.662	253.31
384.887	259.31
385.112	244.31
385.337	266.31
385.562	263.31
385.787	252.31
386.013	262.31
386.238	273.31
386.463	245.31
386.688	294.31
386.913	251.31
387.138	264.31
387.363	224.31
387.588	233.31
387.813	248.31
388.038	269.31
388.263	276.31
388.488	270.31
388.713	253.31
388.938	235.31
389.163	231.31
389.387	248.31
389.612	228.31
389.837	249.31
390.062	241.31
390.287	250.31
390.512	240.31
390.736	231.31
390.961	245.31
391.186	256.31
391.411	244.31
391.636	253.31
391.86	248.31
392.085	260.31
392.31	267.31
392.534	265.31
392.759	270.31
392.984	279.31
393.208	333.31
393.433	380.31
393.658	354.31
393.882	275.31
394.107	265.31
394.331	284.31
394.556	274.31
394.78	270.31
395.005	292.31
395.229	263.31
395.454	261.31
395.678	288.31
395.903	296.31
396.127	304.31
396.352	299.31
396.576	305.31
396.801	328.31
397.025	363.31
397.249	276.31
397.474	288.31
397.698	279.31
397.922	279.31
398.147	282.31
398.371	286.31
398.595	278.31
398.82	298.31
399.044	326.31
399.268	385.31
399.492	388.31
399.717	414.31
399.941	408.31
400.165	380.31
400.389	319.31
400.613	321.31
400.837	292.31
401.062	301.31
401.286	286.31
401.51	296.31
401.734	291.31
401.958	315.31
402.182	298.31
402.406	303.31
402.63	299.31
402.854	318.31
403.078	317.31
403.302	307.31
403.526	314.31
403.75	331.31
403.974	328.31
404.198	338.31
404.422	336.31
404.645	309.31
404.869	327.31
405.093	332.31
405.317	351.31
405.541	338.31
405.765	319.31
405.988	317.31
406.212	345.31
406.436	332.31
406.66	339.31
406.883	353.31
407.107	364.31
407.331	341.31
407.555	373.31
407.778	373.31
408.002	339.31
408.226	357.31
408.449	344.31
408.673	327.31
408.896	368.31
409.12	327.31
409.344	321.31
409.567	350.31
409.791	341.31
410.014	334.31
410.238	341.31
410.461	330.31
410.685	309.31
410.908	328.31
411.132	314.31
411.355	319.31
411.578	309.31
411.802	308.31
412.025	312.31
412.249	329.31
412.472	315.31
412.695	318.31
412.919	325.31
413.142	300.31
413.365	314.31
413.589	309.31
413.812	308.31
414.035	313.31
414.258	296.31
414.482	306.31
414.705	316.31
414.928	312.31
415.151	312.31
415.374	315.31
415.597	307.31
415.821	309.31
416.044	290.31
416.267	305.31
416.49	291.31
416.713	304.31
416.936	305.31
417.159	305.31
417.382	316.31
417.605	326.31
417.828	316.31
418.051	312.31
418.274	301.31
418.497	277.31
418.72	296.31
418.943	312.31
419.166	306.31
419.389	330.31
419.611	335.31
419.834	310.31
420.057	321.31
420.28	318.31
420.503	312.31
420.726	308.31
420.948	336.31
421.171	316.31
421.394	312.31
421.617	313.31
421.839	312.31
422.062	324.31
422.285	331.31
422.507	362.31
422.73	389.31
422.953	379.31
423.175	320.31
423.398	316.31
423.621	293.31
423.843	317.31
424.066	320.31
424.288	317.31
424.511	325.31
424.733	330.31
424.956	317.31
425.178	319.31
425.401	319.31
425.623	318.31
425.846	297.31
426.068	302.31
426.291	311.31
426.513	279.31
426.735	308.31
426.958	297.31
427.18	286.31
427.402	302.31
427.625	295.31
427.847	313.31
428.069	305.31
428.292	286.31
428.514	286.31
428.736	303.31
428.958	291.31
429.181	306.31
429.403	299.31
429.625	279.31
429.847	293.31
430.069	291.31
430.292	321.31
430.514	299.31
430.736	303.31
430.958	300.31
431.18	284.31
431.402	281.31
431.624	286.31
431.846	260.31
432.068	271.31
432.29	272.31
432.512	282.31
432.734	297.31
432.956	287.31
433.178	303.31
433.4	293.31
433.622	300.31
433.844	284.31
434.066	282.31
434.287	261.31
434.509	272.31
434.731	287.31
434.953	314.31
435.175	305.31
435.397	304.31
435.618	293.31
435.84	272.31
436.062	270.31
436.284	264.31
436.505	273.31
436.727	271.31
436.949	287.31
437.17	290.31
437.392	289.31
437.614	277.31
437.835	247.31
438.057	262.31
438.278	260.31
438.5	258.31
438.721	282.31
438.943	266.31
439.165	279.31
439.386	292.31
439.608	308.31
439.829	277.31
440.05	295.31
440.272	273.31
440.493	286.31
440.715	311.31
440.936	314.31
441.158	288.31
441.379	302.31
441.6	303.31
441.822	336.31
442.043	309.31
442.264	308.31
442.486	309.31
442.707	314.31
442.928	326.31
443.149	315.31
443.371	326.31
443.592	313.31
443.813	323.31
444.034	332.31
444.255	328.31
444.476	342.31
444.698	349.31
444.919	378.31
445.14	536.31
445.361	429.31
445.582	338.31
445.803	336.31
446.024	314.31
446.245	312.31
446.466	309.31
446.687	293.31
446.908	313.31
447.129	303.31
447.35	289.31
447.571	281.31
447.792	279.31
448.013	267.31
448.234	281.31
448.455	278.31
448.675	276.31
448.896	264.31
449.117	264.31
449.338	254.31
449.559	280.31
449.779	266.31
450	276.31
450.221	286.31
450.442	271.31
450.662	270.31
450.883	274.31
451.104	265.31
451.324	274.31
451.545	286.31
451.766	288.31
451.986	266.31
452.207	295.31
452.428	272.31
452.648	272.31
452.869	261.31
453.089	248.31
453.31	276.31
453.53	296.31
453.751	311.31
453.971	270.31
454.192	252.31
454.412	232.31
454.633	256.31
454.853	255.31
455.073	256.31
455.294	257.31
455.514	301.31
455.734	278.31
455.955	245.31
456.175	227.31
456.395	244.31
456.616	252.31
456.836	240.31
457.056	243.31
457.276	237.31
457.497	239.31
457.717	238.31
457.937	254.31
458.157	242.31
458.377	240.31
458.598	261.31
458.818	257.31
459.038	268.31
459.258	257.31
459.478	248.31
459.698	268.31
459.918	288.31
460.138	291.31
460.358	304.31
460.578	288.31
460.798	311.31
461.018	298.31
461.238	303.31
461.458	300.31
461.678	301.31
461.898	317.31
462.118	312.31
462.338	336.31
462.558	332.31
462.777	338.31
462.997	382.31
463.217	387.31
463.437	366.31
463.657	348.31
463.876	327.31
464.096	332.31
464.316	346.31
464.536	354.31
464.755	343.31
464.975	318.31
465.195	310.31
465.414	312.31
465.634	306.31
465.854	281.31
466.073	288.31
466.293	269.31
466.512	274.31
466.732	286.31
466.951	279.31
467.171	276.31
467.391	290.31
467.61	272.31
467.829	302.31
468.049	344.31
468.268	372.31
468.488	315.31
468.707	304.31
468.927	295.31
469.146	286.31
469.365	284.31
469.585	277.31
469.804	291.31
470.023	311.31
470.243	277.31
470.462	286.31
470.681	292.31
470.901	302.31
471.12	273.31
471.339	284.31
471.558	280.31
471.777	295.31
471.997	331.31
472.216	362.31
472.435	468.31
472.654	382.31
472.873	322.31
473.092	286.31
473.311	297.31
473.53	286.31
473.749	282.31
473.968	298.31
474.187	258.31
474.406	273.31
474.625	272.31
474.844	293.31
475.063	251.31
475.282	265.31
475.501	253.31
475.72	276.31
475.939	283.31
476.158	294.31
476.377	282.31
476.596	266.31
476.814	286.31
477.033	266.31
477.252	270.31
477.471	271.31
477.69	295.31
477.908	318.31
478.127	329.31
478.346	314.31
478.564	312.31
478.783	295.31
479.002	336.31
479.22	324.31
479.439	329.31
479.658	326.31
479.876	310.31
480.095	311.31
480.313	338.31
480.532	343.31
480.751	381.31
480.969	431.31
481.188	655.31
481.406	583.31
481.624	390.31
481.843	336.31
482.061	320.31
482.28	309.31
482.498	300.31
482.717	299.31
482.935	304.31
483.153	303.31
483.372	303.31
483.59	323.31
483.808	298.31
484.027	309.31
484.245	321.31
484.463	311.31
484.681	331.31
484.9	321.31
485.118	306.31
485.336	292.31
485.554	326.31
485.772	321.31
485.99	299.31
486.209	294.31
486.427	298.31
486.645	320.31
486.863	321.31
487.081	332.31
487.299	300.31
487.517	328.31
487.735	324.31
487.953	359.31
488.171	348.31
488.389	342.31
488.607	325.31
488.825	309.31
489.043	295.31
489.261	316.31
489.479	314.31
489.696	317.31
489.914	323.31
490.132	328.31
490.35	323.31
490.568	333.31
490.786	326.31
491.003	344.31
491.221	367.31
491.439	372.31
491.657	376.31
491.874	385.31
492.092	395.31
492.31	400.31
492.527	385.31
492.745	360.31
492.963	392.31
493.18	373.31
493.398	388.31
493.615	393.31
493.833	374.31
494.05	349.31
494.268	350.31
494.485	355.31
494.703	365.31
494.92	342.31
495.138	350.31
495.355	346.31
495.573	344.31
495.79	350.31
496.008	372.31
496.225	349.31
496.442	372.31
496.66	354.31
496.877	369.31
497.094	368.31
497.312	362.31
497.529	353.31
497.746	375.31
497.963	374.31
498.181	415.31
498.398	466.31
498.615	428.31
498.832	422.31
499.049	488.31
499.267	562.31
499.484	566.31
499.701	570.31
499.918	620.31
500.135	746.31
500.352	784.31
500.569	768.31
500.786	790.31
501.003	754.31
501.22	650.31
501.437	619.31
501.654	574.31
501.871	489.31
502.088	463.31
502.305	452.31
502.522	456.31
502.739	426.31
502.956	388.31
503.172	370.31
503.389	370.31
503.606	370.31
503.823	409.31
