Data from SampB_HRD10591_00103.txt Node
Date: Mon Jan 19 11:37:01 EST 2026
User: Yrep
Spectrometer: HR+D1059
Trigger mode: 0
Integration Time (sec): 3.443000E-1
Scans to average: 1
Electric dark correction enabled: true
Nonlinearity correction enabled: false
Boxcar width: 0
XAxis mode: Wavelengths
Number of Pixels in Spectrum: 2048
>>>>>Begin Spectral Data<<<<<
223.165	-20.62
223.4	-20.62
223.635	-20.62
223.869	-22.62
224.104	-26.62
224.338	-12.62
224.573	-8.62
224.808	-9.62
225.042	-1.62
225.277	-9.62
225.511	-2.62
225.746	-0.62
225.98	11.38
226.215	21.38
226.449	9.38
226.683	1.38
226.918	24.38
227.152	47.38
227.387	38.38
227.621	33.38
227.856	47.38
228.09	38.38
228.324	44.38
228.559	64.38
228.793	63.38
229.027	78.38
229.262	82.38
229.496	97.38
229.73	85.38
229.964	98.38
230.199	97.38
230.433	85.38
230.667	95.38
230.901	102.38
231.136	104.38
231.37	113.38
231.604	110.38
231.838	108.38
232.072	104.38
232.306	120.38
232.541	112.38
232.775	111.38
233.009	92.38
233.243	111.38
233.477	118.38
233.711	116.38
233.945	105.38
234.179	109.38
234.413	113.38
234.647	120.38
234.881	122.38
235.115	111.38
235.349	106.38
235.583	108.38
235.817	124.38
236.051	130.38
236.285	102.38
236.519	151.38
236.753	134.38
236.987	159.38
237.221	182.38
237.455	178.38
237.689	186.38
237.922	166.38
238.156	126.38
238.39	127.38
238.624	127.38
238.858	112.38
239.091	133.38
239.325	106.38
239.559	125.38
239.793	102.38
240.027	121.38
240.26	110.38
240.494	109.38
240.728	105.38
240.961	114.38
241.195	113.38
241.429	110.38
241.662	122.38
241.896	129.38
242.13	121.38
242.363	112.38
242.597	122.38
242.83	107.38
243.064	108.38
243.298	109.38
243.531	104.38
243.765	111.38
243.998	125.38
244.232	120.38
244.465	113.38
244.699	134.38
244.932	121.38
245.166	110.38
245.399	120.38
245.633	119.38
245.866	131.38
246.099	133.38
246.333	130.38
246.566	106.38
246.8	125.38
247.033	137.38
247.266	124.38
247.5	125.38
247.733	124.38
247.966	130.38
248.2	140.38
248.433	133.38
248.666	144.38
248.899	148.38
249.133	141.38
249.366	161.38
249.599	129.38
249.832	148.38
250.066	143.38
250.299	137.38
250.532	146.38
250.765	157.38
250.998	152.38
251.231	137.38
251.465	131.38
251.698	135.38
251.931	159.38
252.164	128.38
252.397	149.38
252.63	133.38
252.863	140.38
253.096	147.38
253.329	150.38
253.562	142.38
253.795	139.38
254.028	153.38
254.261	151.38
254.494	145.38
254.727	156.38
254.96	157.38
255.193	152.38
255.426	159.38
255.659	161.38
255.892	169.38
256.124	162.38
256.357	158.38
256.59	197.38
256.823	206.38
257.056	240.38
257.289	239.38
257.521	245.38
257.754	267.38
257.987	258.38
258.22	199.38
258.452	203.38
258.685	195.38
258.918	161.38
259.151	163.38
259.383	175.38
259.616	162.38
259.849	154.38
260.081	162.38
260.314	168.38
260.547	184.38
260.779	175.38
261.012	182.38
261.244	164.38
261.477	163.38
261.71	179.38
261.942	155.38
262.175	181.38
262.407	182.38
262.64	175.38
262.872	186.38
263.105	201.38
263.337	227.38
263.57	235.38
263.802	222.38
264.035	223.38
264.267	201.38
264.499	200.38
264.732	198.38
264.964	190.38
265.197	194.38
265.429	225.38
265.661	215.38
265.894	234.38
266.126	258.38
266.358	270.38
266.591	223.38
266.823	197.38
267.055	190.38
267.287	203.38
267.52	187.38
267.752	191.38
267.984	172.38
268.216	170.38
268.448	194.38
268.681	189.38
268.913	176.38
269.145	207.38
269.377	198.38
269.609	174.38
269.841	189.38
270.073	198.38
270.306	203.38
270.538	195.38
270.77	197.38
271.002	173.38
271.234	188.38
271.466	207.38
271.698	197.38
271.93	197.38
272.162	202.38
272.394	186.38
272.626	190.38
272.858	203.38
273.09	209.38
273.322	213.38
273.553	171.38
273.785	199.38
274.017	200.38
274.249	216.38
274.481	209.38
274.713	221.38
274.945	214.38
275.176	201.38
275.408	218.38
275.64	198.38
275.872	225.38
276.104	209.38
276.335	221.38
276.567	204.38
276.799	206.38
277.031	243.38
277.262	222.38
277.494	223.38
277.726	233.38
277.957	256.38
278.189	254.38
278.421	275.38
278.652	294.38
278.884	337.38
279.115	419.38
279.347	588.38
279.579	793.38
279.81	935.38
280.042	753.38
280.273	689.38
280.505	658.38
280.736	450.38
280.968	337.38
281.199	329.38
281.431	372.38
281.662	477.38
281.894	486.38
282.125	435.38
282.356	328.38
282.588	293.38
282.819	291.38
283.051	290.38
283.282	271.38
283.513	274.38
283.745	263.38
283.976	251.38
284.207	256.38
284.439	255.38
284.67	268.38
284.901	292.38
285.132	294.38
285.364	340.38
285.595	320.38
285.826	261.38
286.057	261.38
286.288	242.38
286.52	247.38
286.751	228.38
286.982	238.38
287.213	230.38
287.444	232.38
287.675	256.38
287.906	245.38
288.138	261.38
288.369	252.38
288.6	251.38
288.831	240.38
289.062	239.38
289.293	253.38
289.524	257.38
289.755	259.38
289.986	263.38
290.217	253.38
290.448	250.38
290.679	271.38
290.91	279.38
291.141	264.38
291.371	254.38
291.602	287.38
291.833	253.38
292.064	274.38
292.295	257.38
292.526	271.38
292.757	282.38
292.987	287.38
293.218	292.38
293.449	295.38
293.68	301.38
293.91	318.38
294.141	302.38
294.372	277.38
294.603	268.38
294.833	276.38
295.064	270.38
295.295	270.38
295.525	266.38
295.756	262.38
295.987	251.38
296.217	268.38
296.448	256.38
296.679	261.38
296.909	271.38
297.14	252.38
297.37	283.38
297.601	274.38
297.831	257.38
298.062	261.38
298.292	277.38
298.523	268.38
298.753	274.38
298.984	272.38
299.214	281.38
299.445	297.38
299.675	274.38
299.905	277.38
300.136	287.38
300.366	261.38
300.597	277.38
300.827	290.38
301.057	279.38
301.288	274.38
301.518	293.38
301.748	300.38
301.979	338.38
302.209	324.38
302.439	303.38
302.669	301.38
302.9	317.38
303.13	321.38
303.36	328.38
303.59	334.38
303.82	335.38
304.051	344.38
304.281	348.38
304.511	377.38
304.741	369.38
304.971	401.38
305.201	471.38
305.431	492.38
305.661	562.38
305.891	568.38
306.121	542.38
306.352	501.38
306.582	526.38
306.812	529.38
307.042	486.38
307.272	496.38
307.502	508.38
307.731	626.38
307.961	861.38
308.191	1179.38
308.421	1391.38
308.651	1164.38
308.881	1077.38
309.111	1353.38
309.341	1719.38
309.571	1659.38
309.8	1024.38
310.03	706.38
310.26	566.38
310.49	485.38
310.72	455.38
310.949	435.38
311.179	402.38
311.409	383.38
311.639	373.38
311.868	373.38
312.098	369.38
312.328	376.38
312.557	365.38
312.787	339.38
313.017	346.38
313.246	345.38
313.476	327.38
313.706	346.38
313.935	338.38
314.165	329.38
314.394	322.38
314.624	319.38
314.853	334.38
315.083	329.38
315.312	335.38
315.542	322.38
315.771	320.38
316.001	318.38
316.23	312.38
316.46	311.38
316.689	325.38
316.919	322.38
317.148	317.38
317.377	318.38
317.607	320.38
317.836	315.38
318.065	317.38
318.295	311.38
318.524	303.38
318.753	327.38
318.983	310.38
319.212	309.38
319.441	309.38
319.67	315.38
319.9	312.38
320.129	319.38
320.358	330.38
320.587	310.38
320.816	311.38
321.046	319.38
321.275	315.38
321.504	335.38
321.733	301.38
321.962	310.38
322.191	326.38
322.42	306.38
322.649	323.38
322.878	333.38
323.108	309.38
323.337	326.38
323.566	310.38
323.795	336.38
324.024	343.38
324.253	341.38
324.482	324.38
324.71	333.38
324.939	334.38
325.168	345.38
325.397	325.38
325.626	321.38
325.855	347.38
326.084	316.38
326.313	334.38
326.542	320.38
326.77	349.38
326.999	325.38
327.228	318.38
327.457	325.38
327.686	328.38
327.914	326.38
328.143	347.38
328.372	333.38
328.6	332.38
328.829	333.38
329.058	329.38
329.287	326.38
329.515	324.38
329.744	323.38
329.972	341.38
330.201	350.38
330.43	349.38
330.658	342.38
330.887	347.38
331.115	338.38
331.344	350.38
331.572	343.38
331.801	346.38
332.03	365.38
332.258	369.38
332.486	355.38
332.715	371.38
332.943	376.38
333.172	402.38
333.4	376.38
333.629	399.38
333.857	391.38
334.085	424.38
334.314	397.38
334.542	412.38
334.771	389.38
334.999	393.38
335.227	386.38
335.455	395.38
335.684	378.38
335.912	379.38
336.14	360.38
336.369	372.38
336.597	376.38
336.825	376.38
337.053	387.38
337.281	375.38
337.51	376.38
337.738	360.38
337.966	357.38
338.194	330.38
338.422	340.38
338.65	346.38
338.878	355.38
339.106	341.38
339.334	364.38
339.562	353.38
339.79	347.38
340.018	331.38
340.246	338.38
340.474	338.38
340.702	341.38
340.93	357.38
341.158	331.38
341.386	360.38
341.614	378.38
341.842	332.38
342.07	345.38
342.298	349.38
342.526	365.38
342.754	335.38
342.981	359.38
343.209	371.38
343.437	423.38
343.665	384.38
343.893	407.38
344.12	409.38
344.348	389.38
344.576	366.38
344.804	372.38
345.031	354.38
345.259	362.38
345.487	362.38
345.714	347.38
345.942	357.38
346.17	350.38
346.397	349.38
346.625	343.38
346.853	337.38
347.08	325.38
347.308	333.38
347.535	344.38
347.763	345.38
347.99	331.38
348.218	358.38
348.445	351.38
348.673	333.38
348.9	351.38
349.128	331.38
349.355	343.38
349.583	345.38
349.81	346.38
350.037	338.38
350.265	349.38
350.492	335.38
350.72	336.38
350.947	335.38
351.174	356.38
351.402	345.38
351.629	344.38
351.856	322.38
352.083	351.38
352.311	349.38
352.538	371.38
352.765	369.38
352.992	392.38
353.22	367.38
353.447	366.38
353.674	375.38
353.901	379.38
354.128	368.38
354.355	390.38
354.583	391.38
354.81	367.38
355.037	392.38
355.264	402.38
355.491	402.38
355.718	391.38
355.945	421.38
356.172	417.38
356.399	445.38
356.626	441.38
356.853	459.38
357.08	478.38
357.307	496.38
357.534	509.38
357.761	583.38
357.988	616.38
358.215	706.38
358.441	818.38
358.668	896.38
358.895	855.38
359.122	725.38
359.349	652.38
359.576	551.38
359.802	521.38
360.029	501.38
360.256	472.38
360.483	473.38
360.709	451.38
360.936	489.38
361.163	465.38
361.39	417.38
361.616	411.38
361.843	418.38
362.07	408.38
362.296	412.38
362.523	408.38
362.749	404.38
362.976	388.38
363.203	401.38
363.429	378.38
363.656	399.38
363.882	354.38
364.109	351.38
364.335	361.38
364.562	382.38
364.788	380.38
365.015	366.38
365.241	364.38
365.468	369.38
365.694	379.38
365.92	359.38
366.147	343.38
366.373	355.38
366.599	355.38
366.826	354.38
367.052	354.38
367.278	382.38
367.505	355.38
367.731	385.38
367.957	350.38
368.184	338.38
368.41	361.38
368.636	362.38
368.862	361.38
369.089	356.38
369.315	341.38
369.541	345.38
369.767	353.38
369.993	355.38
370.219	350.38
370.445	362.38
370.672	384.38
370.898	363.38
371.124	373.38
371.35	397.38
371.576	379.38
371.802	356.38
372.028	389.38
372.254	381.38
372.48	389.38
372.706	368.38
372.932	386.38
373.158	391.38
373.384	392.38
373.61	386.38
373.835	394.38
374.061	351.38
374.287	381.38
374.513	391.38
374.739	387.38
374.965	411.38
375.191	402.38
375.416	384.38
375.642	381.38
375.868	385.38
376.094	375.38
376.319	367.38
376.545	353.38
376.771	379.38
376.997	359.38
377.222	368.38
377.448	359.38
377.674	361.38
377.899	386.38
378.125	349.38
378.35	353.38
378.576	364.38
378.802	374.38
379.027	384.38
379.253	382.38
379.478	368.38
379.704	377.38
379.929	354.38
380.155	371.38
380.38	375.38
380.606	368.38
380.831	369.38
381.057	403.38
381.282	389.38
381.507	403.38
381.733	419.38
381.958	407.38
382.184	407.38
382.409	435.38
382.634	445.38
382.86	434.38
383.085	480.38
383.31	496.38
383.535	495.38
383.761	509.38
383.986	508.38
384.211	475.38
384.436	458.38
384.662	423.38
384.887	439.38
385.112	424.38
385.337	453.38
385.562	440.38
385.787	462.38
386.013	457.38
386.238	459.38
386.463	463.38
386.688	476.38
386.913	460.38
387.138	448.38
387.363	455.38
387.588	445.38
387.813	443.38
388.038	456.38
388.263	443.38
388.488	456.38
388.713	450.38
388.938	442.38
389.163	439.38
389.387	442.38
389.612	422.38
389.837	434.38
390.062	463.38
390.287	458.38
390.512	459.38
390.736	477.38
390.961	452.38
391.186	456.38
391.411	487.38
391.636	459.38
391.86	528.38
392.085	521.38
392.31	513.38
392.534	496.38
392.759	518.38
392.984	574.38
393.208	663.38
393.433	780.38
393.658	755.38
393.882	795.38
394.107	1147.38
394.331	1972.38
394.556	2572.38
394.78	1741.38
395.005	1047.38
395.229	831.38
395.454	841.38
395.678	1085.38
395.903	1656.38
396.127	2821.38
396.352	3375.38
396.576	2013.38
396.801	1201.38
397.025	993.38
397.249	811.38
397.474	699.38
397.698	652.38
397.922	623.38
398.147	593.38
398.371	610.38
398.595	598.38
398.82	593.38
399.044	617.38
399.268	633.38
399.492	671.38
399.717	721.38
399.941	674.38
400.165	669.38
400.389	616.38
400.613	585.38
400.837	559.38
401.062	542.38
401.286	542.38
401.51	529.38
401.734	533.38
401.958	510.38
402.182	549.38
402.406	527.38
402.63	555.38
402.854	555.38
403.078	534.38
403.302	565.38
403.526	581.38
403.75	552.38
403.974	554.38
404.198	562.38
404.422	571.38
404.645	543.38
404.869	595.38
405.093	561.38
405.317	553.38
405.541	559.38
405.765	547.38
405.988	555.38
406.212	570.38
406.436	557.38
406.66	584.38
406.883	570.38
407.107	593.38
407.331	632.38
407.555	616.38
407.778	606.38
408.002	576.38
408.226	569.38
408.449	567.38
408.673	563.38
408.896	576.38
409.12	551.38
409.344	561.38
409.567	550.38
409.791	545.38
410.014	546.38
410.238	534.38
410.461	534.38
410.685	539.38
410.908	531.38
411.132	530.38
411.355	527.38
411.578	517.38
411.802	542.38
412.025	530.38
412.249	528.38
412.472	523.38
412.695	503.38
412.919	502.38
413.142	519.38
413.365	505.38
413.589	518.38
413.812	515.38
414.035	517.38
414.258	512.38
414.482	516.38
414.705	522.38
414.928	545.38
415.151	547.38
415.374	525.38
415.597	512.38
415.821	517.38
416.044	494.38
416.267	503.38
416.49	511.38
416.713	530.38
416.936	525.38
417.159	511.38
417.382	515.38
417.605	512.38
417.828	497.38
418.051	497.38
418.274	507.38
418.497	525.38
418.72	505.38
418.943	514.38
419.166	533.38
419.389	559.38
419.611	567.38
419.834	540.38
420.057	529.38
420.28	501.38
420.503	531.38
420.726	503.38
420.948	501.38
421.171	505.38
421.394	494.38
421.617	500.38
421.839	534.38
422.062	524.38
422.285	525.38
422.507	550.38
422.73	554.38
422.953	559.38
423.175	534.38
423.398	525.38
423.621	545.38
423.843	524.38
424.066	536.38
424.288	560.38
424.511	548.38
424.733	533.38
424.956	539.38
425.178	518.38
425.401	523.38
425.623	514.38
425.846	504.38
426.068	513.38
426.291	501.38
426.513	512.38
426.735	482.38
426.958	478.38
427.18	490.38
427.402	476.38
427.625	491.38
427.847	477.38
428.069	480.38
428.292	467.38
428.514	494.38
428.736	481.38
428.958	464.38
429.181	485.38
429.403	467.38
429.625	469.38
429.847	469.38
430.069	493.38
430.292	493.38
430.514	460.38
430.736	459.38
430.958	472.38
431.18	479.38
431.402	447.38
431.624	458.38
431.846	433.38
432.068	436.38
432.29	477.38
432.512	473.38
432.734	463.38
432.956	458.38
433.178	474.38
433.4	481.38
433.622	474.38
433.844	480.38
434.066	476.38
434.287	467.38
434.509	471.38
434.731	470.38
434.953	511.38
435.175	483.38
435.397	489.38
435.618	457.38
435.84	486.38
436.062	446.38
436.284	458.38
436.505	469.38
436.727	464.38
436.949	462.38
437.17	478.38
437.392	466.38
437.614	467.38
437.835	429.38
438.057	457.38
438.278	441.38
438.5	464.38
438.721	463.38
438.943	473.38
439.165	460.38
439.386	461.38
439.608	495.38
439.829	479.38
440.05	481.38
440.272	470.38
440.493	484.38
440.715	494.38
440.936	498.38
441.158	509.38
441.379	525.38
441.6	537.38
441.822	537.38
442.043	530.38
442.264	540.38
442.486	488.38
442.707	518.38
442.928	521.38
443.149	506.38
443.371	512.38
443.592	522.38
443.813	539.38
444.034	535.38
444.255	552.38
444.476	539.38
444.698	563.38
444.919	587.38
445.14	842.38
445.361	665.38
445.582	568.38
445.803	517.38
446.024	485.38
446.245	509.38
446.466	510.38
446.687	490.38
446.908	489.38
447.129	476.38
447.35	490.38
447.571	507.38
447.792	501.38
448.013	475.38
448.234	474.38
448.455	453.38
448.675	462.38
448.896	486.38
449.117	458.38
449.338	460.38
449.559	462.38
449.779	458.38
450	454.38
450.221	453.38
450.442	442.38
450.662	476.38
450.883	461.38
451.104	480.38
451.324	459.38
451.545	435.38
451.766	462.38
451.986	458.38
452.207	465.38
452.428	455.38
452.648	471.38
452.869	434.38
453.089	446.38
453.31	460.38
453.53	450.38
453.751	459.38
453.971	436.38
454.192	446.38
454.412	424.38
454.633	442.38
454.853	449.38
455.073	419.38
455.294	433.38
455.514	435.38
455.734	423.38
455.955	415.38
456.175	428.38
456.395	397.38
456.616	406.38
456.836	407.38
457.056	436.38
457.276	391.38
457.497	410.38
457.717	396.38
457.937	421.38
458.157	423.38
458.377	418.38
458.598	439.38
458.818	436.38
459.038	420.38
459.258	431.38
459.478	456.38
459.698	461.38
459.918	475.38
460.138	485.38
460.358	520.38
460.578	501.38
460.798	484.38
461.018	527.38
461.238	519.38
461.458	517.38
461.678	502.38
461.898	545.38
462.118	531.38
462.338	530.38
462.558	570.38
462.777	578.38
462.997	622.38
463.217	636.38
463.437	613.38
463.657	584.38
463.876	575.38
464.096	561.38
464.316	573.38
464.536	592.38
464.755	563.38
464.975	553.38
465.195	543.38
465.414	514.38
465.634	478.38
465.854	518.38
466.073	523.38
466.293	534.38
466.512	582.38
466.732	577.38
466.951	531.38
467.171	512.38
467.391	526.38
467.61	505.38
467.829	482.38
468.049	498.38
468.268	482.38
468.488	481.38
468.707	455.38
468.927	486.38
469.146	492.38
469.365	472.38
469.585	483.38
469.804	481.38
470.023	493.38
470.243	492.38
470.462	470.38
470.681	501.38
470.901	497.38
471.12	489.38
471.339	488.38
471.558	478.38
471.777	478.38
471.997	472.38
472.216	467.38
472.435	479.38
472.654	446.38
472.873	474.38
473.092	463.38
473.311	465.38
473.53	513.38
473.749	527.38
473.968	539.38
474.187	502.38
474.406	522.38
474.625	514.38
474.844	518.38
475.063	529.38
475.282	491.38
475.501	471.38
475.72	486.38
475.939	482.38
476.158	479.38
476.377	480.38
476.596	483.38
476.814	453.38
477.033	458.38
477.252	489.38
477.471	496.38
477.69	497.38
477.908	483.38
478.127	535.38
478.346	505.38
478.564	514.38
478.783	513.38
479.002	530.38
479.22	509.38
479.439	541.38
479.658	519.38
479.876	521.38
480.095	537.38
480.313	533.38
480.532	531.38
480.751	542.38
480.969	498.38
481.188	519.38
481.406	486.38
481.624	485.38
481.843	460.38
482.061	485.38
482.28	475.38
482.498	464.38
482.717	473.38
482.935	478.38
483.153	489.38
483.372	513.38
483.59	502.38
483.808	505.38
484.027	476.38
484.245	526.38
484.463	554.38
484.681	575.38
484.9	532.38
485.118	544.38
485.336	541.38
485.554	528.38
485.772	539.38
485.99	509.38
486.209	538.38
486.427	510.38
486.645	533.38
486.863	565.38
487.081	552.38
487.299	561.38
487.517	572.38
487.735	568.38
487.953	565.38
488.171	575.38
488.389	567.38
488.607	560.38
488.825	528.38
489.043	530.38
489.261	538.38
489.479	515.38
489.696	555.38
489.914	533.38
490.132	534.38
490.35	563.38
490.568	552.38
490.786	562.38
491.003	564.38
491.221	571.38
491.439	571.38
491.657	531.38
491.874	570.38
492.092	604.38
492.31	607.38
492.527	592.38
492.745	573.38
492.963	582.38
493.18	557.38
493.398	591.38
493.615	592.38
493.833	576.38
494.05	541.38
494.268	547.38
494.485	581.38
494.703	567.38
494.92	555.38
495.138	568.38
495.355	585.38
495.573	581.38
495.79	561.38
496.008	562.38
496.225	559.38
496.442	575.38
496.66	571.38
496.877	575.38
497.094	612.38
497.312	585.38
497.529	615.38
497.746	618.38
497.963	609.38
498.181	637.38
498.398	674.38
498.615	663.38
498.832	711.38
499.049	734.38
499.267	789.38
499.484	831.38
499.701	908.38
499.918	969.38
500.135	1052.38
500.352	1110.38
500.569	1134.38
500.786	1107.38
501.003	1037.38
501.22	969.38
501.437	897.38
501.654	841.38
501.871	784.38
502.088	747.38
502.305	717.38
502.522	679.38
