Data from SampB_HRD10591_00046.txt Node
Date: Mon Jan 19 11:33:44 EST 2026
User: Yrep
Spectrometer: HR+D1059
Trigger mode: 0
Integration Time (sec): 3.443000E-1
Scans to average: 1
Electric dark correction enabled: true
Nonlinearity correction enabled: false
Boxcar width: 0
XAxis mode: Wavelengths
Number of Pixels in Spectrum: 2048
>>>>>Begin Spectral Data<<<<<
223.165	-10.88
223.4	-10.88
223.635	-10.88
223.869	-25.88
224.104	-32.88
224.338	-3.88
224.573	-26.88
224.808	-18.88
225.042	-4.88
225.277	7.12
225.511	-0.88
225.746	-0.88
225.98	10.12
226.215	16.12
226.449	7.12
226.683	20.12
226.918	20.12
227.152	45.12
227.387	41.12
227.621	39.12
227.856	51.12
228.09	45.12
228.324	48.12
228.559	72.12
228.793	77.12
229.027	75.12
229.262	80.12
229.496	79.12
229.73	81.12
229.964	90.12
230.199	88.12
230.433	76.12
230.667	79.12
230.901	73.12
231.136	93.12
231.37	71.12
231.604	88.12
231.838	94.12
232.072	92.12
232.306	91.12
232.541	77.12
232.775	92.12
233.009	93.12
233.243	101.12
233.477	89.12
233.711	105.12
233.945	104.12
234.179	83.12
234.413	111.12
234.647	86.12
234.881	99.12
235.115	97.12
235.349	99.12
235.583	101.12
235.817	102.12
236.051	91.12
236.285	92.12
236.519	96.12
236.753	82.12
236.987	97.12
237.221	88.12
237.455	87.12
237.689	101.12
237.922	92.12
238.156	79.12
238.39	89.12
238.624	85.12
238.858	101.12
239.091	88.12
239.325	104.12
239.559	83.12
239.793	84.12
240.027	97.12
240.26	92.12
240.494	100.12
240.728	85.12
240.961	82.12
241.195	104.12
241.429	106.12
241.662	93.12
241.896	88.12
242.13	98.12
242.363	100.12
242.597	94.12
242.83	81.12
243.064	96.12
243.298	90.12
243.531	90.12
243.765	89.12
243.998	94.12
244.232	109.12
244.465	122.12
244.699	108.12
244.932	103.12
245.166	90.12
245.399	100.12
245.633	106.12
245.866	97.12
246.099	99.12
246.333	101.12
246.566	92.12
246.8	108.12
247.033	108.12
247.266	107.12
247.5	109.12
247.733	114.12
247.966	96.12
248.2	96.12
248.433	107.12
248.666	109.12
248.899	101.12
249.133	108.12
249.366	126.12
249.599	119.12
249.832	117.12
250.066	105.12
250.299	95.12
250.532	122.12
250.765	107.12
250.998	109.12
251.231	110.12
251.465	103.12
251.698	111.12
251.931	117.12
252.164	100.12
252.397	98.12
252.63	123.12
252.863	119.12
253.096	121.12
253.329	129.12
253.562	127.12
253.795	121.12
254.028	137.12
254.261	115.12
254.494	112.12
254.727	107.12
254.96	122.12
255.193	123.12
255.426	104.12
255.659	122.12
255.892	135.12
256.124	144.12
256.357	139.12
256.59	132.12
256.823	120.12
257.056	128.12
257.289	107.12
257.521	126.12
257.754	112.12
257.987	113.12
258.22	140.12
258.452	109.12
258.685	126.12
258.918	135.12
259.151	114.12
259.383	121.12
259.616	125.12
259.849	125.12
260.081	131.12
260.314	141.12
260.547	122.12
260.779	137.12
261.012	138.12
261.244	127.12
261.477	146.12
261.71	129.12
261.942	139.12
262.175	135.12
262.407	121.12
262.64	127.12
262.872	137.12
263.105	139.12
263.337	140.12
263.57	131.12
263.802	123.12
264.035	125.12
264.267	127.12
264.499	122.12
264.732	122.12
264.964	131.12
265.197	119.12
265.429	122.12
265.661	114.12
265.894	137.12
266.126	138.12
266.358	128.12
266.591	115.12
266.823	129.12
267.055	136.12
267.287	122.12
267.52	117.12
267.752	128.12
267.984	127.12
268.216	123.12
268.448	129.12
268.681	153.12
268.913	144.12
269.145	139.12
269.377	129.12
269.609	132.12
269.841	117.12
270.073	133.12
270.306	129.12
270.538	136.12
270.77	142.12
271.002	144.12
271.234	137.12
271.466	135.12
271.698	143.12
271.93	128.12
272.162	132.12
272.394	158.12
272.626	127.12
272.858	131.12
273.09	132.12
273.322	130.12
273.553	143.12
273.785	137.12
274.017	147.12
274.249	170.12
274.481	155.12
274.713	149.12
274.945	161.12
275.176	157.12
275.408	170.12
275.64	161.12
275.872	153.12
276.104	154.12
276.335	153.12
276.567	160.12
276.799	152.12
277.031	161.12
277.262	153.12
277.494	176.12
277.726	141.12
277.957	157.12
278.189	142.12
278.421	148.12
278.652	156.12
278.884	158.12
279.115	150.12
279.347	140.12
279.579	167.12
279.81	168.12
280.042	169.12
280.273	192.12
280.505	179.12
280.736	171.12
280.968	160.12
281.199	137.12
281.431	166.12
281.662	168.12
281.894	153.12
282.125	138.12
282.356	148.12
282.588	148.12
282.819	151.12
283.051	155.12
283.282	154.12
283.513	168.12
283.745	152.12
283.976	160.12
284.207	164.12
284.439	156.12
284.67	154.12
284.901	146.12
285.132	161.12
285.364	151.12
285.595	154.12
285.826	167.12
286.057	141.12
286.288	148.12
286.52	152.12
286.751	151.12
286.982	162.12
287.213	166.12
287.444	140.12
287.675	154.12
287.906	145.12
288.138	158.12
288.369	165.12
288.6	153.12
288.831	158.12
289.062	165.12
289.293	151.12
289.524	151.12
289.755	157.12
289.986	159.12
290.217	162.12
290.448	158.12
290.679	183.12
290.91	159.12
291.141	158.12
291.371	153.12
291.602	159.12
291.833	155.12
292.064	170.12
292.295	155.12
292.526	149.12
292.757	160.12
292.987	148.12
293.218	145.12
293.449	160.12
293.68	151.12
293.91	163.12
294.141	168.12
294.372	161.12
294.603	169.12
294.833	163.12
295.064	164.12
295.295	174.12
295.525	162.12
295.756	158.12
295.987	144.12
296.217	152.12
296.448	162.12
296.679	172.12
296.909	173.12
297.14	186.12
297.37	172.12
297.601	172.12
297.831	180.12
298.062	154.12
298.292	153.12
298.523	178.12
298.753	144.12
298.984	159.12
299.214	157.12
299.445	175.12
299.675	167.12
299.905	168.12
300.136	162.12
300.366	171.12
300.597	170.12
300.827	164.12
301.057	180.12
301.288	184.12
301.518	180.12
301.748	177.12
301.979	224.12
302.209	181.12
302.439	177.12
302.669	163.12
302.9	185.12
303.13	166.12
303.36	164.12
303.59	164.12
303.82	168.12
304.051	146.12
304.281	161.12
304.511	193.12
304.741	169.12
304.971	169.12
305.201	184.12
305.431	165.12
305.661	179.12
305.891	180.12
306.121	171.12
306.352	178.12
306.582	193.12
306.812	195.12
307.042	178.12
307.272	181.12
307.502	202.12
307.731	201.12
307.961	179.12
308.191	185.12
308.421	183.12
308.651	183.12
308.881	174.12
309.111	187.12
309.341	192.12
309.571	189.12
309.8	180.12
310.03	169.12
310.26	184.12
310.49	168.12
310.72	181.12
310.949	183.12
311.179	174.12
311.409	167.12
311.639	172.12
311.868	188.12
312.098	189.12
312.328	178.12
312.557	188.12
312.787	178.12
313.017	194.12
313.246	204.12
313.476	171.12
313.706	173.12
313.935	175.12
314.165	175.12
314.394	177.12
314.624	184.12
314.853	178.12
315.083	173.12
315.312	164.12
315.542	197.12
315.771	188.12
316.001	165.12
316.23	181.12
316.46	195.12
316.689	175.12
316.919	182.12
317.148	185.12
317.377	186.12
317.607	178.12
317.836	162.12
318.065	167.12
318.295	173.12
318.524	191.12
318.753	183.12
318.983	176.12
319.212	197.12
319.441	185.12
319.67	190.12
319.9	192.12
320.129	196.12
320.358	189.12
320.587	181.12
320.816	184.12
321.046	177.12
321.275	192.12
321.504	168.12
321.733	193.12
321.962	188.12
322.191	175.12
322.42	189.12
322.649	211.12
322.878	209.12
323.108	202.12
323.337	212.12
323.566	221.12
323.795	223.12
324.024	216.12
324.253	202.12
324.482	194.12
324.71	187.12
324.939	211.12
325.168	210.12
325.397	187.12
325.626	201.12
325.855	205.12
326.084	200.12
326.313	195.12
326.542	199.12
326.77	205.12
326.999	208.12
327.228	201.12
327.457	212.12
327.686	235.12
327.914	254.12
328.143	279.12
328.372	288.12
328.6	267.12
328.829	239.12
329.058	241.12
329.287	211.12
329.515	237.12
329.744	276.12
329.972	319.12
330.201	387.12
330.43	398.12
330.658	313.12
330.887	238.12
331.115	238.12
331.344	220.12
331.572	225.12
331.801	216.12
332.03	221.12
332.258	243.12
332.486	243.12
332.715	252.12
332.943	263.12
333.172	255.12
333.4	270.12
333.629	301.12
333.857	333.12
334.085	382.12
334.314	479.12
334.542	543.12
334.771	489.12
334.999	361.12
335.227	288.12
335.455	266.12
335.684	285.12
335.912	256.12
336.14	245.12
336.369	248.12
336.597	233.12
336.825	249.12
337.053	242.12
337.281	240.12
337.51	251.12
337.738	236.12
337.966	233.12
338.194	217.12
338.422	225.12
338.65	226.12
338.878	224.12
339.106	200.12
339.334	214.12
339.562	212.12
339.79	203.12
340.018	206.12
340.246	179.12
340.474	193.12
340.702	193.12
340.93	209.12
341.158	192.12
341.386	204.12
341.614	187.12
341.842	182.12
342.07	187.12
342.298	179.12
342.526	185.12
342.754	201.12
342.981	191.12
343.209	202.12
343.437	227.12
343.665	222.12
343.893	232.12
344.12	245.12
344.348	223.12
344.576	217.12
344.804	200.12
345.031	205.12
345.259	194.12
345.487	199.12
345.714	214.12
345.942	191.12
346.17	198.12
346.397	207.12
346.625	196.12
346.853	206.12
347.08	181.12
347.308	197.12
347.535	195.12
347.763	185.12
347.99	192.12
348.218	203.12
348.445	183.12
348.673	192.12
348.9	207.12
349.128	187.12
349.355	189.12
349.583	199.12
349.81	196.12
350.037	185.12
350.265	175.12
350.492	188.12
350.72	195.12
350.947	187.12
351.174	195.12
351.402	194.12
351.629	177.12
351.856	200.12
352.083	193.12
352.311	189.12
352.538	196.12
352.765	195.12
352.992	193.12
353.22	178.12
353.447	189.12
353.674	187.12
353.901	204.12
354.128	191.12
354.355	177.12
354.583	192.12
354.81	179.12
355.037	187.12
355.264	185.12
355.491	204.12
355.718	188.12
355.945	196.12
356.172	187.12
356.399	181.12
356.626	204.12
356.853	191.12
357.08	195.12
357.307	203.12
357.534	201.12
357.761	185.12
357.988	195.12
358.215	205.12
358.441	200.12
358.668	196.12
358.895	206.12
359.122	184.12
359.349	190.12
359.576	199.12
359.802	188.12
360.029	194.12
360.256	197.12
360.483	200.12
360.709	207.12
360.936	224.12
361.163	204.12
361.39	189.12
361.616	179.12
361.843	200.12
362.07	186.12
362.296	188.12
362.523	187.12
362.749	191.12
362.976	188.12
363.203	210.12
363.429	210.12
363.656	224.12
363.882	200.12
364.109	203.12
364.335	207.12
364.562	188.12
364.788	205.12
365.015	212.12
365.241	221.12
365.468	204.12
365.694	208.12
365.92	203.12
366.147	195.12
366.373	199.12
366.599	188.12
366.826	199.12
367.052	209.12
367.278	188.12
367.505	189.12
367.731	211.12
367.957	203.12
368.184	200.12
368.41	209.12
368.636	210.12
368.862	212.12
369.089	188.12
369.315	195.12
369.541	190.12
369.767	202.12
369.993	191.12
370.219	184.12
370.445	202.12
370.672	208.12
370.898	206.12
371.124	209.12
371.35	206.12
371.576	215.12
371.802	224.12
372.028	202.12
372.254	218.12
372.48	220.12
372.706	213.12
372.932	223.12
373.158	219.12
373.384	224.12
373.61	219.12
373.835	238.12
374.061	223.12
374.287	227.12
374.513	243.12
374.739	247.12
374.965	240.12
375.191	245.12
375.416	238.12
375.642	227.12
375.868	241.12
376.094	254.12
376.319	239.12
376.545	208.12
376.771	204.12
376.997	222.12
377.222	195.12
377.448	211.12
377.674	203.12
377.899	190.12
378.125	211.12
378.35	210.12
378.576	209.12
378.802	212.12
379.027	211.12
379.253	203.12
379.478	215.12
379.704	216.12
379.929	204.12
380.155	197.12
380.38	208.12
380.606	212.12
380.831	208.12
381.057	232.12
381.282	214.12
381.507	236.12
381.733	241.12
381.958	219.12
382.184	219.12
382.409	227.12
382.634	240.12
382.86	255.12
383.085	236.12
383.31	244.12
383.535	262.12
383.761	249.12
383.986	273.12
384.211	261.12
384.436	257.12
384.662	239.12
384.887	264.12
385.112	248.12
385.337	263.12
385.562	256.12
385.787	266.12
386.013	271.12
386.238	269.12
386.463	260.12
386.688	277.12
386.913	272.12
387.138	273.12
387.363	242.12
387.588	265.12
387.813	258.12
388.038	262.12
388.263	270.12
388.488	264.12
388.713	274.12
388.938	257.12
389.163	236.12
389.387	243.12
389.612	228.12
389.837	260.12
390.062	248.12
390.287	268.12
390.512	260.12
390.736	235.12
390.961	243.12
391.186	254.12
391.411	267.12
391.636	260.12
391.86	285.12
392.085	279.12
392.31	269.12
392.534	290.12
392.759	279.12
392.984	292.12
393.208	344.12
393.433	387.12
393.658	347.12
393.882	283.12
394.107	270.12
394.331	284.12
394.556	277.12
394.78	292.12
395.005	293.12
395.229	259.12
395.454	294.12
395.678	300.12
395.903	335.12
396.127	324.12
396.352	320.12
396.576	294.12
396.801	329.12
397.025	329.12
397.249	308.12
397.474	293.12
397.698	263.12
397.922	281.12
398.147	283.12
398.371	291.12
398.595	300.12
398.82	310.12
399.044	329.12
399.268	353.12
399.492	417.12
399.717	432.12
399.941	420.12
400.165	361.12
400.389	322.12
400.613	312.12
400.837	301.12
401.062	317.12
401.286	303.12
401.51	306.12
401.734	307.12
401.958	311.12
402.182	289.12
402.406	303.12
402.63	309.12
402.854	321.12
403.078	313.12
403.302	334.12
403.526	340.12
403.75	344.12
403.974	323.12
404.198	338.12
404.422	331.12
404.645	341.12
404.869	341.12
405.093	354.12
405.317	343.12
405.541	350.12
405.765	341.12
405.988	307.12
406.212	347.12
406.436	321.12
406.66	345.12
406.883	336.12
407.107	344.12
407.331	368.12
407.555	391.12
407.778	362.12
408.002	338.12
408.226	339.12
408.449	328.12
408.673	343.12
408.896	352.12
409.12	327.12
409.344	349.12
409.567	322.12
409.791	338.12
410.014	333.12
410.238	337.12
410.461	329.12
410.685	304.12
410.908	315.12
411.132	350.12
411.355	331.12
411.578	334.12
411.802	320.12
412.025	314.12
412.249	332.12
412.472	339.12
412.695	321.12
412.919	320.12
413.142	319.12
413.365	312.12
413.589	315.12
413.812	293.12
414.035	319.12
414.258	318.12
414.482	316.12
414.705	321.12
414.928	318.12
415.151	317.12
415.374	313.12
415.597	303.12
415.821	312.12
416.044	305.12
416.267	314.12
416.49	307.12
416.713	284.12
416.936	284.12
417.159	309.12
417.382	310.12
417.605	313.12
417.828	295.12
418.051	320.12
418.274	316.12
418.497	329.12
418.72	322.12
418.943	331.12
419.166	337.12
419.389	344.12
419.611	345.12
419.834	327.12
420.057	318.12
420.28	331.12
420.503	306.12
420.726	308.12
420.948	302.12
421.171	311.12
421.394	312.12
421.617	327.12
421.839	329.12
422.062	312.12
422.285	316.12
422.507	368.12
422.73	405.12
422.953	393.12
423.175	302.12
423.398	347.12
423.621	332.12
423.843	316.12
424.066	317.12
424.288	334.12
424.511	319.12
424.733	337.12
424.956	317.12
425.178	310.12
425.401	300.12
425.623	314.12
425.846	289.12
426.068	307.12
426.291	309.12
426.513	303.12
426.735	292.12
426.958	283.12
427.18	291.12
427.402	295.12
427.625	299.12
427.847	288.12
428.069	314.12
428.292	312.12
428.514	318.12
428.736	313.12
428.958	313.12
429.181	308.12
429.403	295.12
429.625	297.12
429.847	308.12
430.069	335.12
430.292	354.12
430.514	321.12
430.736	323.12
430.958	304.12
431.18	300.12
431.402	265.12
431.624	295.12
431.846	283.12
432.068	275.12
432.29	281.12
432.512	283.12
432.734	287.12
432.956	293.12
433.178	292.12
433.4	282.12
433.622	275.12
433.844	300.12
434.066	294.12
434.287	289.12
434.509	276.12
434.731	296.12
434.953	294.12
435.175	294.12
435.397	302.12
435.618	284.12
435.84	296.12
436.062	289.12
436.284	290.12
436.505	269.12
436.727	280.12
436.949	301.12
437.17	283.12
437.392	270.12
437.614	271.12
437.835	267.12
438.057	251.12
438.278	269.12
438.5	280.12
438.721	269.12
438.943	266.12
439.165	294.12
439.386	285.12
439.608	304.12
439.829	279.12
440.05	312.12
440.272	314.12
440.493	296.12
440.715	290.12
440.936	295.12
441.158	291.12
441.379	323.12
441.6	323.12
441.822	331.12
442.043	310.12
442.264	323.12
442.486	300.12
442.707	312.12
442.928	317.12
443.149	321.12
443.371	312.12
443.592	330.12
443.813	327.12
444.034	325.12
444.255	330.12
444.476	338.12
444.698	347.12
444.919	351.12
445.14	548.12
445.361	432.12
445.582	348.12
445.803	349.12
446.024	314.12
446.245	303.12
446.466	316.12
446.687	306.12
446.908	299.12
447.129	306.12
447.35	276.12
447.571	303.12
447.792	261.12
448.013	281.12
448.234	293.12
448.455	270.12
448.675	269.12
448.896	276.12
449.117	261.12
449.338	267.12
449.559	263.12
449.779	264.12
450	266.12
450.221	264.12
450.442	272.12
450.662	270.12
450.883	265.12
451.104	269.12
451.324	276.12
451.545	281.12
451.766	282.12
451.986	280.12
452.207	290.12
452.428	291.12
452.648	279.12
452.869	257.12
453.089	273.12
453.31	311.12
453.53	355.12
453.751	330.12
453.971	278.12
454.192	247.12
454.412	260.12
454.633	258.12
454.853	274.12
455.073	287.12
455.294	290.12
455.514	283.12
455.734	286.12
455.955	251.12
456.175	243.12
456.395	240.12
456.616	252.12
456.836	233.12
457.056	239.12
457.276	254.12
457.497	244.12
457.717	241.12
457.937	251.12
458.157	245.12
458.377	246.12
458.598	252.12
458.818	243.12
459.038	251.12
459.258	263.12
459.478	263.12
459.698	291.12
459.918	270.12
460.138	288.12
460.358	307.12
460.578	316.12
460.798	305.12
461.018	316.12
461.238	309.12
461.458	323.12
461.678	311.12
461.898	321.12
462.118	334.12
462.338	343.12
462.558	340.12
462.777	354.12
462.997	366.12
463.217	395.12
463.437	390.12
463.657	346.12
463.876	345.12
464.096	352.12
464.316	343.12
464.536	346.12
464.755	353.12
464.975	335.12
465.195	307.12
465.414	307.12
465.634	313.12
465.854	303.12
466.073	271.12
466.293	263.12
466.512	289.12
466.732	298.12
466.951	295.12
467.171	276.12
467.391	293.12
467.61	297.12
467.829	311.12
468.049	379.12
468.268	412.12
468.488	346.12
468.707	297.12
468.927	285.12
469.146	301.12
469.365	313.12
469.585	287.12
469.804	298.12
470.023	285.12
470.243	287.12
470.462	305.12
470.681	309.12
470.901	296.12
471.12	295.12
471.339	311.12
471.558	312.12
471.777	300.12
471.997	347.12
472.216	467.12
472.435	601.12
472.654	433.12
472.873	335.12
473.092	292.12
473.311	290.12
473.53	282.12
473.749	291.12
473.968	290.12
474.187	284.12
474.406	276.12
474.625	282.12
474.844	275.12
475.063	278.12
475.282	277.12
475.501	276.12
475.72	271.12
475.939	293.12
476.158	291.12
476.377	289.12
476.596	291.12
476.814	288.12
477.033	266.12
477.252	287.12
477.471	281.12
477.69	301.12
477.908	321.12
478.127	333.12
478.346	317.12
478.564	321.12
478.783	323.12
479.002	331.12
479.22	336.12
479.439	355.12
479.658	324.12
479.876	337.12
480.095	338.12
480.313	351.12
480.532	369.12
480.751	405.12
480.969	496.12
481.188	812.12
481.406	726.12
481.624	432.12
481.843	381.12
482.061	345.12
482.28	325.12
482.498	317.12
482.717	292.12
482.935	313.12
483.153	314.12
483.372	344.12
483.59	317.12
483.808	304.12
484.027	311.12
484.245	333.12
484.463	307.12
484.681	320.12
484.9	320.12
485.118	309.12
485.336	310.12
485.554	322.12
485.772	325.12
485.99	324.12
486.209	320.12
486.427	298.12
486.645	324.12
486.863	316.12
487.081	332.12
487.299	321.12
487.517	317.12
487.735	318.12
487.953	332.12
488.171	341.12
488.389	323.12
488.607	354.12
488.825	322.12
489.043	319.12
489.261	339.12
489.479	325.12
489.696	316.12
489.914	336.12
490.132	343.12
490.35	341.12
490.568	339.12
490.786	333.12
491.003	309.12
491.221	351.12
491.439	383.12
491.657	382.12
491.874	383.12
492.092	385.12
492.31	402.12
492.527	394.12
492.745	373.12
492.963	380.12
493.18	372.12
493.398	383.12
493.615	401.12
493.833	356.12
494.05	366.12
494.268	356.12
494.485	370.12
494.703	343.12
494.92	354.12
495.138	357.12
495.355	366.12
495.573	365.12
495.79	354.12
496.008	379.12
496.225	353.12
496.442	380.12
496.66	366.12
496.877	364.12
497.094	388.12
497.312	347.12
497.529	391.12
497.746	378.12
497.963	389.12
498.181	446.12
498.398	481.12
498.615	442.12
498.832	441.12
499.049	499.12
499.267	563.12
499.484	542.12
499.701	571.12
499.918	649.12
500.135	762.12
500.352	780.12
500.569	780.12
500.786	791.12
501.003	756.12
501.22	655.12
501.437	618.12
501.654	631.12
501.871	516.12
502.088	474.12
502.305	463.12
502.522	456.12
502.739	450.12
502.956	411.12
503.172	379.12
503.389	383.12
503.606	396.12
