Data from SampB_HRD10591_00079.txt Node
Date: Mon Jan 19 11:33:55 EST 2026
User: Yrep
Spectrometer: HR+D1059
Trigger mode: 0
Integration Time (sec): 3.443000E-1
Scans to average: 1
Electric dark correction enabled: true
Nonlinearity correction enabled: false
Boxcar width: 0
XAxis mode: Wavelengths
Number of Pixels in Spectrum: 2048
>>>>>Begin Spectral Data<<<<<
223.165	-12.81
223.4	-12.81
223.635	-12.81
223.869	-19.81
224.104	-23.81
224.338	-10.81
224.573	-10.81
224.808	-12.81
225.042	-10.81
225.277	-14.81
225.511	8.19
225.746	6.19
225.98	-0.81
226.215	22.19
226.449	11.19
226.683	15.19
226.918	15.19
227.152	39.19
227.387	30.19
227.621	52.19
227.856	52.19
228.09	48.19
228.324	46.19
228.559	62.19
228.793	58.19
229.027	84.19
229.262	67.19
229.496	65.19
229.73	63.19
229.964	83.19
230.199	66.19
230.433	75.19
230.667	86.19
230.901	65.19
231.136	82.19
231.37	88.19
231.604	85.19
231.838	91.19
232.072	88.19
232.306	90.19
232.541	82.19
232.775	83.19
233.009	90.19
233.243	77.19
233.477	78.19
233.711	78.19
233.945	83.19
234.179	88.19
234.413	85.19
234.647	98.19
234.881	94.19
235.115	79.19
235.349	84.19
235.583	88.19
235.817	90.19
236.051	91.19
236.285	74.19
236.519	82.19
236.753	76.19
236.987	91.19
237.221	60.19
237.455	82.19
237.689	80.19
237.922	86.19
238.156	83.19
238.39	83.19
238.624	89.19
238.858	90.19
239.091	77.19
239.325	81.19
239.559	93.19
239.793	83.19
240.027	92.19
240.26	87.19
240.494	89.19
240.728	84.19
240.961	87.19
241.195	94.19
241.429	103.19
241.662	83.19
241.896	84.19
242.13	86.19
242.363	93.19
242.597	88.19
242.83	84.19
243.064	85.19
243.298	96.19
243.531	84.19
243.765	98.19
243.998	87.19
244.232	89.19
244.465	77.19
244.699	82.19
244.932	86.19
245.166	92.19
245.399	98.19
245.633	99.19
245.866	88.19
246.099	72.19
246.333	86.19
246.566	86.19
246.8	104.19
247.033	106.19
247.266	89.19
247.5	87.19
247.733	92.19
247.966	92.19
248.2	94.19
248.433	87.19
248.666	97.19
248.899	105.19
249.133	98.19
249.366	114.19
249.599	100.19
249.832	95.19
250.066	104.19
250.299	101.19
250.532	107.19
250.765	94.19
250.998	100.19
251.231	89.19
251.465	100.19
251.698	92.19
251.931	87.19
252.164	94.19
252.397	87.19
252.63	102.19
252.863	93.19
253.096	106.19
253.329	101.19
253.562	102.19
253.795	110.19
254.028	117.19
254.261	101.19
254.494	93.19
254.727	114.19
254.96	98.19
255.193	112.19
255.426	102.19
255.659	104.19
255.892	109.19
256.124	108.19
256.357	115.19
256.59	100.19
256.823	110.19
257.056	102.19
257.289	102.19
257.521	124.19
257.754	86.19
257.987	103.19
258.22	110.19
258.452	112.19
258.685	108.19
258.918	114.19
259.151	112.19
259.383	103.19
259.616	117.19
259.849	109.19
260.081	111.19
260.314	98.19
260.547	96.19
260.779	117.19
261.012	95.19
261.244	98.19
261.477	126.19
261.71	121.19
261.942	101.19
262.175	106.19
262.407	98.19
262.64	104.19
262.872	102.19
263.105	114.19
263.337	116.19
263.57	122.19
263.802	108.19
264.035	112.19
264.267	119.19
264.499	96.19
264.732	106.19
264.964	108.19
265.197	112.19
265.429	99.19
265.661	111.19
265.894	120.19
266.126	114.19
266.358	114.19
266.591	126.19
266.823	110.19
267.055	108.19
267.287	127.19
267.52	109.19
267.752	106.19
267.984	110.19
268.216	119.19
268.448	115.19
268.681	124.19
268.913	117.19
269.145	113.19
269.377	117.19
269.609	105.19
269.841	102.19
270.073	114.19
270.306	114.19
270.538	104.19
270.77	111.19
271.002	125.19
271.234	111.19
271.466	120.19
271.698	121.19
271.93	113.19
272.162	127.19
272.394	108.19
272.626	103.19
272.858	109.19
273.09	118.19
273.322	131.19
273.553	119.19
273.785	124.19
274.017	127.19
274.249	121.19
274.481	140.19
274.713	129.19
274.945	130.19
275.176	120.19
275.408	111.19
275.64	125.19
275.872	137.19
276.104	130.19
276.335	114.19
276.567	127.19
276.799	114.19
277.031	123.19
277.262	125.19
277.494	123.19
277.726	118.19
277.957	111.19
278.189	121.19
278.421	122.19
278.652	128.19
278.884	120.19
279.115	114.19
279.347	128.19
279.579	142.19
279.81	113.19
280.042	123.19
280.273	106.19
280.505	104.19
280.736	139.19
280.968	129.19
281.199	119.19
281.431	110.19
281.662	118.19
281.894	129.19
282.125	110.19
282.356	105.19
282.588	112.19
282.819	135.19
283.051	129.19
283.282	123.19
283.513	126.19
283.745	139.19
283.976	123.19
284.207	147.19
284.439	120.19
284.67	131.19
284.901	122.19
285.132	122.19
285.364	120.19
285.595	123.19
285.826	127.19
286.057	128.19
286.288	118.19
286.52	120.19
286.751	132.19
286.982	137.19
287.213	128.19
287.444	124.19
287.675	127.19
287.906	128.19
288.138	136.19
288.369	116.19
288.6	139.19
288.831	115.19
289.062	134.19
289.293	131.19
289.524	111.19
289.755	132.19
289.986	131.19
290.217	127.19
290.448	120.19
290.679	129.19
290.91	146.19
291.141	131.19
291.371	138.19
291.602	125.19
291.833	117.19
292.064	119.19
292.295	131.19
292.526	116.19
292.757	135.19
292.987	124.19
293.218	130.19
293.449	139.19
293.68	139.19
293.91	139.19
294.141	150.19
294.372	125.19
294.603	129.19
294.833	145.19
295.064	129.19
295.295	130.19
295.525	120.19
295.756	147.19
295.987	141.19
296.217	134.19
296.448	132.19
296.679	135.19
296.909	152.19
297.14	149.19
297.37	147.19
297.601	149.19
297.831	123.19
298.062	139.19
298.292	126.19
298.523	156.19
298.753	136.19
298.984	137.19
299.214	127.19
299.445	129.19
299.675	136.19
299.905	144.19
300.136	152.19
300.366	129.19
300.597	156.19
300.827	149.19
301.057	143.19
301.288	136.19
301.518	141.19
301.748	150.19
301.979	180.19
302.209	142.19
302.439	150.19
302.669	147.19
302.9	140.19
303.13	152.19
303.36	130.19
303.59	135.19
303.82	155.19
304.051	143.19
304.281	147.19
304.511	141.19
304.741	138.19
304.971	142.19
305.201	142.19
305.431	159.19
305.661	147.19
305.891	122.19
306.121	131.19
306.352	137.19
306.582	142.19
306.812	136.19
307.042	143.19
307.272	166.19
307.502	128.19
307.731	142.19
307.961	158.19
308.191	142.19
308.421	144.19
308.651	142.19
308.881	152.19
309.111	138.19
309.341	155.19
309.571	138.19
309.8	133.19
310.03	139.19
310.26	137.19
310.49	129.19
310.72	140.19
310.949	123.19
311.179	152.19
311.409	136.19
311.639	138.19
311.868	152.19
312.098	150.19
312.328	148.19
312.557	134.19
312.787	140.19
313.017	157.19
313.246	167.19
313.476	141.19
313.706	152.19
313.935	141.19
314.165	127.19
314.394	146.19
314.624	139.19
314.853	157.19
315.083	138.19
315.312	131.19
315.542	131.19
315.771	155.19
316.001	158.19
316.23	149.19
316.46	151.19
316.689	142.19
316.919	139.19
317.148	143.19
317.377	146.19
317.607	141.19
317.836	157.19
318.065	139.19
318.295	159.19
318.524	159.19
318.753	150.19
318.983	155.19
319.212	151.19
319.441	153.19
319.67	152.19
319.9	159.19
320.129	143.19
320.358	164.19
320.587	155.19
320.816	151.19
321.046	160.19
321.275	160.19
321.504	158.19
321.733	137.19
321.962	150.19
322.191	145.19
322.42	142.19
322.649	162.19
322.878	146.19
323.108	160.19
323.337	155.19
323.566	168.19
323.795	156.19
324.024	166.19
324.253	150.19
324.482	152.19
324.71	147.19
324.939	146.19
325.168	157.19
325.397	153.19
325.626	148.19
325.855	148.19
326.084	158.19
326.313	162.19
326.542	148.19
326.77	168.19
326.999	164.19
327.228	151.19
327.457	155.19
327.686	170.19
327.914	169.19
328.143	173.19
328.372	167.19
328.6	163.19
328.829	154.19
329.058	145.19
329.287	141.19
329.515	163.19
329.744	170.19
329.972	170.19
330.201	164.19
330.43	194.19
330.658	168.19
330.887	179.19
331.115	165.19
331.344	169.19
331.572	159.19
331.801	166.19
332.03	172.19
332.258	164.19
332.486	179.19
332.715	178.19
332.943	174.19
333.172	180.19
333.4	184.19
333.629	188.19
333.857	180.19
334.085	208.19
334.314	213.19
334.542	194.19
334.771	215.19
334.999	187.19
335.227	178.19
335.455	176.19
335.684	180.19
335.912	179.19
336.14	176.19
336.369	178.19
336.597	175.19
336.825	162.19
337.053	159.19
337.281	167.19
337.51	159.19
337.738	179.19
337.966	166.19
338.194	163.19
338.422	186.19
338.65	173.19
338.878	170.19
339.106	160.19
339.334	168.19
339.562	166.19
339.79	163.19
340.018	168.19
340.246	163.19
340.474	164.19
340.702	151.19
340.93	151.19
341.158	151.19
341.386	157.19
341.614	153.19
341.842	160.19
342.07	160.19
342.298	169.19
342.526	168.19
342.754	171.19
342.981	157.19
343.209	163.19
343.437	192.19
343.665	187.19
343.893	176.19
344.12	188.19
344.348	171.19
344.576	171.19
344.804	170.19
345.031	164.19
345.259	168.19
345.487	162.19
345.714	148.19
345.942	155.19
346.17	151.19
346.397	170.19
346.625	160.19
346.853	150.19
347.08	151.19
347.308	162.19
347.535	158.19
347.763	166.19
347.99	167.19
348.218	171.19
348.445	167.19
348.673	160.19
348.9	162.19
349.128	169.19
349.355	150.19
349.583	144.19
349.81	161.19
350.037	146.19
350.265	163.19
350.492	160.19
350.72	153.19
350.947	159.19
351.174	150.19
351.402	153.19
351.629	171.19
351.856	146.19
352.083	161.19
352.311	175.19
352.538	150.19
352.765	172.19
352.992	183.19
353.22	150.19
353.447	162.19
353.674	158.19
353.901	147.19
354.128	160.19
354.355	146.19
354.583	143.19
354.81	166.19
355.037	156.19
355.264	171.19
355.491	154.19
355.718	172.19
355.945	168.19
356.172	156.19
356.399	159.19
356.626	162.19
356.853	160.19
357.08	167.19
357.307	160.19
357.534	161.19
357.761	161.19
357.988	165.19
358.215	175.19
358.441	168.19
358.668	158.19
358.895	165.19
359.122	150.19
359.349	148.19
359.576	144.19
359.802	153.19
360.029	156.19
360.256	174.19
360.483	158.19
360.709	157.19
360.936	176.19
361.163	164.19
361.39	156.19
361.616	157.19
361.843	144.19
362.07	156.19
362.296	158.19
362.523	167.19
362.749	152.19
362.976	154.19
363.203	167.19
363.429	158.19
363.656	160.19
363.882	172.19
364.109	164.19
364.335	153.19
364.562	161.19
364.788	151.19
365.015	164.19
365.241	168.19
365.468	164.19
365.694	141.19
365.92	164.19
366.147	162.19
366.373	156.19
366.599	151.19
366.826	153.19
367.052	168.19
367.278	164.19
367.505	154.19
367.731	164.19
367.957	153.19
368.184	165.19
368.41	156.19
368.636	176.19
368.862	170.19
369.089	150.19
369.315	155.19
369.541	147.19
369.767	170.19
369.993	162.19
370.219	161.19
370.445	161.19
370.672	167.19
370.898	164.19
371.124	183.19
371.35	174.19
371.576	156.19
371.802	176.19
372.028	161.19
372.254	170.19
372.48	161.19
372.706	180.19
372.932	166.19
373.158	173.19
373.384	174.19
373.61	184.19
373.835	160.19
374.061	158.19
374.287	162.19
374.513	178.19
374.739	179.19
374.965	179.19
375.191	179.19
375.416	179.19
375.642	183.19
375.868	178.19
376.094	172.19
376.319	159.19
376.545	164.19
376.771	148.19
376.997	164.19
377.222	172.19
377.448	162.19
377.674	160.19
377.899	174.19
378.125	182.19
378.35	182.19
378.576	170.19
378.802	160.19
379.027	163.19
379.253	180.19
379.478	163.19
379.704	182.19
379.929	169.19
380.155	173.19
380.38	160.19
380.606	162.19
380.831	182.19
381.057	194.19
381.282	178.19
381.507	174.19
381.733	184.19
381.958	180.19
382.184	177.19
382.409	186.19
382.634	174.19
382.86	163.19
383.085	174.19
383.31	164.19
383.535	182.19
383.761	183.19
383.986	189.19
384.211	192.19
384.436	186.19
384.662	174.19
384.887	181.19
385.112	195.19
385.337	182.19
385.562	194.19
385.787	188.19
386.013	200.19
386.238	177.19
386.463	187.19
386.688	223.19
386.913	194.19
387.138	177.19
387.363	179.19
387.588	191.19
387.813	188.19
388.038	185.19
388.263	188.19
388.488	176.19
388.713	185.19
388.938	189.19
389.163	186.19
389.387	171.19
389.612	193.19
389.837	177.19
390.062	189.19
390.287	186.19
390.512	185.19
390.736	179.19
390.961	191.19
391.186	185.19
391.411	201.19
391.636	203.19
391.86	208.19
392.085	201.19
392.31	182.19
392.534	200.19
392.759	204.19
392.984	195.19
393.208	187.19
393.433	195.19
393.658	210.19
393.882	169.19
394.107	201.19
394.331	221.19
394.556	204.19
394.78	210.19
395.005	211.19
395.229	219.19
395.454	209.19
395.678	210.19
395.903	203.19
396.127	208.19
396.352	218.19
396.576	210.19
396.801	210.19
397.025	202.19
397.249	192.19
397.474	227.19
397.698	216.19
397.922	214.19
398.147	199.19
398.371	226.19
398.595	226.19
398.82	202.19
399.044	231.19
399.268	257.19
399.492	289.19
399.717	282.19
399.941	286.19
400.165	260.19
400.389	246.19
400.613	238.19
400.837	227.19
401.062	238.19
401.286	227.19
401.51	213.19
401.734	229.19
401.958	215.19
402.182	203.19
402.406	211.19
402.63	220.19
402.854	236.19
403.078	227.19
403.302	231.19
403.526	249.19
403.75	256.19
403.974	244.19
404.198	232.19
404.422	264.19
404.645	253.19
404.869	235.19
405.093	232.19
405.317	249.19
405.541	234.19
405.765	218.19
405.988	228.19
406.212	242.19
406.436	230.19
406.66	266.19
406.883	250.19
407.107	255.19
407.331	264.19
407.555	278.19
407.778	254.19
408.002	272.19
408.226	259.19
408.449	241.19
408.673	234.19
408.896	259.19
409.12	244.19
409.344	233.19
409.567	234.19
409.791	242.19
410.014	241.19
410.238	221.19
410.461	239.19
410.685	239.19
410.908	214.19
411.132	237.19
411.355	228.19
411.578	235.19
411.802	224.19
412.025	225.19
412.249	225.19
412.472	227.19
412.695	222.19
412.919	232.19
413.142	239.19
413.365	246.19
413.589	246.19
413.812	226.19
414.035	229.19
414.258	225.19
414.482	221.19
414.705	224.19
414.928	222.19
415.151	228.19
415.374	219.19
415.597	220.19
415.821	212.19
416.044	216.19
416.267	221.19
416.49	238.19
416.713	223.19
416.936	220.19
417.159	235.19
417.382	227.19
417.605	232.19
417.828	236.19
418.051	232.19
418.274	247.19
418.497	218.19
418.72	215.19
418.943	227.19
419.166	238.19
419.389	247.19
419.611	239.19
419.834	237.19
420.057	227.19
420.28	233.19
420.503	221.19
420.726	216.19
420.948	216.19
421.171	220.19
421.394	218.19
421.617	216.19
421.839	243.19
422.062	237.19
422.285	244.19
422.507	229.19
422.73	232.19
422.953	226.19
423.175	226.19
423.398	235.19
423.621	227.19
423.843	216.19
424.066	224.19
424.288	234.19
424.511	234.19
424.733	232.19
424.956	234.19
425.178	233.19
425.401	226.19
425.623	223.19
425.846	208.19
426.068	223.19
426.291	228.19
426.513	209.19
426.735	216.19
426.958	227.19
427.18	236.19
427.402	236.19
427.625	217.19
427.847	201.19
428.069	213.19
428.292	215.19
428.514	207.19
428.736	213.19
428.958	203.19
429.181	208.19
429.403	219.19
429.625	216.19
429.847	188.19
430.069	201.19
430.292	209.19
430.514	200.19
430.736	219.19
430.958	215.19
431.18	211.19
431.402	205.19
431.624	200.19
431.846	187.19
432.068	206.19
432.29	208.19
432.512	195.19
432.734	213.19
432.956	222.19
433.178	212.19
433.4	208.19
433.622	222.19
433.844	208.19
434.066	215.19
434.287	211.19
434.509	201.19
434.731	214.19
434.953	214.19
435.175	231.19
435.397	218.19
435.618	218.19
435.84	220.19
436.062	200.19
436.284	199.19
436.505	193.19
436.727	206.19
436.949	220.19
437.17	189.19
437.392	186.19
437.614	195.19
437.835	199.19
438.057	186.19
438.278	191.19
438.5	195.19
438.721	204.19
438.943	206.19
439.165	209.19
439.386	218.19
439.608	210.19
439.829	212.19
440.05	215.19
440.272	206.19
440.493	200.19
440.715	211.19
440.936	216.19
441.158	243.19
441.379	225.19
441.6	218.19
441.822	222.19
442.043	235.19
442.264	219.19
442.486	223.19
442.707	211.19
442.928	213.19
443.149	226.19
443.371	225.19
443.592	230.19
443.813	234.19
444.034	239.19
444.255	248.19
444.476	232.19
444.698	253.19
444.919	256.19
445.14	434.19
445.361	292.19
445.582	243.19
445.803	225.19
446.024	209.19
446.245	204.19
446.466	240.19
446.687	214.19
446.908	210.19
447.129	221.19
447.35	224.19
447.571	198.19
447.792	206.19
448.013	202.19
448.234	202.19
448.455	199.19
448.675	209.19
448.896	206.19
449.117	206.19
449.338	197.19
449.559	208.19
449.779	202.19
450	186.19
450.221	185.19
450.442	199.19
450.662	194.19
450.883	204.19
451.104	222.19
451.324	202.19
451.545	206.19
451.766	196.19
451.986	183.19
452.207	202.19
452.428	195.19
452.648	190.19
452.869	187.19
453.089	185.19
453.31	187.19
453.53	177.19
453.751	180.19
453.971	176.19
454.192	176.19
454.412	193.19
454.633	188.19
454.853	195.19
455.073	216.19
455.294	188.19
455.514	190.19
455.734	171.19
455.955	180.19
456.175	182.19
456.395	173.19
456.616	171.19
456.836	181.19
457.056	186.19
457.276	184.19
457.497	172.19
457.717	179.19
457.937	174.19
458.157	183.19
458.377	177.19
458.598	195.19
458.818	194.19
459.038	202.19
459.258	194.19
459.478	210.19
459.698	193.19
459.918	219.19
460.138	225.19
460.358	219.19
460.578	227.19
460.798	231.19
461.018	214.19
461.238	224.19
461.458	233.19
461.678	206.19
461.898	221.19
462.118	225.19
462.338	233.19
462.558	250.19
462.777	231.19
462.997	248.19
463.217	289.19
463.437	273.19
463.657	251.19
463.876	248.19
464.096	255.19
464.316	255.19
464.536	235.19
464.755	234.19
464.975	234.19
465.195	240.19
465.414	226.19
465.634	220.19
465.854	224.19
466.073	214.19
466.293	206.19
466.512	199.19
466.732	208.19
466.951	215.19
467.171	210.19
467.391	193.19
467.61	198.19
467.829	200.19
468.049	216.19
468.268	210.19
468.488	214.19
468.707	215.19
468.927	207.19
469.146	208.19
469.365	184.19
469.585	202.19
469.804	235.19
470.023	218.19
470.243	214.19
470.462	219.19
470.681	221.19
470.901	207.19
471.12	207.19
471.339	198.19
471.558	202.19
471.777	201.19
471.997	212.19
472.216	225.19
472.435	245.19
472.654	214.19
472.873	191.19
473.092	202.19
473.311	196.19
473.53	201.19
473.749	194.19
473.968	203.19
474.187	196.19
474.406	192.19
474.625	206.19
474.844	180.19
475.063	189.19
475.282	203.19
475.501	216.19
475.72	206.19
475.939	203.19
476.158	194.19
476.377	210.19
476.596	198.19
476.814	198.19
477.033	218.19
477.252	202.19
477.471	198.19
477.69	225.19
477.908	227.19
478.127	224.19
478.346	226.19
478.564	238.19
478.783	231.19
479.002	221.19
479.22	215.19
479.439	217.19
479.658	225.19
479.876	238.19
480.095	228.19
480.313	225.19
480.532	246.19
480.751	210.19
480.969	234.19
481.188	283.19
481.406	264.19
481.624	227.19
481.843	236.19
482.061	206.19
482.28	207.19
482.498	223.19
482.717	208.19
482.935	201.19
483.153	223.19
483.372	220.19
483.59	216.19
483.808	228.19
484.027	237.19
484.245	234.19
484.463	223.19
484.681	218.19
484.9	210.19
485.118	217.19
485.336	215.19
485.554	222.19
485.772	236.19
485.99	191.19
486.209	223.19
486.427	201.19
486.645	226.19
486.863	232.19
487.081	225.19
487.299	230.19
487.517	226.19
487.735	252.19
487.953	248.19
488.171	225.19
488.389	234.19
488.607	233.19
488.825	226.19
489.043	231.19
489.261	218.19
489.479	224.19
489.696	221.19
489.914	232.19
490.132	213.19
490.35	216.19
490.568	238.19
490.786	230.19
491.003	235.19
491.221	221.19
491.439	251.19
491.657	247.19
491.874	249.19
492.092	250.19
492.31	256.19
492.527	249.19
492.745	235.19
492.963	238.19
493.18	245.19
493.398	243.19
493.615	240.19
493.833	257.19
494.05	238.19
494.268	246.19
494.485	243.19
494.703	251.19
494.92	224.19
495.138	236.19
495.355	238.19
495.573	247.19
495.79	234.19
496.008	228.19
496.225	255.19
496.442	230.19
496.66	258.19
496.877	256.19
497.094	272.19
497.312	251.19
497.529	260.19
497.746	261.19
497.963	248.19
498.181	278.19
498.398	286.19
498.615	298.19
498.832	304.19
499.049	311.19
499.267	335.19
499.484	353.19
499.701	375.19
499.918	415.19
500.135	465.19
500.352	477.19
500.569	480.19
500.786	476.19
501.003	460.19
501.22	419.19
501.437	386.19
501.654	345.19
501.871	322.19
502.088	315.19
502.305	309.19
502.522	299.19
502.739	274.19
502.956	284.19
503.172	259.19
503.389	248.19
503.606	258.19
503.823	243.19
504.04	238.19
