Data from SampB_HRD10591_00025.txt Node
Date: Mon Jan 19 11:33:37 EST 2026
User: Yrep
Spectrometer: HR+D1059
Trigger mode: 0
Integration Time (sec): 3.443000E-1
Scans to average: 1
Electric dark correction enabled: true
Nonlinearity correction enabled: false
Boxcar width: 0
XAxis mode: Wavelengths
Number of Pixels in Spectrum: 2048
>>>>>Begin Spectral Data<<<<<
223.165	-30.12
223.4	-30.12
223.635	-30.12
223.869	-13.12
224.104	-24.12
224.338	-16.12
224.573	-22.12
224.808	0.88
225.042	-18.12
225.277	-11.12
225.511	-10.12
225.746	7.88
225.98	9.88
226.215	9.88
226.449	22.88
226.683	15.88
226.918	37.88
227.152	39.88
227.387	35.88
227.621	51.88
227.856	26.88
228.09	57.88
228.324	62.88
228.559	65.88
228.793	69.88
229.027	78.88
229.262	69.88
229.496	75.88
229.73	83.88
229.964	80.88
230.199	86.88
230.433	71.88
230.667	97.88
230.901	79.88
231.136	96.88
231.37	86.88
231.604	76.88
231.838	87.88
232.072	82.88
232.306	86.88
232.541	81.88
232.775	91.88
233.009	87.88
233.243	78.88
233.477	85.88
233.711	88.88
233.945	84.88
234.179	100.88
234.413	89.88
234.647	91.88
234.881	94.88
235.115	104.88
235.349	91.88
235.583	77.88
235.817	83.88
236.051	87.88
236.285	96.88
236.519	91.88
236.753	87.88
236.987	97.88
237.221	94.88
237.455	92.88
237.689	87.88
237.922	101.88
238.156	86.88
238.39	90.88
238.624	89.88
238.858	79.88
239.091	86.88
239.325	73.88
239.559	74.88
239.793	91.88
240.027	92.88
240.26	83.88
240.494	80.88
240.728	95.88
240.961	84.88
241.195	88.88
241.429	87.88
241.662	94.88
241.896	103.88
242.13	101.88
242.363	86.88
242.597	97.88
242.83	87.88
243.064	106.88
243.298	113.88
243.531	102.88
243.765	97.88
243.998	89.88
244.232	92.88
244.465	102.88
244.699	90.88
244.932	107.88
245.166	107.88
245.399	82.88
245.633	98.88
245.866	96.88
246.099	93.88
246.333	81.88
246.566	78.88
246.8	97.88
247.033	94.88
247.266	102.88
247.5	89.88
247.733	91.88
247.966	90.88
248.2	93.88
248.433	95.88
248.666	89.88
248.899	96.88
249.133	89.88
249.366	121.88
249.599	94.88
249.832	94.88
250.066	110.88
250.299	110.88
250.532	116.88
250.765	94.88
250.998	101.88
251.231	105.88
251.465	90.88
251.698	109.88
251.931	92.88
252.164	101.88
252.397	107.88
252.63	107.88
252.863	114.88
253.096	101.88
253.329	97.88
253.562	96.88
253.795	96.88
254.028	109.88
254.261	110.88
254.494	109.88
254.727	112.88
254.96	101.88
255.193	92.88
255.426	105.88
255.659	99.88
255.892	121.88
256.124	134.88
256.357	119.88
256.59	122.88
256.823	119.88
257.056	114.88
257.289	108.88
257.521	106.88
257.754	110.88
257.987	108.88
258.22	118.88
258.452	108.88
258.685	114.88
258.918	110.88
259.151	107.88
259.383	127.88
259.616	100.88
259.849	115.88
260.081	115.88
260.314	114.88
260.547	106.88
260.779	110.88
261.012	124.88
261.244	122.88
261.477	129.88
261.71	128.88
261.942	103.88
262.175	110.88
262.407	124.88
262.64	104.88
262.872	114.88
263.105	106.88
263.337	128.88
263.57	109.88
263.802	109.88
264.035	113.88
264.267	105.88
264.499	111.88
264.732	110.88
264.964	109.88
265.197	122.88
265.429	122.88
265.661	106.88
265.894	122.88
266.126	128.88
266.358	121.88
266.591	122.88
266.823	107.88
267.055	107.88
267.287	122.88
267.52	108.88
267.752	114.88
267.984	112.88
268.216	114.88
268.448	116.88
268.681	119.88
268.913	122.88
269.145	123.88
269.377	121.88
269.609	105.88
269.841	106.88
270.073	133.88
270.306	131.88
270.538	120.88
270.77	119.88
271.002	117.88
271.234	115.88
271.466	117.88
271.698	104.88
271.93	109.88
272.162	107.88
272.394	127.88
272.626	126.88
272.858	119.88
273.09	130.88
273.322	134.88
273.553	120.88
273.785	133.88
274.017	128.88
274.249	130.88
274.481	113.88
274.713	132.88
274.945	133.88
275.176	117.88
275.408	115.88
275.64	131.88
275.872	131.88
276.104	120.88
276.335	137.88
276.567	128.88
276.799	139.88
277.031	132.88
277.262	137.88
277.494	139.88
277.726	135.88
277.957	134.88
278.189	129.88
278.421	153.88
278.652	133.88
278.884	150.88
279.115	132.88
279.347	151.88
279.579	158.88
279.81	182.88
280.042	169.88
280.273	163.88
280.505	167.88
280.736	131.88
280.968	145.88
281.199	143.88
281.431	141.88
281.662	127.88
281.894	129.88
282.125	133.88
282.356	132.88
282.588	128.88
282.819	134.88
283.051	124.88
283.282	114.88
283.513	133.88
283.745	147.88
283.976	135.88
284.207	144.88
284.439	125.88
284.67	153.88
284.901	148.88
285.132	139.88
285.364	134.88
285.595	126.88
285.826	135.88
286.057	133.88
286.288	127.88
286.52	147.88
286.751	130.88
286.982	143.88
287.213	126.88
287.444	145.88
287.675	140.88
287.906	145.88
288.138	141.88
288.369	145.88
288.6	134.88
288.831	151.88
289.062	155.88
289.293	137.88
289.524	132.88
289.755	137.88
289.986	139.88
290.217	152.88
290.448	154.88
290.679	158.88
290.91	150.88
291.141	143.88
291.371	155.88
291.602	128.88
291.833	147.88
292.064	144.88
292.295	146.88
292.526	147.88
292.757	148.88
292.987	134.88
293.218	144.88
293.449	129.88
293.68	140.88
293.91	152.88
294.141	164.88
294.372	142.88
294.603	152.88
294.833	154.88
295.064	144.88
295.295	158.88
295.525	142.88
295.756	157.88
295.987	141.88
296.217	146.88
296.448	148.88
296.679	155.88
296.909	151.88
297.14	145.88
297.37	146.88
297.601	144.88
297.831	140.88
298.062	157.88
298.292	157.88
298.523	160.88
298.753	140.88
298.984	146.88
299.214	159.88
299.445	158.88
299.675	148.88
299.905	152.88
300.136	138.88
300.366	147.88
300.597	161.88
300.827	164.88
301.057	154.88
301.288	152.88
301.518	158.88
301.748	137.88
301.979	196.88
302.209	142.88
302.439	158.88
302.669	140.88
302.9	154.88
303.13	162.88
303.36	155.88
303.59	164.88
303.82	169.88
304.051	151.88
304.281	147.88
304.511	140.88
304.741	157.88
304.971	147.88
305.201	130.88
305.431	161.88
305.661	155.88
305.891	157.88
306.121	141.88
306.352	156.88
306.582	151.88
306.812	161.88
307.042	157.88
307.272	154.88
307.502	169.88
307.731	161.88
307.961	169.88
308.191	151.88
308.421	147.88
308.651	179.88
308.881	175.88
309.111	164.88
309.341	148.88
309.571	146.88
309.8	148.88
310.03	149.88
310.26	156.88
310.49	163.88
310.72	157.88
310.949	146.88
311.179	151.88
311.409	140.88
311.639	140.88
311.868	152.88
312.098	160.88
312.328	166.88
312.557	145.88
312.787	166.88
313.017	163.88
313.246	149.88
313.476	155.88
313.706	155.88
313.935	161.88
314.165	165.88
314.394	167.88
314.624	171.88
314.853	169.88
315.083	165.88
315.312	167.88
315.542	142.88
315.771	151.88
316.001	168.88
316.23	161.88
316.46	152.88
316.689	158.88
316.919	169.88
317.148	153.88
317.377	176.88
317.607	157.88
317.836	157.88
318.065	149.88
318.295	160.88
318.524	161.88
318.753	165.88
318.983	163.88
319.212	157.88
319.441	160.88
319.67	157.88
319.9	170.88
320.129	163.88
320.358	172.88
320.587	161.88
320.816	156.88
321.046	164.88
321.275	167.88
321.504	165.88
321.733	178.88
321.962	178.88
322.191	174.88
322.42	173.88
322.649	169.88
322.878	177.88
323.108	192.88
323.337	197.88
323.566	182.88
323.795	206.88
324.024	168.88
324.253	190.88
324.482	181.88
324.71	159.88
324.939	180.88
325.168	161.88
325.397	159.88
325.626	160.88
325.855	175.88
326.084	184.88
326.313	173.88
326.542	169.88
326.77	173.88
326.999	189.88
327.228	178.88
327.457	188.88
327.686	203.88
327.914	235.88
328.143	243.88
328.372	253.88
328.6	234.88
328.829	200.88
329.058	191.88
329.287	195.88
329.515	210.88
329.744	241.88
329.972	285.88
330.201	326.88
330.43	353.88
330.658	256.88
330.887	210.88
331.115	210.88
331.344	178.88
331.572	214.88
331.801	196.88
332.03	201.88
332.258	201.88
332.486	194.88
332.715	215.88
332.943	210.88
333.172	225.88
333.4	228.88
333.629	253.88
333.857	269.88
334.085	335.88
334.314	387.88
334.542	448.88
334.771	422.88
334.999	326.88
335.227	272.88
335.455	239.88
335.684	229.88
335.912	224.88
336.14	211.88
336.369	213.88
336.597	204.88
336.825	204.88
337.053	218.88
337.281	201.88
337.51	205.88
337.738	192.88
337.966	193.88
338.194	204.88
338.422	192.88
338.65	189.88
338.878	194.88
339.106	199.88
339.334	211.88
339.562	180.88
339.79	175.88
340.018	168.88
340.246	163.88
340.474	165.88
340.702	176.88
340.93	185.88
341.158	184.88
341.386	181.88
341.614	158.88
341.842	168.88
342.07	179.88
342.298	175.88
342.526	178.88
342.754	164.88
342.981	175.88
343.209	172.88
343.437	206.88
343.665	204.88
343.893	206.88
344.12	218.88
344.348	183.88
344.576	182.88
344.804	181.88
345.031	178.88
345.259	174.88
345.487	177.88
345.714	177.88
345.942	161.88
346.17	187.88
346.397	169.88
346.625	154.88
346.853	164.88
347.08	180.88
347.308	171.88
347.535	176.88
347.763	169.88
347.99	192.88
348.218	185.88
348.445	177.88
348.673	149.88
348.9	168.88
349.128	173.88
349.355	157.88
349.583	168.88
349.81	157.88
350.037	151.88
350.265	170.88
350.492	167.88
350.72	161.88
350.947	179.88
351.174	167.88
351.402	165.88
351.629	160.88
351.856	155.88
352.083	172.88
352.311	164.88
352.538	176.88
352.765	170.88
352.992	190.88
353.22	163.88
353.447	162.88
353.674	183.88
353.901	169.88
354.128	164.88
354.355	172.88
354.583	174.88
354.81	185.88
355.037	174.88
355.264	167.88
355.491	153.88
355.718	168.88
355.945	176.88
356.172	176.88
356.399	170.88
356.626	173.88
356.853	170.88
357.08	169.88
357.307	172.88
357.534	161.88
357.761	166.88
357.988	170.88
358.215	168.88
358.441	172.88
358.668	157.88
358.895	175.88
359.122	178.88
359.349	159.88
359.576	181.88
359.802	166.88
360.029	181.88
360.256	171.88
360.483	167.88
360.709	173.88
360.936	183.88
361.163	177.88
361.39	175.88
361.616	172.88
361.843	166.88
362.07	166.88
362.296	171.88
362.523	159.88
362.749	160.88
362.976	172.88
363.203	182.88
363.429	175.88
363.656	158.88
363.882	176.88
364.109	181.88
364.335	180.88
364.562	194.88
364.788	171.88
365.015	163.88
365.241	167.88
365.468	190.88
365.694	176.88
365.92	157.88
366.147	168.88
366.373	162.88
366.599	160.88
366.826	165.88
367.052	167.88
367.278	182.88
367.505	160.88
367.731	186.88
367.957	166.88
368.184	172.88
368.41	181.88
368.636	189.88
368.862	177.88
369.089	164.88
369.315	174.88
369.541	161.88
369.767	172.88
369.993	185.88
370.219	178.88
370.445	173.88
370.672	170.88
370.898	172.88
371.124	194.88
371.35	194.88
371.576	171.88
371.802	180.88
372.028	191.88
372.254	188.88
372.48	199.88
372.706	188.88
372.932	194.88
373.158	190.88
373.384	190.88
373.61	178.88
373.835	191.88
374.061	190.88
374.287	182.88
374.513	187.88
374.739	206.88
374.965	174.88
375.191	200.88
375.416	203.88
375.642	223.88
375.868	217.88
376.094	199.88
376.319	194.88
376.545	181.88
376.771	185.88
376.997	190.88
377.222	179.88
377.448	174.88
377.674	172.88
377.899	181.88
378.125	178.88
378.35	198.88
378.576	188.88
378.802	193.88
379.027	177.88
379.253	182.88
379.478	164.88
379.704	195.88
379.929	188.88
380.155	162.88
380.38	172.88
380.606	190.88
380.831	190.88
381.057	197.88
381.282	194.88
381.507	196.88
381.733	191.88
381.958	190.88
382.184	185.88
382.409	196.88
382.634	194.88
382.86	191.88
383.085	206.88
383.31	189.88
383.535	201.88
383.761	201.88
383.986	216.88
384.211	206.88
384.436	216.88
384.662	217.88
384.887	209.88
385.112	210.88
385.337	221.88
385.562	213.88
385.787	213.88
386.013	205.88
386.238	207.88
386.463	209.88
386.688	228.88
386.913	198.88
387.138	214.88
387.363	208.88
387.588	212.88
387.813	208.88
388.038	212.88
388.263	227.88
388.488	208.88
388.713	203.88
388.938	202.88
389.163	219.88
389.387	216.88
389.612	182.88
389.837	205.88
390.062	213.88
390.287	190.88
390.512	214.88
390.736	203.88
390.961	230.88
391.186	214.88
391.411	239.88
391.636	230.88
391.86	235.88
392.085	239.88
392.31	234.88
392.534	246.88
392.759	239.88
392.984	237.88
393.208	287.88
393.433	316.88
393.658	300.88
393.882	237.88
394.107	225.88
394.331	251.88
394.556	230.88
394.78	239.88
395.005	245.88
395.229	225.88
395.454	231.88
395.678	246.88
395.903	260.88
396.127	235.88
396.352	242.88
396.576	273.88
396.801	293.88
397.025	281.88
397.249	258.88
397.474	251.88
397.698	244.88
397.922	233.88
398.147	251.88
398.371	236.88
398.595	258.88
398.82	263.88
399.044	263.88
399.268	319.88
399.492	337.88
399.717	367.88
399.941	348.88
400.165	316.88
400.389	268.88
400.613	249.88
400.837	273.88
401.062	261.88
401.286	267.88
401.51	245.88
401.734	270.88
401.958	271.88
402.182	265.88
402.406	268.88
402.63	272.88
402.854	276.88
403.078	277.88
403.302	278.88
403.526	279.88
403.75	285.88
403.974	291.88
404.198	289.88
404.422	300.88
404.645	286.88
404.869	295.88
405.093	284.88
405.317	275.88
405.541	279.88
405.765	275.88
405.988	272.88
406.212	278.88
406.436	284.88
406.66	276.88
406.883	296.88
407.107	299.88
407.331	315.88
407.555	318.88
407.778	298.88
408.002	306.88
408.226	298.88
408.449	278.88
408.673	273.88
408.896	294.88
409.12	277.88
409.344	300.88
409.567	288.88
409.791	286.88
410.014	291.88
410.238	282.88
410.461	290.88
410.685	277.88
410.908	262.88
411.132	277.88
411.355	265.88
411.578	267.88
411.802	268.88
412.025	259.88
412.249	283.88
412.472	285.88
412.695	268.88
412.919	268.88
413.142	259.88
413.365	263.88
413.589	261.88
413.812	277.88
414.035	285.88
414.258	271.88
414.482	264.88
414.705	259.88
414.928	272.88
415.151	263.88
415.374	262.88
415.597	262.88
415.821	260.88
416.044	257.88
416.267	265.88
416.49	269.88
416.713	267.88
416.936	251.88
417.159	268.88
417.382	258.88
417.605	273.88
417.828	289.88
418.051	264.88
418.274	275.88
418.497	269.88
418.72	279.88
418.943	276.88
419.166	299.88
419.389	319.88
419.611	289.88
419.834	289.88
420.057	276.88
420.28	270.88
420.503	271.88
420.726	283.88
420.948	251.88
421.171	288.88
421.394	253.88
421.617	279.88
421.839	262.88
422.062	279.88
422.285	268.88
422.507	296.88
422.73	303.88
422.953	298.88
423.175	272.88
423.398	272.88
423.621	287.88
423.843	272.88
424.066	286.88
424.288	273.88
424.511	306.88
424.733	294.88
424.956	283.88
425.178	293.88
425.401	273.88
425.623	273.88
425.846	270.88
426.068	259.88
426.291	261.88
426.513	253.88
426.735	259.88
426.958	270.88
427.18	255.88
427.402	256.88
427.625	275.88
427.847	276.88
428.069	266.88
428.292	278.88
428.514	261.88
428.736	266.88
428.958	237.88
429.181	256.88
429.403	273.88
429.625	245.88
429.847	256.88
430.069	261.88
430.292	269.88
430.514	252.88
430.736	261.88
430.958	252.88
431.18	250.88
431.402	248.88
431.624	254.88
431.846	238.88
432.068	231.88
432.29	245.88
432.512	231.88
432.734	247.88
432.956	259.88
433.178	270.88
433.4	251.88
433.622	244.88
433.844	264.88
434.066	246.88
434.287	237.88
434.509	226.88
434.731	267.88
434.953	275.88
435.175	275.88
435.397	274.88
435.618	272.88
435.84	247.88
436.062	249.88
436.284	267.88
436.505	242.88
436.727	260.88
436.949	242.88
437.17	241.88
437.392	239.88
437.614	236.88
437.835	238.88
438.057	218.88
438.278	232.88
438.5	228.88
438.721	249.88
438.943	255.88
439.165	268.88
439.386	265.88
439.608	266.88
439.829	252.88
440.05	260.88
440.272	245.88
440.493	257.88
440.715	261.88
440.936	255.88
441.158	259.88
441.379	257.88
441.6	278.88
441.822	262.88
442.043	275.88
442.264	281.88
442.486	276.88
442.707	238.88
442.928	265.88
443.149	263.88
443.371	266.88
443.592	269.88
443.813	289.88
444.034	278.88
444.255	290.88
444.476	307.88
444.698	304.88
444.919	325.88
445.14	478.88
445.361	379.88
445.582	285.88
445.803	270.88
446.024	282.88
446.245	278.88
446.466	256.88
446.687	271.88
446.908	259.88
447.129	265.88
447.35	253.88
447.571	252.88
447.792	252.88
448.013	262.88
448.234	259.88
448.455	240.88
448.675	240.88
448.896	260.88
449.117	235.88
449.338	233.88
449.559	242.88
449.779	232.88
450	237.88
450.221	226.88
450.442	242.88
450.662	245.88
450.883	246.88
451.104	231.88
451.324	250.88
451.545	252.88
451.766	235.88
451.986	220.88
452.207	237.88
452.428	228.88
452.648	240.88
452.869	233.88
453.089	229.88
453.31	239.88
453.53	253.88
453.751	266.88
453.971	224.88
454.192	217.88
454.412	223.88
454.633	207.88
454.853	218.88
455.073	229.88
455.294	240.88
455.514	231.88
455.734	226.88
455.955	216.88
456.175	205.88
456.395	201.88
456.616	221.88
456.836	209.88
457.056	226.88
457.276	216.88
457.497	195.88
457.717	209.88
457.937	211.88
458.157	204.88
458.377	203.88
458.598	219.88
458.818	227.88
459.038	218.88
459.258	228.88
459.478	223.88
459.698	236.88
459.918	254.88
460.138	258.88
460.358	252.88
460.578	279.88
460.798	277.88
461.018	279.88
461.238	256.88
461.458	268.88
461.678	279.88
461.898	262.88
462.118	259.88
462.338	285.88
462.558	291.88
462.777	281.88
462.997	321.88
463.217	333.88
463.437	311.88
463.657	302.88
463.876	284.88
464.096	298.88
464.316	292.88
464.536	276.88
464.755	300.88
464.975	272.88
465.195	276.88
465.414	269.88
465.634	234.88
465.854	250.88
466.073	248.88
466.293	235.88
466.512	239.88
466.732	242.88
466.951	260.88
467.171	263.88
467.391	253.88
467.61	249.88
467.829	274.88
468.049	331.88
468.268	370.88
468.488	299.88
468.707	261.88
468.927	243.88
469.146	246.88
469.365	257.88
469.585	234.88
469.804	249.88
470.023	266.88
470.243	267.88
470.462	258.88
470.681	276.88
470.901	247.88
471.12	262.88
471.339	265.88
471.558	262.88
471.777	258.88
471.997	286.88
472.216	381.88
472.435	525.88
472.654	366.88
472.873	294.88
473.092	273.88
473.311	244.88
473.53	251.88
473.749	237.88
473.968	240.88
474.187	233.88
474.406	242.88
474.625	232.88
474.844	244.88
475.063	238.88
475.282	236.88
475.501	223.88
475.72	249.88
475.939	225.88
476.158	243.88
476.377	259.88
476.596	236.88
476.814	246.88
477.033	243.88
477.252	235.88
477.471	247.88
477.69	264.88
477.908	270.88
478.127	280.88
478.346	261.88
478.564	268.88
478.783	268.88
479.002	266.88
479.22	258.88
479.439	267.88
479.658	265.88
479.876	277.88
480.095	268.88
480.313	295.88
480.532	317.88
480.751	338.88
480.969	431.88
481.188	736.88
481.406	650.88
481.624	375.88
481.843	297.88
482.061	289.88
482.28	278.88
482.498	270.88
482.717	277.88
482.935	283.88
483.153	254.88
483.372	281.88
483.59	275.88
483.808	259.88
484.027	276.88
484.245	279.88
484.463	255.88
484.681	281.88
484.9	271.88
485.118	265.88
485.336	258.88
485.554	283.88
485.772	267.88
485.99	266.88
486.209	258.88
486.427	261.88
486.645	266.88
486.863	277.88
487.081	287.88
487.299	258.88
487.517	283.88
487.735	289.88
487.953	294.88
488.171	293.88
488.389	268.88
488.607	270.88
488.825	274.88
489.043	270.88
489.261	259.88
489.479	258.88
489.696	257.88
489.914	273.88
490.132	282.88
490.35	278.88
490.568	281.88
490.786	291.88
491.003	283.88
491.221	302.88
491.439	302.88
491.657	317.88
491.874	309.88
492.092	326.88
492.31	326.88
492.527	336.88
492.745	313.88
492.963	313.88
493.18	303.88
493.398	312.88
493.615	322.88
493.833	306.88
494.05	287.88
494.268	297.88
494.485	301.88
494.703	309.88
494.92	309.88
495.138	316.88
495.355	294.88
495.573	308.88
495.79	293.88
496.008	339.88
496.225	303.88
496.442	290.88
496.66	296.88
496.877	306.88
497.094	320.88
497.312	297.88
497.529	310.88
497.746	319.88
497.963	315.88
498.181	342.88
498.398	365.88
498.615	350.88
498.832	334.88
499.049	377.88
499.267	466.88
499.484	461.88
499.701	464.88
499.918	522.88
500.135	590.88
500.352	650.88
500.569	621.88
500.786	642.88
501.003	600.88
501.22	541.88
501.437	496.88
501.654	461.88
501.871	420.88
502.088	388.88
502.305	367.88
502.522	356.88
502.739	339.88
502.956	331.88
503.172	323.88
503.389	306.88
503.606	281.88
503.823	332.88
