Data from SampB_HRD10591_00016.txt Node
Date: Mon Jan 19 11:33:33 EST 2026
User: Yrep
Spectrometer: HR+D1059
Trigger mode: 0
Integration Time (sec): 3.443000E-1
Scans to average: 1
Electric dark correction enabled: true
Nonlinearity correction enabled: false
Boxcar width: 0
XAxis mode: Wavelengths
Number of Pixels in Spectrum: 2048
>>>>>Begin Spectral Data<<<<<
223.165	-16.44
223.4	-16.44
223.635	-16.44
223.869	-18.44
224.104	-31.44
224.338	-17.44
224.573	-14.44
224.808	-12.44
225.042	-9.44
225.277	-0.44
225.511	-15.44
225.746	10.56
225.98	0.56
226.215	0.56
226.449	31.56
226.683	23.56
226.918	33.56
227.152	35.56
227.387	28.56
227.621	30.56
227.856	50.56
228.09	47.56
228.324	51.56
228.559	52.56
228.793	49.56
229.027	61.56
229.262	84.56
229.496	76.56
229.73	80.56
229.964	84.56
230.199	83.56
230.433	83.56
230.667	92.56
230.901	82.56
231.136	87.56
231.37	67.56
231.604	98.56
231.838	105.56
232.072	91.56
232.306	90.56
232.541	98.56
232.775	93.56
233.009	84.56
233.243	79.56
233.477	89.56
233.711	105.56
233.945	94.56
234.179	94.56
234.413	109.56
234.647	88.56
234.881	101.56
235.115	105.56
235.349	98.56
235.583	95.56
235.817	77.56
236.051	96.56
236.285	100.56
236.519	99.56
236.753	82.56
236.987	92.56
237.221	82.56
237.455	93.56
237.689	93.56
237.922	97.56
238.156	93.56
238.39	99.56
238.624	94.56
238.858	98.56
239.091	80.56
239.325	83.56
239.559	95.56
239.793	99.56
240.027	97.56
240.26	83.56
240.494	109.56
240.728	89.56
240.961	107.56
241.195	96.56
241.429	87.56
241.662	93.56
241.896	81.56
242.13	103.56
242.363	97.56
242.597	98.56
242.83	114.56
243.064	93.56
243.298	80.56
243.531	96.56
243.765	93.56
243.998	103.56
244.232	115.56
244.465	109.56
244.699	110.56
244.932	101.56
245.166	101.56
245.399	105.56
245.633	103.56
245.866	105.56
246.099	101.56
246.333	102.56
246.566	105.56
246.8	107.56
247.033	108.56
247.266	101.56
247.5	108.56
247.733	98.56
247.966	112.56
248.2	106.56
248.433	102.56
248.666	101.56
248.899	113.56
249.133	118.56
249.366	129.56
249.599	117.56
249.832	112.56
250.066	115.56
250.299	112.56
250.532	116.56
250.765	109.56
250.998	100.56
251.231	102.56
251.465	113.56
251.698	117.56
251.931	103.56
252.164	121.56
252.397	127.56
252.63	128.56
252.863	120.56
253.096	112.56
253.329	113.56
253.562	109.56
253.795	106.56
254.028	119.56
254.261	105.56
254.494	103.56
254.727	116.56
254.96	100.56
255.193	101.56
255.426	116.56
255.659	125.56
255.892	118.56
256.124	117.56
256.357	135.56
256.59	119.56
256.823	123.56
257.056	114.56
257.289	124.56
257.521	125.56
257.754	110.56
257.987	125.56
258.22	125.56
258.452	117.56
258.685	108.56
258.918	119.56
259.151	127.56
259.383	119.56
259.616	129.56
259.849	126.56
260.081	129.56
260.314	126.56
260.547	116.56
260.779	117.56
261.012	127.56
261.244	119.56
261.477	132.56
261.71	124.56
261.942	123.56
262.175	121.56
262.407	120.56
262.64	132.56
262.872	141.56
263.105	122.56
263.337	137.56
263.57	123.56
263.802	128.56
264.035	124.56
264.267	141.56
264.499	114.56
264.732	137.56
264.964	139.56
265.197	129.56
265.429	117.56
265.661	125.56
265.894	121.56
266.126	138.56
266.358	131.56
266.591	135.56
266.823	139.56
267.055	135.56
267.287	127.56
267.52	125.56
267.752	132.56
267.984	130.56
268.216	128.56
268.448	145.56
268.681	135.56
268.913	137.56
269.145	146.56
269.377	131.56
269.609	120.56
269.841	133.56
270.073	143.56
270.306	146.56
270.538	143.56
270.77	139.56
271.002	140.56
271.234	139.56
271.466	139.56
271.698	120.56
271.93	139.56
272.162	136.56
272.394	157.56
272.626	150.56
272.858	145.56
273.09	153.56
273.322	160.56
273.553	147.56
273.785	159.56
274.017	157.56
274.249	145.56
274.481	139.56
274.713	157.56
274.945	158.56
275.176	144.56
275.408	164.56
275.64	149.56
275.872	148.56
276.104	160.56
276.335	143.56
276.567	145.56
276.799	170.56
277.031	151.56
277.262	157.56
277.494	160.56
277.726	155.56
277.957	146.56
278.189	160.56
278.421	160.56
278.652	154.56
278.884	160.56
279.115	153.56
279.347	151.56
279.579	183.56
279.81	193.56
280.042	188.56
280.273	196.56
280.505	180.56
280.736	168.56
280.968	167.56
281.199	162.56
281.431	155.56
281.662	164.56
281.894	164.56
282.125	158.56
282.356	149.56
282.588	166.56
282.819	165.56
283.051	149.56
283.282	161.56
283.513	171.56
283.745	169.56
283.976	155.56
284.207	150.56
284.439	145.56
284.67	172.56
284.901	177.56
285.132	172.56
285.364	167.56
285.595	171.56
285.826	165.56
286.057	160.56
286.288	164.56
286.52	164.56
286.751	159.56
286.982	167.56
287.213	151.56
287.444	185.56
287.675	179.56
287.906	165.56
288.138	165.56
288.369	161.56
288.6	173.56
288.831	159.56
289.062	188.56
289.293	161.56
289.524	174.56
289.755	158.56
289.986	159.56
290.217	183.56
290.448	168.56
290.679	173.56
290.91	170.56
291.141	172.56
291.371	185.56
291.602	175.56
291.833	169.56
292.064	171.56
292.295	178.56
292.526	176.56
292.757	181.56
292.987	188.56
293.218	163.56
293.449	175.56
293.68	171.56
293.91	169.56
294.141	168.56
294.372	176.56
294.603	177.56
294.833	173.56
295.064	184.56
295.295	171.56
295.525	172.56
295.756	171.56
295.987	175.56
296.217	178.56
296.448	184.56
296.679	182.56
296.909	180.56
297.14	187.56
297.37	178.56
297.601	176.56
297.831	174.56
298.062	183.56
298.292	177.56
298.523	194.56
298.753	188.56
298.984	181.56
299.214	171.56
299.445	172.56
299.675	174.56
299.905	188.56
300.136	191.56
300.366	176.56
300.597	184.56
300.827	179.56
301.057	177.56
301.288	179.56
301.518	183.56
301.748	205.56
301.979	240.56
302.209	181.56
302.439	181.56
302.669	177.56
302.9	188.56
303.13	197.56
303.36	192.56
303.59	195.56
303.82	198.56
304.051	205.56
304.281	182.56
304.511	192.56
304.741	185.56
304.971	178.56
305.201	181.56
305.431	189.56
305.661	189.56
305.891	192.56
306.121	199.56
306.352	183.56
306.582	181.56
306.812	199.56
307.042	201.56
307.272	189.56
307.502	180.56
307.731	201.56
307.961	190.56
308.191	196.56
308.421	203.56
308.651	182.56
308.881	201.56
309.111	201.56
309.341	194.56
309.571	196.56
309.8	185.56
310.03	206.56
310.26	184.56
310.49	193.56
310.72	177.56
310.949	189.56
311.179	195.56
311.409	180.56
311.639	171.56
311.868	188.56
312.098	209.56
312.328	200.56
312.557	193.56
312.787	180.56
313.017	193.56
313.246	192.56
313.476	178.56
313.706	199.56
313.935	180.56
314.165	209.56
314.394	201.56
314.624	211.56
314.853	181.56
315.083	218.56
315.312	205.56
315.542	209.56
315.771	200.56
316.001	197.56
316.23	195.56
316.46	200.56
316.689	189.56
316.919	202.56
317.148	200.56
317.377	216.56
317.607	196.56
317.836	199.56
318.065	205.56
318.295	205.56
318.524	188.56
318.753	196.56
318.983	201.56
319.212	206.56
319.441	184.56
319.67	206.56
319.9	192.56
320.129	203.56
320.358	193.56
320.587	199.56
320.816	209.56
321.046	203.56
321.275	212.56
321.504	208.56
321.733	203.56
321.962	217.56
322.191	204.56
322.42	192.56
322.649	219.56
322.878	215.56
323.108	211.56
323.337	230.56
323.566	247.56
323.795	232.56
324.024	236.56
324.253	218.56
324.482	210.56
324.71	209.56
324.939	233.56
325.168	228.56
325.397	200.56
325.626	221.56
325.855	225.56
326.084	212.56
326.313	210.56
326.542	225.56
326.77	215.56
326.999	213.56
327.228	228.56
327.457	245.56
327.686	231.56
327.914	232.56
328.143	252.56
328.372	261.56
328.6	253.56
328.829	226.56
329.058	237.56
329.287	235.56
329.515	232.56
329.744	256.56
329.972	276.56
330.201	296.56
330.43	305.56
330.658	275.56
330.887	240.56
331.115	245.56
331.344	246.56
331.572	244.56
331.801	241.56
332.03	242.56
332.258	248.56
332.486	270.56
332.715	267.56
332.943	275.56
333.172	278.56
333.4	276.56
333.629	295.56
333.857	311.56
334.085	337.56
334.314	379.56
334.542	407.56
334.771	378.56
334.999	341.56
335.227	310.56
335.455	284.56
335.684	269.56
335.912	267.56
336.14	247.56
336.369	253.56
336.597	266.56
336.825	250.56
337.053	257.56
337.281	252.56
337.51	265.56
337.738	243.56
337.966	243.56
338.194	250.56
338.422	248.56
338.65	244.56
338.878	254.56
339.106	224.56
339.334	231.56
339.562	217.56
339.79	220.56
340.018	211.56
340.246	223.56
340.474	231.56
340.702	225.56
340.93	221.56
341.158	220.56
341.386	211.56
341.614	200.56
341.842	203.56
342.07	218.56
342.298	204.56
342.526	227.56
342.754	208.56
342.981	221.56
343.209	213.56
343.437	256.56
343.665	247.56
343.893	242.56
344.12	244.56
344.348	244.56
344.576	228.56
344.804	228.56
345.031	216.56
345.259	240.56
345.487	239.56
345.714	199.56
345.942	215.56
346.17	205.56
346.397	227.56
346.625	211.56
346.853	206.56
347.08	209.56
347.308	218.56
347.535	217.56
347.763	216.56
347.99	227.56
348.218	204.56
348.445	199.56
348.673	194.56
348.9	213.56
349.128	218.56
349.355	211.56
349.583	209.56
349.81	207.56
350.037	216.56
350.265	231.56
350.492	208.56
350.72	193.56
350.947	221.56
351.174	204.56
351.402	208.56
351.629	206.56
351.856	215.56
352.083	221.56
352.311	206.56
352.538	194.56
352.765	203.56
352.992	209.56
353.22	192.56
353.447	215.56
353.674	218.56
353.901	207.56
354.128	203.56
354.355	191.56
354.583	201.56
354.81	219.56
355.037	206.56
355.264	223.56
355.491	224.56
355.718	212.56
355.945	204.56
356.172	212.56
356.399	232.56
356.626	184.56
356.853	220.56
357.08	218.56
357.307	211.56
357.534	216.56
357.761	225.56
357.988	212.56
358.215	219.56
358.441	211.56
358.668	228.56
358.895	225.56
359.122	223.56
359.349	216.56
359.576	205.56
359.802	215.56
360.029	191.56
360.256	212.56
360.483	215.56
360.709	199.56
360.936	226.56
361.163	207.56
361.39	203.56
361.616	209.56
361.843	214.56
362.07	220.56
362.296	212.56
362.523	208.56
362.749	193.56
362.976	219.56
363.203	222.56
363.429	218.56
363.656	220.56
363.882	233.56
364.109	205.56
364.335	223.56
364.562	210.56
364.788	211.56
365.015	210.56
365.241	207.56
365.468	228.56
365.694	229.56
365.92	222.56
366.147	198.56
366.373	196.56
366.599	192.56
366.826	205.56
367.052	201.56
367.278	207.56
367.505	202.56
367.731	235.56
367.957	213.56
368.184	217.56
368.41	222.56
368.636	242.56
368.862	225.56
369.089	229.56
369.315	215.56
369.541	218.56
369.767	218.56
369.993	199.56
370.219	207.56
370.445	220.56
370.672	232.56
370.898	215.56
371.124	236.56
371.35	227.56
371.576	223.56
371.802	227.56
372.028	241.56
372.254	225.56
372.48	217.56
372.706	234.56
372.932	239.56
373.158	239.56
373.384	252.56
373.61	233.56
373.835	229.56
374.061	219.56
374.287	232.56
374.513	228.56
374.739	223.56
374.965	223.56
375.191	264.56
375.416	263.56
375.642	233.56
375.868	259.56
376.094	267.56
376.319	257.56
376.545	242.56
376.771	229.56
376.997	222.56
377.222	228.56
377.448	232.56
377.674	204.56
377.899	232.56
378.125	220.56
378.35	242.56
378.576	216.56
378.802	225.56
379.027	227.56
379.253	237.56
379.478	248.56
379.704	239.56
379.929	221.56
380.155	234.56
380.38	226.56
380.606	227.56
380.831	231.56
381.057	233.56
381.282	227.56
381.507	235.56
381.733	247.56
381.958	236.56
382.184	248.56
382.409	265.56
382.634	246.56
382.86	257.56
383.085	253.56
383.31	265.56
383.535	249.56
383.761	271.56
383.986	275.56
384.211	252.56
384.436	271.56
384.662	270.56
384.887	280.56
385.112	274.56
385.337	275.56
385.562	265.56
385.787	286.56
386.013	269.56
386.238	287.56
386.463	283.56
386.688	303.56
386.913	286.56
387.138	279.56
387.363	276.56
387.588	264.56
387.813	291.56
388.038	267.56
388.263	278.56
388.488	270.56
388.713	270.56
388.938	267.56
389.163	265.56
389.387	259.56
389.612	265.56
389.837	263.56
390.062	287.56
390.287	288.56
390.512	272.56
390.736	272.56
390.961	272.56
391.186	284.56
391.411	291.56
391.636	304.56
391.86	285.56
392.085	316.56
392.31	273.56
392.534	303.56
392.759	311.56
392.984	302.56
393.208	355.56
393.433	401.56
393.658	334.56
393.882	307.56
394.107	287.56
394.331	298.56
394.556	303.56
394.78	307.56
395.005	301.56
395.229	286.56
395.454	302.56
395.678	305.56
395.903	344.56
396.127	338.56
396.352	315.56
396.576	320.56
396.801	360.56
397.025	355.56
397.249	324.56
397.474	309.56
397.698	303.56
397.922	317.56
398.147	329.56
398.371	332.56
398.595	339.56
398.82	324.56
399.044	374.56
399.268	380.56
399.492	459.56
399.717	491.56
399.941	464.56
400.165	405.56
400.389	348.56
400.613	354.56
400.837	325.56
401.062	320.56
401.286	341.56
401.51	334.56
401.734	309.56
401.958	336.56
402.182	343.56
402.406	352.56
402.63	343.56
402.854	361.56
403.078	353.56
403.302	361.56
403.526	400.56
403.75	407.56
403.974	369.56
404.198	363.56
404.422	394.56
404.645	367.56
404.869	377.56
405.093	372.56
405.317	365.56
405.541	375.56
405.765	375.56
405.988	329.56
406.212	365.56
406.436	351.56
406.66	375.56
406.883	394.56
407.107	414.56
407.331	398.56
407.555	437.56
407.778	403.56
408.002	403.56
408.226	384.56
408.449	381.56
408.673	370.56
408.896	373.56
409.12	371.56
409.344	376.56
409.567	382.56
409.791	359.56
410.014	368.56
410.238	358.56
410.461	380.56
410.685	361.56
410.908	354.56
411.132	361.56
411.355	352.56
411.578	373.56
411.802	355.56
412.025	354.56
412.249	362.56
412.472	350.56
412.695	345.56
412.919	348.56
413.142	346.56
413.365	331.56
413.589	327.56
413.812	353.56
414.035	354.56
414.258	348.56
414.482	346.56
414.705	340.56
414.928	364.56
415.151	321.56
415.374	327.56
415.597	355.56
415.821	333.56
416.044	349.56
416.267	332.56
416.49	333.56
416.713	338.56
416.936	337.56
417.159	332.56
417.382	327.56
417.605	330.56
417.828	340.56
418.051	336.56
418.274	331.56
418.497	333.56
418.72	337.56
418.943	356.56
419.166	366.56
419.389	382.56
419.611	344.56
419.834	356.56
420.057	368.56
420.28	349.56
420.503	339.56
420.726	344.56
420.948	341.56
421.171	342.56
421.394	346.56
421.617	341.56
421.839	355.56
422.062	353.56
422.285	344.56
422.507	371.56
422.73	411.56
422.953	416.56
423.175	355.56
423.398	347.56
423.621	367.56
423.843	365.56
424.066	383.56
424.288	356.56
424.511	340.56
424.733	350.56
424.956	357.56
425.178	352.56
425.401	354.56
425.623	351.56
425.846	343.56
426.068	313.56
426.291	327.56
426.513	315.56
426.735	347.56
426.958	334.56
427.18	327.56
427.402	312.56
427.625	311.56
427.847	327.56
428.069	324.56
428.292	319.56
428.514	323.56
428.736	323.56
428.958	313.56
429.181	333.56
429.403	299.56
429.625	295.56
429.847	316.56
430.069	337.56
430.292	347.56
430.514	317.56
430.736	327.56
430.958	328.56
431.18	294.56
431.402	321.56
431.624	320.56
431.846	306.56
432.068	314.56
432.29	272.56
432.512	291.56
432.734	311.56
432.956	324.56
433.178	305.56
433.4	323.56
433.622	328.56
433.844	333.56
434.066	318.56
434.287	301.56
434.509	301.56
434.731	310.56
434.953	337.56
435.175	339.56
435.397	320.56
435.618	316.56
435.84	297.56
436.062	302.56
436.284	322.56
436.505	302.56
436.727	291.56
436.949	305.56
437.17	306.56
437.392	303.56
437.614	289.56
437.835	297.56
438.057	274.56
438.278	291.56
438.5	298.56
438.721	307.56
438.943	293.56
439.165	309.56
439.386	318.56
439.608	313.56
439.829	315.56
440.05	331.56
440.272	304.56
440.493	327.56
440.715	342.56
440.936	325.56
441.158	332.56
441.379	368.56
441.6	356.56
441.822	354.56
442.043	380.56
442.264	330.56
442.486	339.56
442.707	347.56
442.928	345.56
443.149	339.56
443.371	352.56
443.592	354.56
443.813	349.56
444.034	353.56
444.255	366.56
444.476	367.56
444.698	412.56
444.919	413.56
445.14	589.56
445.361	467.56
445.582	379.56
445.803	355.56
446.024	332.56
446.245	329.56
446.466	333.56
446.687	315.56
446.908	330.56
447.129	314.56
447.35	316.56
447.571	312.56
447.792	312.56
448.013	323.56
448.234	307.56
448.455	318.56
448.675	285.56
448.896	297.56
449.117	289.56
449.338	294.56
449.559	299.56
449.779	278.56
450	297.56
450.221	310.56
450.442	314.56
450.662	289.56
450.883	289.56
451.104	311.56
451.324	294.56
451.545	302.56
451.766	297.56
451.986	290.56
452.207	307.56
452.428	299.56
452.648	289.56
452.869	283.56
453.089	292.56
453.31	298.56
453.53	319.56
453.751	327.56
453.971	277.56
454.192	280.56
454.412	265.56
454.633	270.56
454.853	275.56
455.073	280.56
455.294	291.56
455.514	305.56
455.734	281.56
455.955	266.56
456.175	269.56
456.395	260.56
456.616	258.56
456.836	276.56
457.056	267.56
457.276	247.56
457.497	256.56
457.717	258.56
457.937	278.56
458.157	277.56
458.377	271.56
458.598	259.56
458.818	284.56
459.038	289.56
459.258	272.56
459.478	297.56
459.698	273.56
459.918	333.56
460.138	323.56
460.358	338.56
460.578	345.56
460.798	351.56
461.018	346.56
461.238	325.56
461.458	365.56
461.678	327.56
461.898	347.56
462.118	332.56
462.338	363.56
462.558	401.56
462.777	381.56
462.997	431.56
463.217	424.56
463.437	438.56
463.657	406.56
463.876	380.56
464.096	375.56
464.316	384.56
464.536	367.56
464.755	386.56
464.975	356.56
465.195	338.56
465.414	315.56
465.634	322.56
465.854	311.56
466.073	334.56
466.293	291.56
466.512	301.56
466.732	302.56
466.951	302.56
467.171	296.56
467.391	336.56
467.61	294.56
467.829	327.56
468.049	365.56
468.268	353.56
468.488	323.56
468.707	301.56
468.927	297.56
469.146	306.56
469.365	315.56
469.585	324.56
469.804	317.56
470.023	334.56
470.243	338.56
470.462	299.56
470.681	328.56
470.901	320.56
471.12	319.56
471.339	316.56
471.558	309.56
471.777	288.56
471.997	347.56
472.216	376.56
472.435	445.56
472.654	352.56
472.873	325.56
473.092	295.56
473.311	313.56
473.53	301.56
473.749	304.56
473.968	309.56
474.187	293.56
474.406	258.56
474.625	279.56
474.844	291.56
475.063	284.56
475.282	294.56
475.501	292.56
475.72	311.56
475.939	320.56
476.158	303.56
476.377	292.56
476.596	285.56
476.814	306.56
477.033	297.56
477.252	288.56
477.471	311.56
477.69	323.56
477.908	337.56
478.127	354.56
478.346	339.56
478.564	340.56
478.783	336.56
479.002	364.56
479.22	352.56
479.439	358.56
479.658	357.56
479.876	340.56
480.095	337.56
480.313	376.56
480.532	381.56
480.751	384.56
480.969	432.56
481.188	573.56
481.406	539.56
481.624	417.56
481.843	354.56
482.061	348.56
482.28	343.56
482.498	343.56
482.717	328.56
482.935	335.56
483.153	339.56
483.372	349.56
483.59	337.56
483.808	328.56
484.027	334.56
484.245	354.56
484.463	355.56
484.681	350.56
484.9	342.56
485.118	340.56
485.336	330.56
485.554	337.56
485.772	320.56
485.99	330.56
486.209	322.56
486.427	333.56
486.645	346.56
486.863	335.56
487.081	351.56
487.299	339.56
487.517	351.56
487.735	351.56
487.953	348.56
488.171	352.56
488.389	349.56
488.607	363.56
488.825	349.56
489.043	331.56
489.261	333.56
489.479	356.56
489.696	323.56
489.914	324.56
490.132	346.56
490.35	365.56
490.568	343.56
490.786	368.56
491.003	356.56
491.221	356.56
491.439	367.56
491.657	375.56
491.874	376.56
492.092	383.56
492.31	392.56
492.527	395.56
492.745	382.56
492.963	391.56
493.18	385.56
493.398	401.56
493.615	393.56
493.833	383.56
494.05	352.56
494.268	369.56
494.485	373.56
494.703	372.56
494.92	384.56
495.138	365.56
495.355	386.56
495.573	378.56
495.79	377.56
496.008	356.56
496.225	379.56
496.442	367.56
496.66	403.56
496.877	379.56
497.094	386.56
497.312	376.56
497.529	385.56
497.746	410.56
497.963	401.56
498.181	451.56
498.398	494.56
498.615	477.56
498.832	475.56
499.049	525.56
499.267	607.56
499.484	606.56
499.701	634.56
499.918	706.56
500.135	818.56
500.352	907.56
500.569	892.56
500.786	880.56
501.003	795.56
501.22	724.56
501.437	677.56
501.654	629.56
501.871	554.56
502.088	509.56
502.305	493.56
502.522	473.56
502.739	446.56
502.956	415.56
503.172	394.56
503.389	382.56
