Data from SampB_HRD10591_00040.txt Node
Date: Mon Jan 19 11:33:42 EST 2026
User: Yrep
Spectrometer: HR+D1059
Trigger mode: 0
Integration Time (sec): 3.443000E-1
Scans to average: 1
Electric dark correction enabled: true
Nonlinearity correction enabled: false
Boxcar width: 0
XAxis mode: Wavelengths
Number of Pixels in Spectrum: 2048
>>>>>Begin Spectral Data<<<<<
223.165	-11.06
223.4	-11.06
223.635	-11.06
223.869	-41.06
224.104	-27.06
224.338	-8.06
224.573	-29.06
224.808	-23.06
225.042	-10.06
225.277	-9.06
225.511	-1.06
225.746	18.94
225.98	20.94
226.215	24.94
226.449	14.94
226.683	13.94
226.918	16.94
227.152	48.94
227.387	39.94
227.621	27.94
227.856	46.94
228.09	44.94
228.324	57.94
228.559	53.94
228.793	37.94
229.027	71.94
229.262	75.94
229.496	71.94
229.73	74.94
229.964	77.94
230.199	86.94
230.433	77.94
230.667	82.94
230.901	79.94
231.136	81.94
231.37	79.94
231.604	68.94
231.838	69.94
232.072	84.94
232.306	62.94
232.541	81.94
232.775	78.94
233.009	100.94
233.243	90.94
233.477	89.94
233.711	81.94
233.945	79.94
234.179	76.94
234.413	72.94
234.647	84.94
234.881	87.94
235.115	77.94
235.349	96.94
235.583	86.94
235.817	81.94
236.051	88.94
236.285	83.94
236.519	77.94
236.753	80.94
236.987	78.94
237.221	96.94
237.455	87.94
237.689	80.94
237.922	75.94
238.156	76.94
238.39	70.94
238.624	89.94
238.858	84.94
239.091	79.94
239.325	76.94
239.559	88.94
239.793	71.94
240.027	87.94
240.26	87.94
240.494	78.94
240.728	92.94
240.961	82.94
241.195	75.94
241.429	87.94
241.662	87.94
241.896	76.94
242.13	75.94
242.363	85.94
242.597	91.94
242.83	80.94
243.064	90.94
243.298	73.94
243.531	82.94
243.765	91.94
243.998	103.94
244.232	92.94
244.465	99.94
244.699	77.94
244.932	81.94
245.166	78.94
245.399	88.94
245.633	83.94
245.866	93.94
246.099	71.94
246.333	85.94
246.566	83.94
246.8	91.94
247.033	95.94
247.266	84.94
247.5	92.94
247.733	92.94
247.966	89.94
248.2	80.94
248.433	85.94
248.666	89.94
248.899	79.94
249.133	86.94
249.366	99.94
249.599	98.94
249.832	88.94
250.066	106.94
250.299	93.94
250.532	91.94
250.765	90.94
250.998	101.94
251.231	92.94
251.465	87.94
251.698	96.94
251.931	92.94
252.164	104.94
252.397	89.94
252.63	100.94
252.863	82.94
253.096	96.94
253.329	101.94
253.562	103.94
253.795	93.94
254.028	106.94
254.261	88.94
254.494	97.94
254.727	114.94
254.96	104.94
255.193	99.94
255.426	104.94
255.659	82.94
255.892	104.94
256.124	112.94
256.357	96.94
256.59	102.94
256.823	97.94
257.056	99.94
257.289	105.94
257.521	102.94
257.754	93.94
257.987	88.94
258.22	106.94
258.452	104.94
258.685	92.94
258.918	107.94
259.151	115.94
259.383	92.94
259.616	112.94
259.849	117.94
260.081	97.94
260.314	113.94
260.547	107.94
260.779	93.94
261.012	96.94
261.244	92.94
261.477	116.94
261.71	100.94
261.942	102.94
262.175	89.94
262.407	96.94
262.64	78.94
262.872	105.94
263.105	106.94
263.337	99.94
263.57	94.94
263.802	103.94
264.035	90.94
264.267	97.94
264.499	83.94
264.732	100.94
264.964	103.94
265.197	99.94
265.429	105.94
265.661	107.94
265.894	107.94
266.126	110.94
266.358	94.94
266.591	96.94
266.823	104.94
267.055	104.94
267.287	105.94
267.52	110.94
267.752	91.94
267.984	102.94
268.216	99.94
268.448	105.94
268.681	113.94
268.913	105.94
269.145	114.94
269.377	99.94
269.609	80.94
269.841	88.94
270.073	82.94
270.306	96.94
270.538	101.94
270.77	111.94
271.002	96.94
271.234	92.94
271.466	96.94
271.698	107.94
271.93	101.94
272.162	103.94
272.394	128.94
272.626	102.94
272.858	100.94
273.09	113.94
273.322	109.94
273.553	108.94
273.785	108.94
274.017	101.94
274.249	112.94
274.481	106.94
274.713	109.94
274.945	110.94
275.176	101.94
275.408	99.94
275.64	116.94
275.872	107.94
276.104	112.94
276.335	112.94
276.567	127.94
276.799	110.94
277.031	102.94
277.262	116.94
277.494	129.94
277.726	109.94
277.957	107.94
278.189	117.94
278.421	105.94
278.652	119.94
278.884	128.94
279.115	115.94
279.347	128.94
279.579	134.94
279.81	145.94
280.042	144.94
280.273	150.94
280.505	135.94
280.736	113.94
280.968	121.94
281.199	123.94
281.431	118.94
281.662	118.94
281.894	107.94
282.125	115.94
282.356	119.94
282.588	115.94
282.819	115.94
283.051	108.94
283.282	113.94
283.513	113.94
283.745	125.94
283.976	115.94
284.207	113.94
284.439	109.94
284.67	114.94
284.901	118.94
285.132	121.94
285.364	116.94
285.595	119.94
285.826	104.94
286.057	109.94
286.288	118.94
286.52	113.94
286.751	120.94
286.982	112.94
287.213	111.94
287.444	119.94
287.675	112.94
287.906	131.94
288.138	112.94
288.369	119.94
288.6	125.94
288.831	111.94
289.062	117.94
289.293	112.94
289.524	116.94
289.755	123.94
289.986	121.94
290.217	120.94
290.448	96.94
290.679	104.94
290.91	122.94
291.141	131.94
291.371	120.94
291.602	105.94
291.833	93.94
292.064	123.94
292.295	109.94
292.526	114.94
292.757	119.94
292.987	125.94
293.218	106.94
293.449	127.94
293.68	109.94
293.91	127.94
294.141	111.94
294.372	126.94
294.603	116.94
294.833	127.94
295.064	119.94
295.295	120.94
295.525	115.94
295.756	133.94
295.987	116.94
296.217	127.94
296.448	129.94
296.679	120.94
296.909	115.94
297.14	140.94
297.37	133.94
297.601	114.94
297.831	125.94
298.062	125.94
298.292	127.94
298.523	131.94
298.753	126.94
298.984	131.94
299.214	120.94
299.445	127.94
299.675	126.94
299.905	121.94
300.136	125.94
300.366	113.94
300.597	126.94
300.827	128.94
301.057	118.94
301.288	115.94
301.518	118.94
301.748	132.94
301.979	159.94
302.209	143.94
302.439	134.94
302.669	123.94
302.9	126.94
303.13	116.94
303.36	117.94
303.59	121.94
303.82	132.94
304.051	132.94
304.281	123.94
304.511	130.94
304.741	134.94
304.971	129.94
305.201	117.94
305.431	126.94
305.661	125.94
305.891	123.94
306.121	133.94
306.352	113.94
306.582	112.94
306.812	139.94
307.042	122.94
307.272	131.94
307.502	140.94
307.731	145.94
307.961	131.94
308.191	118.94
308.421	135.94
308.651	139.94
308.881	135.94
309.111	135.94
309.341	110.94
309.571	138.94
309.8	113.94
310.03	124.94
310.26	103.94
310.49	125.94
310.72	122.94
310.949	126.94
311.179	112.94
311.409	135.94
311.639	116.94
311.868	109.94
312.098	128.94
312.328	114.94
312.557	134.94
312.787	128.94
313.017	117.94
313.246	124.94
313.476	126.94
313.706	113.94
313.935	126.94
314.165	108.94
314.394	119.94
314.624	124.94
314.853	137.94
315.083	130.94
315.312	128.94
315.542	114.94
315.771	131.94
316.001	131.94
316.23	150.94
316.46	135.94
316.689	128.94
316.919	139.94
317.148	132.94
317.377	135.94
317.607	125.94
317.836	141.94
318.065	149.94
318.295	154.94
318.524	131.94
318.753	119.94
318.983	137.94
319.212	130.94
319.441	133.94
319.67	131.94
319.9	134.94
320.129	143.94
320.358	147.94
320.587	127.94
320.816	133.94
321.046	123.94
321.275	133.94
321.504	140.94
321.733	139.94
321.962	135.94
322.191	141.94
322.42	134.94
322.649	134.94
322.878	125.94
323.108	159.94
323.337	153.94
323.566	163.94
323.795	170.94
324.024	150.94
324.253	143.94
324.482	124.94
324.71	147.94
324.939	155.94
325.168	141.94
325.397	132.94
325.626	148.94
325.855	138.94
326.084	135.94
326.313	156.94
326.542	147.94
326.77	161.94
326.999	122.94
327.228	137.94
327.457	145.94
327.686	162.94
327.914	172.94
328.143	179.94
328.372	188.94
328.6	163.94
328.829	161.94
329.058	167.94
329.287	139.94
329.515	152.94
329.744	174.94
329.972	199.94
330.201	237.94
330.43	241.94
330.658	195.94
330.887	166.94
331.115	145.94
331.344	149.94
331.572	149.94
331.801	166.94
332.03	161.94
332.258	155.94
332.486	161.94
332.715	160.94
332.943	173.94
333.172	169.94
333.4	178.94
333.629	179.94
333.857	211.94
334.085	244.94
334.314	285.94
334.542	331.94
334.771	310.94
334.999	233.94
335.227	204.94
335.455	181.94
335.684	170.94
335.912	161.94
336.14	173.94
336.369	164.94
336.597	157.94
336.825	151.94
337.053	161.94
337.281	184.94
337.51	171.94
337.738	165.94
337.966	151.94
338.194	139.94
338.422	152.94
338.65	163.94
338.878	149.94
339.106	132.94
339.334	149.94
339.562	128.94
339.79	153.94
340.018	143.94
340.246	132.94
340.474	147.94
340.702	118.94
340.93	141.94
341.158	141.94
341.386	132.94
341.614	121.94
341.842	117.94
342.07	132.94
342.298	128.94
342.526	126.94
342.754	134.94
342.981	141.94
343.209	131.94
343.437	167.94
343.665	123.94
343.893	130.94
344.12	147.94
344.348	160.94
344.576	135.94
344.804	126.94
345.031	144.94
345.259	140.94
345.487	139.94
345.714	114.94
345.942	138.94
346.17	138.94
346.397	147.94
346.625	125.94
346.853	127.94
347.08	136.94
347.308	134.94
347.535	135.94
347.763	123.94
347.99	135.94
348.218	152.94
348.445	127.94
348.673	118.94
348.9	128.94
349.128	127.94
349.355	133.94
349.583	147.94
349.81	129.94
350.037	139.94
350.265	137.94
350.492	114.94
350.72	135.94
350.947	137.94
351.174	136.94
351.402	135.94
351.629	127.94
351.856	115.94
352.083	119.94
352.311	141.94
352.538	122.94
352.765	135.94
352.992	147.94
353.22	139.94
353.447	134.94
353.674	138.94
353.901	134.94
354.128	132.94
354.355	131.94
354.583	139.94
354.81	137.94
355.037	138.94
355.264	138.94
355.491	119.94
355.718	139.94
355.945	133.94
356.172	135.94
356.399	131.94
356.626	150.94
356.853	127.94
357.08	139.94
357.307	139.94
357.534	137.94
357.761	139.94
357.988	136.94
358.215	118.94
358.441	124.94
358.668	136.94
358.895	138.94
359.122	144.94
359.349	136.94
359.576	151.94
359.802	147.94
360.029	131.94
360.256	121.94
360.483	131.94
360.709	121.94
360.936	159.94
361.163	121.94
361.39	132.94
361.616	149.94
361.843	135.94
362.07	151.94
362.296	135.94
362.523	128.94
362.749	127.94
362.976	131.94
363.203	151.94
363.429	150.94
363.656	147.94
363.882	130.94
364.109	141.94
364.335	143.94
364.562	145.94
364.788	129.94
365.015	146.94
365.241	127.94
365.468	136.94
365.694	135.94
365.92	136.94
366.147	143.94
366.373	135.94
366.599	133.94
366.826	145.94
367.052	143.94
367.278	142.94
367.505	151.94
367.731	157.94
367.957	141.94
368.184	132.94
368.41	141.94
368.636	155.94
368.862	154.94
369.089	143.94
369.315	128.94
369.541	143.94
369.767	144.94
369.993	145.94
370.219	124.94
370.445	124.94
370.672	131.94
370.898	144.94
371.124	130.94
371.35	139.94
371.576	149.94
371.802	143.94
372.028	138.94
372.254	140.94
372.48	149.94
372.706	152.94
372.932	143.94
373.158	161.94
373.384	156.94
373.61	167.94
373.835	159.94
374.061	152.94
374.287	167.94
374.513	154.94
374.739	165.94
374.965	155.94
375.191	156.94
375.416	145.94
375.642	157.94
375.868	174.94
376.094	185.94
376.319	163.94
376.545	152.94
376.771	142.94
376.997	139.94
377.222	142.94
377.448	142.94
377.674	134.94
377.899	126.94
378.125	139.94
378.35	147.94
378.576	151.94
378.802	143.94
379.027	136.94
379.253	160.94
379.478	136.94
379.704	142.94
379.929	137.94
380.155	142.94
380.38	140.94
380.606	131.94
380.831	145.94
381.057	139.94
381.282	150.94
381.507	152.94
381.733	135.94
381.958	145.94
382.184	156.94
382.409	160.94
382.634	168.94
382.86	180.94
383.085	171.94
383.31	158.94
383.535	152.94
383.761	163.94
383.986	170.94
384.211	157.94
384.436	158.94
384.662	167.94
384.887	167.94
385.112	177.94
385.337	171.94
385.562	172.94
385.787	175.94
386.013	172.94
386.238	160.94
386.463	164.94
386.688	198.94
386.913	167.94
387.138	177.94
387.363	157.94
387.588	179.94
387.813	163.94
388.038	187.94
388.263	183.94
388.488	185.94
388.713	160.94
388.938	146.94
389.163	161.94
389.387	165.94
389.612	144.94
389.837	162.94
390.062	174.94
390.287	163.94
390.512	170.94
390.736	168.94
390.961	161.94
391.186	167.94
391.411	167.94
391.636	172.94
391.86	169.94
392.085	168.94
392.31	173.94
392.534	185.94
392.759	205.94
392.984	214.94
393.208	285.94
393.433	325.94
393.658	290.94
393.882	188.94
394.107	163.94
394.331	183.94
394.556	188.94
394.78	181.94
395.005	181.94
395.229	180.94
395.454	174.94
395.678	186.94
395.903	208.94
396.127	215.94
396.352	212.94
396.576	215.94
396.801	269.94
397.025	283.94
397.249	202.94
397.474	203.94
397.698	175.94
397.922	183.94
398.147	184.94
398.371	176.94
398.595	173.94
398.82	182.94
399.044	209.94
399.268	215.94
399.492	214.94
399.717	255.94
399.941	235.94
400.165	228.94
400.389	190.94
400.613	195.94
400.837	191.94
401.062	189.94
401.286	186.94
401.51	186.94
401.734	183.94
401.958	189.94
402.182	184.94
402.406	197.94
402.63	201.94
402.854	190.94
403.078	185.94
403.302	208.94
403.526	191.94
403.75	200.94
403.974	204.94
404.198	193.94
404.422	202.94
404.645	205.94
404.869	207.94
405.093	217.94
405.317	212.94
405.541	215.94
405.765	207.94
405.988	191.94
406.212	193.94
406.436	191.94
406.66	201.94
406.883	206.94
407.107	209.94
407.331	219.94
407.555	223.94
407.778	213.94
408.002	201.94
408.226	222.94
408.449	185.94
408.673	203.94
408.896	204.94
409.12	181.94
409.344	201.94
409.567	203.94
409.791	213.94
410.014	203.94
410.238	190.94
410.461	201.94
410.685	203.94
410.908	207.94
411.132	206.94
411.355	189.94
411.578	201.94
411.802	195.94
412.025	201.94
412.249	221.94
412.472	192.94
412.695	192.94
412.919	210.94
413.142	195.94
413.365	179.94
413.589	190.94
413.812	184.94
414.035	205.94
414.258	205.94
414.482	184.94
414.705	184.94
414.928	192.94
415.151	193.94
415.374	193.94
415.597	195.94
415.821	188.94
416.044	183.94
416.267	181.94
416.49	188.94
416.713	202.94
416.936	196.94
417.159	153.94
417.382	192.94
417.605	207.94
417.828	201.94
418.051	188.94
418.274	208.94
418.497	209.94
418.72	197.94
418.943	193.94
419.166	199.94
419.389	214.94
419.611	204.94
419.834	185.94
420.057	204.94
420.28	189.94
420.503	210.94
420.726	187.94
420.948	176.94
421.171	178.94
421.394	212.94
421.617	199.94
421.839	200.94
422.062	191.94
422.285	189.94
422.507	216.94
422.73	263.94
422.953	228.94
423.175	197.94
423.398	212.94
423.621	207.94
423.843	189.94
424.066	201.94
424.288	189.94
424.511	195.94
424.733	191.94
424.956	191.94
425.178	211.94
425.401	196.94
425.623	201.94
425.846	199.94
426.068	180.94
426.291	191.94
426.513	176.94
426.735	181.94
426.958	189.94
427.18	177.94
427.402	190.94
427.625	201.94
427.847	190.94
428.069	193.94
428.292	199.94
428.514	179.94
428.736	177.94
428.958	205.94
429.181	199.94
429.403	200.94
429.625	184.94
429.847	211.94
430.069	203.94
430.292	219.94
430.514	209.94
430.736	198.94
430.958	188.94
431.18	193.94
431.402	187.94
431.624	178.94
431.846	192.94
432.068	184.94
432.29	186.94
432.512	176.94
432.734	169.94
432.956	190.94
433.178	194.94
433.4	185.94
433.622	193.94
433.844	194.94
434.066	193.94
434.287	169.94
434.509	175.94
434.731	165.94
434.953	181.94
435.175	199.94
435.397	184.94
435.618	185.94
435.84	176.94
436.062	183.94
436.284	177.94
436.505	181.94
436.727	172.94
436.949	176.94
437.17	177.94
437.392	174.94
437.614	169.94
437.835	181.94
438.057	168.94
438.278	170.94
438.5	193.94
438.721	179.94
438.943	179.94
439.165	189.94
439.386	184.94
439.608	190.94
439.829	183.94
440.05	181.94
440.272	197.94
440.493	190.94
440.715	182.94
440.936	187.94
441.158	202.94
441.379	212.94
441.6	194.94
441.822	199.94
442.043	190.94
442.264	193.94
442.486	186.94
442.707	192.94
442.928	203.94
443.149	193.94
443.371	193.94
443.592	197.94
443.813	218.94
444.034	206.94
444.255	208.94
444.476	210.94
444.698	219.94
444.919	217.94
445.14	416.94
445.361	288.94
445.582	230.94
445.803	203.94
446.024	184.94
446.245	194.94
446.466	190.94
446.687	186.94
446.908	193.94
447.129	198.94
447.35	179.94
447.571	182.94
447.792	184.94
448.013	168.94
448.234	188.94
448.455	186.94
448.675	171.94
448.896	171.94
449.117	174.94
449.338	159.94
449.559	180.94
449.779	164.94
450	186.94
450.221	171.94
450.442	174.94
450.662	176.94
450.883	181.94
451.104	183.94
451.324	184.94
451.545	184.94
451.766	203.94
451.986	182.94
452.207	173.94
452.428	198.94
452.648	196.94
452.869	191.94
453.089	179.94
453.31	192.94
453.53	212.94
453.751	220.94
453.971	181.94
454.192	161.94
454.412	175.94
454.633	180.94
454.853	179.94
455.073	191.94
455.294	185.94
455.514	187.94
455.734	171.94
455.955	153.94
456.175	150.94
456.395	158.94
456.616	137.94
456.836	170.94
457.056	165.94
457.276	155.94
457.497	158.94
457.717	171.94
457.937	151.94
458.157	155.94
458.377	153.94
458.598	170.94
458.818	159.94
459.038	166.94
459.258	159.94
459.478	168.94
459.698	160.94
459.918	192.94
460.138	178.94
460.358	174.94
460.578	192.94
460.798	196.94
461.018	199.94
461.238	185.94
461.458	171.94
461.678	189.94
461.898	198.94
462.118	197.94
462.338	190.94
462.558	208.94
462.777	207.94
462.997	229.94
463.217	222.94
463.437	216.94
463.657	193.94
463.876	210.94
464.096	213.94
464.316	210.94
464.536	207.94
464.755	207.94
464.975	186.94
465.195	186.94
465.414	189.94
465.634	189.94
465.854	172.94
466.073	159.94
466.293	186.94
466.512	179.94
466.732	181.94
466.951	176.94
467.171	199.94
467.391	183.94
467.61	185.94
467.829	198.94
468.049	237.94
468.268	233.94
468.488	208.94
468.707	178.94
468.927	187.94
469.146	180.94
469.365	171.94
469.585	176.94
469.804	182.94
470.023	200.94
470.243	188.94
470.462	184.94
470.681	186.94
470.901	182.94
471.12	191.94
471.339	195.94
471.558	171.94
471.777	190.94
471.997	203.94
472.216	256.94
472.435	339.94
472.654	237.94
472.873	207.94
473.092	198.94
473.311	179.94
473.53	179.94
473.749	189.94
473.968	174.94
474.187	177.94
474.406	176.94
474.625	176.94
474.844	171.94
475.063	181.94
475.282	173.94
475.501	182.94
475.72	199.94
475.939	181.94
476.158	197.94
476.377	189.94
476.596	169.94
476.814	185.94
477.033	175.94
477.252	181.94
477.471	173.94
477.69	181.94
477.908	184.94
478.127	219.94
478.346	211.94
478.564	200.94
478.783	201.94
479.002	197.94
479.22	203.94
479.439	209.94
479.658	191.94
479.876	184.94
480.095	207.94
480.313	217.94
480.532	232.94
480.751	238.94
480.969	293.94
481.188	457.94
481.406	415.94
481.624	275.94
481.843	245.94
482.061	201.94
482.28	216.94
482.498	202.94
482.717	188.94
482.935	205.94
483.153	208.94
483.372	191.94
483.59	212.94
483.808	190.94
484.027	201.94
484.245	198.94
484.463	190.94
484.681	217.94
484.9	192.94
485.118	191.94
485.336	199.94
485.554	198.94
485.772	210.94
485.99	217.94
486.209	200.94
486.427	197.94
486.645	199.94
486.863	213.94
487.081	219.94
487.299	207.94
487.517	200.94
487.735	202.94
487.953	203.94
488.171	199.94
488.389	204.94
488.607	212.94
488.825	207.94
489.043	204.94
489.261	190.94
489.479	210.94
489.696	201.94
489.914	186.94
490.132	219.94
490.35	197.94
490.568	206.94
490.786	185.94
491.003	214.94
491.221	217.94
491.439	231.94
491.657	215.94
491.874	225.94
492.092	240.94
492.31	230.94
492.527	234.94
492.745	226.94
492.963	233.94
493.18	233.94
493.398	233.94
493.615	244.94
493.833	233.94
494.05	229.94
494.268	212.94
494.485	232.94
494.703	227.94
494.92	230.94
495.138	219.94
495.355	222.94
495.573	224.94
495.79	214.94
496.008	233.94
496.225	226.94
496.442	233.94
496.66	229.94
496.877	225.94
497.094	239.94
497.312	224.94
497.529	216.94
497.746	239.94
497.963	242.94
498.181	269.94
498.398	315.94
498.615	257.94
498.832	260.94
499.049	297.94
499.267	327.94
499.484	320.94
499.701	327.94
499.918	373.94
500.135	437.94
500.352	440.94
500.569	414.94
500.786	441.94
501.003	428.94
501.22	364.94
501.437	373.94
501.654	365.94
501.871	295.94
502.088	290.94
502.305	288.94
502.522	280.94
502.739	261.94
502.956	243.94
503.172	222.94
503.389	224.94
503.606	237.94
503.823	267.94
504.04	267.94
504.256	246.94
504.473	233.94
504.69	218.94
