Data from SampB_HRD10591_00057.txt Node
Date: Mon Jan 19 11:33:48 EST 2026
User: Yrep
Spectrometer: HR+D1059
Trigger mode: 0
Integration Time (sec): 3.443000E-1
Scans to average: 1
Electric dark correction enabled: true
Nonlinearity correction enabled: false
Boxcar width: 0
XAxis mode: Wavelengths
Number of Pixels in Spectrum: 2048
>>>>>Begin Spectral Data<<<<<
223.165	-19.19
223.4	-19.19
223.635	-19.19
223.869	-17.19
224.104	-32.19
224.338	-11.19
224.573	-9.19
224.808	-4.19
225.042	-18.19
225.277	5.81
225.511	-2.19
225.746	9.81
225.98	17.81
226.215	8.81
226.449	6.81
226.683	13.81
226.918	23.81
227.152	26.81
227.387	20.81
227.621	33.81
227.856	48.81
228.09	39.81
228.324	36.81
228.559	56.81
228.793	45.81
229.027	64.81
229.262	72.81
229.496	75.81
229.73	82.81
229.964	74.81
230.199	77.81
230.433	76.81
230.667	93.81
230.901	80.81
231.136	85.81
231.37	91.81
231.604	62.81
231.838	87.81
232.072	70.81
232.306	86.81
232.541	101.81
232.775	69.81
233.009	96.81
233.243	96.81
233.477	98.81
233.711	108.81
233.945	92.81
234.179	103.81
234.413	91.81
234.647	92.81
234.881	96.81
235.115	94.81
235.349	91.81
235.583	96.81
235.817	82.81
236.051	84.81
236.285	94.81
236.519	99.81
236.753	86.81
236.987	87.81
237.221	78.81
237.455	102.81
237.689	79.81
237.922	101.81
238.156	93.81
238.39	86.81
238.624	106.81
238.858	102.81
239.091	86.81
239.325	98.81
239.559	97.81
239.793	97.81
240.027	113.81
240.26	102.81
240.494	108.81
240.728	80.81
240.961	97.81
241.195	105.81
241.429	104.81
241.662	86.81
241.896	84.81
242.13	102.81
242.363	97.81
242.597	90.81
242.83	90.81
243.064	87.81
243.298	110.81
243.531	102.81
243.765	106.81
243.998	104.81
244.232	104.81
244.465	115.81
244.699	88.81
244.932	109.81
245.166	95.81
245.399	102.81
245.633	101.81
245.866	102.81
246.099	102.81
246.333	113.81
246.566	112.81
246.8	87.81
247.033	90.81
247.266	109.81
247.5	103.81
247.733	97.81
247.966	104.81
248.2	106.81
248.433	102.81
248.666	113.81
248.899	123.81
249.133	115.81
249.366	124.81
249.599	122.81
249.832	123.81
250.066	123.81
250.299	106.81
250.532	113.81
250.765	108.81
250.998	108.81
251.231	105.81
251.465	104.81
251.698	98.81
251.931	105.81
252.164	115.81
252.397	113.81
252.63	127.81
252.863	126.81
253.096	118.81
253.329	121.81
253.562	125.81
253.795	137.81
254.028	127.81
254.261	121.81
254.494	132.81
254.727	134.81
254.96	122.81
255.193	112.81
255.426	111.81
255.659	112.81
255.892	136.81
256.124	124.81
256.357	153.81
256.59	136.81
256.823	120.81
257.056	129.81
257.289	133.81
257.521	114.81
257.754	121.81
257.987	124.81
258.22	127.81
258.452	119.81
258.685	136.81
258.918	144.81
259.151	112.81
259.383	127.81
259.616	121.81
259.849	127.81
260.081	152.81
260.314	142.81
260.547	128.81
260.779	142.81
261.012	135.81
261.244	138.81
261.477	157.81
261.71	150.81
261.942	126.81
262.175	129.81
262.407	129.81
262.64	139.81
262.872	142.81
263.105	142.81
263.337	153.81
263.57	142.81
263.802	118.81
264.035	118.81
264.267	117.81
264.499	126.81
264.732	129.81
264.964	132.81
265.197	120.81
265.429	117.81
265.661	126.81
265.894	120.81
266.126	128.81
266.358	126.81
266.591	130.81
266.823	132.81
267.055	118.81
267.287	136.81
267.52	127.81
267.752	128.81
267.984	129.81
268.216	120.81
268.448	141.81
268.681	127.81
268.913	134.81
269.145	128.81
269.377	126.81
269.609	109.81
269.841	136.81
270.073	109.81
270.306	140.81
270.538	144.81
270.77	120.81
271.002	122.81
271.234	134.81
271.466	136.81
271.698	136.81
271.93	143.81
272.162	156.81
272.394	137.81
272.626	142.81
272.858	133.81
273.09	149.81
273.322	133.81
273.553	142.81
273.785	157.81
274.017	169.81
274.249	173.81
274.481	173.81
274.713	174.81
274.945	186.81
275.176	183.81
275.408	167.81
275.64	166.81
275.872	153.81
276.104	147.81
276.335	138.81
276.567	138.81
276.799	140.81
277.031	171.81
277.262	143.81
277.494	164.81
277.726	165.81
277.957	154.81
278.189	158.81
278.421	148.81
278.652	154.81
278.884	169.81
279.115	150.81
279.347	169.81
279.579	208.81
279.81	184.81
280.042	184.81
280.273	180.81
280.505	184.81
280.736	163.81
280.968	156.81
281.199	156.81
281.431	145.81
281.662	146.81
281.894	152.81
282.125	148.81
282.356	150.81
282.588	138.81
282.819	144.81
283.051	144.81
283.282	145.81
283.513	168.81
283.745	157.81
283.976	158.81
284.207	145.81
284.439	152.81
284.67	165.81
284.901	163.81
285.132	152.81
285.364	165.81
285.595	172.81
285.826	153.81
286.057	170.81
286.288	150.81
286.52	158.81
286.751	164.81
286.982	149.81
287.213	148.81
287.444	157.81
287.675	149.81
287.906	162.81
288.138	158.81
288.369	160.81
288.6	168.81
288.831	160.81
289.062	163.81
289.293	166.81
289.524	143.81
289.755	149.81
289.986	138.81
290.217	138.81
290.448	145.81
290.679	165.81
290.91	160.81
291.141	157.81
291.371	164.81
291.602	159.81
291.833	150.81
292.064	131.81
292.295	154.81
292.526	160.81
292.757	144.81
292.987	168.81
293.218	157.81
293.449	162.81
293.68	152.81
293.91	136.81
294.141	151.81
294.372	167.81
294.603	162.81
294.833	156.81
295.064	161.81
295.295	173.81
295.525	167.81
295.756	160.81
295.987	168.81
296.217	165.81
296.448	162.81
296.679	164.81
296.909	164.81
297.14	178.81
297.37	169.81
297.601	162.81
297.831	157.81
298.062	170.81
298.292	166.81
298.523	170.81
298.753	188.81
298.984	158.81
299.214	163.81
299.445	166.81
299.675	176.81
299.905	156.81
300.136	163.81
300.366	158.81
300.597	178.81
300.827	172.81
301.057	177.81
301.288	161.81
301.518	162.81
301.748	167.81
301.979	203.81
302.209	174.81
302.439	178.81
302.669	169.81
302.9	181.81
303.13	174.81
303.36	170.81
303.59	168.81
303.82	158.81
304.051	178.81
304.281	161.81
304.511	162.81
304.741	174.81
304.971	170.81
305.201	172.81
305.431	172.81
305.661	179.81
305.891	176.81
306.121	182.81
306.352	191.81
306.582	183.81
306.812	168.81
307.042	181.81
307.272	188.81
307.502	189.81
307.731	196.81
307.961	192.81
308.191	188.81
308.421	167.81
308.651	187.81
308.881	201.81
309.111	192.81
309.341	164.81
309.571	180.81
309.8	173.81
310.03	178.81
310.26	173.81
310.49	193.81
310.72	178.81
310.949	180.81
311.179	183.81
311.409	169.81
311.639	175.81
311.868	174.81
312.098	189.81
312.328	183.81
312.557	188.81
312.787	177.81
313.017	179.81
313.246	180.81
313.476	176.81
313.706	174.81
313.935	172.81
314.165	173.81
314.394	182.81
314.624	182.81
314.853	167.81
315.083	178.81
315.312	185.81
315.542	188.81
315.771	174.81
316.001	173.81
316.23	190.81
316.46	184.81
316.689	193.81
316.919	172.81
317.148	186.81
317.377	196.81
317.607	170.81
317.836	174.81
318.065	181.81
318.295	169.81
318.524	191.81
318.753	191.81
318.983	192.81
319.212	193.81
319.441	192.81
319.67	185.81
319.9	185.81
320.129	190.81
320.358	186.81
320.587	193.81
320.816	186.81
321.046	188.81
321.275	197.81
321.504	182.81
321.733	196.81
321.962	197.81
322.191	195.81
322.42	205.81
322.649	212.81
322.878	207.81
323.108	221.81
323.337	226.81
323.566	242.81
323.795	240.81
324.024	242.81
324.253	202.81
324.482	208.81
324.71	201.81
324.939	215.81
325.168	208.81
325.397	216.81
325.626	197.81
325.855	200.81
326.084	200.81
326.313	199.81
326.542	200.81
326.77	208.81
326.999	215.81
327.228	214.81
327.457	208.81
327.686	224.81
327.914	239.81
328.143	244.81
328.372	229.81
328.6	230.81
328.829	217.81
329.058	216.81
329.287	207.81
329.515	212.81
329.744	242.81
329.972	265.81
330.201	292.81
330.43	286.81
330.658	254.81
330.887	231.81
331.115	237.81
331.344	219.81
331.572	244.81
331.801	221.81
332.03	222.81
332.258	223.81
332.486	248.81
332.715	235.81
332.943	246.81
333.172	256.81
333.4	266.81
333.629	276.81
333.857	298.81
334.085	315.81
334.314	369.81
334.542	378.81
334.771	388.81
334.999	344.81
335.227	294.81
335.455	244.81
335.684	266.81
335.912	267.81
336.14	261.81
336.369	255.81
336.597	234.81
336.825	236.81
337.053	233.81
337.281	238.81
337.51	235.81
337.738	241.81
337.966	240.81
338.194	242.81
338.422	248.81
338.65	249.81
338.878	220.81
339.106	210.81
339.334	211.81
339.562	189.81
339.79	193.81
340.018	186.81
340.246	194.81
340.474	194.81
340.702	196.81
340.93	205.81
341.158	188.81
341.386	190.81
341.614	182.81
341.842	202.81
342.07	185.81
342.298	192.81
342.526	188.81
342.754	208.81
342.981	191.81
343.209	196.81
343.437	241.81
343.665	203.81
343.893	225.81
344.12	234.81
344.348	224.81
344.576	208.81
344.804	211.81
345.031	189.81
345.259	194.81
345.487	184.81
345.714	198.81
345.942	191.81
346.17	217.81
346.397	189.81
346.625	180.81
346.853	182.81
347.08	188.81
347.308	212.81
347.535	206.81
347.763	202.81
347.99	180.81
348.218	201.81
348.445	210.81
348.673	192.81
348.9	201.81
349.128	213.81
349.355	188.81
349.583	202.81
349.81	176.81
350.037	193.81
350.265	200.81
350.492	186.81
350.72	170.81
350.947	192.81
351.174	201.81
351.402	186.81
351.629	189.81
351.856	167.81
352.083	193.81
352.311	198.81
352.538	184.81
352.765	194.81
352.992	205.81
353.22	178.81
353.447	185.81
353.674	198.81
353.901	198.81
354.128	177.81
354.355	190.81
354.583	181.81
354.81	181.81
355.037	185.81
355.264	197.81
355.491	207.81
355.718	216.81
355.945	192.81
356.172	179.81
356.399	185.81
356.626	197.81
356.853	196.81
357.08	213.81
357.307	206.81
357.534	193.81
357.761	198.81
357.988	218.81
358.215	213.81
358.441	200.81
358.668	206.81
358.895	204.81
359.122	190.81
359.349	193.81
359.576	189.81
359.802	187.81
360.029	186.81
360.256	197.81
360.483	174.81
360.709	185.81
360.936	225.81
361.163	210.81
361.39	190.81
361.616	200.81
361.843	187.81
362.07	188.81
362.296	202.81
362.523	200.81
362.749	202.81
362.976	198.81
363.203	229.81
363.429	211.81
363.656	208.81
363.882	185.81
364.109	208.81
364.335	214.81
364.562	216.81
364.788	198.81
365.015	201.81
365.241	217.81
365.468	214.81
365.694	198.81
365.92	193.81
366.147	197.81
366.373	179.81
366.599	184.81
366.826	180.81
367.052	182.81
367.278	209.81
367.505	199.81
367.731	209.81
367.957	200.81
368.184	204.81
368.41	200.81
368.636	238.81
368.862	223.81
369.089	188.81
369.315	193.81
369.541	199.81
369.767	208.81
369.993	184.81
370.219	204.81
370.445	205.81
370.672	207.81
370.898	190.81
371.124	204.81
371.35	196.81
371.576	196.81
371.802	216.81
372.028	216.81
372.254	220.81
372.48	232.81
372.706	225.81
372.932	230.81
373.158	209.81
373.384	231.81
373.61	240.81
373.835	245.81
374.061	245.81
374.287	226.81
374.513	228.81
374.739	220.81
374.965	258.81
375.191	244.81
375.416	254.81
375.642	255.81
375.868	290.81
376.094	293.81
376.319	246.81
376.545	216.81
376.771	210.81
376.997	216.81
377.222	205.81
377.448	184.81
377.674	207.81
377.899	202.81
378.125	198.81
378.35	217.81
378.576	207.81
378.802	202.81
379.027	210.81
379.253	205.81
379.478	186.81
379.704	214.81
379.929	219.81
380.155	205.81
380.38	209.81
380.606	221.81
380.831	215.81
381.057	230.81
381.282	225.81
381.507	225.81
381.733	224.81
381.958	232.81
382.184	231.81
382.409	248.81
382.634	228.81
382.86	239.81
383.085	250.81
383.31	240.81
383.535	232.81
383.761	247.81
383.986	241.81
384.211	233.81
384.436	237.81
384.662	239.81
384.887	246.81
385.112	248.81
385.337	242.81
385.562	248.81
385.787	252.81
386.013	239.81
386.238	245.81
386.463	245.81
386.688	266.81
386.913	260.81
387.138	237.81
387.363	249.81
387.588	250.81
387.813	252.81
388.038	263.81
388.263	266.81
388.488	265.81
388.713	237.81
388.938	230.81
389.163	240.81
389.387	235.81
389.612	241.81
389.837	224.81
390.062	249.81
390.287	235.81
390.512	220.81
390.736	240.81
390.961	245.81
391.186	237.81
391.411	278.81
391.636	262.81
391.86	251.81
392.085	261.81
392.31	262.81
392.534	280.81
392.759	295.81
392.984	291.81
393.208	381.81
393.433	469.81
393.658	398.81
393.882	267.81
394.107	276.81
394.331	269.81
394.556	266.81
394.78	265.81
395.005	277.81
395.229	279.81
395.454	285.81
395.678	275.81
395.903	324.81
396.127	329.81
396.352	332.81
396.576	327.81
396.801	380.81
397.025	430.81
397.249	306.81
397.474	274.81
397.698	260.81
397.922	266.81
398.147	285.81
398.371	295.81
398.595	289.81
398.82	306.81
399.044	329.81
399.268	354.81
399.492	375.81
399.717	403.81
399.941	396.81
400.165	346.81
400.389	318.81
400.613	308.81
400.837	299.81
401.062	307.81
401.286	284.81
401.51	291.81
401.734	285.81
401.958	284.81
402.182	288.81
402.406	289.81
402.63	310.81
402.854	317.81
403.078	304.81
403.302	299.81
403.526	305.81
403.75	318.81
403.974	298.81
404.198	323.81
404.422	329.81
404.645	348.81
404.869	315.81
405.093	335.81
405.317	320.81
405.541	329.81
405.765	310.81
405.988	332.81
406.212	317.81
406.436	324.81
406.66	341.81
406.883	336.81
407.107	338.81
407.331	356.81
407.555	348.81
407.778	341.81
408.002	320.81
408.226	330.81
408.449	315.81
408.673	337.81
408.896	337.81
409.12	329.81
409.344	326.81
409.567	314.81
409.791	335.81
410.014	325.81
410.238	326.81
410.461	325.81
410.685	316.81
410.908	320.81
411.132	319.81
411.355	320.81
411.578	308.81
411.802	320.81
412.025	297.81
412.249	292.81
412.472	288.81
412.695	299.81
412.919	272.81
413.142	292.81
413.365	295.81
413.589	282.81
413.812	304.81
414.035	307.81
414.258	321.81
414.482	301.81
414.705	290.81
414.928	299.81
415.151	310.81
415.374	305.81
415.597	316.81
415.821	281.81
416.044	294.81
416.267	279.81
416.49	305.81
416.713	292.81
416.936	313.81
417.159	305.81
417.382	302.81
417.605	299.81
417.828	305.81
418.051	286.81
418.274	293.81
418.497	306.81
418.72	313.81
418.943	305.81
419.166	316.81
419.389	298.81
419.611	301.81
419.834	320.81
420.057	308.81
420.28	312.81
420.503	314.81
420.726	307.81
420.948	284.81
421.171	297.81
421.394	294.81
421.617	294.81
421.839	311.81
422.062	307.81
422.285	305.81
422.507	366.81
422.73	406.81
422.953	372.81
423.175	309.81
423.398	310.81
423.621	300.81
423.843	301.81
424.066	310.81
424.288	319.81
424.511	300.81
424.733	303.81
424.956	319.81
425.178	312.81
425.401	303.81
425.623	302.81
425.846	281.81
426.068	288.81
426.291	288.81
426.513	294.81
426.735	282.81
426.958	316.81
427.18	272.81
427.402	314.81
427.625	283.81
427.847	272.81
428.069	299.81
428.292	296.81
428.514	303.81
428.736	311.81
428.958	305.81
429.181	304.81
429.403	289.81
429.625	281.81
429.847	298.81
430.069	341.81
430.292	354.81
430.514	325.81
430.736	316.81
430.958	300.81
431.18	276.81
431.402	292.81
431.624	278.81
431.846	278.81
432.068	264.81
432.29	274.81
432.512	255.81
432.734	286.81
432.956	288.81
433.178	298.81
433.4	282.81
433.622	277.81
433.844	267.81
434.066	264.81
434.287	271.81
434.509	283.81
434.731	275.81
434.953	287.81
435.175	277.81
435.397	300.81
435.618	282.81
435.84	272.81
436.062	260.81
436.284	260.81
436.505	274.81
436.727	280.81
436.949	273.81
437.17	267.81
437.392	264.81
437.614	241.81
437.835	251.81
438.057	255.81
438.278	264.81
438.5	290.81
438.721	283.81
438.943	273.81
439.165	282.81
439.386	278.81
439.608	294.81
439.829	287.81
440.05	281.81
440.272	287.81
440.493	295.81
440.715	295.81
440.936	285.81
441.158	298.81
441.379	293.81
441.6	312.81
441.822	328.81
442.043	314.81
442.264	306.81
442.486	295.81
442.707	300.81
442.928	291.81
443.149	275.81
443.371	319.81
443.592	313.81
443.813	326.81
444.034	314.81
444.255	326.81
444.476	319.81
444.698	328.81
444.919	330.81
445.14	528.81
445.361	416.81
445.582	367.81
445.803	348.81
446.024	304.81
446.245	290.81
446.466	293.81
446.687	291.81
446.908	291.81
447.129	291.81
447.35	268.81
447.571	289.81
447.792	276.81
448.013	273.81
448.234	272.81
448.455	278.81
448.675	234.81
448.896	275.81
449.117	257.81
449.338	257.81
449.559	269.81
449.779	276.81
450	267.81
450.221	299.81
450.442	270.81
450.662	258.81
450.883	258.81
451.104	250.81
451.324	273.81
451.545	265.81
451.766	254.81
451.986	286.81
452.207	271.81
452.428	274.81
452.648	269.81
452.869	266.81
453.089	261.81
453.31	282.81
453.53	358.81
453.751	354.81
453.971	273.81
454.192	244.81
454.412	232.81
454.633	246.81
454.853	254.81
455.073	265.81
455.294	284.81
455.514	301.81
455.734	283.81
455.955	240.81
456.175	232.81
456.395	218.81
456.616	222.81
456.836	248.81
457.056	230.81
457.276	223.81
457.497	247.81
457.717	247.81
457.937	244.81
458.157	243.81
458.377	245.81
458.598	245.81
458.818	225.81
459.038	243.81
459.258	260.81
459.478	256.81
459.698	276.81
459.918	279.81
460.138	270.81
460.358	306.81
460.578	302.81
460.798	289.81
461.018	297.81
461.238	285.81
461.458	293.81
461.678	288.81
461.898	310.81
462.118	322.81
462.338	304.81
462.558	320.81
462.777	312.81
462.997	379.81
463.217	381.81
463.437	364.81
463.657	332.81
463.876	341.81
464.096	359.81
464.316	328.81
464.536	313.81
464.755	324.81
464.975	313.81
465.195	304.81
465.414	285.81
465.634	284.81
465.854	276.81
466.073	283.81
466.293	278.81
466.512	279.81
466.732	274.81
466.951	289.81
467.171	269.81
467.391	265.81
467.61	270.81
467.829	310.81
468.049	344.81
468.268	330.81
468.488	302.81
468.707	295.81
468.927	282.81
469.146	261.81
469.365	269.81
469.585	281.81
469.804	276.81
470.023	287.81
470.243	277.81
470.462	294.81
470.681	309.81
470.901	279.81
471.12	276.81
471.339	298.81
471.558	277.81
471.777	298.81
471.997	313.81
472.216	362.81
472.435	445.81
472.654	348.81
472.873	303.81
473.092	293.81
473.311	289.81
473.53	284.81
473.749	267.81
473.968	281.81
474.187	262.81
474.406	256.81
474.625	270.81
474.844	260.81
475.063	268.81
475.282	265.81
475.501	263.81
475.72	276.81
475.939	269.81
476.158	291.81
476.377	287.81
476.596	273.81
476.814	268.81
477.033	256.81
477.252	278.81
477.471	284.81
477.69	276.81
477.908	288.81
478.127	317.81
478.346	312.81
478.564	308.81
478.783	303.81
479.002	309.81
479.22	299.81
479.439	338.81
479.658	316.81
479.876	307.81
480.095	327.81
480.313	333.81
480.532	339.81
480.751	370.81
480.969	414.81
481.188	567.81
481.406	504.81
481.624	392.81
481.843	336.81
482.061	333.81
482.28	326.81
482.498	292.81
482.717	310.81
482.935	307.81
483.153	290.81
483.372	331.81
483.59	300.81
483.808	309.81
484.027	305.81
484.245	326.81
484.463	304.81
484.681	314.81
484.9	301.81
485.118	326.81
485.336	302.81
485.554	304.81
485.772	296.81
485.99	281.81
486.209	285.81
486.427	296.81
486.645	302.81
486.863	308.81
487.081	326.81
487.299	292.81
487.517	321.81
487.735	342.81
487.953	314.81
488.171	327.81
488.389	331.81
488.607	323.81
488.825	316.81
489.043	299.81
489.261	318.81
489.479	316.81
489.696	305.81
489.914	309.81
490.132	332.81
490.35	336.81
490.568	318.81
490.786	309.81
491.003	312.81
491.221	343.81
491.439	344.81
491.657	370.81
491.874	362.81
492.092	362.81
492.31	378.81
492.527	370.81
492.745	366.81
492.963	338.81
493.18	343.81
493.398	364.81
493.615	397.81
493.833	349.81
494.05	340.81
494.268	333.81
494.485	345.81
494.703	340.81
494.92	326.81
495.138	344.81
495.355	337.81
495.573	325.81
495.79	367.81
496.008	366.81
496.225	357.81
496.442	331.81
496.66	356.81
496.877	351.81
497.094	376.81
497.312	364.81
497.529	353.81
497.746	370.81
497.963	381.81
498.181	416.81
498.398	526.81
498.615	425.81
498.832	423.81
499.049	477.81
499.267	559.81
499.484	546.81
499.701	555.81
499.918	630.81
500.135	740.81
500.352	746.81
500.569	740.81
500.786	723.81
501.003	729.81
501.22	621.81
501.437	591.81
501.654	600.81
501.871	506.81
502.088	456.81
502.305	480.81
502.522	451.81
502.739	436.81
502.956	380.81
503.172	375.81
503.389	371.81
