Data from SampB_HRD10591_00048.txt Node
Date: Mon Jan 19 11:33:44 EST 2026
User: Yrep
Spectrometer: HR+D1059
Trigger mode: 0
Integration Time (sec): 3.443000E-1
Scans to average: 1
Electric dark correction enabled: true
Nonlinearity correction enabled: false
Boxcar width: 0
XAxis mode: Wavelengths
Number of Pixels in Spectrum: 2048
>>>>>Begin Spectral Data<<<<<
223.165	-25.38
223.4	-25.38
223.635	-25.38
223.869	-23.38
224.104	-20.38
224.338	-6.38
224.573	-9.38
224.808	-9.38
225.042	-14.38
225.277	-0.38
225.511	7.62
225.746	-8.38
225.98	5.62
226.215	13.62
226.449	11.62
226.683	13.62
226.918	31.62
227.152	33.62
227.387	30.62
227.621	43.62
227.856	39.62
228.09	46.62
228.324	56.62
228.559	65.62
228.793	63.62
229.027	78.62
229.262	80.62
229.496	78.62
229.73	71.62
229.964	81.62
230.199	71.62
230.433	71.62
230.667	81.62
230.901	82.62
231.136	75.62
231.37	80.62
231.604	87.62
231.838	103.62
232.072	89.62
232.306	97.62
232.541	89.62
232.775	86.62
233.009	77.62
233.243	81.62
233.477	91.62
233.711	87.62
233.945	105.62
234.179	91.62
234.413	85.62
234.647	76.62
234.881	94.62
235.115	90.62
235.349	83.62
235.583	85.62
235.817	89.62
236.051	98.62
236.285	89.62
236.519	98.62
236.753	85.62
236.987	97.62
237.221	90.62
237.455	86.62
237.689	94.62
237.922	79.62
238.156	97.62
238.39	88.62
238.624	94.62
238.858	86.62
239.091	95.62
239.325	89.62
239.559	81.62
239.793	86.62
240.027	109.62
240.26	90.62
240.494	98.62
240.728	73.62
240.961	96.62
241.195	113.62
241.429	62.62
241.662	102.62
241.896	87.62
242.13	93.62
242.363	89.62
242.597	84.62
242.83	90.62
243.064	107.62
243.298	94.62
243.531	107.62
243.765	103.62
243.998	111.62
244.232	104.62
244.465	97.62
244.699	104.62
244.932	103.62
245.166	95.62
245.399	79.62
245.633	97.62
245.866	101.62
246.099	96.62
246.333	120.62
246.566	109.62
246.8	101.62
247.033	88.62
247.266	103.62
247.5	105.62
247.733	99.62
247.966	93.62
248.2	116.62
248.433	119.62
248.666	115.62
248.899	113.62
249.133	105.62
249.366	121.62
249.599	111.62
249.832	110.62
250.066	123.62
250.299	102.62
250.532	115.62
250.765	113.62
250.998	109.62
251.231	88.62
251.465	136.62
251.698	105.62
251.931	105.62
252.164	121.62
252.397	121.62
252.63	122.62
252.863	109.62
253.096	122.62
253.329	123.62
253.562	106.62
253.795	123.62
254.028	122.62
254.261	124.62
254.494	113.62
254.727	126.62
254.96	115.62
255.193	122.62
255.426	112.62
255.659	117.62
255.892	135.62
256.124	126.62
256.357	126.62
256.59	136.62
256.823	117.62
257.056	122.62
257.289	114.62
257.521	122.62
257.754	119.62
257.987	126.62
258.22	137.62
258.452	114.62
258.685	109.62
258.918	125.62
259.151	115.62
259.383	125.62
259.616	122.62
259.849	122.62
260.081	136.62
260.314	139.62
260.547	133.62
260.779	130.62
261.012	142.62
261.244	165.62
261.477	145.62
261.71	138.62
261.942	131.62
262.175	142.62
262.407	103.62
262.64	123.62
262.872	134.62
263.105	137.62
263.337	135.62
263.57	129.62
263.802	103.62
264.035	119.62
264.267	120.62
264.499	122.62
264.732	152.62
264.964	139.62
265.197	125.62
265.429	122.62
265.661	120.62
265.894	99.62
266.126	131.62
266.358	120.62
266.591	133.62
266.823	145.62
267.055	136.62
267.287	133.62
267.52	128.62
267.752	122.62
267.984	124.62
268.216	127.62
268.448	141.62
268.681	139.62
268.913	139.62
269.145	132.62
269.377	128.62
269.609	126.62
269.841	130.62
270.073	122.62
270.306	129.62
270.538	137.62
270.77	114.62
271.002	144.62
271.234	137.62
271.466	133.62
271.698	121.62
271.93	137.62
272.162	134.62
272.394	128.62
272.626	127.62
272.858	162.62
273.09	133.62
273.322	134.62
273.553	127.62
273.785	147.62
274.017	170.62
274.249	169.62
274.481	174.62
274.713	176.62
274.945	193.62
275.176	172.62
275.408	174.62
275.64	170.62
275.872	162.62
276.104	139.62
276.335	140.62
276.567	131.62
276.799	140.62
277.031	171.62
277.262	153.62
277.494	160.62
277.726	129.62
277.957	144.62
278.189	153.62
278.421	157.62
278.652	148.62
278.884	141.62
279.115	147.62
279.347	159.62
279.579	164.62
279.81	176.62
280.042	179.62
280.273	161.62
280.505	173.62
280.736	152.62
280.968	141.62
281.199	166.62
281.431	139.62
281.662	142.62
281.894	159.62
282.125	162.62
282.356	145.62
282.588	140.62
282.819	141.62
283.051	139.62
283.282	147.62
283.513	164.62
283.745	140.62
283.976	149.62
284.207	151.62
284.439	157.62
284.67	159.62
284.901	143.62
285.132	151.62
285.364	158.62
285.595	165.62
285.826	144.62
286.057	167.62
286.288	163.62
286.52	162.62
286.751	151.62
286.982	151.62
287.213	145.62
287.444	159.62
287.675	158.62
287.906	162.62
288.138	159.62
288.369	174.62
288.6	161.62
288.831	156.62
289.062	157.62
289.293	170.62
289.524	171.62
289.755	168.62
289.986	157.62
290.217	161.62
290.448	160.62
290.679	160.62
290.91	173.62
291.141	151.62
291.371	159.62
291.602	159.62
291.833	146.62
292.064	152.62
292.295	172.62
292.526	161.62
292.757	173.62
292.987	159.62
293.218	158.62
293.449	168.62
293.68	170.62
293.91	159.62
294.141	169.62
294.372	159.62
294.603	170.62
294.833	162.62
295.064	167.62
295.295	160.62
295.525	173.62
295.756	159.62
295.987	159.62
296.217	169.62
296.448	174.62
296.679	151.62
296.909	185.62
297.14	173.62
297.37	176.62
297.601	155.62
297.831	158.62
298.062	163.62
298.292	181.62
298.523	188.62
298.753	171.62
298.984	165.62
299.214	159.62
299.445	172.62
299.675	175.62
299.905	168.62
300.136	168.62
300.366	158.62
300.597	161.62
300.827	165.62
301.057	167.62
301.288	166.62
301.518	173.62
301.748	169.62
301.979	203.62
302.209	188.62
302.439	185.62
302.669	174.62
302.9	192.62
303.13	190.62
303.36	174.62
303.59	197.62
303.82	178.62
304.051	168.62
304.281	191.62
304.511	163.62
304.741	162.62
304.971	176.62
305.201	155.62
305.431	173.62
305.661	178.62
305.891	169.62
306.121	172.62
306.352	166.62
306.582	174.62
306.812	183.62
307.042	174.62
307.272	165.62
307.502	180.62
307.731	181.62
307.961	208.62
308.191	169.62
308.421	188.62
308.651	161.62
308.881	185.62
309.111	174.62
309.341	179.62
309.571	181.62
309.8	181.62
310.03	170.62
310.26	163.62
310.49	175.62
310.72	181.62
310.949	167.62
311.179	177.62
311.409	180.62
311.639	186.62
311.868	170.62
312.098	170.62
312.328	171.62
312.557	193.62
312.787	172.62
313.017	182.62
313.246	180.62
313.476	162.62
313.706	190.62
313.935	183.62
314.165	178.62
314.394	174.62
314.624	176.62
314.853	179.62
315.083	163.62
315.312	192.62
315.542	179.62
315.771	192.62
316.001	179.62
316.23	178.62
316.46	178.62
316.689	158.62
316.919	186.62
317.148	180.62
317.377	182.62
317.607	190.62
317.836	164.62
318.065	184.62
318.295	167.62
318.524	190.62
318.753	181.62
318.983	195.62
319.212	185.62
319.441	171.62
319.67	168.62
319.9	189.62
320.129	175.62
320.358	182.62
320.587	183.62
320.816	183.62
321.046	191.62
321.275	190.62
321.504	190.62
321.733	186.62
321.962	168.62
322.191	198.62
322.42	187.62
322.649	186.62
322.878	191.62
323.108	206.62
323.337	187.62
323.566	187.62
323.795	204.62
324.024	201.62
324.253	193.62
324.482	205.62
324.71	202.62
324.939	208.62
325.168	207.62
325.397	191.62
325.626	201.62
325.855	190.62
326.084	209.62
326.313	194.62
326.542	202.62
326.77	183.62
326.999	207.62
327.228	209.62
327.457	208.62
327.686	206.62
327.914	226.62
328.143	234.62
328.372	258.62
328.6	227.62
328.829	212.62
329.058	218.62
329.287	210.62
329.515	223.62
329.744	226.62
329.972	261.62
330.201	311.62
330.43	292.62
330.658	262.62
330.887	222.62
331.115	229.62
331.344	216.62
331.572	211.62
331.801	217.62
332.03	237.62
332.258	226.62
332.486	223.62
332.715	239.62
332.943	246.62
333.172	269.62
333.4	248.62
333.629	271.62
333.857	286.62
334.085	318.62
334.314	335.62
334.542	367.62
334.771	357.62
334.999	309.62
335.227	269.62
335.455	246.62
335.684	242.62
335.912	225.62
336.14	235.62
336.369	229.62
336.597	232.62
336.825	234.62
337.053	233.62
337.281	224.62
337.51	221.62
337.738	218.62
337.966	205.62
338.194	206.62
338.422	216.62
338.65	204.62
338.878	193.62
339.106	210.62
339.334	206.62
339.562	193.62
339.79	201.62
340.018	205.62
340.246	193.62
340.474	202.62
340.702	209.62
340.93	208.62
341.158	198.62
341.386	183.62
341.614	191.62
341.842	183.62
342.07	201.62
342.298	199.62
342.526	194.62
342.754	223.62
342.981	199.62
343.209	195.62
343.437	231.62
343.665	230.62
343.893	239.62
344.12	261.62
344.348	199.62
344.576	198.62
344.804	208.62
345.031	188.62
345.259	199.62
345.487	201.62
345.714	189.62
345.942	181.62
346.17	190.62
346.397	180.62
346.625	200.62
346.853	213.62
347.08	197.62
347.308	201.62
347.535	186.62
347.763	191.62
347.99	200.62
348.218	190.62
348.445	183.62
348.673	199.62
348.9	197.62
349.128	197.62
349.355	191.62
349.583	190.62
349.81	187.62
350.037	199.62
350.265	176.62
350.492	187.62
350.72	184.62
350.947	192.62
351.174	193.62
351.402	184.62
351.629	176.62
351.856	185.62
352.083	185.62
352.311	187.62
352.538	179.62
352.765	213.62
352.992	203.62
353.22	188.62
353.447	181.62
353.674	196.62
353.901	212.62
354.128	199.62
354.355	193.62
354.583	174.62
354.81	184.62
355.037	189.62
355.264	191.62
355.491	186.62
355.718	192.62
355.945	193.62
356.172	184.62
356.399	203.62
356.626	192.62
356.853	208.62
357.08	222.62
357.307	206.62
357.534	195.62
357.761	199.62
357.988	201.62
358.215	221.62
358.441	189.62
358.668	193.62
358.895	188.62
359.122	198.62
359.349	193.62
359.576	194.62
359.802	176.62
360.029	177.62
360.256	199.62
360.483	190.62
360.709	186.62
360.936	212.62
361.163	207.62
361.39	187.62
361.616	208.62
361.843	217.62
362.07	202.62
362.296	176.62
362.523	195.62
362.749	192.62
362.976	181.62
363.203	208.62
363.429	205.62
363.656	196.62
363.882	203.62
364.109	209.62
364.335	202.62
364.562	199.62
364.788	195.62
365.015	190.62
365.241	216.62
365.468	191.62
365.694	189.62
365.92	190.62
366.147	204.62
366.373	182.62
366.599	185.62
366.826	193.62
367.052	187.62
367.278	197.62
367.505	200.62
367.731	199.62
367.957	197.62
368.184	200.62
368.41	214.62
368.636	195.62
368.862	202.62
369.089	185.62
369.315	184.62
369.541	202.62
369.767	191.62
369.993	206.62
370.219	210.62
370.445	207.62
370.672	220.62
370.898	210.62
371.124	201.62
371.35	192.62
371.576	201.62
371.802	209.62
372.028	204.62
372.254	227.62
372.48	206.62
372.706	208.62
372.932	221.62
373.158	207.62
373.384	235.62
373.61	241.62
373.835	237.62
374.061	222.62
374.287	224.62
374.513	222.62
374.739	241.62
374.965	247.62
375.191	235.62
375.416	235.62
375.642	228.62
375.868	257.62
376.094	238.62
376.319	208.62
376.545	206.62
376.771	218.62
376.997	207.62
377.222	191.62
377.448	195.62
377.674	206.62
377.899	202.62
378.125	191.62
378.35	205.62
378.576	205.62
378.802	202.62
379.027	225.62
379.253	217.62
379.478	207.62
379.704	216.62
379.929	197.62
380.155	195.62
380.38	209.62
380.606	186.62
380.831	214.62
381.057	223.62
381.282	213.62
381.507	225.62
381.733	212.62
381.958	220.62
382.184	222.62
382.409	221.62
382.634	246.62
382.86	224.62
383.085	240.62
383.31	231.62
383.535	238.62
383.761	221.62
383.986	251.62
384.211	231.62
384.436	237.62
384.662	240.62
384.887	231.62
385.112	240.62
385.337	232.62
385.562	254.62
385.787	246.62
386.013	255.62
386.238	254.62
386.463	256.62
386.688	275.62
386.913	251.62
387.138	247.62
387.363	232.62
387.588	238.62
387.813	252.62
388.038	247.62
388.263	230.62
388.488	242.62
388.713	244.62
388.938	231.62
389.163	238.62
389.387	236.62
389.612	241.62
389.837	229.62
390.062	241.62
390.287	256.62
390.512	262.62
390.736	255.62
390.961	238.62
391.186	251.62
391.411	270.62
391.636	259.62
391.86	268.62
392.085	272.62
392.31	254.62
392.534	266.62
392.759	275.62
392.984	274.62
393.208	315.62
393.433	327.62
393.658	298.62
393.882	265.62
394.107	269.62
394.331	276.62
394.556	281.62
394.78	276.62
395.005	276.62
395.229	262.62
395.454	277.62
395.678	285.62
395.903	286.62
396.127	302.62
396.352	298.62
396.576	282.62
396.801	297.62
397.025	301.62
397.249	297.62
397.474	270.62
397.698	265.62
397.922	264.62
398.147	273.62
398.371	271.62
398.595	289.62
398.82	297.62
399.044	314.62
399.268	337.62
399.492	401.62
399.717	426.62
399.941	407.62
400.165	352.62
400.389	319.62
400.613	299.62
400.837	305.62
401.062	299.62
401.286	302.62
401.51	306.62
401.734	296.62
401.958	277.62
402.182	306.62
402.406	307.62
402.63	301.62
402.854	310.62
403.078	338.62
403.302	322.62
403.526	337.62
403.75	325.62
403.974	335.62
404.198	357.62
404.422	346.62
404.645	332.62
404.869	331.62
405.093	344.62
405.317	327.62
405.541	341.62
405.765	325.62
405.988	323.62
406.212	318.62
406.436	326.62
406.66	339.62
406.883	347.62
407.107	334.62
407.331	364.62
407.555	365.62
407.778	353.62
408.002	342.62
408.226	333.62
408.449	341.62
408.673	345.62
408.896	339.62
409.12	323.62
409.344	330.62
409.567	303.62
409.791	310.62
410.014	338.62
410.238	319.62
410.461	308.62
410.685	320.62
410.908	295.62
411.132	329.62
411.355	304.62
411.578	320.62
411.802	296.62
412.025	333.62
412.249	306.62
412.472	300.62
412.695	304.62
412.919	305.62
413.142	306.62
413.365	308.62
413.589	301.62
413.812	290.62
414.035	319.62
414.258	327.62
414.482	310.62
414.705	305.62
414.928	307.62
415.151	315.62
415.374	315.62
415.597	319.62
415.821	303.62
416.044	307.62
416.267	300.62
416.49	301.62
416.713	299.62
416.936	321.62
417.159	298.62
417.382	315.62
417.605	296.62
417.828	289.62
418.051	301.62
418.274	310.62
418.497	306.62
418.72	325.62
418.943	330.62
419.166	330.62
419.389	343.62
419.611	326.62
419.834	339.62
420.057	313.62
420.28	313.62
420.503	300.62
420.726	328.62
420.948	292.62
421.171	309.62
421.394	306.62
421.617	322.62
421.839	329.62
422.062	321.62
422.285	327.62
422.507	323.62
422.73	339.62
422.953	327.62
423.175	303.62
423.398	339.62
423.621	316.62
423.843	335.62
424.066	332.62
424.288	341.62
424.511	306.62
424.733	305.62
424.956	305.62
425.178	308.62
425.401	310.62
425.623	316.62
425.846	298.62
426.068	308.62
426.291	300.62
426.513	277.62
426.735	289.62
426.958	321.62
427.18	303.62
427.402	295.62
427.625	290.62
427.847	275.62
428.069	285.62
428.292	301.62
428.514	301.62
428.736	272.62
428.958	280.62
429.181	291.62
429.403	273.62
429.625	281.62
429.847	281.62
430.069	310.62
430.292	296.62
430.514	272.62
430.736	287.62
430.958	280.62
431.18	281.62
431.402	269.62
431.624	281.62
431.846	250.62
432.068	265.62
432.29	271.62
432.512	273.62
432.734	291.62
432.956	291.62
433.178	298.62
433.4	271.62
433.622	305.62
433.844	291.62
434.066	275.62
434.287	281.62
434.509	266.62
434.731	283.62
434.953	305.62
435.175	294.62
435.397	300.62
435.618	280.62
435.84	280.62
436.062	269.62
436.284	265.62
436.505	282.62
436.727	270.62
436.949	284.62
437.17	267.62
437.392	281.62
437.614	265.62
437.835	253.62
438.057	263.62
438.278	258.62
438.5	281.62
438.721	289.62
438.943	290.62
439.165	275.62
439.386	280.62
439.608	268.62
439.829	288.62
440.05	291.62
440.272	308.62
440.493	295.62
440.715	299.62
440.936	295.62
441.158	289.62
441.379	315.62
441.6	306.62
441.822	333.62
442.043	303.62
442.264	306.62
442.486	315.62
442.707	310.62
442.928	302.62
443.149	311.62
443.371	312.62
443.592	310.62
443.813	316.62
444.034	326.62
444.255	338.62
444.476	352.62
444.698	348.62
444.919	356.62
445.14	525.62
445.361	426.62
445.582	326.62
445.803	295.62
446.024	312.62
446.245	317.62
446.466	294.62
446.687	287.62
446.908	308.62
447.129	291.62
447.35	279.62
447.571	288.62
447.792	292.62
448.013	281.62
448.234	265.62
448.455	267.62
448.675	270.62
448.896	267.62
449.117	241.62
449.338	279.62
449.559	262.62
449.779	297.62
450	277.62
450.221	275.62
450.442	262.62
450.662	254.62
450.883	297.62
451.104	268.62
451.324	272.62
451.545	269.62
451.766	267.62
451.986	262.62
452.207	253.62
452.428	255.62
452.648	264.62
452.869	279.62
453.089	254.62
453.31	254.62
453.53	267.62
453.751	282.62
453.971	255.62
454.192	248.62
454.412	241.62
454.633	247.62
454.853	252.62
455.073	243.62
455.294	246.62
455.514	264.62
455.734	242.62
455.955	236.62
456.175	247.62
456.395	238.62
456.616	234.62
456.836	241.62
457.056	233.62
457.276	239.62
457.497	244.62
457.717	240.62
457.937	225.62
458.157	251.62
458.377	261.62
458.598	248.62
458.818	250.62
459.038	245.62
459.258	247.62
459.478	264.62
459.698	253.62
459.918	261.62
460.138	292.62
460.358	303.62
460.578	306.62
460.798	306.62
461.018	321.62
461.238	299.62
461.458	322.62
461.678	315.62
461.898	315.62
462.118	315.62
462.338	336.62
462.558	327.62
462.777	349.62
462.997	367.62
463.217	368.62
463.437	374.62
463.657	349.62
463.876	351.62
464.096	340.62
464.316	331.62
464.536	338.62
464.755	349.62
464.975	323.62
465.195	317.62
465.414	300.62
465.634	297.62
465.854	291.62
466.073	296.62
466.293	273.62
466.512	259.62
466.732	281.62
466.951	281.62
467.171	276.62
467.391	281.62
467.61	282.62
467.829	303.62
468.049	316.62
468.268	344.62
468.488	290.62
468.707	280.62
468.927	307.62
469.146	256.62
469.365	279.62
469.585	305.62
469.804	304.62
470.023	272.62
470.243	291.62
470.462	288.62
470.681	300.62
470.901	279.62
471.12	283.62
471.339	282.62
471.558	273.62
471.777	282.62
471.997	306.62
472.216	381.62
472.435	431.62
472.654	329.62
472.873	303.62
473.092	301.62
473.311	300.62
473.53	271.62
473.749	274.62
473.968	275.62
474.187	253.62
474.406	265.62
474.625	277.62
474.844	285.62
475.063	283.62
475.282	257.62
475.501	269.62
475.72	277.62
475.939	271.62
476.158	295.62
476.377	287.62
476.596	272.62
476.814	281.62
477.033	261.62
477.252	282.62
477.471	281.62
477.69	287.62
477.908	303.62
478.127	343.62
478.346	309.62
478.564	295.62
478.783	319.62
479.002	309.62
479.22	327.62
479.439	334.62
479.658	313.62
479.876	311.62
480.095	319.62
480.313	359.62
480.532	351.62
480.751	365.62
480.969	419.62
481.188	535.62
481.406	509.62
481.624	368.62
481.843	323.62
482.061	299.62
482.28	291.62
482.498	318.62
482.717	299.62
482.935	300.62
483.153	304.62
483.372	315.62
483.59	313.62
483.808	325.62
484.027	312.62
484.245	305.62
484.463	305.62
484.681	332.62
484.9	316.62
485.118	316.62
485.336	292.62
485.554	318.62
485.772	300.62
485.99	302.62
486.209	292.62
486.427	309.62
486.645	312.62
486.863	310.62
487.081	294.62
487.299	294.62
487.517	306.62
487.735	325.62
487.953	341.62
488.171	345.62
488.389	327.62
488.607	305.62
488.825	289.62
489.043	289.62
489.261	307.62
489.479	313.62
489.696	325.62
489.914	293.62
490.132	306.62
490.35	309.62
490.568	317.62
490.786	325.62
491.003	342.62
491.221	357.62
491.439	337.62
491.657	336.62
491.874	352.62
492.092	361.62
492.31	399.62
492.527	377.62
492.745	350.62
492.963	368.62
493.18	339.62
493.398	365.62
493.615	351.62
493.833	352.62
494.05	345.62
494.268	345.62
494.485	350.62
494.703	344.62
494.92	347.62
495.138	322.62
495.355	347.62
495.573	365.62
495.79	341.62
496.008	354.62
496.225	359.62
496.442	343.62
496.66	329.62
496.877	355.62
497.094	359.62
497.312	361.62
497.529	346.62
497.746	367.62
497.963	364.62
498.181	391.62
498.398	395.62
498.615	430.62
498.832	423.62
499.049	450.62
499.267	490.62
499.484	520.62
499.701	561.62
499.918	653.62
500.135	668.62
500.352	729.62
500.569	738.62
500.786	738.62
501.003	710.62
501.22	601.62
501.437	585.62
501.654	521.62
501.871	471.62
502.088	455.62
502.305	421.62
502.522	415.62
502.739	419.62
502.956	379.62
503.172	376.62
503.389	363.62
503.606	345.62
