Data from SampB_HRD10591_00015.txt Node
Date: Mon Jan 19 11:33:33 EST 2026
User: Yrep
Spectrometer: HR+D1059
Trigger mode: 0
Integration Time (sec): 3.443000E-1
Scans to average: 1
Electric dark correction enabled: true
Nonlinearity correction enabled: false
Boxcar width: 0
XAxis mode: Wavelengths
Number of Pixels in Spectrum: 2048
>>>>>Begin Spectral Data<<<<<
223.165	-24.69
223.4	-24.69
223.635	-24.69
223.869	-17.69
224.104	-30.69
224.338	-17.69
224.573	-23.69
224.808	-17.69
225.042	15.31
225.277	-10.69
225.511	2.31
225.746	11.31
225.98	10.31
226.215	9.31
226.449	11.31
226.683	17.31
226.918	30.31
227.152	35.31
227.387	54.31
227.621	54.31
227.856	54.31
228.09	36.31
228.324	49.31
228.559	68.31
228.793	77.31
229.027	92.31
229.262	97.31
229.496	62.31
229.73	70.31
229.964	92.31
230.199	89.31
230.433	78.31
230.667	86.31
230.901	87.31
231.136	92.31
231.37	98.31
231.604	90.31
231.838	85.31
232.072	90.31
232.306	93.31
232.541	81.31
232.775	90.31
233.009	101.31
233.243	91.31
233.477	88.31
233.711	89.31
233.945	91.31
234.179	92.31
234.413	112.31
234.647	100.31
234.881	107.31
235.115	103.31
235.349	97.31
235.583	95.31
235.817	91.31
236.051	85.31
236.285	100.31
236.519	100.31
236.753	100.31
236.987	110.31
237.221	105.31
237.455	93.31
237.689	82.31
237.922	99.31
238.156	94.31
238.39	83.31
238.624	89.31
238.858	107.31
239.091	101.31
239.325	79.31
239.559	94.31
239.793	76.31
240.027	99.31
240.26	79.31
240.494	98.31
240.728	83.31
240.961	92.31
241.195	102.31
241.429	91.31
241.662	108.31
241.896	100.31
242.13	90.31
242.363	101.31
242.597	89.31
242.83	101.31
243.064	89.31
243.298	110.31
243.531	82.31
243.765	83.31
243.998	100.31
244.232	117.31
244.465	97.31
244.699	89.31
244.932	99.31
245.166	97.31
245.399	90.31
245.633	100.31
245.866	102.31
246.099	102.31
246.333	116.31
246.566	102.31
246.8	98.31
247.033	107.31
247.266	95.31
247.5	104.31
247.733	109.31
247.966	97.31
248.2	94.31
248.433	94.31
248.666	99.31
248.899	112.31
249.133	105.31
249.366	111.31
249.599	114.31
249.832	111.31
250.066	107.31
250.299	123.31
250.532	121.31
250.765	92.31
250.998	98.31
251.231	92.31
251.465	97.31
251.698	109.31
251.931	103.31
252.164	102.31
252.397	108.31
252.63	117.31
252.863	103.31
253.096	96.31
253.329	118.31
253.562	108.31
253.795	111.31
254.028	116.31
254.261	103.31
254.494	110.31
254.727	117.31
254.96	125.31
255.193	117.31
255.426	122.31
255.659	121.31
255.892	119.31
256.124	115.31
256.357	109.31
256.59	104.31
256.823	109.31
257.056	112.31
257.289	113.31
257.521	109.31
257.754	107.31
257.987	115.31
258.22	124.31
258.452	111.31
258.685	101.31
258.918	112.31
259.151	117.31
259.383	121.31
259.616	125.31
259.849	109.31
260.081	124.31
260.314	116.31
260.547	110.31
260.779	112.31
261.012	115.31
261.244	124.31
261.477	121.31
261.71	116.31
261.942	120.31
262.175	125.31
262.407	115.31
262.64	109.31
262.872	122.31
263.105	134.31
263.337	121.31
263.57	127.31
263.802	131.31
264.035	117.31
264.267	126.31
264.499	124.31
264.732	128.31
264.964	135.31
265.197	119.31
265.429	135.31
265.661	119.31
265.894	121.31
266.126	126.31
266.358	134.31
266.591	141.31
266.823	118.31
267.055	106.31
267.287	119.31
267.52	112.31
267.752	131.31
267.984	127.31
268.216	129.31
268.448	119.31
268.681	126.31
268.913	133.31
269.145	124.31
269.377	123.31
269.609	134.31
269.841	126.31
270.073	129.31
270.306	135.31
270.538	122.31
270.77	125.31
271.002	126.31
271.234	135.31
271.466	127.31
271.698	131.31
271.93	139.31
272.162	129.31
272.394	141.31
272.626	126.31
272.858	115.31
273.09	129.31
273.322	139.31
273.553	122.31
273.785	137.31
274.017	142.31
274.249	131.31
274.481	121.31
274.713	137.31
274.945	141.31
275.176	132.31
275.408	137.31
275.64	141.31
275.872	131.31
276.104	147.31
276.335	132.31
276.567	139.31
276.799	138.31
277.031	124.31
277.262	140.31
277.494	145.31
277.726	148.31
277.957	137.31
278.189	129.31
278.421	147.31
278.652	129.31
278.884	128.31
279.115	154.31
279.347	152.31
279.579	143.31
279.81	165.31
280.042	150.31
280.273	140.31
280.505	133.31
280.736	150.31
280.968	146.31
281.199	150.31
281.431	143.31
281.662	139.31
281.894	130.31
282.125	144.31
282.356	132.31
282.588	139.31
282.819	159.31
283.051	153.31
283.282	147.31
283.513	163.31
283.745	162.31
283.976	144.31
284.207	143.31
284.439	140.31
284.67	148.31
284.901	142.31
285.132	153.31
285.364	145.31
285.595	180.31
285.826	155.31
286.057	158.31
286.288	157.31
286.52	164.31
286.751	162.31
286.982	157.31
287.213	153.31
287.444	165.31
287.675	168.31
287.906	156.31
288.138	147.31
288.369	159.31
288.6	155.31
288.831	154.31
289.062	160.31
289.293	162.31
289.524	166.31
289.755	163.31
289.986	150.31
290.217	163.31
290.448	160.31
290.679	160.31
290.91	165.31
291.141	151.31
291.371	163.31
291.602	153.31
291.833	167.31
292.064	161.31
292.295	158.31
292.526	169.31
292.757	151.31
292.987	160.31
293.218	160.31
293.449	143.31
293.68	173.31
293.91	149.31
294.141	168.31
294.372	158.31
294.603	158.31
294.833	157.31
295.064	161.31
295.295	135.31
295.525	159.31
295.756	170.31
295.987	162.31
296.217	176.31
296.448	160.31
296.679	161.31
296.909	162.31
297.14	174.31
297.37	176.31
297.601	150.31
297.831	157.31
298.062	174.31
298.292	164.31
298.523	186.31
298.753	181.31
298.984	173.31
299.214	166.31
299.445	165.31
299.675	164.31
299.905	165.31
300.136	141.31
300.366	157.31
300.597	171.31
300.827	182.31
301.057	177.31
301.288	155.31
301.518	183.31
301.748	164.31
301.979	203.31
302.209	188.31
302.439	172.31
302.669	166.31
302.9	165.31
303.13	165.31
303.36	185.31
303.59	181.31
303.82	174.31
304.051	164.31
304.281	189.31
304.511	190.31
304.741	161.31
304.971	163.31
305.201	171.31
305.431	176.31
305.661	180.31
305.891	175.31
306.121	164.31
306.352	169.31
306.582	166.31
306.812	182.31
307.042	175.31
307.272	170.31
307.502	185.31
307.731	167.31
307.961	177.31
308.191	164.31
308.421	185.31
308.651	183.31
308.881	162.31
309.111	181.31
309.341	167.31
309.571	166.31
309.8	163.31
310.03	170.31
310.26	172.31
310.49	169.31
310.72	161.31
310.949	171.31
311.179	173.31
311.409	179.31
311.639	180.31
311.868	177.31
312.098	179.31
312.328	190.31
312.557	180.31
312.787	187.31
313.017	192.31
313.246	177.31
313.476	173.31
313.706	183.31
313.935	189.31
314.165	182.31
314.394	186.31
314.624	192.31
314.853	197.31
315.083	193.31
315.312	190.31
315.542	173.31
315.771	191.31
316.001	175.31
316.23	176.31
316.46	171.31
316.689	166.31
316.919	178.31
317.148	189.31
317.377	187.31
317.607	174.31
317.836	190.31
318.065	188.31
318.295	183.31
318.524	179.31
318.753	186.31
318.983	172.31
319.212	192.31
319.441	186.31
319.67	167.31
319.9	183.31
320.129	184.31
320.358	194.31
320.587	179.31
320.816	186.31
321.046	175.31
321.275	199.31
321.504	178.31
321.733	182.31
321.962	183.31
322.191	169.31
322.42	186.31
322.649	191.31
322.878	196.31
323.108	196.31
323.337	193.31
323.566	190.31
323.795	183.31
324.024	185.31
324.253	174.31
324.482	189.31
324.71	193.31
324.939	198.31
325.168	186.31
325.397	196.31
325.626	189.31
325.855	181.31
326.084	200.31
326.313	190.31
326.542	202.31
326.77	194.31
326.999	196.31
327.228	202.31
327.457	193.31
327.686	204.31
327.914	203.31
328.143	194.31
328.372	199.31
328.6	202.31
328.829	180.31
329.058	195.31
329.287	202.31
329.515	196.31
329.744	205.31
329.972	200.31
330.201	212.31
330.43	219.31
330.658	205.31
330.887	219.31
331.115	202.31
331.344	195.31
331.572	219.31
331.801	214.31
332.03	222.31
332.258	225.31
332.486	223.31
332.715	222.31
332.943	227.31
333.172	236.31
333.4	243.31
333.629	252.31
333.857	260.31
334.085	250.31
334.314	246.31
334.542	247.31
334.771	261.31
334.999	243.31
335.227	238.31
335.455	237.31
335.684	230.31
335.912	234.31
336.14	236.31
336.369	233.31
336.597	227.31
336.825	222.31
337.053	203.31
337.281	233.31
337.51	208.31
337.738	223.31
337.966	207.31
338.194	197.31
338.422	219.31
338.65	225.31
338.878	220.31
339.106	196.31
339.334	207.31
339.562	212.31
339.79	199.31
340.018	205.31
340.246	193.31
340.474	192.31
340.702	206.31
340.93	199.31
341.158	208.31
341.386	194.31
341.614	198.31
341.842	198.31
342.07	196.31
342.298	201.31
342.526	193.31
342.754	199.31
342.981	210.31
343.209	205.31
343.437	241.31
343.665	234.31
343.893	238.31
344.12	238.31
344.348	212.31
344.576	211.31
344.804	202.31
345.031	204.31
345.259	213.31
345.487	192.31
345.714	208.31
345.942	189.31
346.17	199.31
346.397	180.31
346.625	195.31
346.853	201.31
347.08	186.31
347.308	193.31
347.535	190.31
347.763	191.31
347.99	212.31
348.218	205.31
348.445	208.31
348.673	191.31
348.9	196.31
349.128	209.31
349.355	196.31
349.583	185.31
349.81	189.31
350.037	187.31
350.265	204.31
350.492	199.31
350.72	198.31
350.947	207.31
351.174	211.31
351.402	192.31
351.629	209.31
351.856	185.31
352.083	184.31
352.311	192.31
352.538	190.31
352.765	211.31
352.992	186.31
353.22	203.31
353.447	192.31
353.674	192.31
353.901	208.31
354.128	197.31
354.355	197.31
354.583	180.31
354.81	207.31
355.037	201.31
355.264	209.31
355.491	207.31
355.718	197.31
355.945	194.31
356.172	203.31
356.399	221.31
356.626	196.31
356.853	188.31
357.08	199.31
357.307	196.31
357.534	182.31
357.761	193.31
357.988	213.31
358.215	195.31
358.441	182.31
358.668	195.31
358.895	191.31
359.122	185.31
359.349	190.31
359.576	180.31
359.802	189.31
360.029	188.31
360.256	204.31
360.483	196.31
360.709	199.31
360.936	213.31
361.163	219.31
361.39	188.31
361.616	200.31
361.843	203.31
362.07	208.31
362.296	209.31
362.523	208.31
362.749	196.31
362.976	193.31
363.203	215.31
363.429	187.31
363.656	182.31
363.882	191.31
364.109	193.31
364.335	202.31
364.562	197.31
364.788	182.31
365.015	206.31
365.241	193.31
365.468	201.31
365.694	195.31
365.92	206.31
366.147	197.31
366.373	193.31
366.599	190.31
366.826	190.31
367.052	198.31
367.278	192.31
367.505	202.31
367.731	215.31
367.957	212.31
368.184	204.31
368.41	215.31
368.636	194.31
368.862	182.31
369.089	197.31
369.315	190.31
369.541	211.31
369.767	187.31
369.993	211.31
370.219	201.31
370.445	195.31
370.672	195.31
370.898	192.31
371.124	190.31
371.35	205.31
371.576	203.31
371.802	195.31
372.028	205.31
372.254	230.31
372.48	222.31
372.706	207.31
372.932	212.31
373.158	204.31
373.384	215.31
373.61	222.31
373.835	213.31
374.061	197.31
374.287	205.31
374.513	213.31
374.739	207.31
374.965	226.31
375.191	223.31
375.416	216.31
375.642	207.31
375.868	226.31
376.094	229.31
376.319	211.31
376.545	226.31
376.771	223.31
376.997	190.31
377.222	205.31
377.448	214.31
377.674	211.31
377.899	213.31
378.125	196.31
378.35	209.31
378.576	187.31
378.802	196.31
379.027	217.31
379.253	202.31
379.478	190.31
379.704	219.31
379.929	230.31
380.155	196.31
380.38	205.31
380.606	222.31
380.831	203.31
381.057	223.31
381.282	207.31
381.507	214.31
381.733	223.31
381.958	206.31
382.184	217.31
382.409	217.31
382.634	219.31
382.86	218.31
383.085	218.31
383.31	221.31
383.535	235.31
383.761	230.31
383.986	242.31
384.211	225.31
384.436	239.31
384.662	225.31
384.887	238.31
385.112	229.31
385.337	219.31
385.562	246.31
385.787	228.31
386.013	247.31
386.238	244.31
386.463	228.31
386.688	258.31
386.913	219.31
387.138	244.31
387.363	249.31
387.588	251.31
387.813	237.31
388.038	247.31
388.263	251.31
388.488	243.31
388.713	246.31
388.938	245.31
389.163	248.31
389.387	209.31
389.612	237.31
389.837	236.31
390.062	247.31
390.287	235.31
390.512	241.31
390.736	234.31
390.961	245.31
391.186	238.31
391.411	243.31
391.636	252.31
391.86	248.31
392.085	250.31
392.31	270.31
392.534	246.31
392.759	267.31
392.984	274.31
393.208	303.31
393.433	321.31
393.658	301.31
393.882	283.31
394.107	254.31
394.331	275.31
394.556	250.31
394.78	266.31
395.005	262.31
395.229	272.31
395.454	259.31
395.678	276.31
395.903	261.31
396.127	270.31
396.352	257.31
396.576	281.31
396.801	301.31
397.025	301.31
397.249	292.31
397.474	276.31
397.698	266.31
397.922	269.31
398.147	275.31
398.371	259.31
398.595	289.31
398.82	282.31
399.044	305.31
399.268	345.31
399.492	407.31
399.717	386.31
399.941	365.31
400.165	337.31
400.389	338.31
400.613	284.31
400.837	277.31
401.062	282.31
401.286	281.31
401.51	287.31
401.734	283.31
401.958	277.31
402.182	305.31
402.406	293.31
402.63	293.31
402.854	314.31
403.078	298.31
403.302	321.31
403.526	321.31
403.75	337.31
403.974	326.31
404.198	325.31
404.422	341.31
404.645	332.31
404.869	337.31
405.093	335.31
405.317	303.31
405.541	308.31
405.765	311.31
405.988	292.31
406.212	306.31
406.436	314.31
406.66	339.31
406.883	298.31
407.107	336.31
407.331	349.31
407.555	342.31
407.778	348.31
408.002	338.31
408.226	325.31
408.449	343.31
408.673	307.31
408.896	309.31
409.12	320.31
409.344	331.31
409.567	316.31
409.791	305.31
410.014	303.31
410.238	317.31
410.461	322.31
410.685	305.31
410.908	309.31
411.132	317.31
411.355	278.31
411.578	297.31
411.802	305.31
412.025	289.31
412.249	287.31
412.472	295.31
412.695	281.31
412.919	286.31
413.142	301.31
413.365	283.31
413.589	284.31
413.812	291.31
414.035	282.31
414.258	298.31
414.482	299.31
414.705	293.31
414.928	305.31
415.151	301.31
415.374	290.31
415.597	283.31
415.821	309.31
416.044	300.31
416.267	294.31
416.49	292.31
416.713	309.31
416.936	275.31
417.159	285.31
417.382	271.31
417.605	287.31
417.828	290.31
418.051	285.31
418.274	299.31
418.497	295.31
418.72	291.31
418.943	294.31
419.166	313.31
419.389	318.31
419.611	315.31
419.834	302.31
420.057	326.31
420.28	281.31
420.503	288.31
420.726	267.31
420.948	283.31
421.171	281.31
421.394	285.31
421.617	289.31
421.839	292.31
422.062	291.31
422.285	302.31
422.507	296.31
422.73	309.31
422.953	323.31
423.175	278.31
423.398	286.31
423.621	301.31
423.843	297.31
424.066	315.31
424.288	288.31
424.511	296.31
424.733	287.31
424.956	304.31
425.178	284.31
425.401	291.31
425.623	287.31
425.846	270.31
426.068	290.31
426.291	268.31
426.513	281.31
426.735	295.31
426.958	277.31
427.18	281.31
427.402	288.31
427.625	261.31
427.847	262.31
428.069	269.31
428.292	283.31
428.514	268.31
428.736	253.31
428.958	256.31
429.181	279.31
429.403	262.31
429.625	267.31
429.847	260.31
430.069	263.31
430.292	267.31
430.514	274.31
430.736	258.31
430.958	265.31
431.18	273.31
431.402	262.31
431.624	247.31
431.846	260.31
432.068	252.31
432.29	256.31
432.512	275.31
432.734	267.31
432.956	263.31
433.178	279.31
433.4	267.31
433.622	274.31
433.844	281.31
434.066	258.31
434.287	260.31
434.509	268.31
434.731	273.31
434.953	273.31
435.175	277.31
435.397	284.31
435.618	274.31
435.84	274.31
436.062	259.31
436.284	281.31
436.505	278.31
436.727	251.31
436.949	265.31
437.17	270.31
437.392	248.31
437.614	248.31
437.835	253.31
438.057	245.31
438.278	263.31
438.5	241.31
438.721	254.31
438.943	264.31
439.165	257.31
439.386	264.31
439.608	273.31
439.829	273.31
440.05	274.31
440.272	274.31
440.493	275.31
440.715	276.31
440.936	287.31
441.158	274.31
441.379	291.31
441.6	293.31
441.822	303.31
442.043	290.31
442.264	269.31
442.486	275.31
442.707	298.31
442.928	295.31
443.149	291.31
443.371	294.31
443.592	296.31
443.813	290.31
444.034	295.31
444.255	300.31
444.476	311.31
444.698	325.31
444.919	320.31
445.14	493.31
445.361	409.31
445.582	296.31
445.803	281.31
446.024	288.31
446.245	296.31
446.466	271.31
446.687	274.31
446.908	265.31
447.129	265.31
447.35	292.31
447.571	265.31
447.792	262.31
448.013	251.31
448.234	256.31
448.455	252.31
448.675	250.31
448.896	253.31
449.117	256.31
449.338	266.31
449.559	236.31
449.779	245.31
450	242.31
450.221	244.31
450.442	235.31
450.662	257.31
450.883	246.31
451.104	251.31
451.324	241.31
451.545	235.31
451.766	248.31
451.986	253.31
452.207	257.31
452.428	245.31
452.648	258.31
452.869	247.31
453.089	231.31
453.31	249.31
453.53	234.31
453.751	252.31
453.971	224.31
454.192	247.31
454.412	226.31
454.633	243.31
454.853	242.31
455.073	231.31
455.294	241.31
455.514	235.31
455.734	236.31
455.955	231.31
456.175	227.31
456.395	221.31
456.616	218.31
456.836	221.31
457.056	236.31
457.276	228.31
457.497	235.31
457.717	228.31
457.937	225.31
458.157	212.31
458.377	239.31
458.598	246.31
458.818	245.31
459.038	238.31
459.258	240.31
459.478	249.31
459.698	242.31
459.918	268.31
460.138	281.31
460.358	298.31
460.578	295.31
460.798	278.31
461.018	283.31
461.238	288.31
461.458	293.31
461.678	285.31
461.898	292.31
462.118	295.31
462.338	300.31
462.558	324.31
462.777	320.31
462.997	362.31
463.217	373.31
463.437	361.31
463.657	330.31
463.876	308.31
464.096	305.31
464.316	319.31
464.536	330.31
464.755	313.31
464.975	294.31
465.195	287.31
465.414	277.31
465.634	278.31
465.854	271.31
466.073	270.31
466.293	253.31
466.512	265.31
466.732	250.31
466.951	269.31
467.171	239.31
467.391	258.31
467.61	256.31
467.829	251.31
468.049	274.31
468.268	259.31
468.488	250.31
468.707	256.31
468.927	245.31
469.146	247.31
469.365	230.31
469.585	262.31
469.804	244.31
470.023	269.31
470.243	249.31
470.462	260.31
470.681	271.31
470.901	244.31
471.12	259.31
471.339	272.31
471.558	241.31
471.777	250.31
471.997	249.31
472.216	255.31
472.435	273.31
472.654	254.31
472.873	240.31
473.092	246.31
473.311	252.31
473.53	226.31
473.749	246.31
473.968	240.31
474.187	242.31
474.406	224.31
474.625	255.31
474.844	250.31
475.063	245.31
475.282	266.31
475.501	249.31
475.72	258.31
475.939	249.31
476.158	242.31
476.377	246.31
476.596	256.31
476.814	254.31
477.033	240.31
477.252	256.31
477.471	256.31
477.69	255.31
477.908	260.31
478.127	280.31
478.346	285.31
478.564	287.31
478.783	277.31
479.002	295.31
479.22	292.31
479.439	281.31
479.658	283.31
479.876	275.31
480.095	277.31
480.313	292.31
480.532	295.31
480.751	288.31
480.969	284.31
481.188	303.31
481.406	293.31
481.624	279.31
481.843	274.31
482.061	277.31
482.28	266.31
482.498	284.31
482.717	244.31
482.935	250.31
483.153	275.31
483.372	273.31
483.59	273.31
483.808	275.31
484.027	272.31
484.245	272.31
484.463	278.31
484.681	290.31
484.9	270.31
485.118	278.31
485.336	258.31
485.554	279.31
485.772	283.31
485.99	276.31
486.209	260.31
486.427	269.31
486.645	277.31
486.863	278.31
487.081	280.31
487.299	276.31
487.517	281.31
487.735	277.31
487.953	288.31
488.171	292.31
488.389	289.31
488.607	286.31
488.825	256.31
489.043	262.31
489.261	276.31
489.479	261.31
489.696	277.31
489.914	289.31
490.132	265.31
490.35	294.31
490.568	270.31
490.786	277.31
491.003	299.31
491.221	325.31
491.439	296.31
491.657	284.31
491.874	315.31
492.092	294.31
492.31	297.31
492.527	297.31
492.745	296.31
492.963	294.31
493.18	309.31
493.398	294.31
493.615	303.31
493.833	301.31
494.05	291.31
494.268	291.31
494.485	298.31
494.703	296.31
494.92	288.31
495.138	285.31
495.355	312.31
495.573	290.31
495.79	293.31
496.008	322.31
496.225	315.31
496.442	326.31
496.66	327.31
496.877	324.31
497.094	337.31
497.312	325.31
497.529	317.31
497.746	331.31
497.963	338.31
498.181	315.31
498.398	365.31
498.615	339.31
498.832	367.31
499.049	429.31
499.267	457.31
499.484	461.31
499.701	523.31
499.918	564.31
500.135	634.31
500.352	693.31
500.569	669.31
500.786	682.31
501.003	622.31
501.22	575.31
501.437	504.31
501.654	457.31
501.871	416.31
502.088	399.31
502.305	391.31
502.522	374.31
502.739	396.31
502.956	345.31
503.172	333.31
503.389	318.31
503.606	306.31
