Data from SampB_HRD10591_00083.txt Node
Date: Mon Jan 19 11:33:56 EST 2026
User: Yrep
Spectrometer: HR+D1059
Trigger mode: 0
Integration Time (sec): 3.443000E-1
Scans to average: 1
Electric dark correction enabled: true
Nonlinearity correction enabled: false
Boxcar width: 0
XAxis mode: Wavelengths
Number of Pixels in Spectrum: 2048
>>>>>Begin Spectral Data<<<<<
223.165	-19.38
223.4	-19.38
223.635	-19.38
223.869	-20.38
224.104	-16.38
224.338	-16.38
224.573	-18.38
224.808	-8.38
225.042	-22.38
225.277	-5.38
225.511	12.62
225.746	-1.38
225.98	9.62
226.215	10.62
226.449	19.62
226.683	37.62
226.918	13.62
227.152	24.62
227.387	44.62
227.621	51.62
227.856	34.62
228.09	48.62
228.324	60.62
228.559	64.62
228.793	51.62
229.027	69.62
229.262	64.62
229.496	69.62
229.73	83.62
229.964	72.62
230.199	82.62
230.433	67.62
230.667	72.62
230.901	76.62
231.136	92.62
231.37	98.62
231.604	86.62
231.838	88.62
232.072	84.62
232.306	83.62
232.541	101.62
232.775	106.62
233.009	88.62
233.243	72.62
233.477	102.62
233.711	73.62
233.945	74.62
234.179	87.62
234.413	88.62
234.647	96.62
234.881	96.62
235.115	89.62
235.349	81.62
235.583	102.62
235.817	79.62
236.051	86.62
236.285	103.62
236.519	96.62
236.753	93.62
236.987	83.62
237.221	68.62
237.455	92.62
237.689	78.62
237.922	79.62
238.156	95.62
238.39	80.62
238.624	92.62
238.858	89.62
239.091	78.62
239.325	87.62
239.559	86.62
239.793	99.62
240.027	84.62
240.26	91.62
240.494	98.62
240.728	78.62
240.961	78.62
241.195	87.62
241.429	77.62
241.662	91.62
241.896	80.62
242.13	92.62
242.363	76.62
242.597	77.62
242.83	95.62
243.064	99.62
243.298	94.62
243.531	96.62
243.765	98.62
243.998	93.62
244.232	101.62
244.465	84.62
244.699	77.62
244.932	106.62
245.166	96.62
245.399	90.62
245.633	87.62
245.866	89.62
246.099	88.62
246.333	93.62
246.566	89.62
246.8	81.62
247.033	92.62
247.266	97.62
247.5	94.62
247.733	95.62
247.966	108.62
248.2	97.62
248.433	92.62
248.666	115.62
248.899	92.62
249.133	97.62
249.366	99.62
249.599	98.62
249.832	90.62
250.066	110.62
250.299	94.62
250.532	104.62
250.765	81.62
250.998	91.62
251.231	98.62
251.465	87.62
251.698	106.62
251.931	102.62
252.164	94.62
252.397	100.62
252.63	92.62
252.863	100.62
253.096	112.62
253.329	109.62
253.562	108.62
253.795	106.62
254.028	107.62
254.261	98.62
254.494	99.62
254.727	108.62
254.96	111.62
255.193	100.62
255.426	110.62
255.659	90.62
255.892	116.62
256.124	105.62
256.357	115.62
256.59	114.62
256.823	109.62
257.056	108.62
257.289	109.62
257.521	98.62
257.754	102.62
257.987	100.62
258.22	129.62
258.452	115.62
258.685	117.62
258.918	113.62
259.151	92.62
259.383	124.62
259.616	107.62
259.849	90.62
260.081	127.62
260.314	113.62
260.547	125.62
260.779	112.62
261.012	108.62
261.244	97.62
261.477	128.62
261.71	109.62
261.942	101.62
262.175	108.62
262.407	110.62
262.64	98.62
262.872	105.62
263.105	118.62
263.337	117.62
263.57	101.62
263.802	111.62
264.035	103.62
264.267	102.62
264.499	101.62
264.732	112.62
264.964	97.62
265.197	100.62
265.429	117.62
265.661	101.62
265.894	113.62
266.126	124.62
266.358	100.62
266.591	105.62
266.823	103.62
267.055	119.62
267.287	120.62
267.52	108.62
267.752	111.62
267.984	112.62
268.216	109.62
268.448	111.62
268.681	109.62
268.913	108.62
269.145	111.62
269.377	120.62
269.609	98.62
269.841	109.62
270.073	102.62
270.306	106.62
270.538	96.62
270.77	103.62
271.002	106.62
271.234	117.62
271.466	120.62
271.698	97.62
271.93	107.62
272.162	113.62
272.394	123.62
272.626	108.62
272.858	133.62
273.09	113.62
273.322	123.62
273.553	109.62
273.785	119.62
274.017	124.62
274.249	132.62
274.481	120.62
274.713	121.62
274.945	150.62
275.176	122.62
275.408	134.62
275.64	126.62
275.872	129.62
276.104	125.62
276.335	113.62
276.567	120.62
276.799	123.62
277.031	140.62
277.262	107.62
277.494	125.62
277.726	118.62
277.957	115.62
278.189	113.62
278.421	121.62
278.652	112.62
278.884	119.62
279.115	123.62
279.347	138.62
279.579	133.62
279.81	119.62
280.042	119.62
280.273	105.62
280.505	117.62
280.736	126.62
280.968	109.62
281.199	116.62
281.431	112.62
281.662	113.62
281.894	121.62
282.125	128.62
282.356	118.62
282.588	113.62
282.819	120.62
283.051	113.62
283.282	113.62
283.513	129.62
283.745	120.62
283.976	119.62
284.207	111.62
284.439	115.62
284.67	143.62
284.901	112.62
285.132	109.62
285.364	120.62
285.595	119.62
285.826	132.62
286.057	132.62
286.288	134.62
286.52	126.62
286.751	128.62
286.982	126.62
287.213	126.62
287.444	132.62
287.675	124.62
287.906	128.62
288.138	125.62
288.369	113.62
288.6	122.62
288.831	123.62
289.062	130.62
289.293	123.62
289.524	122.62
289.755	123.62
289.986	120.62
290.217	118.62
290.448	129.62
290.679	132.62
290.91	136.62
291.141	126.62
291.371	119.62
291.602	127.62
291.833	133.62
292.064	127.62
292.295	123.62
292.526	133.62
292.757	117.62
292.987	138.62
293.218	119.62
293.449	127.62
293.68	124.62
293.91	120.62
294.141	133.62
294.372	124.62
294.603	123.62
294.833	130.62
295.064	134.62
295.295	128.62
295.525	137.62
295.756	124.62
295.987	138.62
296.217	118.62
296.448	124.62
296.679	141.62
296.909	136.62
297.14	140.62
297.37	137.62
297.601	128.62
297.831	121.62
298.062	131.62
298.292	135.62
298.523	124.62
298.753	126.62
298.984	123.62
299.214	121.62
299.445	128.62
299.675	128.62
299.905	131.62
300.136	133.62
300.366	137.62
300.597	130.62
300.827	152.62
301.057	143.62
301.288	133.62
301.518	146.62
301.748	140.62
301.979	163.62
302.209	146.62
302.439	133.62
302.669	127.62
302.9	121.62
303.13	141.62
303.36	130.62
303.59	147.62
303.82	143.62
304.051	149.62
304.281	156.62
304.511	143.62
304.741	131.62
304.971	127.62
305.201	147.62
305.431	140.62
305.661	133.62
305.891	142.62
306.121	127.62
306.352	127.62
306.582	140.62
306.812	118.62
307.042	129.62
307.272	135.62
307.502	142.62
307.731	137.62
307.961	138.62
308.191	150.62
308.421	127.62
308.651	146.62
308.881	140.62
309.111	121.62
309.341	127.62
309.571	121.62
309.8	144.62
310.03	121.62
310.26	139.62
310.49	123.62
310.72	126.62
310.949	127.62
311.179	133.62
311.409	140.62
311.639	132.62
311.868	133.62
312.098	138.62
312.328	149.62
312.557	148.62
312.787	145.62
313.017	134.62
313.246	149.62
313.476	156.62
313.706	139.62
313.935	136.62
314.165	129.62
314.394	132.62
314.624	134.62
314.853	133.62
315.083	135.62
315.312	141.62
315.542	147.62
315.771	129.62
316.001	139.62
316.23	159.62
316.46	120.62
316.689	113.62
316.919	144.62
317.148	137.62
317.377	144.62
317.607	137.62
317.836	133.62
318.065	154.62
318.295	128.62
318.524	143.62
318.753	146.62
318.983	150.62
319.212	140.62
319.441	143.62
319.67	150.62
319.9	139.62
320.129	133.62
320.358	138.62
320.587	161.62
320.816	144.62
321.046	166.62
321.275	133.62
321.504	117.62
321.733	140.62
321.962	129.62
322.191	132.62
322.42	136.62
322.649	144.62
322.878	122.62
323.108	142.62
323.337	145.62
323.566	156.62
323.795	147.62
324.024	144.62
324.253	151.62
324.482	143.62
324.71	142.62
324.939	160.62
325.168	153.62
325.397	134.62
325.626	137.62
325.855	131.62
326.084	125.62
326.313	155.62
326.542	155.62
326.77	145.62
326.999	138.62
327.228	166.62
327.457	138.62
327.686	155.62
327.914	159.62
328.143	170.62
328.372	170.62
328.6	166.62
328.829	164.62
329.058	161.62
329.287	163.62
329.515	144.62
329.744	156.62
329.972	173.62
330.201	187.62
330.43	207.62
330.658	166.62
330.887	161.62
331.115	175.62
331.344	144.62
331.572	150.62
331.801	169.62
332.03	155.62
332.258	161.62
332.486	159.62
332.715	147.62
332.943	185.62
333.172	181.62
333.4	174.62
333.629	178.62
333.857	175.62
334.085	188.62
334.314	214.62
334.542	226.62
334.771	223.62
334.999	188.62
335.227	179.62
335.455	167.62
335.684	180.62
335.912	176.62
336.14	147.62
336.369	163.62
336.597	148.62
336.825	145.62
337.053	160.62
337.281	153.62
337.51	153.62
337.738	156.62
337.966	162.62
338.194	157.62
338.422	154.62
338.65	162.62
338.878	146.62
339.106	148.62
339.334	158.62
339.562	163.62
339.79	135.62
340.018	131.62
340.246	141.62
340.474	152.62
340.702	152.62
340.93	137.62
341.158	145.62
341.386	159.62
341.614	140.62
341.842	141.62
342.07	138.62
342.298	158.62
342.526	155.62
342.754	148.62
342.981	138.62
343.209	131.62
343.437	165.62
343.665	162.62
343.893	159.62
344.12	180.62
344.348	148.62
344.576	165.62
344.804	164.62
345.031	146.62
345.259	143.62
345.487	154.62
345.714	154.62
345.942	129.62
346.17	149.62
346.397	140.62
346.625	150.62
346.853	166.62
347.08	127.62
347.308	143.62
347.535	152.62
347.763	147.62
347.99	154.62
348.218	127.62
348.445	146.62
348.673	150.62
348.9	156.62
349.128	166.62
349.355	156.62
349.583	130.62
349.81	148.62
350.037	156.62
350.265	130.62
350.492	142.62
350.72	140.62
350.947	157.62
351.174	138.62
351.402	143.62
351.629	145.62
351.856	142.62
352.083	145.62
352.311	150.62
352.538	140.62
352.765	150.62
352.992	149.62
353.22	156.62
353.447	144.62
353.674	157.62
353.901	165.62
354.128	129.62
354.355	146.62
354.583	160.62
354.81	153.62
355.037	145.62
355.264	163.62
355.491	157.62
355.718	142.62
355.945	151.62
356.172	153.62
356.399	163.62
356.626	154.62
356.853	159.62
357.08	158.62
357.307	155.62
357.534	131.62
357.761	142.62
357.988	163.62
358.215	155.62
358.441	153.62
358.668	146.62
358.895	131.62
359.122	157.62
359.349	154.62
359.576	163.62
359.802	139.62
360.029	137.62
360.256	148.62
360.483	141.62
360.709	147.62
360.936	153.62
361.163	147.62
361.39	160.62
361.616	145.62
361.843	139.62
362.07	154.62
362.296	147.62
362.523	141.62
362.749	153.62
362.976	145.62
363.203	179.62
363.429	145.62
363.656	170.62
363.882	150.62
364.109	163.62
364.335	137.62
364.562	152.62
364.788	137.62
365.015	150.62
365.241	154.62
365.468	152.62
365.694	152.62
365.92	152.62
366.147	141.62
366.373	141.62
366.599	136.62
366.826	130.62
367.052	148.62
367.278	159.62
367.505	147.62
367.731	153.62
367.957	147.62
368.184	164.62
368.41	153.62
368.636	156.62
368.862	139.62
369.089	142.62
369.315	160.62
369.541	142.62
369.767	146.62
369.993	145.62
370.219	150.62
370.445	158.62
370.672	158.62
370.898	138.62
371.124	148.62
371.35	152.62
371.576	173.62
371.802	164.62
372.028	161.62
372.254	173.62
372.48	161.62
372.706	142.62
372.932	158.62
373.158	177.62
373.384	168.62
373.61	187.62
373.835	180.62
374.061	161.62
374.287	163.62
374.513	174.62
374.739	181.62
374.965	200.62
375.191	166.62
375.416	155.62
375.642	185.62
375.868	180.62
376.094	172.62
376.319	161.62
376.545	157.62
376.771	146.62
376.997	151.62
377.222	137.62
377.448	162.62
377.674	146.62
377.899	156.62
378.125	150.62
378.35	158.62
378.576	174.62
378.802	149.62
379.027	162.62
379.253	152.62
379.478	146.62
379.704	161.62
379.929	157.62
380.155	148.62
380.38	157.62
380.606	162.62
380.831	166.62
381.057	164.62
381.282	153.62
381.507	162.62
381.733	181.62
381.958	169.62
382.184	167.62
382.409	163.62
382.634	190.62
382.86	184.62
383.085	173.62
383.31	172.62
383.535	185.62
383.761	166.62
383.986	158.62
384.211	170.62
384.436	177.62
384.662	163.62
384.887	183.62
385.112	159.62
385.337	177.62
385.562	173.62
385.787	185.62
386.013	188.62
386.238	178.62
386.463	178.62
386.688	217.62
386.913	181.62
387.138	172.62
387.363	173.62
387.588	191.62
387.813	177.62
388.038	194.62
388.263	190.62
388.488	169.62
388.713	176.62
388.938	185.62
389.163	166.62
389.387	182.62
389.612	159.62
389.837	179.62
390.062	182.62
390.287	183.62
390.512	170.62
390.736	173.62
390.961	164.62
391.186	163.62
391.411	184.62
391.636	183.62
391.86	196.62
392.085	178.62
392.31	181.62
392.534	181.62
392.759	196.62
392.984	186.62
393.208	198.62
393.433	197.62
393.658	206.62
393.882	183.62
394.107	192.62
394.331	202.62
394.556	181.62
394.78	178.62
395.005	193.62
395.229	190.62
395.454	204.62
395.678	182.62
395.903	205.62
396.127	190.62
396.352	196.62
396.576	203.62
396.801	202.62
397.025	198.62
397.249	206.62
397.474	209.62
397.698	210.62
397.922	196.62
398.147	194.62
398.371	204.62
398.595	202.62
398.82	235.62
399.044	228.62
399.268	216.62
399.492	267.62
399.717	278.62
399.941	273.62
400.165	248.62
400.389	221.62
400.613	209.62
400.837	210.62
401.062	204.62
401.286	200.62
401.51	200.62
401.734	222.62
401.958	214.62
402.182	207.62
402.406	211.62
402.63	212.62
402.854	216.62
403.078	207.62
403.302	213.62
403.526	225.62
403.75	229.62
403.974	238.62
404.198	234.62
404.422	215.62
404.645	233.62
404.869	236.62
405.093	241.62
405.317	230.62
405.541	222.62
405.765	207.62
405.988	221.62
406.212	243.62
406.436	221.62
406.66	246.62
406.883	233.62
407.107	243.62
407.331	237.62
407.555	247.62
407.778	244.62
408.002	236.62
408.226	237.62
408.449	226.62
408.673	224.62
408.896	212.62
409.12	219.62
409.344	244.62
409.567	220.62
409.791	230.62
410.014	229.62
410.238	213.62
410.461	224.62
410.685	221.62
410.908	213.62
411.132	230.62
411.355	225.62
411.578	218.62
411.802	216.62
412.025	223.62
412.249	212.62
412.472	222.62
412.695	214.62
412.919	219.62
413.142	226.62
413.365	234.62
413.589	217.62
413.812	224.62
414.035	213.62
414.258	210.62
414.482	212.62
414.705	210.62
414.928	204.62
415.151	206.62
415.374	215.62
415.597	194.62
415.821	224.62
416.044	213.62
416.267	206.62
416.49	202.62
416.713	211.62
416.936	204.62
417.159	223.62
417.382	222.62
417.605	213.62
417.828	224.62
418.051	208.62
418.274	201.62
418.497	219.62
418.72	210.62
418.943	227.62
419.166	214.62
419.389	257.62
419.611	219.62
419.834	222.62
420.057	238.62
420.28	218.62
420.503	220.62
420.726	205.62
420.948	224.62
421.171	213.62
421.394	216.62
421.617	208.62
421.839	197.62
422.062	202.62
422.285	202.62
422.507	231.62
422.73	223.62
422.953	222.62
423.175	218.62
423.398	226.62
423.621	228.62
423.843	226.62
424.066	233.62
424.288	230.62
424.511	223.62
424.733	239.62
424.956	218.62
425.178	221.62
425.401	215.62
425.623	207.62
425.846	200.62
426.068	207.62
426.291	214.62
426.513	198.62
426.735	219.62
426.958	231.62
427.18	221.62
427.402	220.62
427.625	211.62
427.847	194.62
428.069	214.62
428.292	198.62
428.514	197.62
428.736	202.62
428.958	189.62
429.181	192.62
429.403	193.62
429.625	204.62
429.847	186.62
430.069	193.62
430.292	201.62
430.514	203.62
430.736	209.62
430.958	202.62
431.18	185.62
431.402	193.62
431.624	192.62
431.846	183.62
432.068	197.62
432.29	181.62
432.512	205.62
432.734	193.62
432.956	201.62
433.178	200.62
433.4	191.62
433.622	197.62
433.844	188.62
434.066	209.62
434.287	192.62
434.509	183.62
434.731	209.62
434.953	200.62
435.175	217.62
435.397	212.62
435.618	195.62
435.84	195.62
436.062	197.62
436.284	204.62
436.505	210.62
436.727	187.62
436.949	206.62
437.17	193.62
437.392	186.62
437.614	196.62
437.835	193.62
438.057	185.62
438.278	195.62
438.5	210.62
438.721	212.62
438.943	219.62
439.165	191.62
439.386	198.62
439.608	196.62
439.829	179.62
440.05	194.62
440.272	204.62
440.493	221.62
440.715	226.62
440.936	193.62
441.158	200.62
441.379	202.62
441.6	213.62
441.822	218.62
442.043	212.62
442.264	200.62
442.486	193.62
442.707	205.62
442.928	229.62
443.149	213.62
443.371	223.62
443.592	211.62
443.813	220.62
444.034	218.62
444.255	224.62
444.476	225.62
444.698	250.62
444.919	230.62
445.14	406.62
445.361	289.62
445.582	213.62
445.803	204.62
446.024	205.62
446.245	243.62
446.466	188.62
446.687	185.62
446.908	212.62
447.129	228.62
447.35	201.62
447.571	199.62
447.792	203.62
448.013	208.62
448.234	196.62
448.455	197.62
448.675	201.62
448.896	186.62
449.117	192.62
449.338	178.62
449.559	193.62
449.779	189.62
450	173.62
450.221	186.62
450.442	177.62
450.662	162.62
450.883	202.62
451.104	203.62
451.324	191.62
451.545	209.62
451.766	198.62
451.986	193.62
452.207	183.62
452.428	204.62
452.648	189.62
452.869	157.62
453.089	180.62
453.31	194.62
453.53	186.62
453.751	195.62
453.971	164.62
454.192	172.62
454.412	180.62
454.633	177.62
454.853	180.62
455.073	175.62
455.294	181.62
455.514	178.62
455.734	176.62
455.955	184.62
456.175	162.62
456.395	189.62
456.616	176.62
456.836	179.62
457.056	177.62
457.276	179.62
457.497	163.62
457.717	178.62
457.937	165.62
458.157	181.62
458.377	157.62
458.598	184.62
458.818	176.62
459.038	173.62
459.258	181.62
459.478	186.62
459.698	177.62
459.918	194.62
460.138	200.62
460.358	233.62
460.578	218.62
460.798	221.62
461.018	202.62
461.238	198.62
461.458	225.62
461.678	193.62
461.898	218.62
462.118	211.62
462.338	222.62
462.558	213.62
462.777	242.62
462.997	248.62
463.217	263.62
463.437	250.62
463.657	224.62
463.876	229.62
464.096	225.62
464.316	222.62
464.536	233.62
464.755	223.62
464.975	216.62
465.195	227.62
465.414	205.62
465.634	201.62
465.854	203.62
466.073	198.62
466.293	200.62
466.512	182.62
466.732	187.62
466.951	196.62
467.171	189.62
467.391	200.62
467.61	184.62
467.829	193.62
468.049	207.62
468.268	197.62
468.488	187.62
468.707	189.62
468.927	191.62
469.146	205.62
469.365	199.62
469.585	189.62
469.804	208.62
470.023	201.62
470.243	197.62
470.462	213.62
470.681	198.62
470.901	204.62
471.12	209.62
471.339	202.62
471.558	196.62
471.777	184.62
471.997	205.62
472.216	218.62
472.435	269.62
472.654	217.62
472.873	208.62
473.092	194.62
473.311	186.62
473.53	173.62
473.749	177.62
473.968	194.62
474.187	185.62
474.406	176.62
474.625	187.62
474.844	188.62
475.063	176.62
475.282	201.62
475.501	190.62
475.72	224.62
475.939	204.62
476.158	191.62
476.377	200.62
476.596	199.62
476.814	179.62
477.033	204.62
477.252	193.62
477.471	205.62
477.69	206.62
477.908	209.62
478.127	226.62
478.346	200.62
478.564	202.62
478.783	204.62
479.002	221.62
479.22	213.62
479.439	206.62
479.658	218.62
479.876	204.62
480.095	225.62
480.313	227.62
480.532	248.62
480.751	247.62
480.969	248.62
481.188	331.62
481.406	284.62
481.624	227.62
481.843	211.62
482.061	205.62
482.28	208.62
482.498	202.62
482.717	202.62
482.935	203.62
483.153	214.62
483.372	223.62
483.59	210.62
483.808	226.62
484.027	204.62
484.245	201.62
484.463	206.62
484.681	237.62
484.9	217.62
485.118	219.62
485.336	199.62
485.554	213.62
485.772	217.62
485.99	185.62
486.209	204.62
486.427	196.62
486.645	212.62
486.863	229.62
487.081	225.62
487.299	200.62
487.517	225.62
487.735	218.62
487.953	225.62
488.171	224.62
488.389	211.62
488.607	218.62
488.825	202.62
489.043	188.62
489.261	219.62
489.479	222.62
489.696	216.62
489.914	204.62
490.132	211.62
490.35	217.62
490.568	221.62
490.786	227.62
491.003	226.62
491.221	230.62
491.439	228.62
491.657	231.62
491.874	243.62
492.092	236.62
492.31	252.62
492.527	234.62
492.745	253.62
492.963	231.62
493.18	232.62
493.398	242.62
493.615	248.62
493.833	250.62
494.05	230.62
494.268	243.62
494.485	230.62
494.703	247.62
494.92	228.62
495.138	230.62
495.355	243.62
495.573	229.62
495.79	230.62
496.008	246.62
496.225	242.62
496.442	223.62
496.66	250.62
496.877	245.62
497.094	242.62
497.312	235.62
497.529	223.62
497.746	250.62
497.963	253.62
498.181	247.62
498.398	269.62
498.615	264.62
498.832	269.62
499.049	281.62
499.267	293.62
499.484	324.62
499.701	359.62
499.918	382.62
500.135	429.62
500.352	468.62
500.569	458.62
500.786	481.62
501.003	419.62
501.22	389.62
501.437	358.62
501.654	333.62
501.871	302.62
502.088	290.62
502.305	272.62
502.522	274.62
502.739	255.62
502.956	242.62
503.172	248.62
503.389	237.62
503.606	224.62
503.823	234.62
504.04	259.62
