Data from SampB_HRD10591_00071.txt Node
Date: Mon Jan 19 11:33:52 EST 2026
User: Yrep
Spectrometer: HR+D1059
Trigger mode: 0
Integration Time (sec): 3.443000E-1
Scans to average: 1
Electric dark correction enabled: true
Nonlinearity correction enabled: false
Boxcar width: 0
XAxis mode: Wavelengths
Number of Pixels in Spectrum: 2048
>>>>>Begin Spectral Data<<<<<
223.165	-29.62
223.4	-29.62
223.635	-29.62
223.869	-13.62
224.104	-17.62
224.338	-9.62
224.573	-1.62
224.808	-19.62
225.042	2.38
225.277	-10.62
225.511	-17.62
225.746	7.38
225.98	12.38
226.215	9.38
226.449	17.38
226.683	18.38
226.918	23.38
227.152	29.38
227.387	39.38
227.621	43.38
227.856	53.38
228.09	34.38
228.324	55.38
228.559	65.38
228.793	57.38
229.027	75.38
229.262	81.38
229.496	74.38
229.73	69.38
229.964	66.38
230.199	81.38
230.433	64.38
230.667	88.38
230.901	89.38
231.136	91.38
231.37	90.38
231.604	93.38
231.838	106.38
232.072	87.38
232.306	104.38
232.541	95.38
232.775	85.38
233.009	90.38
233.243	107.38
233.477	94.38
233.711	85.38
233.945	80.38
234.179	91.38
234.413	110.38
234.647	101.38
234.881	80.38
235.115	90.38
235.349	99.38
235.583	90.38
235.817	91.38
236.051	93.38
236.285	91.38
236.519	102.38
236.753	83.38
236.987	99.38
237.221	98.38
237.455	93.38
237.689	98.38
237.922	99.38
238.156	98.38
238.39	103.38
238.624	111.38
238.858	92.38
239.091	90.38
239.325	105.38
239.559	103.38
239.793	108.38
240.027	128.38
240.26	108.38
240.494	103.38
240.728	96.38
240.961	95.38
241.195	103.38
241.429	92.38
241.662	97.38
241.896	85.38
242.13	99.38
242.363	99.38
242.597	98.38
242.83	119.38
243.064	105.38
243.298	125.38
243.531	106.38
243.765	107.38
243.998	126.38
244.232	120.38
244.465	118.38
244.699	109.38
244.932	101.38
245.166	104.38
245.399	108.38
245.633	116.38
245.866	97.38
246.099	96.38
246.333	106.38
246.566	121.38
246.8	96.38
247.033	106.38
247.266	123.38
247.5	105.38
247.733	112.38
247.966	119.38
248.2	93.38
248.433	104.38
248.666	111.38
248.899	122.38
249.133	119.38
249.366	128.38
249.599	136.38
249.832	110.38
250.066	126.38
250.299	116.38
250.532	114.38
250.765	116.38
250.998	113.38
251.231	122.38
251.465	124.38
251.698	101.38
251.931	114.38
252.164	111.38
252.397	119.38
252.63	128.38
252.863	127.38
253.096	107.38
253.329	118.38
253.562	133.38
253.795	135.38
254.028	140.38
254.261	130.38
254.494	129.38
254.727	135.38
254.96	119.38
255.193	118.38
255.426	125.38
255.659	128.38
255.892	129.38
256.124	123.38
256.357	135.38
256.59	127.38
256.823	128.38
257.056	131.38
257.289	128.38
257.521	119.38
257.754	131.38
257.987	128.38
258.22	136.38
258.452	109.38
258.685	120.38
258.918	135.38
259.151	130.38
259.383	123.38
259.616	117.38
259.849	146.38
260.081	163.38
260.314	158.38
260.547	137.38
260.779	147.38
261.012	157.38
261.244	148.38
261.477	152.38
261.71	123.38
261.942	161.38
262.175	142.38
262.407	129.38
262.64	118.38
262.872	133.38
263.105	150.38
263.337	175.38
263.57	147.38
263.802	131.38
264.035	131.38
264.267	123.38
264.499	133.38
264.732	143.38
264.964	124.38
265.197	139.38
265.429	131.38
265.661	139.38
265.894	135.38
266.126	142.38
266.358	129.38
266.591	138.38
266.823	138.38
267.055	129.38
267.287	129.38
267.52	128.38
267.752	135.38
267.984	145.38
268.216	137.38
268.448	138.38
268.681	136.38
268.913	157.38
269.145	160.38
269.377	149.38
269.609	122.38
269.841	133.38
270.073	141.38
270.306	154.38
270.538	147.38
270.77	138.38
271.002	144.38
271.234	149.38
271.466	151.38
271.698	155.38
271.93	162.38
272.162	161.38
272.394	161.38
272.626	154.38
272.858	153.38
273.09	161.38
273.322	157.38
273.553	152.38
273.785	174.38
274.017	161.38
274.249	177.38
274.481	185.38
274.713	182.38
274.945	200.38
275.176	194.38
275.408	175.38
275.64	181.38
275.872	176.38
276.104	177.38
276.335	152.38
276.567	150.38
276.799	169.38
277.031	163.38
277.262	171.38
277.494	157.38
277.726	149.38
277.957	152.38
278.189	149.38
278.421	167.38
278.652	164.38
278.884	163.38
279.115	167.38
279.347	160.38
279.579	172.38
279.81	180.38
280.042	175.38
280.273	169.38
280.505	180.38
280.736	171.38
280.968	166.38
281.199	172.38
281.431	172.38
281.662	164.38
281.894	156.38
282.125	162.38
282.356	155.38
282.588	160.38
282.819	170.38
283.051	149.38
283.282	153.38
283.513	183.38
283.745	165.38
283.976	161.38
284.207	171.38
284.439	182.38
284.67	186.38
284.901	168.38
285.132	168.38
285.364	183.38
285.595	179.38
285.826	169.38
286.057	186.38
286.288	163.38
286.52	173.38
286.751	166.38
286.982	170.38
287.213	166.38
287.444	172.38
287.675	176.38
287.906	182.38
288.138	178.38
288.369	176.38
288.6	173.38
288.831	177.38
289.062	191.38
289.293	182.38
289.524	177.38
289.755	177.38
289.986	181.38
290.217	178.38
290.448	183.38
290.679	174.38
290.91	182.38
291.141	169.38
291.371	169.38
291.602	179.38
291.833	178.38
292.064	176.38
292.295	184.38
292.526	169.38
292.757	184.38
292.987	180.38
293.218	187.38
293.449	174.38
293.68	173.38
293.91	182.38
294.141	177.38
294.372	185.38
294.603	192.38
294.833	205.38
295.064	183.38
295.295	188.38
295.525	175.38
295.756	188.38
295.987	178.38
296.217	167.38
296.448	183.38
296.679	186.38
296.909	202.38
297.14	170.38
297.37	191.38
297.601	199.38
297.831	185.38
298.062	209.38
298.292	186.38
298.523	197.38
298.753	189.38
298.984	193.38
299.214	197.38
299.445	193.38
299.675	189.38
299.905	199.38
300.136	192.38
300.366	181.38
300.597	192.38
300.827	201.38
301.057	186.38
301.288	199.38
301.518	216.38
301.748	210.38
301.979	241.38
302.209	197.38
302.439	205.38
302.669	207.38
302.9	194.38
303.13	184.38
303.36	184.38
303.59	175.38
303.82	185.38
304.051	206.38
304.281	205.38
304.511	194.38
304.741	190.38
304.971	187.38
305.201	206.38
305.431	200.38
305.661	204.38
305.891	194.38
306.121	195.38
306.352	217.38
306.582	183.38
306.812	206.38
307.042	183.38
307.272	183.38
307.502	195.38
307.731	195.38
307.961	201.38
308.191	201.38
308.421	200.38
308.651	195.38
308.881	211.38
309.111	201.38
309.341	186.38
309.571	208.38
309.8	183.38
310.03	202.38
310.26	186.38
310.49	187.38
310.72	201.38
310.949	199.38
311.179	207.38
311.409	178.38
311.639	208.38
311.868	179.38
312.098	205.38
312.328	208.38
312.557	191.38
312.787	202.38
313.017	204.38
313.246	217.38
313.476	226.38
313.706	203.38
313.935	196.38
314.165	201.38
314.394	207.38
314.624	207.38
314.853	215.38
315.083	195.38
315.312	205.38
315.542	212.38
315.771	205.38
316.001	212.38
316.23	185.38
316.46	214.38
316.689	205.38
316.919	199.38
317.148	223.38
317.377	201.38
317.607	226.38
317.836	214.38
318.065	197.38
318.295	199.38
318.524	227.38
318.753	204.38
318.983	199.38
319.212	203.38
319.441	204.38
319.67	214.38
319.9	207.38
320.129	213.38
320.358	210.38
320.587	213.38
320.816	220.38
321.046	220.38
321.275	217.38
321.504	210.38
321.733	212.38
321.962	196.38
322.191	213.38
322.42	223.38
322.649	223.38
322.878	226.38
323.108	217.38
323.337	234.38
323.566	227.38
323.795	221.38
324.024	223.38
324.253	235.38
324.482	211.38
324.71	215.38
324.939	224.38
325.168	217.38
325.397	202.38
325.626	225.38
325.855	205.38
326.084	225.38
326.313	232.38
326.542	222.38
326.77	224.38
326.999	215.38
327.228	231.38
327.457	221.38
327.686	225.38
327.914	261.38
328.143	275.38
328.372	270.38
328.6	248.38
328.829	244.38
329.058	247.38
329.287	228.38
329.515	238.38
329.744	251.38
329.972	281.38
330.201	306.38
330.43	301.38
330.658	268.38
330.887	239.38
331.115	236.38
331.344	246.38
331.572	255.38
331.801	241.38
332.03	251.38
332.258	252.38
332.486	250.38
332.715	271.38
332.943	274.38
333.172	280.38
333.4	295.38
333.629	289.38
333.857	316.38
334.085	314.38
334.314	360.38
334.542	398.38
334.771	386.38
334.999	317.38
335.227	278.38
335.455	279.38
335.684	276.38
335.912	270.38
336.14	271.38
336.369	250.38
336.597	254.38
336.825	254.38
337.053	248.38
337.281	264.38
337.51	247.38
337.738	239.38
337.966	245.38
338.194	243.38
338.422	230.38
338.65	263.38
338.878	247.38
339.106	244.38
339.334	252.38
339.562	240.38
339.79	230.38
340.018	238.38
340.246	243.38
340.474	236.38
340.702	237.38
340.93	237.38
341.158	227.38
341.386	236.38
341.614	234.38
341.842	220.38
342.07	221.38
342.298	238.38
342.526	247.38
342.754	224.38
342.981	227.38
343.209	241.38
343.437	259.38
343.665	243.38
343.893	279.38
344.12	275.38
344.348	263.38
344.576	249.38
344.804	241.38
345.031	231.38
345.259	220.38
345.487	230.38
345.714	217.38
345.942	219.38
346.17	208.38
346.397	224.38
346.625	227.38
346.853	214.38
347.08	195.38
347.308	234.38
347.535	222.38
347.763	222.38
347.99	227.38
348.218	223.38
348.445	224.38
348.673	210.38
348.9	232.38
349.128	218.38
349.355	219.38
349.583	236.38
349.81	213.38
350.037	217.38
350.265	233.38
350.492	218.38
350.72	229.38
350.947	226.38
351.174	202.38
351.402	205.38
351.629	237.38
351.856	217.38
352.083	200.38
352.311	225.38
352.538	236.38
352.765	217.38
352.992	252.38
353.22	213.38
353.447	203.38
353.674	215.38
353.901	246.38
354.128	226.38
354.355	216.38
354.583	228.38
354.81	230.38
355.037	231.38
355.264	214.38
355.491	228.38
355.718	231.38
355.945	239.38
356.172	243.38
356.399	226.38
356.626	243.38
356.853	245.38
357.08	241.38
357.307	242.38
357.534	235.38
357.761	232.38
357.988	255.38
358.215	249.38
358.441	241.38
358.668	225.38
358.895	246.38
359.122	233.38
359.349	230.38
359.576	209.38
359.802	207.38
360.029	213.38
360.256	214.38
360.483	226.38
360.709	238.38
360.936	246.38
361.163	219.38
361.39	213.38
361.616	232.38
361.843	222.38
362.07	232.38
362.296	225.38
362.523	223.38
362.749	232.38
362.976	247.38
363.203	237.38
363.429	229.38
363.656	235.38
363.882	242.38
364.109	239.38
364.335	235.38
364.562	225.38
364.788	232.38
365.015	244.38
365.241	232.38
365.468	221.38
365.694	224.38
365.92	218.38
366.147	224.38
366.373	223.38
366.599	211.38
366.826	224.38
367.052	208.38
367.278	234.38
367.505	237.38
367.731	258.38
367.957	227.38
368.184	230.38
368.41	227.38
368.636	216.38
368.862	227.38
369.089	230.38
369.315	220.38
369.541	243.38
369.767	226.38
369.993	237.38
370.219	240.38
370.445	250.38
370.672	249.38
370.898	245.38
371.124	256.38
371.35	267.38
371.576	231.38
371.802	254.38
372.028	269.38
372.254	262.38
372.48	243.38
372.706	258.38
372.932	249.38
373.158	255.38
373.384	262.38
373.61	275.38
373.835	286.38
374.061	261.38
374.287	261.38
374.513	278.38
374.739	269.38
374.965	287.38
375.191	274.38
375.416	272.38
375.642	256.38
375.868	268.38
376.094	275.38
376.319	251.38
376.545	261.38
376.771	250.38
376.997	245.38
377.222	229.38
377.448	240.38
377.674	258.38
377.899	242.38
378.125	236.38
378.35	226.38
378.576	239.38
378.802	239.38
379.027	235.38
379.253	246.38
379.478	237.38
379.704	234.38
379.929	249.38
380.155	246.38
380.38	247.38
380.606	232.38
380.831	230.38
381.057	261.38
381.282	235.38
381.507	247.38
381.733	267.38
381.958	280.38
382.184	273.38
382.409	272.38
382.634	279.38
382.86	289.38
383.085	281.38
383.31	280.38
383.535	305.38
383.761	272.38
383.986	281.38
384.211	302.38
384.436	285.38
384.662	289.38
384.887	268.38
385.112	278.38
385.337	282.38
385.562	287.38
385.787	294.38
386.013	294.38
386.238	297.38
386.463	306.38
386.688	306.38
386.913	262.38
387.138	277.38
387.363	297.38
387.588	291.38
387.813	293.38
388.038	302.38
388.263	312.38
388.488	285.38
388.713	294.38
388.938	277.38
389.163	277.38
389.387	274.38
389.612	291.38
389.837	292.38
390.062	289.38
390.287	298.38
390.512	295.38
390.736	292.38
390.961	298.38
391.186	299.38
391.411	315.38
391.636	290.38
391.86	312.38
392.085	334.38
392.31	295.38
392.534	316.38
392.759	310.38
392.984	325.38
393.208	318.38
393.433	309.38
393.658	314.38
393.882	304.38
394.107	310.38
394.331	312.38
394.556	307.38
394.78	322.38
395.005	309.38
395.229	304.38
395.454	337.38
395.678	315.38
395.903	321.38
396.127	344.38
396.352	324.38
396.576	315.38
396.801	317.38
397.025	314.38
397.249	325.38
397.474	337.38
397.698	330.38
397.922	330.38
398.147	333.38
398.371	323.38
398.595	356.38
398.82	352.38
399.044	398.38
399.268	423.38
399.492	470.38
399.717	480.38
399.941	471.38
400.165	438.38
400.389	393.38
400.613	386.38
400.837	371.38
401.062	360.38
401.286	360.38
401.51	363.38
401.734	339.38
401.958	334.38
402.182	371.38
402.406	373.38
402.63	362.38
402.854	359.38
403.078	354.38
403.302	382.38
403.526	391.38
403.75	419.38
403.974	407.38
404.198	393.38
404.422	384.38
404.645	407.38
404.869	404.38
405.093	400.38
405.317	389.38
405.541	401.38
405.765	379.38
405.988	393.38
406.212	399.38
406.436	404.38
406.66	424.38
406.883	415.38
407.107	404.38
407.331	437.38
407.555	434.38
407.778	444.38
408.002	408.38
408.226	392.38
408.449	408.38
408.673	380.38
408.896	407.38
409.12	389.38
409.344	395.38
409.567	396.38
409.791	411.38
410.014	394.38
410.238	382.38
410.461	366.38
410.685	376.38
410.908	385.38
411.132	384.38
411.355	395.38
411.578	377.38
411.802	372.38
412.025	391.38
412.249	375.38
412.472	387.38
412.695	361.38
412.919	351.38
413.142	383.38
413.365	370.38
413.589	380.38
413.812	365.38
414.035	366.38
414.258	377.38
414.482	381.38
414.705	359.38
414.928	376.38
415.151	370.38
415.374	367.38
415.597	378.38
415.821	353.38
416.044	353.38
416.267	350.38
416.49	358.38
416.713	356.38
416.936	378.38
417.159	352.38
417.382	349.38
417.605	358.38
417.828	350.38
418.051	379.38
418.274	372.38
418.497	364.38
418.72	379.38
418.943	362.38
419.166	382.38
419.389	394.38
419.611	379.38
419.834	393.38
420.057	386.38
420.28	383.38
420.503	369.38
420.726	375.38
420.948	369.38
421.171	378.38
421.394	374.38
421.617	369.38
421.839	369.38
422.062	392.38
422.285	357.38
422.507	373.38
422.73	359.38
422.953	373.38
423.175	384.38
423.398	381.38
423.621	355.38
423.843	385.38
424.066	393.38
424.288	382.38
424.511	382.38
424.733	375.38
424.956	371.38
425.178	378.38
425.401	357.38
425.623	360.38
425.846	369.38
426.068	356.38
426.291	355.38
426.513	361.38
426.735	347.38
426.958	345.38
427.18	359.38
427.402	345.38
427.625	322.38
427.847	347.38
428.069	359.38
428.292	353.38
428.514	335.38
428.736	316.38
428.958	336.38
429.181	323.38
429.403	322.38
429.625	327.38
429.847	341.38
430.069	340.38
430.292	325.38
430.514	311.38
430.736	341.38
430.958	346.38
431.18	338.38
431.402	330.38
431.624	333.38
431.846	322.38
432.068	310.38
432.29	304.38
432.512	316.38
432.734	321.38
432.956	341.38
433.178	349.38
433.4	333.38
433.622	335.38
433.844	346.38
434.066	328.38
434.287	309.38
434.509	333.38
434.731	349.38
434.953	339.38
435.175	366.38
435.397	348.38
435.618	335.38
435.84	340.38
436.062	321.38
436.284	323.38
436.505	327.38
436.727	337.38
436.949	333.38
437.17	321.38
437.392	299.38
437.614	322.38
437.835	304.38
438.057	311.38
438.278	305.38
438.5	334.38
438.721	347.38
438.943	309.38
439.165	319.38
439.386	347.38
439.608	345.38
439.829	339.38
440.05	352.38
440.272	344.38
440.493	342.38
440.715	351.38
440.936	351.38
441.158	349.38
441.379	394.38
441.6	376.38
441.822	378.38
442.043	346.38
442.264	367.38
442.486	349.38
442.707	390.38
442.928	369.38
443.149	362.38
443.371	378.38
443.592	349.38
443.813	376.38
444.034	389.38
444.255	389.38
444.476	403.38
444.698	407.38
444.919	398.38
445.14	587.38
445.361	454.38
445.582	381.38
445.803	361.38
446.024	358.38
446.245	363.38
446.466	351.38
446.687	341.38
446.908	340.38
447.129	335.38
447.35	355.38
447.571	332.38
447.792	335.38
448.013	335.38
448.234	322.38
448.455	309.38
448.675	311.38
448.896	318.38
449.117	326.38
449.338	326.38
449.559	325.38
449.779	310.38
450	305.38
450.221	319.38
450.442	318.38
450.662	310.38
450.883	321.38
451.104	310.38
451.324	302.38
451.545	331.38
451.766	321.38
451.986	287.38
452.207	284.38
452.428	309.38
452.648	299.38
452.869	288.38
453.089	291.38
453.31	284.38
453.53	285.38
453.751	280.38
453.971	288.38
454.192	298.38
454.412	275.38
454.633	282.38
454.853	300.38
455.073	301.38
455.294	290.38
455.514	308.38
455.734	293.38
455.955	258.38
456.175	269.38
456.395	274.38
456.616	285.38
456.836	294.38
457.056	295.38
457.276	274.38
457.497	274.38
457.717	278.38
457.937	267.38
458.157	270.38
458.377	293.38
458.598	301.38
458.818	299.38
459.038	290.38
459.258	279.38
459.478	315.38
459.698	318.38
459.918	344.38
460.138	354.38
460.358	367.38
460.578	366.38
460.798	364.38
461.018	364.38
461.238	338.38
461.458	347.38
461.678	354.38
461.898	360.38
462.118	378.38
462.338	370.38
462.558	398.38
462.777	412.38
462.997	433.38
463.217	450.38
463.437	453.38
463.657	405.38
463.876	397.38
464.096	406.38
464.316	403.38
464.536	408.38
464.755	404.38
464.975	385.38
465.195	362.38
465.414	355.38
465.634	336.38
465.854	346.38
466.073	330.38
466.293	337.38
466.512	318.38
466.732	345.38
466.951	325.38
467.171	305.38
467.391	331.38
467.61	318.38
467.829	331.38
468.049	359.38
468.268	368.38
468.488	344.38
468.707	321.38
468.927	331.38
469.146	301.38
469.365	338.38
469.585	330.38
469.804	339.38
470.023	328.38
470.243	361.38
470.462	334.38
470.681	349.38
470.901	318.38
471.12	312.38
471.339	330.38
471.558	336.38
471.777	311.38
471.997	342.38
472.216	398.38
472.435	446.38
472.654	379.38
472.873	349.38
473.092	331.38
473.311	323.38
473.53	312.38
473.749	317.38
473.968	303.38
474.187	295.38
474.406	308.38
474.625	316.38
474.844	322.38
475.063	299.38
475.282	321.38
475.501	303.38
475.72	323.38
475.939	326.38
476.158	313.38
476.377	332.38
476.596	318.38
476.814	295.38
477.033	317.38
477.252	333.38
477.471	314.38
477.69	347.38
477.908	337.38
478.127	354.38
478.346	352.38
478.564	349.38
478.783	359.38
479.002	384.38
479.22	362.38
479.439	380.38
479.658	359.38
479.876	360.38
480.095	361.38
480.313	367.38
480.532	390.38
480.751	417.38
480.969	437.38
481.188	561.38
481.406	519.38
481.624	394.38
481.843	341.38
482.061	369.38
482.28	371.38
482.498	359.38
482.717	334.38
482.935	346.38
483.153	364.38
483.372	367.38
483.59	361.38
483.808	330.38
484.027	351.38
484.245	343.38
484.463	353.38
484.681	373.38
484.9	350.38
485.118	361.38
485.336	348.38
485.554	349.38
485.772	366.38
485.99	356.38
486.209	345.38
486.427	365.38
486.645	375.38
486.863	365.38
487.081	357.38
487.299	363.38
487.517	365.38
487.735	374.38
487.953	381.38
488.171	370.38
488.389	366.38
488.607	349.38
488.825	348.38
489.043	342.38
489.261	354.38
489.479	374.38
489.696	365.38
489.914	370.38
490.132	342.38
490.35	367.38
490.568	363.38
490.786	380.38
491.003	380.38
491.221	392.38
491.439	377.38
491.657	384.38
491.874	406.38
492.092	412.38
492.31	466.38
492.527	398.38
492.745	389.38
492.963	400.38
493.18	412.38
493.398	403.38
493.615	408.38
493.833	389.38
494.05	410.38
494.268	398.38
494.485	412.38
494.703	390.38
494.92	369.38
495.138	386.38
495.355	408.38
495.573	415.38
495.79	412.38
496.008	433.38
496.225	398.38
496.442	402.38
496.66	398.38
496.877	411.38
497.094	416.38
497.312	413.38
497.529	413.38
497.746	430.38
497.963	438.38
498.181	446.38
498.398	479.38
498.615	479.38
498.832	535.38
499.049	528.38
499.267	577.38
499.484	619.38
499.701	647.38
499.918	727.38
500.135	796.38
500.352	875.38
500.569	899.38
500.786	868.38
501.003	842.38
501.22	747.38
501.437	658.38
501.654	607.38
501.871	565.38
502.088	547.38
502.305	517.38
502.522	480.38
502.739	455.38
502.956	445.38
503.172	458.38
503.389	421.38
