Data from SampB_HRD10591_00049.txt Node
Date: Mon Jan 19 11:33:45 EST 2026
User: Yrep
Spectrometer: HR+D1059
Trigger mode: 0
Integration Time (sec): 3.443000E-1
Scans to average: 1
Electric dark correction enabled: true
Nonlinearity correction enabled: false
Boxcar width: 0
XAxis mode: Wavelengths
Number of Pixels in Spectrum: 2048
>>>>>Begin Spectral Data<<<<<
223.165	-18.12
223.4	-18.12
223.635	-18.12
223.869	-17.12
224.104	-26.12
224.338	-1.12
224.573	-32.12
224.808	-7.12
225.042	-10.12
225.277	-8.12
225.511	-12.12
225.746	-4.12
225.98	7.88
226.215	12.88
226.449	20.88
226.683	33.88
226.918	23.88
227.152	36.88
227.387	31.88
227.621	37.88
227.856	48.88
228.09	49.88
228.324	48.88
228.559	81.88
228.793	71.88
229.027	61.88
229.262	81.88
229.496	84.88
229.73	76.88
229.964	76.88
230.199	79.88
230.433	72.88
230.667	88.88
230.901	68.88
231.136	85.88
231.37	84.88
231.604	82.88
231.838	84.88
232.072	72.88
232.306	93.88
232.541	78.88
232.775	83.88
233.009	101.88
233.243	75.88
233.477	107.88
233.711	82.88
233.945	92.88
234.179	84.88
234.413	108.88
234.647	92.88
234.881	101.88
235.115	85.88
235.349	85.88
235.583	94.88
235.817	86.88
236.051	88.88
236.285	85.88
236.519	89.88
236.753	87.88
236.987	94.88
237.221	89.88
237.455	96.88
237.689	85.88
237.922	89.88
238.156	95.88
238.39	86.88
238.624	86.88
238.858	91.88
239.091	72.88
239.325	76.88
239.559	79.88
239.793	103.88
240.027	99.88
240.26	89.88
240.494	79.88
240.728	97.88
240.961	101.88
241.195	96.88
241.429	95.88
241.662	86.88
241.896	98.88
242.13	89.88
242.363	93.88
242.597	95.88
242.83	110.88
243.064	88.88
243.298	108.88
243.531	88.88
243.765	101.88
243.998	108.88
244.232	109.88
244.465	111.88
244.699	91.88
244.932	103.88
245.166	118.88
245.399	104.88
245.633	110.88
245.866	107.88
246.099	103.88
246.333	108.88
246.566	105.88
246.8	104.88
247.033	108.88
247.266	103.88
247.5	101.88
247.733	102.88
247.966	91.88
248.2	107.88
248.433	116.88
248.666	112.88
248.899	124.88
249.133	108.88
249.366	106.88
249.599	113.88
249.832	118.88
250.066	122.88
250.299	104.88
250.532	112.88
250.765	111.88
250.998	106.88
251.231	90.88
251.465	105.88
251.698	96.88
251.931	111.88
252.164	112.88
252.397	110.88
252.63	105.88
252.863	118.88
253.096	121.88
253.329	116.88
253.562	106.88
253.795	122.88
254.028	134.88
254.261	127.88
254.494	119.88
254.727	119.88
254.96	113.88
255.193	121.88
255.426	112.88
255.659	116.88
255.892	117.88
256.124	108.88
256.357	120.88
256.59	125.88
256.823	105.88
257.056	124.88
257.289	128.88
257.521	134.88
257.754	110.88
257.987	106.88
258.22	127.88
258.452	115.88
258.685	132.88
258.918	111.88
259.151	124.88
259.383	127.88
259.616	119.88
259.849	125.88
260.081	130.88
260.314	122.88
260.547	126.88
260.779	140.88
261.012	124.88
261.244	142.88
261.477	139.88
261.71	130.88
261.942	133.88
262.175	134.88
262.407	126.88
262.64	95.88
262.872	123.88
263.105	121.88
263.337	145.88
263.57	135.88
263.802	122.88
264.035	109.88
264.267	123.88
264.499	130.88
264.732	134.88
264.964	116.88
265.197	114.88
265.429	125.88
265.661	113.88
265.894	124.88
266.126	136.88
266.358	118.88
266.591	132.88
266.823	140.88
267.055	128.88
267.287	119.88
267.52	136.88
267.752	118.88
267.984	118.88
268.216	124.88
268.448	133.88
268.681	152.88
268.913	148.88
269.145	157.88
269.377	145.88
269.609	128.88
269.841	150.88
270.073	138.88
270.306	139.88
270.538	133.88
270.77	119.88
271.002	132.88
271.234	136.88
271.466	147.88
271.698	134.88
271.93	133.88
272.162	122.88
272.394	136.88
272.626	128.88
272.858	127.88
273.09	153.88
273.322	150.88
273.553	146.88
273.785	142.88
274.017	158.88
274.249	161.88
274.481	168.88
274.713	158.88
274.945	179.88
275.176	168.88
275.408	148.88
275.64	163.88
275.872	174.88
276.104	152.88
276.335	143.88
276.567	142.88
276.799	160.88
277.031	173.88
277.262	145.88
277.494	150.88
277.726	150.88
277.957	156.88
278.189	159.88
278.421	128.88
278.652	136.88
278.884	126.88
279.115	160.88
279.347	146.88
279.579	153.88
279.81	144.88
280.042	158.88
280.273	166.88
280.505	160.88
280.736	156.88
280.968	149.88
281.199	159.88
281.431	161.88
281.662	138.88
281.894	140.88
282.125	153.88
282.356	153.88
282.588	138.88
282.819	150.88
283.051	156.88
283.282	153.88
283.513	161.88
283.745	160.88
283.976	152.88
284.207	158.88
284.439	150.88
284.67	151.88
284.901	159.88
285.132	154.88
285.364	140.88
285.595	167.88
285.826	169.88
286.057	157.88
286.288	162.88
286.52	170.88
286.751	153.88
286.982	147.88
287.213	140.88
287.444	162.88
287.675	169.88
287.906	160.88
288.138	162.88
288.369	153.88
288.6	140.88
288.831	152.88
289.062	158.88
289.293	156.88
289.524	162.88
289.755	167.88
289.986	167.88
290.217	172.88
290.448	170.88
290.679	161.88
290.91	169.88
291.141	174.88
291.371	167.88
291.602	163.88
291.833	169.88
292.064	161.88
292.295	157.88
292.526	166.88
292.757	170.88
292.987	154.88
293.218	151.88
293.449	160.88
293.68	152.88
293.91	161.88
294.141	180.88
294.372	144.88
294.603	150.88
294.833	177.88
295.064	164.88
295.295	178.88
295.525	173.88
295.756	168.88
295.987	168.88
296.217	158.88
296.448	172.88
296.679	169.88
296.909	160.88
297.14	172.88
297.37	165.88
297.601	179.88
297.831	175.88
298.062	146.88
298.292	161.88
298.523	183.88
298.753	175.88
298.984	184.88
299.214	168.88
299.445	167.88
299.675	185.88
299.905	178.88
300.136	180.88
300.366	173.88
300.597	184.88
300.827	182.88
301.057	180.88
301.288	179.88
301.518	184.88
301.748	182.88
301.979	212.88
302.209	181.88
302.439	178.88
302.669	175.88
302.9	169.88
303.13	169.88
303.36	192.88
303.59	184.88
303.82	160.88
304.051	182.88
304.281	180.88
304.511	190.88
304.741	181.88
304.971	158.88
305.201	181.88
305.431	194.88
305.661	168.88
305.891	175.88
306.121	165.88
306.352	174.88
306.582	194.88
306.812	180.88
307.042	172.88
307.272	176.88
307.502	188.88
307.731	185.88
307.961	200.88
308.191	194.88
308.421	187.88
308.651	187.88
308.881	187.88
309.111	183.88
309.341	187.88
309.571	168.88
309.8	159.88
310.03	185.88
310.26	174.88
310.49	159.88
310.72	180.88
310.949	164.88
311.179	165.88
311.409	161.88
311.639	193.88
311.868	185.88
312.098	183.88
312.328	183.88
312.557	188.88
312.787	169.88
313.017	173.88
313.246	192.88
313.476	182.88
313.706	167.88
313.935	184.88
314.165	177.88
314.394	185.88
314.624	172.88
314.853	170.88
315.083	189.88
315.312	188.88
315.542	189.88
315.771	203.88
316.001	191.88
316.23	179.88
316.46	181.88
316.689	194.88
316.919	185.88
317.148	184.88
317.377	190.88
317.607	186.88
317.836	183.88
318.065	188.88
318.295	190.88
318.524	197.88
318.753	182.88
318.983	180.88
319.212	194.88
319.441	171.88
319.67	190.88
319.9	186.88
320.129	176.88
320.358	191.88
320.587	187.88
320.816	172.88
321.046	205.88
321.275	199.88
321.504	182.88
321.733	186.88
321.962	193.88
322.191	202.88
322.42	204.88
322.649	203.88
322.878	201.88
323.108	205.88
323.337	200.88
323.566	198.88
323.795	183.88
324.024	195.88
324.253	205.88
324.482	210.88
324.71	191.88
324.939	202.88
325.168	218.88
325.397	216.88
325.626	210.88
325.855	203.88
326.084	197.88
326.313	202.88
326.542	199.88
326.77	192.88
326.999	204.88
327.228	207.88
327.457	214.88
327.686	232.88
327.914	217.88
328.143	238.88
328.372	236.88
328.6	222.88
328.829	230.88
329.058	210.88
329.287	206.88
329.515	199.88
329.744	221.88
329.972	246.88
330.201	256.88
330.43	257.88
330.658	236.88
330.887	231.88
331.115	221.88
331.344	190.88
331.572	226.88
331.801	234.88
332.03	226.88
332.258	231.88
332.486	240.88
332.715	245.88
332.943	232.88
333.172	256.88
333.4	246.88
333.629	288.88
333.857	272.88
334.085	294.88
334.314	328.88
334.542	340.88
334.771	321.88
334.999	266.88
335.227	263.88
335.455	256.88
335.684	260.88
335.912	251.88
336.14	242.88
336.369	224.88
336.597	226.88
336.825	248.88
337.053	209.88
337.281	240.88
337.51	245.88
337.738	234.88
337.966	214.88
338.194	201.88
338.422	195.88
338.65	216.88
338.878	217.88
339.106	215.88
339.334	229.88
339.562	206.88
339.79	213.88
340.018	212.88
340.246	211.88
340.474	225.88
340.702	220.88
340.93	218.88
341.158	213.88
341.386	182.88
341.614	208.88
341.842	218.88
342.07	221.88
342.298	211.88
342.526	194.88
342.754	204.88
342.981	208.88
343.209	194.88
343.437	242.88
343.665	223.88
343.893	245.88
344.12	242.88
344.348	239.88
344.576	220.88
344.804	203.88
345.031	224.88
345.259	208.88
345.487	210.88
345.714	202.88
345.942	215.88
346.17	208.88
346.397	217.88
346.625	186.88
346.853	187.88
347.08	207.88
347.308	200.88
347.535	185.88
347.763	209.88
347.99	216.88
348.218	214.88
348.445	200.88
348.673	204.88
348.9	197.88
349.128	220.88
349.355	204.88
349.583	201.88
349.81	202.88
350.037	204.88
350.265	201.88
350.492	191.88
350.72	196.88
350.947	196.88
351.174	189.88
351.402	198.88
351.629	187.88
351.856	188.88
352.083	193.88
352.311	191.88
352.538	184.88
352.765	208.88
352.992	222.88
353.22	192.88
353.447	185.88
353.674	225.88
353.901	223.88
354.128	205.88
354.355	201.88
354.583	205.88
354.81	204.88
355.037	230.88
355.264	208.88
355.491	201.88
355.718	209.88
355.945	205.88
356.172	192.88
356.399	200.88
356.626	215.88
356.853	202.88
357.08	218.88
357.307	207.88
357.534	221.88
357.761	189.88
357.988	215.88
358.215	206.88
358.441	203.88
358.668	201.88
358.895	191.88
359.122	213.88
359.349	194.88
359.576	205.88
359.802	183.88
360.029	208.88
360.256	200.88
360.483	192.88
360.709	200.88
360.936	225.88
361.163	201.88
361.39	201.88
361.616	197.88
361.843	207.88
362.07	207.88
362.296	204.88
362.523	178.88
362.749	195.88
362.976	214.88
363.203	216.88
363.429	190.88
363.656	202.88
363.882	188.88
364.109	190.88
364.335	200.88
364.562	206.88
364.788	185.88
365.015	207.88
365.241	184.88
365.468	204.88
365.694	193.88
365.92	208.88
366.147	187.88
366.373	193.88
366.599	194.88
366.826	199.88
367.052	189.88
367.278	192.88
367.505	208.88
367.731	213.88
367.957	196.88
368.184	224.88
368.41	205.88
368.636	203.88
368.862	221.88
369.089	204.88
369.315	209.88
369.541	212.88
369.767	200.88
369.993	205.88
370.219	200.88
370.445	212.88
370.672	213.88
370.898	232.88
371.124	214.88
371.35	205.88
371.576	220.88
371.802	208.88
372.028	224.88
372.254	228.88
372.48	226.88
372.706	222.88
372.932	214.88
373.158	223.88
373.384	225.88
373.61	234.88
373.835	235.88
374.061	219.88
374.287	226.88
374.513	236.88
374.739	247.88
374.965	255.88
375.191	236.88
375.416	235.88
375.642	219.88
375.868	239.88
376.094	242.88
376.319	228.88
376.545	229.88
376.771	225.88
376.997	219.88
377.222	203.88
377.448	221.88
377.674	220.88
377.899	224.88
378.125	213.88
378.35	226.88
378.576	203.88
378.802	214.88
379.027	226.88
379.253	212.88
379.478	221.88
379.704	194.88
379.929	222.88
380.155	225.88
380.38	209.88
380.606	212.88
380.831	219.88
381.057	232.88
381.282	226.88
381.507	229.88
381.733	234.88
381.958	239.88
382.184	229.88
382.409	250.88
382.634	246.88
382.86	234.88
383.085	222.88
383.31	233.88
383.535	247.88
383.761	232.88
383.986	250.88
384.211	236.88
384.436	239.88
384.662	241.88
384.887	241.88
385.112	255.88
385.337	248.88
385.562	242.88
385.787	260.88
386.013	267.88
386.238	262.88
386.463	251.88
386.688	276.88
386.913	252.88
387.138	241.88
387.363	244.88
387.588	261.88
387.813	246.88
388.038	248.88
388.263	249.88
388.488	256.88
388.713	265.88
388.938	250.88
389.163	261.88
389.387	256.88
389.612	236.88
389.837	251.88
390.062	253.88
390.287	238.88
390.512	262.88
390.736	236.88
390.961	266.88
391.186	272.88
391.411	270.88
391.636	281.88
391.86	297.88
392.085	274.88
392.31	270.88
392.534	279.88
392.759	261.88
392.984	279.88
393.208	281.88
393.433	283.88
393.658	278.88
393.882	269.88
394.107	287.88
394.331	294.88
394.556	292.88
394.78	275.88
395.005	275.88
395.229	275.88
395.454	270.88
395.678	294.88
395.903	289.88
396.127	302.88
396.352	287.88
396.576	296.88
396.801	271.88
397.025	307.88
397.249	282.88
397.474	276.88
397.698	285.88
397.922	284.88
398.147	298.88
398.371	277.88
398.595	311.88
398.82	300.88
399.044	320.88
399.268	348.88
399.492	407.88
399.717	415.88
399.941	390.88
400.165	371.88
400.389	342.88
400.613	332.88
400.837	317.88
401.062	295.88
401.286	319.88
401.51	317.88
401.734	311.88
401.958	308.88
402.182	307.88
402.406	325.88
402.63	328.88
402.854	329.88
403.078	333.88
403.302	346.88
403.526	351.88
403.75	347.88
403.974	349.88
404.198	344.88
404.422	347.88
404.645	349.88
404.869	316.88
405.093	334.88
405.317	347.88
405.541	349.88
405.765	327.88
405.988	318.88
406.212	338.88
406.436	335.88
406.66	364.88
406.883	342.88
407.107	365.88
407.331	379.88
407.555	391.88
407.778	392.88
408.002	361.88
408.226	361.88
408.449	370.88
408.673	347.88
408.896	338.88
409.12	342.88
409.344	358.88
409.567	320.88
409.791	322.88
410.014	366.88
410.238	337.88
410.461	347.88
410.685	343.88
410.908	309.88
411.132	331.88
411.355	337.88
411.578	329.88
411.802	313.88
412.025	342.88
412.249	332.88
412.472	320.88
412.695	325.88
412.919	333.88
413.142	331.88
413.365	337.88
413.589	342.88
413.812	325.88
414.035	340.88
414.258	328.88
414.482	335.88
414.705	316.88
414.928	328.88
415.151	326.88
415.374	315.88
415.597	300.88
415.821	312.88
416.044	322.88
416.267	303.88
416.49	302.88
416.713	307.88
416.936	314.88
417.159	321.88
417.382	317.88
417.605	309.88
417.828	334.88
418.051	299.88
418.274	337.88
418.497	317.88
418.72	319.88
418.943	315.88
419.166	344.88
419.389	375.88
419.611	334.88
419.834	320.88
420.057	347.88
420.28	326.88
420.503	319.88
420.726	304.88
420.948	313.88
421.171	332.88
421.394	333.88
421.617	334.88
421.839	333.88
422.062	318.88
422.285	319.88
422.507	328.88
422.73	341.88
422.953	318.88
423.175	314.88
423.398	325.88
423.621	325.88
423.843	333.88
424.066	328.88
424.288	334.88
424.511	336.88
424.733	328.88
424.956	316.88
425.178	330.88
425.401	336.88
425.623	313.88
425.846	316.88
426.068	316.88
426.291	324.88
426.513	304.88
426.735	295.88
426.958	319.88
427.18	309.88
427.402	305.88
427.625	293.88
427.847	279.88
428.069	306.88
428.292	305.88
428.514	307.88
428.736	293.88
428.958	309.88
429.181	290.88
429.403	294.88
429.625	273.88
429.847	301.88
430.069	276.88
430.292	302.88
430.514	294.88
430.736	298.88
430.958	302.88
431.18	285.88
431.402	287.88
431.624	280.88
431.846	271.88
432.068	270.88
432.29	270.88
432.512	288.88
432.734	286.88
432.956	291.88
433.178	296.88
433.4	295.88
433.622	289.88
433.844	290.88
434.066	294.88
434.287	279.88
434.509	274.88
434.731	289.88
434.953	313.88
435.175	303.88
435.397	304.88
435.618	283.88
435.84	305.88
436.062	266.88
436.284	278.88
436.505	287.88
436.727	281.88
436.949	296.88
437.17	291.88
437.392	281.88
437.614	282.88
437.835	265.88
438.057	279.88
438.278	278.88
438.5	284.88
438.721	290.88
438.943	299.88
439.165	284.88
439.386	296.88
439.608	299.88
439.829	301.88
440.05	303.88
440.272	295.88
440.493	294.88
440.715	304.88
440.936	316.88
441.158	317.88
441.379	312.88
441.6	345.88
441.822	343.88
442.043	328.88
442.264	305.88
442.486	326.88
442.707	319.88
442.928	322.88
443.149	311.88
443.371	324.88
443.592	303.88
443.813	326.88
444.034	326.88
444.255	345.88
444.476	351.88
444.698	351.88
444.919	363.88
445.14	555.88
445.361	422.88
445.582	321.88
445.803	299.88
446.024	318.88
446.245	321.88
446.466	309.88
446.687	286.88
446.908	293.88
447.129	305.88
447.35	275.88
447.571	272.88
447.792	297.88
448.013	304.88
448.234	309.88
448.455	290.88
448.675	269.88
448.896	286.88
449.117	268.88
449.338	278.88
449.559	272.88
449.779	284.88
450	278.88
450.221	274.88
450.442	270.88
450.662	279.88
450.883	300.88
451.104	284.88
451.324	290.88
451.545	264.88
451.766	285.88
451.986	266.88
452.207	261.88
452.428	260.88
452.648	285.88
452.869	272.88
453.089	253.88
453.31	259.88
453.53	255.88
453.751	266.88
453.971	260.88
454.192	250.88
454.412	257.88
454.633	263.88
454.853	262.88
455.073	260.88
455.294	275.88
455.514	264.88
455.734	261.88
455.955	250.88
456.175	252.88
456.395	261.88
456.616	247.88
456.836	245.88
457.056	248.88
457.276	246.88
457.497	250.88
457.717	253.88
457.937	264.88
458.157	241.88
458.377	260.88
458.598	252.88
458.818	275.88
459.038	250.88
459.258	264.88
459.478	276.88
459.698	296.88
459.918	303.88
460.138	305.88
460.358	321.88
460.578	325.88
460.798	328.88
461.018	303.88
461.238	312.88
461.458	343.88
461.678	308.88
461.898	319.88
462.118	327.88
462.338	326.88
462.558	363.88
462.777	349.88
462.997	366.88
463.217	415.88
463.437	390.88
463.657	358.88
463.876	357.88
464.096	364.88
464.316	367.88
464.536	373.88
464.755	336.88
464.975	332.88
465.195	340.88
465.414	318.88
465.634	305.88
465.854	292.88
466.073	299.88
466.293	291.88
466.512	274.88
466.732	288.88
466.951	291.88
467.171	287.88
467.391	303.88
467.61	302.88
467.829	301.88
468.049	314.88
468.268	326.88
468.488	306.88
468.707	285.88
468.927	282.88
469.146	289.88
469.365	298.88
469.585	301.88
469.804	296.88
470.023	286.88
470.243	289.88
470.462	303.88
470.681	315.88
470.901	283.88
471.12	301.88
471.339	298.88
471.558	288.88
471.777	300.88
471.997	294.88
472.216	337.88
472.435	381.88
472.654	332.88
472.873	300.88
473.092	299.88
473.311	287.88
473.53	289.88
473.749	295.88
473.968	281.88
474.187	284.88
474.406	263.88
474.625	284.88
474.844	282.88
475.063	268.88
475.282	254.88
475.501	272.88
475.72	296.88
475.939	277.88
476.158	279.88
476.377	280.88
476.596	289.88
476.814	272.88
477.033	278.88
477.252	288.88
477.471	324.88
477.69	308.88
477.908	293.88
478.127	330.88
478.346	298.88
478.564	305.88
478.783	314.88
479.002	338.88
479.22	321.88
479.439	331.88
479.658	306.88
479.876	300.88
480.095	331.88
480.313	333.88
480.532	354.88
480.751	364.88
480.969	380.88
481.188	456.88
481.406	433.88
481.624	354.88
481.843	336.88
482.061	314.88
482.28	315.88
482.498	320.88
482.717	288.88
482.935	307.88
483.153	317.88
483.372	313.88
483.59	321.88
483.808	313.88
484.027	320.88
484.245	321.88
484.463	309.88
484.681	328.88
484.9	316.88
485.118	315.88
485.336	342.88
485.554	292.88
485.772	305.88
485.99	301.88
486.209	286.88
486.427	307.88
486.645	302.88
486.863	332.88
487.081	320.88
487.299	308.88
487.517	319.88
487.735	330.88
487.953	332.88
488.171	337.88
488.389	329.88
488.607	328.88
488.825	313.88
489.043	334.88
489.261	324.88
489.479	324.88
489.696	314.88
489.914	335.88
490.132	311.88
490.35	326.88
490.568	332.88
490.786	347.88
491.003	363.88
491.221	365.88
491.439	344.88
491.657	355.88
491.874	365.88
492.092	369.88
492.31	379.88
492.527	364.88
492.745	365.88
492.963	370.88
493.18	378.88
493.398	359.88
493.615	366.88
493.833	355.88
494.05	360.88
494.268	361.88
494.485	371.88
494.703	358.88
494.92	360.88
495.138	341.88
495.355	349.88
495.573	346.88
495.79	340.88
496.008	355.88
496.225	379.88
496.442	358.88
496.66	366.88
496.877	366.88
497.094	383.88
497.312	354.88
497.529	370.88
497.746	394.88
497.963	369.88
498.181	390.88
498.398	395.88
498.615	422.88
498.832	413.88
499.049	490.88
499.267	498.88
499.484	514.88
499.701	572.88
499.918	631.88
500.135	703.88
500.352	767.88
500.569	795.88
500.786	763.88
501.003	705.88
501.22	642.88
501.437	566.88
501.654	544.88
501.871	514.88
502.088	463.88
502.305	450.88
502.522	433.88
502.739	442.88
502.956	386.88
503.172	388.88
503.389	344.88
503.606	350.88
