Data from SampB_HRD10591_00009.txt Node
Date: Mon Jan 19 11:33:31 EST 2026
User: Yrep
Spectrometer: HR+D1059
Trigger mode: 0
Integration Time (sec): 3.443000E-1
Scans to average: 1
Electric dark correction enabled: true
Nonlinearity correction enabled: false
Boxcar width: 0
XAxis mode: Wavelengths
Number of Pixels in Spectrum: 2048
>>>>>Begin Spectral Data<<<<<
223.165	-30.25
223.4	-30.25
223.635	-30.25
223.869	-23.25
224.104	-30.25
224.338	-6.25
224.573	-18.25
224.808	-12.25
225.042	-2.25
225.277	-7.25
225.511	-13.25
225.746	6.75
225.98	18.75
226.215	1.75
226.449	26.75
226.683	26.75
226.918	18.75
227.152	43.75
227.387	45.75
227.621	44.75
227.856	50.75
228.09	30.75
228.324	43.75
228.559	52.75
228.793	61.75
229.027	74.75
229.262	81.75
229.496	81.75
229.73	68.75
229.964	66.75
230.199	81.75
230.433	83.75
230.667	94.75
230.901	80.75
231.136	92.75
231.37	100.75
231.604	91.75
231.838	92.75
232.072	94.75
232.306	86.75
232.541	90.75
232.775	90.75
233.009	87.75
233.243	90.75
233.477	84.75
233.711	89.75
233.945	87.75
234.179	83.75
234.413	106.75
234.647	98.75
234.881	84.75
235.115	97.75
235.349	83.75
235.583	79.75
235.817	77.75
236.051	90.75
236.285	90.75
236.519	80.75
236.753	90.75
236.987	79.75
237.221	86.75
237.455	79.75
237.689	95.75
237.922	106.75
238.156	100.75
238.39	88.75
238.624	85.75
238.858	89.75
239.091	87.75
239.325	91.75
239.559	84.75
239.793	95.75
240.027	96.75
240.26	104.75
240.494	91.75
240.728	90.75
240.961	103.75
241.195	109.75
241.429	99.75
241.662	92.75
241.896	98.75
242.13	85.75
242.363	99.75
242.597	92.75
242.83	87.75
243.064	99.75
243.298	99.75
243.531	95.75
243.765	93.75
243.998	98.75
244.232	106.75
244.465	98.75
244.699	121.75
244.932	97.75
245.166	105.75
245.399	116.75
245.633	111.75
245.866	105.75
246.099	104.75
246.333	123.75
246.566	100.75
246.8	103.75
247.033	104.75
247.266	111.75
247.5	86.75
247.733	88.75
247.966	93.75
248.2	96.75
248.433	111.75
248.666	99.75
248.899	111.75
249.133	113.75
249.366	89.75
249.599	107.75
249.832	118.75
250.066	118.75
250.299	98.75
250.532	108.75
250.765	103.75
250.998	118.75
251.231	130.75
251.465	114.75
251.698	104.75
251.931	106.75
252.164	94.75
252.397	109.75
252.63	117.75
252.863	111.75
253.096	113.75
253.329	135.75
253.562	96.75
253.795	106.75
254.028	111.75
254.261	105.75
254.494	108.75
254.727	116.75
254.96	112.75
255.193	117.75
255.426	112.75
255.659	101.75
255.892	128.75
256.124	114.75
256.357	116.75
256.59	128.75
256.823	110.75
257.056	116.75
257.289	125.75
257.521	112.75
257.754	107.75
257.987	110.75
258.22	105.75
258.452	115.75
258.685	113.75
258.918	115.75
259.151	106.75
259.383	111.75
259.616	120.75
259.849	103.75
260.081	121.75
260.314	131.75
260.547	132.75
260.779	116.75
261.012	112.75
261.244	119.75
261.477	115.75
261.71	122.75
261.942	122.75
262.175	130.75
262.407	111.75
262.64	122.75
262.872	127.75
263.105	125.75
263.337	118.75
263.57	116.75
263.802	128.75
264.035	118.75
264.267	137.75
264.499	108.75
264.732	135.75
264.964	123.75
265.197	132.75
265.429	129.75
265.661	117.75
265.894	128.75
266.126	131.75
266.358	120.75
266.591	139.75
266.823	122.75
267.055	131.75
267.287	125.75
267.52	125.75
267.752	98.75
267.984	119.75
268.216	123.75
268.448	139.75
268.681	139.75
268.913	134.75
269.145	119.75
269.377	119.75
269.609	120.75
269.841	125.75
270.073	127.75
270.306	126.75
270.538	116.75
270.77	135.75
271.002	146.75
271.234	140.75
271.466	133.75
271.698	131.75
271.93	137.75
272.162	132.75
272.394	150.75
272.626	127.75
272.858	139.75
273.09	146.75
273.322	153.75
273.553	122.75
273.785	129.75
274.017	124.75
274.249	123.75
274.481	138.75
274.713	131.75
274.945	142.75
275.176	154.75
275.408	141.75
275.64	165.75
275.872	158.75
276.104	144.75
276.335	155.75
276.567	140.75
276.799	144.75
277.031	134.75
277.262	146.75
277.494	137.75
277.726	126.75
277.957	148.75
278.189	144.75
278.421	139.75
278.652	156.75
278.884	144.75
279.115	129.75
279.347	152.75
279.579	132.75
279.81	143.75
280.042	162.75
280.273	152.75
280.505	130.75
280.736	165.75
280.968	152.75
281.199	144.75
281.431	150.75
281.662	139.75
281.894	142.75
282.125	151.75
282.356	134.75
282.588	143.75
282.819	147.75
283.051	162.75
283.282	166.75
283.513	156.75
283.745	146.75
283.976	151.75
284.207	154.75
284.439	154.75
284.67	160.75
284.901	148.75
285.132	161.75
285.364	165.75
285.595	160.75
285.826	162.75
286.057	156.75
286.288	162.75
286.52	163.75
286.751	156.75
286.982	148.75
287.213	164.75
287.444	163.75
287.675	152.75
287.906	157.75
288.138	154.75
288.369	152.75
288.6	163.75
288.831	134.75
289.062	165.75
289.293	163.75
289.524	146.75
289.755	152.75
289.986	160.75
290.217	168.75
290.448	170.75
290.679	160.75
290.91	168.75
291.141	139.75
291.371	182.75
291.602	182.75
291.833	151.75
292.064	157.75
292.295	175.75
292.526	162.75
292.757	163.75
292.987	170.75
293.218	171.75
293.449	172.75
293.68	172.75
293.91	153.75
294.141	176.75
294.372	166.75
294.603	151.75
294.833	160.75
295.064	155.75
295.295	181.75
295.525	167.75
295.756	161.75
295.987	148.75
296.217	173.75
296.448	165.75
296.679	163.75
296.909	166.75
297.14	180.75
297.37	163.75
297.601	171.75
297.831	178.75
298.062	168.75
298.292	173.75
298.523	170.75
298.753	168.75
298.984	180.75
299.214	180.75
299.445	173.75
299.675	186.75
299.905	173.75
300.136	174.75
300.366	167.75
300.597	186.75
300.827	187.75
301.057	182.75
301.288	186.75
301.518	163.75
301.748	169.75
301.979	207.75
302.209	192.75
302.439	176.75
302.669	186.75
302.9	177.75
303.13	165.75
303.36	176.75
303.59	172.75
303.82	168.75
304.051	174.75
304.281	179.75
304.511	153.75
304.741	184.75
304.971	166.75
305.201	184.75
305.431	178.75
305.661	180.75
305.891	188.75
306.121	174.75
306.352	176.75
306.582	195.75
306.812	172.75
307.042	183.75
307.272	178.75
307.502	178.75
307.731	183.75
307.961	188.75
308.191	180.75
308.421	179.75
308.651	181.75
308.881	194.75
309.111	181.75
309.341	184.75
309.571	182.75
309.8	183.75
310.03	187.75
310.26	183.75
310.49	179.75
310.72	184.75
310.949	199.75
311.179	169.75
311.409	180.75
311.639	190.75
311.868	210.75
312.098	178.75
312.328	184.75
312.557	183.75
312.787	174.75
313.017	177.75
313.246	184.75
313.476	173.75
313.706	177.75
313.935	178.75
314.165	195.75
314.394	194.75
314.624	190.75
314.853	190.75
315.083	186.75
315.312	196.75
315.542	177.75
315.771	196.75
316.001	183.75
316.23	170.75
316.46	189.75
316.689	200.75
316.919	206.75
317.148	203.75
317.377	198.75
317.607	182.75
317.836	183.75
318.065	193.75
318.295	175.75
318.524	180.75
318.753	189.75
318.983	186.75
319.212	192.75
319.441	185.75
319.67	187.75
319.9	182.75
320.129	187.75
320.358	189.75
320.587	191.75
320.816	186.75
321.046	178.75
321.275	203.75
321.504	187.75
321.733	176.75
321.962	200.75
322.191	200.75
322.42	186.75
322.649	193.75
322.878	209.75
323.108	195.75
323.337	205.75
323.566	203.75
323.795	198.75
324.024	198.75
324.253	191.75
324.482	202.75
324.71	216.75
324.939	198.75
325.168	210.75
325.397	195.75
325.626	203.75
325.855	193.75
326.084	214.75
326.313	200.75
326.542	203.75
326.77	205.75
326.999	215.75
327.228	212.75
327.457	206.75
327.686	216.75
327.914	214.75
328.143	209.75
328.372	215.75
328.6	202.75
328.829	224.75
329.058	210.75
329.287	207.75
329.515	221.75
329.744	227.75
329.972	227.75
330.201	219.75
330.43	233.75
330.658	221.75
330.887	226.75
331.115	224.75
331.344	207.75
331.572	215.75
331.801	223.75
332.03	217.75
332.258	228.75
332.486	211.75
332.715	240.75
332.943	238.75
333.172	278.75
333.4	257.75
333.629	268.75
333.857	268.75
334.085	271.75
334.314	266.75
334.542	252.75
334.771	274.75
334.999	232.75
335.227	249.75
335.455	236.75
335.684	232.75
335.912	224.75
336.14	226.75
336.369	239.75
336.597	226.75
336.825	227.75
337.053	237.75
337.281	245.75
337.51	228.75
337.738	219.75
337.966	228.75
338.194	218.75
338.422	223.75
338.65	224.75
338.878	211.75
339.106	213.75
339.334	234.75
339.562	218.75
339.79	209.75
340.018	210.75
340.246	199.75
340.474	204.75
340.702	217.75
340.93	192.75
341.158	194.75
341.386	204.75
341.614	209.75
341.842	208.75
342.07	215.75
342.298	202.75
342.526	191.75
342.754	208.75
342.981	205.75
343.209	200.75
343.437	257.75
343.665	242.75
343.893	234.75
344.12	240.75
344.348	225.75
344.576	215.75
344.804	222.75
345.031	227.75
345.259	224.75
345.487	220.75
345.714	196.75
345.942	204.75
346.17	203.75
346.397	204.75
346.625	206.75
346.853	201.75
347.08	204.75
347.308	196.75
347.535	203.75
347.763	195.75
347.99	221.75
348.218	219.75
348.445	203.75
348.673	211.75
348.9	207.75
349.128	206.75
349.355	184.75
349.583	194.75
349.81	213.75
350.037	190.75
350.265	223.75
350.492	199.75
350.72	188.75
350.947	190.75
351.174	221.75
351.402	180.75
351.629	192.75
351.856	199.75
352.083	199.75
352.311	191.75
352.538	211.75
352.765	182.75
352.992	208.75
353.22	190.75
353.447	207.75
353.674	206.75
353.901	220.75
354.128	206.75
354.355	192.75
354.583	208.75
354.81	191.75
355.037	198.75
355.264	211.75
355.491	215.75
355.718	198.75
355.945	198.75
356.172	197.75
356.399	206.75
356.626	218.75
356.853	206.75
357.08	208.75
357.307	200.75
357.534	210.75
357.761	194.75
357.988	210.75
358.215	216.75
358.441	188.75
358.668	195.75
358.895	202.75
359.122	192.75
359.349	175.75
359.576	207.75
359.802	200.75
360.029	215.75
360.256	207.75
360.483	205.75
360.709	207.75
360.936	203.75
361.163	200.75
361.39	219.75
361.616	206.75
361.843	198.75
362.07	209.75
362.296	210.75
362.523	183.75
362.749	194.75
362.976	181.75
363.203	202.75
363.429	209.75
363.656	191.75
363.882	202.75
364.109	184.75
364.335	206.75
364.562	206.75
364.788	200.75
365.015	212.75
365.241	206.75
365.468	182.75
365.694	208.75
365.92	200.75
366.147	208.75
366.373	204.75
366.599	202.75
366.826	210.75
367.052	194.75
367.278	219.75
367.505	218.75
367.731	227.75
367.957	204.75
368.184	214.75
368.41	211.75
368.636	218.75
368.862	202.75
369.089	186.75
369.315	214.75
369.541	213.75
369.767	208.75
369.993	202.75
370.219	198.75
370.445	212.75
370.672	211.75
370.898	199.75
371.124	218.75
371.35	212.75
371.576	201.75
371.802	223.75
372.028	223.75
372.254	219.75
372.48	219.75
372.706	218.75
372.932	215.75
373.158	242.75
373.384	239.75
373.61	235.75
373.835	221.75
374.061	241.75
374.287	216.75
374.513	235.75
374.739	231.75
374.965	233.75
375.191	232.75
375.416	247.75
375.642	207.75
375.868	241.75
376.094	219.75
376.319	242.75
376.545	231.75
376.771	216.75
376.997	207.75
377.222	206.75
377.448	236.75
377.674	220.75
377.899	219.75
378.125	221.75
378.35	234.75
378.576	207.75
378.802	212.75
379.027	208.75
379.253	218.75
379.478	220.75
379.704	224.75
379.929	216.75
380.155	227.75
380.38	223.75
380.606	213.75
380.831	227.75
381.057	212.75
381.282	235.75
381.507	226.75
381.733	232.75
381.958	229.75
382.184	218.75
382.409	225.75
382.634	241.75
382.86	228.75
383.085	243.75
383.31	233.75
383.535	231.75
383.761	247.75
383.986	251.75
384.211	250.75
384.436	242.75
384.662	259.75
384.887	248.75
385.112	242.75
385.337	234.75
385.562	256.75
385.787	246.75
386.013	273.75
386.238	262.75
386.463	249.75
386.688	280.75
386.913	246.75
387.138	236.75
387.363	264.75
387.588	254.75
387.813	256.75
388.038	258.75
388.263	272.75
388.488	239.75
388.713	253.75
388.938	248.75
389.163	250.75
389.387	265.75
389.612	259.75
389.837	256.75
390.062	261.75
390.287	256.75
390.512	260.75
390.736	266.75
390.961	274.75
391.186	271.75
391.411	281.75
391.636	271.75
391.86	279.75
392.085	282.75
392.31	285.75
392.534	278.75
392.759	276.75
392.984	276.75
393.208	300.75
393.433	310.75
393.658	318.75
393.882	272.75
394.107	274.75
394.331	272.75
394.556	282.75
394.78	287.75
395.005	272.75
395.229	280.75
395.454	299.75
395.678	292.75
395.903	293.75
396.127	297.75
396.352	288.75
396.576	273.75
396.801	303.75
397.025	329.75
397.249	286.75
397.474	315.75
397.698	300.75
397.922	291.75
398.147	296.75
398.371	303.75
398.595	329.75
398.82	304.75
399.044	351.75
399.268	385.75
399.492	409.75
399.717	428.75
399.941	399.75
400.165	392.75
400.389	355.75
400.613	335.75
400.837	331.75
401.062	314.75
401.286	338.75
401.51	322.75
401.734	331.75
401.958	313.75
402.182	314.75
402.406	316.75
402.63	336.75
402.854	346.75
403.078	330.75
403.302	344.75
403.526	358.75
403.75	340.75
403.974	351.75
404.198	337.75
404.422	359.75
404.645	344.75
404.869	349.75
405.093	340.75
405.317	344.75
405.541	338.75
405.765	334.75
405.988	349.75
406.212	329.75
406.436	352.75
406.66	363.75
406.883	342.75
407.107	363.75
407.331	370.75
407.555	383.75
407.778	374.75
408.002	361.75
408.226	371.75
408.449	347.75
408.673	359.75
408.896	352.75
409.12	343.75
409.344	352.75
409.567	332.75
409.791	342.75
410.014	359.75
410.238	330.75
410.461	334.75
410.685	323.75
410.908	345.75
411.132	336.75
411.355	339.75
411.578	332.75
411.802	320.75
412.025	321.75
412.249	320.75
412.472	328.75
412.695	322.75
412.919	323.75
413.142	334.75
413.365	323.75
413.589	334.75
413.812	316.75
414.035	326.75
414.258	321.75
414.482	321.75
414.705	322.75
414.928	339.75
415.151	331.75
415.374	344.75
415.597	332.75
415.821	329.75
416.044	333.75
416.267	327.75
416.49	325.75
416.713	329.75
416.936	323.75
417.159	306.75
417.382	324.75
417.605	311.75
417.828	339.75
418.051	316.75
418.274	330.75
418.497	315.75
418.72	326.75
418.943	340.75
419.166	361.75
419.389	362.75
419.611	356.75
419.834	327.75
420.057	330.75
420.28	320.75
420.503	336.75
420.726	317.75
420.948	333.75
421.171	304.75
421.394	316.75
421.617	347.75
421.839	334.75
422.062	333.75
422.285	322.75
422.507	339.75
422.73	313.75
422.953	329.75
423.175	354.75
423.398	334.75
423.621	334.75
423.843	346.75
424.066	327.75
424.288	342.75
424.511	332.75
424.733	330.75
424.956	343.75
425.178	312.75
425.401	319.75
425.623	331.75
425.846	336.75
426.068	317.75
426.291	312.75
426.513	316.75
426.735	318.75
426.958	320.75
427.18	308.75
427.402	311.75
427.625	322.75
427.847	289.75
428.069	302.75
428.292	305.75
428.514	296.75
428.736	291.75
428.958	290.75
429.181	293.75
429.403	290.75
429.625	310.75
429.847	298.75
430.069	307.75
430.292	301.75
430.514	297.75
430.736	294.75
430.958	295.75
431.18	281.75
431.402	296.75
431.624	313.75
431.846	286.75
432.068	270.75
432.29	290.75
432.512	296.75
432.734	298.75
432.956	294.75
433.178	309.75
433.4	313.75
433.622	306.75
433.844	320.75
434.066	304.75
434.287	308.75
434.509	305.75
434.731	307.75
434.953	322.75
435.175	316.75
435.397	320.75
435.618	305.75
435.84	278.75
436.062	294.75
436.284	304.75
436.505	297.75
436.727	322.75
436.949	297.75
437.17	297.75
437.392	295.75
437.614	284.75
437.835	281.75
438.057	282.75
438.278	284.75
438.5	296.75
438.721	289.75
438.943	292.75
439.165	296.75
439.386	308.75
439.608	312.75
439.829	292.75
440.05	285.75
440.272	299.75
440.493	307.75
440.715	297.75
440.936	338.75
441.158	328.75
441.379	319.75
441.6	341.75
441.822	330.75
442.043	333.75
442.264	332.75
442.486	327.75
442.707	316.75
442.928	314.75
443.149	324.75
443.371	321.75
443.592	307.75
443.813	333.75
444.034	340.75
444.255	356.75
444.476	365.75
444.698	372.75
444.919	353.75
445.14	566.75
445.361	438.75
445.582	316.75
445.803	326.75
446.024	314.75
446.245	310.75
446.466	326.75
446.687	319.75
446.908	298.75
447.129	328.75
447.35	310.75
447.571	311.75
447.792	290.75
448.013	287.75
448.234	280.75
448.455	281.75
448.675	289.75
448.896	274.75
449.117	280.75
449.338	288.75
449.559	302.75
449.779	288.75
450	291.75
450.221	274.75
450.442	287.75
450.662	270.75
450.883	288.75
451.104	291.75
451.324	279.75
451.545	272.75
451.766	288.75
451.986	268.75
452.207	275.75
452.428	280.75
452.648	282.75
452.869	257.75
453.089	276.75
453.31	270.75
453.53	251.75
453.751	270.75
453.971	262.75
454.192	254.75
454.412	257.75
454.633	264.75
454.853	256.75
455.073	257.75
455.294	264.75
455.514	262.75
455.734	237.75
455.955	250.75
456.175	262.75
456.395	259.75
456.616	260.75
456.836	255.75
457.056	262.75
457.276	266.75
457.497	242.75
457.717	235.75
457.937	251.75
458.157	258.75
458.377	264.75
458.598	267.75
458.818	274.75
459.038	271.75
459.258	270.75
459.478	268.75
459.698	272.75
459.918	277.75
460.138	302.75
460.358	338.75
460.578	319.75
460.798	332.75
461.018	328.75
461.238	319.75
461.458	323.75
461.678	324.75
461.898	333.75
462.118	339.75
462.338	326.75
462.558	372.75
462.777	350.75
462.997	397.75
463.217	423.75
463.437	386.75
463.657	369.75
463.876	368.75
464.096	354.75
464.316	364.75
464.536	351.75
464.755	352.75
464.975	342.75
465.195	351.75
465.414	319.75
465.634	304.75
465.854	300.75
466.073	284.75
466.293	302.75
466.512	284.75
466.732	297.75
466.951	287.75
467.171	283.75
467.391	281.75
467.61	289.75
467.829	287.75
468.049	306.75
468.268	283.75
468.488	285.75
468.707	293.75
468.927	275.75
469.146	272.75
469.365	284.75
469.585	291.75
469.804	307.75
470.023	309.75
470.243	303.75
470.462	302.75
470.681	308.75
470.901	296.75
471.12	315.75
471.339	309.75
471.558	298.75
471.777	293.75
471.997	295.75
472.216	303.75
472.435	300.75
472.654	278.75
472.873	280.75
473.092	269.75
473.311	283.75
473.53	280.75
473.749	311.75
473.968	282.75
474.187	266.75
474.406	270.75
474.625	278.75
474.844	263.75
475.063	258.75
475.282	272.75
475.501	279.75
475.72	274.75
475.939	276.75
476.158	276.75
476.377	299.75
476.596	275.75
476.814	280.75
477.033	268.75
477.252	294.75
477.471	283.75
477.69	309.75
477.908	318.75
478.127	329.75
478.346	319.75
478.564	318.75
478.783	308.75
479.002	350.75
479.22	342.75
479.439	323.75
479.658	320.75
479.876	337.75
480.095	316.75
480.313	346.75
480.532	336.75
480.751	355.75
480.969	347.75
481.188	356.75
481.406	365.75
481.624	297.75
481.843	301.75
482.061	318.75
482.28	304.75
482.498	314.75
482.717	302.75
482.935	304.75
483.153	295.75
483.372	315.75
483.59	328.75
483.808	311.75
484.027	302.75
484.245	312.75
484.463	295.75
484.681	330.75
484.9	317.75
485.118	320.75
485.336	309.75
485.554	304.75
485.772	294.75
485.99	309.75
486.209	314.75
486.427	323.75
486.645	302.75
486.863	334.75
487.081	311.75
487.299	330.75
487.517	314.75
487.735	350.75
487.953	340.75
488.171	360.75
488.389	330.75
488.607	319.75
488.825	304.75
489.043	320.75
489.261	307.75
489.479	331.75
489.696	315.75
489.914	313.75
490.132	311.75
490.35	328.75
490.568	313.75
490.786	334.75
491.003	339.75
491.221	342.75
491.439	351.75
491.657	359.75
491.874	345.75
492.092	346.75
492.31	383.75
492.527	354.75
492.745	349.75
492.963	361.75
493.18	368.75
493.398	348.75
493.615	362.75
493.833	353.75
494.05	350.75
494.268	353.75
494.485	358.75
494.703	358.75
494.92	324.75
495.138	338.75
495.355	360.75
495.573	374.75
495.79	353.75
496.008	367.75
496.225	344.75
496.442	340.75
496.66	377.75
496.877	371.75
497.094	377.75
497.312	375.75
497.529	370.75
497.746	386.75
497.963	352.75
498.181	364.75
498.398	426.75
498.615	437.75
498.832	440.75
499.049	480.75
499.267	519.75
499.484	538.75
499.701	588.75
499.918	631.75
500.135	728.75
500.352	771.75
500.569	788.75
500.786	783.75
501.003	710.75
501.22	650.75
501.437	608.75
501.654	544.75
501.871	509.75
502.088	462.75
502.305	472.75
502.522	429.75
502.739	408.75
502.956	398.75
503.172	399.75
503.389	385.75
503.606	358.75
