Data from SampB_HRD10591_00084.txt Node
Date: Mon Jan 19 11:33:57 EST 2026
User: Yrep
Spectrometer: HR+D1059
Trigger mode: 0
Integration Time (sec): 3.443000E-1
Scans to average: 1
Electric dark correction enabled: true
Nonlinearity correction enabled: false
Boxcar width: 0
XAxis mode: Wavelengths
Number of Pixels in Spectrum: 2048
>>>>>Begin Spectral Data<<<<<
223.165	-18.25
223.4	-18.25
223.635	-18.25
223.869	-16.25
224.104	-29.25
224.338	-13.25
224.573	-8.25
224.808	-20.25
225.042	-2.25
225.277	3.75
225.511	0.75
225.746	22.75
225.98	-1.25
226.215	11.75
226.449	8.75
226.683	14.75
226.918	16.75
227.152	29.75
227.387	28.75
227.621	31.75
227.856	47.75
228.09	42.75
228.324	61.75
228.559	59.75
228.793	67.75
229.027	77.75
229.262	74.75
229.496	82.75
229.73	65.75
229.964	88.75
230.199	91.75
230.433	87.75
230.667	83.75
230.901	77.75
231.136	80.75
231.37	97.75
231.604	95.75
231.838	78.75
232.072	74.75
232.306	96.75
232.541	90.75
232.775	84.75
233.009	104.75
233.243	96.75
233.477	98.75
233.711	93.75
233.945	95.75
234.179	103.75
234.413	101.75
234.647	108.75
234.881	93.75
235.115	84.75
235.349	102.75
235.583	89.75
235.817	102.75
236.051	89.75
236.285	95.75
236.519	103.75
236.753	98.75
236.987	101.75
237.221	90.75
237.455	91.75
237.689	98.75
237.922	97.75
238.156	108.75
238.39	102.75
238.624	107.75
238.858	98.75
239.091	96.75
239.325	98.75
239.559	104.75
239.793	109.75
240.027	110.75
240.26	100.75
240.494	106.75
240.728	97.75
240.961	113.75
241.195	102.75
241.429	103.75
241.662	97.75
241.896	95.75
242.13	95.75
242.363	94.75
242.597	85.75
242.83	93.75
243.064	112.75
243.298	99.75
243.531	104.75
243.765	116.75
243.998	109.75
244.232	100.75
244.465	106.75
244.699	108.75
244.932	115.75
245.166	114.75
245.399	119.75
245.633	113.75
245.866	110.75
246.099	98.75
246.333	111.75
246.566	100.75
246.8	98.75
247.033	100.75
247.266	113.75
247.5	112.75
247.733	112.75
247.966	120.75
248.2	119.75
248.433	123.75
248.666	110.75
248.899	125.75
249.133	134.75
249.366	134.75
249.599	123.75
249.832	137.75
250.066	121.75
250.299	129.75
250.532	129.75
250.765	114.75
250.998	113.75
251.231	103.75
251.465	117.75
251.698	124.75
251.931	122.75
252.164	113.75
252.397	122.75
252.63	119.75
252.863	112.75
253.096	134.75
253.329	130.75
253.562	118.75
253.795	138.75
254.028	150.75
254.261	148.75
254.494	115.75
254.727	132.75
254.96	119.75
255.193	135.75
255.426	113.75
255.659	132.75
255.892	130.75
256.124	130.75
256.357	134.75
256.59	132.75
256.823	130.75
257.056	136.75
257.289	127.75
257.521	129.75
257.754	134.75
257.987	113.75
258.22	142.75
258.452	139.75
258.685	142.75
258.918	142.75
259.151	136.75
259.383	141.75
259.616	141.75
259.849	147.75
260.081	160.75
260.314	143.75
260.547	149.75
260.779	142.75
261.012	144.75
261.244	155.75
261.477	154.75
261.71	126.75
261.942	152.75
262.175	137.75
262.407	140.75
262.64	157.75
262.872	146.75
263.105	152.75
263.337	162.75
263.57	144.75
263.802	142.75
264.035	120.75
264.267	122.75
264.499	128.75
264.732	115.75
264.964	112.75
265.197	122.75
265.429	125.75
265.661	121.75
265.894	110.75
266.126	142.75
266.358	121.75
266.591	130.75
266.823	134.75
267.055	137.75
267.287	128.75
267.52	120.75
267.752	129.75
267.984	119.75
268.216	143.75
268.448	139.75
268.681	130.75
268.913	134.75
269.145	125.75
269.377	139.75
269.609	126.75
269.841	152.75
270.073	138.75
270.306	152.75
270.538	139.75
270.77	138.75
271.002	151.75
271.234	138.75
271.466	155.75
271.698	163.75
271.93	140.75
272.162	156.75
272.394	152.75
272.626	149.75
272.858	144.75
273.09	148.75
273.322	158.75
273.553	145.75
273.785	160.75
274.017	197.75
274.249	179.75
274.481	190.75
274.713	192.75
274.945	228.75
275.176	216.75
275.408	189.75
275.64	191.75
275.872	179.75
276.104	156.75
276.335	139.75
276.567	168.75
276.799	157.75
277.031	148.75
277.262	162.75
277.494	144.75
277.726	160.75
277.957	140.75
278.189	160.75
278.421	144.75
278.652	150.75
278.884	161.75
279.115	166.75
279.347	150.75
279.579	168.75
279.81	161.75
280.042	150.75
280.273	160.75
280.505	170.75
280.736	154.75
280.968	146.75
281.199	164.75
281.431	150.75
281.662	148.75
281.894	164.75
282.125	155.75
282.356	158.75
282.588	149.75
282.819	135.75
283.051	158.75
283.282	141.75
283.513	144.75
283.745	150.75
283.976	156.75
284.207	148.75
284.439	154.75
284.67	172.75
284.901	157.75
285.132	164.75
285.364	152.75
285.595	159.75
285.826	173.75
286.057	159.75
286.288	150.75
286.52	150.75
286.751	156.75
286.982	157.75
287.213	161.75
287.444	176.75
287.675	162.75
287.906	161.75
288.138	158.75
288.369	164.75
288.6	161.75
288.831	151.75
289.062	141.75
289.293	160.75
289.524	130.75
289.755	154.75
289.986	152.75
290.217	165.75
290.448	160.75
290.679	144.75
290.91	162.75
291.141	157.75
291.371	152.75
291.602	165.75
291.833	150.75
292.064	157.75
292.295	153.75
292.526	153.75
292.757	168.75
292.987	175.75
293.218	166.75
293.449	150.75
293.68	169.75
293.91	144.75
294.141	168.75
294.372	166.75
294.603	159.75
294.833	150.75
295.064	157.75
295.295	139.75
295.525	167.75
295.756	177.75
295.987	163.75
296.217	167.75
296.448	175.75
296.679	172.75
296.909	160.75
297.14	169.75
297.37	163.75
297.601	170.75
297.831	178.75
298.062	174.75
298.292	170.75
298.523	188.75
298.753	180.75
298.984	156.75
299.214	183.75
299.445	162.75
299.675	179.75
299.905	189.75
300.136	175.75
300.366	186.75
300.597	183.75
300.827	176.75
301.057	175.75
301.288	167.75
301.518	187.75
301.748	177.75
301.979	228.75
302.209	187.75
302.439	182.75
302.669	170.75
302.9	170.75
303.13	178.75
303.36	176.75
303.59	175.75
303.82	176.75
304.051	193.75
304.281	177.75
304.511	185.75
304.741	175.75
304.971	170.75
305.201	164.75
305.431	174.75
305.661	177.75
305.891	162.75
306.121	168.75
306.352	174.75
306.582	175.75
306.812	184.75
307.042	183.75
307.272	172.75
307.502	177.75
307.731	185.75
307.961	176.75
308.191	186.75
308.421	184.75
308.651	185.75
308.881	176.75
309.111	179.75
309.341	175.75
309.571	176.75
309.8	179.75
310.03	165.75
310.26	168.75
310.49	183.75
310.72	171.75
310.949	163.75
311.179	168.75
311.409	162.75
311.639	174.75
311.868	183.75
312.098	182.75
312.328	171.75
312.557	175.75
312.787	178.75
313.017	178.75
313.246	179.75
313.476	180.75
313.706	196.75
313.935	174.75
314.165	178.75
314.394	180.75
314.624	179.75
314.853	171.75
315.083	179.75
315.312	176.75
315.542	171.75
315.771	163.75
316.001	179.75
316.23	177.75
316.46	177.75
316.689	182.75
316.919	176.75
317.148	176.75
317.377	188.75
317.607	173.75
317.836	177.75
318.065	195.75
318.295	195.75
318.524	180.75
318.753	175.75
318.983	179.75
319.212	183.75
319.441	176.75
319.67	189.75
319.9	192.75
320.129	172.75
320.358	178.75
320.587	180.75
320.816	186.75
321.046	161.75
321.275	174.75
321.504	187.75
321.733	204.75
321.962	185.75
322.191	196.75
322.42	193.75
322.649	206.75
322.878	202.75
323.108	194.75
323.337	193.75
323.566	191.75
323.795	183.75
324.024	189.75
324.253	198.75
324.482	186.75
324.71	187.75
324.939	200.75
325.168	207.75
325.397	209.75
325.626	215.75
325.855	205.75
326.084	202.75
326.313	186.75
326.542	210.75
326.77	225.75
326.999	193.75
327.228	200.75
327.457	209.75
327.686	232.75
327.914	223.75
328.143	246.75
328.372	247.75
328.6	230.75
328.829	211.75
329.058	216.75
329.287	220.75
329.515	223.75
329.744	254.75
329.972	272.75
330.201	319.75
330.43	324.75
330.658	268.75
330.887	253.75
331.115	220.75
331.344	227.75
331.572	230.75
331.801	235.75
332.03	220.75
332.258	222.75
332.486	225.75
332.715	240.75
332.943	241.75
333.172	257.75
333.4	260.75
333.629	269.75
333.857	292.75
334.085	319.75
334.314	378.75
334.542	391.75
334.771	374.75
334.999	309.75
335.227	253.75
335.455	243.75
335.684	264.75
335.912	232.75
336.14	236.75
336.369	233.75
336.597	220.75
336.825	223.75
337.053	224.75
337.281	222.75
337.51	227.75
337.738	231.75
337.966	208.75
338.194	228.75
338.422	217.75
338.65	214.75
338.878	211.75
339.106	195.75
339.334	215.75
339.562	200.75
339.79	194.75
340.018	198.75
340.246	200.75
340.474	201.75
340.702	191.75
340.93	201.75
341.158	198.75
341.386	194.75
341.614	202.75
341.842	182.75
342.07	187.75
342.298	185.75
342.526	195.75
342.754	192.75
342.981	206.75
343.209	205.75
343.437	246.75
343.665	216.75
343.893	230.75
344.12	248.75
344.348	221.75
344.576	212.75
344.804	204.75
345.031	193.75
345.259	194.75
345.487	184.75
345.714	187.75
345.942	192.75
346.17	210.75
346.397	188.75
346.625	192.75
346.853	190.75
347.08	203.75
347.308	194.75
347.535	193.75
347.763	206.75
347.99	195.75
348.218	206.75
348.445	188.75
348.673	184.75
348.9	197.75
349.128	193.75
349.355	206.75
349.583	203.75
349.81	200.75
350.037	188.75
350.265	185.75
350.492	188.75
350.72	169.75
350.947	178.75
351.174	206.75
351.402	172.75
351.629	192.75
351.856	172.75
352.083	182.75
352.311	192.75
352.538	184.75
352.765	204.75
352.992	219.75
353.22	205.75
353.447	195.75
353.674	186.75
353.901	197.75
354.128	198.75
354.355	200.75
354.583	200.75
354.81	195.75
355.037	205.75
355.264	179.75
355.491	211.75
355.718	216.75
355.945	218.75
356.172	192.75
356.399	181.75
356.626	222.75
356.853	227.75
357.08	231.75
357.307	204.75
357.534	185.75
357.761	198.75
357.988	206.75
358.215	227.75
358.441	208.75
358.668	218.75
358.895	206.75
359.122	205.75
359.349	191.75
359.576	192.75
359.802	187.75
360.029	186.75
360.256	196.75
360.483	203.75
360.709	221.75
360.936	236.75
361.163	216.75
361.39	203.75
361.616	199.75
361.843	209.75
362.07	214.75
362.296	196.75
362.523	187.75
362.749	183.75
362.976	198.75
363.203	223.75
363.429	208.75
363.656	195.75
363.882	200.75
364.109	204.75
364.335	205.75
364.562	209.75
364.788	204.75
365.015	214.75
365.241	206.75
365.468	208.75
365.694	194.75
365.92	211.75
366.147	183.75
366.373	182.75
366.599	202.75
366.826	205.75
367.052	193.75
367.278	204.75
367.505	186.75
367.731	215.75
367.957	204.75
368.184	186.75
368.41	210.75
368.636	204.75
368.862	223.75
369.089	196.75
369.315	194.75
369.541	208.75
369.767	202.75
369.993	205.75
370.219	200.75
370.445	223.75
370.672	208.75
370.898	211.75
371.124	194.75
371.35	192.75
371.576	207.75
371.802	210.75
372.028	225.75
372.254	243.75
372.48	231.75
372.706	223.75
372.932	231.75
373.158	229.75
373.384	258.75
373.61	250.75
373.835	242.75
374.061	224.75
374.287	232.75
374.513	248.75
374.739	258.75
374.965	271.75
375.191	262.75
375.416	256.75
375.642	240.75
375.868	256.75
376.094	238.75
376.319	248.75
376.545	223.75
376.771	233.75
376.997	212.75
377.222	198.75
377.448	203.75
377.674	205.75
377.899	207.75
378.125	203.75
378.35	211.75
378.576	185.75
378.802	199.75
379.027	207.75
379.253	215.75
379.478	211.75
379.704	229.75
379.929	210.75
380.155	224.75
380.38	200.75
380.606	203.75
380.831	220.75
381.057	217.75
381.282	223.75
381.507	240.75
381.733	237.75
381.958	239.75
382.184	254.75
382.409	251.75
382.634	271.75
382.86	262.75
383.085	239.75
383.31	238.75
383.535	263.75
383.761	244.75
383.986	252.75
384.211	258.75
384.436	228.75
384.662	263.75
384.887	237.75
385.112	243.75
385.337	227.75
385.562	247.75
385.787	266.75
386.013	270.75
386.238	263.75
386.463	240.75
386.688	292.75
386.913	238.75
387.138	235.75
387.363	262.75
387.588	262.75
387.813	254.75
388.038	267.75
388.263	251.75
388.488	251.75
388.713	252.75
388.938	239.75
389.163	254.75
389.387	238.75
389.612	244.75
389.837	249.75
390.062	263.75
390.287	249.75
390.512	242.75
390.736	233.75
390.961	258.75
391.186	243.75
391.411	252.75
391.636	267.75
391.86	270.75
392.085	294.75
392.31	258.75
392.534	264.75
392.759	264.75
392.984	281.75
393.208	299.75
393.433	308.75
393.658	287.75
393.882	272.75
394.107	247.75
394.331	271.75
394.556	267.75
394.78	288.75
395.005	278.75
395.229	258.75
395.454	282.75
395.678	282.75
395.903	293.75
396.127	291.75
396.352	301.75
396.576	262.75
396.801	282.75
397.025	288.75
397.249	271.75
397.474	275.75
397.698	270.75
397.922	284.75
398.147	271.75
398.371	292.75
398.595	279.75
398.82	290.75
399.044	332.75
399.268	368.75
399.492	395.75
399.717	400.75
399.941	394.75
400.165	366.75
400.389	326.75
400.613	320.75
400.837	319.75
401.062	305.75
401.286	280.75
401.51	294.75
401.734	300.75
401.958	297.75
402.182	290.75
402.406	292.75
402.63	334.75
402.854	308.75
403.078	314.75
403.302	305.75
403.526	329.75
403.75	321.75
403.974	342.75
404.198	335.75
404.422	341.75
404.645	371.75
404.869	347.75
405.093	341.75
405.317	337.75
405.541	331.75
405.765	322.75
405.988	333.75
406.212	341.75
406.436	338.75
406.66	346.75
406.883	346.75
407.107	361.75
407.331	385.75
407.555	363.75
407.778	351.75
408.002	329.75
408.226	338.75
408.449	315.75
408.673	320.75
408.896	336.75
409.12	336.75
409.344	341.75
409.567	330.75
409.791	324.75
410.014	316.75
410.238	322.75
410.461	331.75
410.685	334.75
410.908	316.75
411.132	327.75
411.355	300.75
411.578	324.75
411.802	311.75
412.025	332.75
412.249	322.75
412.472	308.75
412.695	299.75
412.919	312.75
413.142	307.75
413.365	316.75
413.589	318.75
413.812	306.75
414.035	294.75
414.258	318.75
414.482	307.75
414.705	313.75
414.928	301.75
415.151	303.75
415.374	322.75
415.597	298.75
415.821	298.75
416.044	316.75
416.267	271.75
416.49	282.75
416.713	280.75
416.936	302.75
417.159	303.75
417.382	306.75
417.605	306.75
417.828	315.75
418.051	305.75
418.274	326.75
418.497	321.75
418.72	333.75
418.943	312.75
419.166	334.75
419.389	328.75
419.611	353.75
419.834	311.75
420.057	322.75
420.28	328.75
420.503	316.75
420.726	315.75
420.948	296.75
421.171	299.75
421.394	316.75
421.617	301.75
421.839	327.75
422.062	330.75
422.285	332.75
422.507	322.75
422.73	345.75
422.953	356.75
423.175	318.75
423.398	309.75
423.621	319.75
423.843	343.75
424.066	332.75
424.288	332.75
424.511	331.75
424.733	313.75
424.956	321.75
425.178	330.75
425.401	314.75
425.623	322.75
425.846	313.75
426.068	306.75
426.291	303.75
426.513	304.75
426.735	293.75
426.958	309.75
427.18	299.75
427.402	316.75
427.625	293.75
427.847	305.75
428.069	312.75
428.292	276.75
428.514	300.75
428.736	269.75
428.958	293.75
429.181	287.75
429.403	268.75
429.625	284.75
429.847	292.75
430.069	302.75
430.292	296.75
430.514	298.75
430.736	288.75
430.958	293.75
431.18	286.75
431.402	278.75
431.624	274.75
431.846	262.75
432.068	282.75
432.29	279.75
432.512	282.75
432.734	305.75
432.956	292.75
433.178	281.75
433.4	283.75
433.622	295.75
433.844	280.75
434.066	259.75
434.287	278.75
434.509	266.75
434.731	277.75
434.953	312.75
435.175	307.75
435.397	313.75
435.618	278.75
435.84	278.75
436.062	259.75
436.284	282.75
436.505	269.75
436.727	286.75
436.949	270.75
437.17	286.75
437.392	249.75
437.614	266.75
437.835	269.75
438.057	265.75
438.278	254.75
438.5	304.75
438.721	288.75
438.943	272.75
439.165	275.75
439.386	279.75
439.608	288.75
439.829	278.75
440.05	286.75
440.272	281.75
440.493	308.75
440.715	298.75
440.936	280.75
441.158	301.75
441.379	308.75
441.6	305.75
441.822	298.75
442.043	317.75
442.264	292.75
442.486	293.75
442.707	312.75
442.928	296.75
443.149	311.75
443.371	331.75
443.592	323.75
443.813	311.75
444.034	295.75
444.255	340.75
444.476	330.75
444.698	356.75
444.919	359.75
445.14	515.75
445.361	432.75
445.582	326.75
445.803	312.75
446.024	329.75
446.245	308.75
446.466	308.75
446.687	293.75
446.908	318.75
447.129	286.75
447.35	275.75
447.571	278.75
447.792	280.75
448.013	263.75
448.234	258.75
448.455	280.75
448.675	278.75
448.896	261.75
449.117	254.75
449.338	266.75
449.559	287.75
449.779	273.75
450	276.75
450.221	268.75
450.442	272.75
450.662	259.75
450.883	256.75
451.104	273.75
451.324	271.75
451.545	287.75
451.766	274.75
451.986	263.75
452.207	266.75
452.428	267.75
452.648	246.75
452.869	243.75
453.089	253.75
453.31	271.75
453.53	290.75
453.751	270.75
453.971	261.75
454.192	243.75
454.412	241.75
454.633	234.75
454.853	227.75
455.073	244.75
455.294	244.75
455.514	254.75
455.734	264.75
455.955	250.75
456.175	239.75
456.395	235.75
456.616	250.75
456.836	246.75
457.056	233.75
457.276	214.75
457.497	219.75
457.717	242.75
457.937	230.75
458.157	252.75
458.377	228.75
458.598	254.75
458.818	239.75
459.038	264.75
459.258	243.75
459.478	267.75
459.698	245.75
459.918	271.75
460.138	278.75
460.358	302.75
460.578	324.75
460.798	316.75
461.018	300.75
461.238	301.75
461.458	303.75
461.678	303.75
461.898	300.75
462.118	312.75
462.338	306.75
462.558	343.75
462.777	330.75
462.997	356.75
463.217	393.75
463.437	376.75
463.657	320.75
463.876	320.75
464.096	340.75
464.316	322.75
464.536	338.75
464.755	345.75
464.975	324.75
465.195	325.75
465.414	302.75
465.634	291.75
465.854	291.75
466.073	296.75
466.293	286.75
466.512	266.75
466.732	279.75
466.951	289.75
467.171	278.75
467.391	286.75
467.61	288.75
467.829	285.75
468.049	342.75
468.268	349.75
468.488	310.75
468.707	300.75
468.927	301.75
469.146	292.75
469.365	292.75
469.585	275.75
469.804	300.75
470.023	299.75
470.243	292.75
470.462	288.75
470.681	297.75
470.901	296.75
471.12	286.75
471.339	300.75
471.558	289.75
471.777	283.75
471.997	321.75
472.216	380.75
472.435	472.75
472.654	364.75
472.873	319.75
473.092	275.75
473.311	290.75
473.53	273.75
473.749	289.75
473.968	283.75
474.187	268.75
474.406	258.75
474.625	278.75
474.844	277.75
475.063	273.75
475.282	267.75
475.501	279.75
475.72	275.75
475.939	283.75
476.158	277.75
476.377	273.75
476.596	271.75
476.814	304.75
477.033	260.75
477.252	274.75
477.471	285.75
477.69	299.75
477.908	304.75
478.127	321.75
478.346	307.75
478.564	300.75
478.783	314.75
479.002	342.75
479.22	332.75
479.439	340.75
479.658	315.75
479.876	316.75
480.095	330.75
480.313	352.75
480.532	347.75
480.751	360.75
480.969	432.75
481.188	660.75
481.406	556.75
481.624	386.75
481.843	349.75
482.061	314.75
482.28	335.75
482.498	314.75
482.717	304.75
482.935	321.75
483.153	312.75
483.372	329.75
483.59	308.75
483.808	294.75
484.027	315.75
484.245	313.75
484.463	304.75
484.681	320.75
484.9	308.75
485.118	317.75
485.336	298.75
485.554	304.75
485.772	288.75
485.99	300.75
486.209	321.75
486.427	301.75
486.645	312.75
486.863	321.75
487.081	307.75
487.299	333.75
487.517	321.75
487.735	330.75
487.953	348.75
488.171	348.75
488.389	327.75
488.607	305.75
488.825	283.75
489.043	309.75
489.261	318.75
489.479	321.75
489.696	318.75
489.914	312.75
490.132	322.75
490.35	334.75
490.568	324.75
490.786	308.75
491.003	338.75
491.221	360.75
491.439	350.75
491.657	348.75
491.874	370.75
492.092	384.75
492.31	402.75
492.527	356.75
492.745	385.75
492.963	362.75
493.18	363.75
493.398	356.75
493.615	359.75
493.833	328.75
494.05	354.75
494.268	351.75
494.485	347.75
494.703	355.75
494.92	343.75
495.138	340.75
495.355	348.75
495.573	346.75
495.79	362.75
496.008	383.75
496.225	336.75
496.442	356.75
496.66	381.75
496.877	357.75
497.094	351.75
497.312	372.75
497.529	369.75
497.746	394.75
497.963	370.75
498.181	379.75
498.398	426.75
498.615	404.75
498.832	420.75
499.049	454.75
499.267	519.75
499.484	523.75
499.701	557.75
499.918	626.75
500.135	691.75
500.352	719.75
500.569	761.75
500.786	760.75
501.003	684.75
501.22	620.75
501.437	563.75
501.654	531.75
501.871	480.75
502.088	447.75
502.305	440.75
502.522	438.75
502.739	394.75
502.956	364.75
503.172	376.75
503.389	366.75
