Data from SampB_HRD10591_00036.txt Node
Date: Mon Jan 19 11:33:40 EST 2026
User: Yrep
Spectrometer: HR+D1059
Trigger mode: 0
Integration Time (sec): 3.443000E-1
Scans to average: 1
Electric dark correction enabled: true
Nonlinearity correction enabled: false
Boxcar width: 0
XAxis mode: Wavelengths
Number of Pixels in Spectrum: 2048
>>>>>Begin Spectral Data<<<<<
223.165	-22.38
223.4	-22.38
223.635	-22.38
223.869	-16.38
224.104	-39.38
224.338	-21.38
224.573	-18.38
224.808	-15.38
225.042	7.62
225.277	0.62
225.511	-12.38
225.746	14.62
225.98	11.62
226.215	18.62
226.449	15.62
226.683	21.62
226.918	29.62
227.152	25.62
227.387	48.62
227.621	43.62
227.856	43.62
228.09	47.62
228.324	37.62
228.559	64.62
228.793	65.62
229.027	72.62
229.262	75.62
229.496	57.62
229.73	73.62
229.964	86.62
230.199	88.62
230.433	74.62
230.667	80.62
230.901	87.62
231.136	75.62
231.37	79.62
231.604	77.62
231.838	68.62
232.072	61.62
232.306	84.62
232.541	87.62
232.775	82.62
233.009	73.62
233.243	99.62
233.477	85.62
233.711	99.62
233.945	89.62
234.179	99.62
234.413	89.62
234.647	77.62
234.881	87.62
235.115	78.62
235.349	93.62
235.583	89.62
235.817	100.62
236.051	78.62
236.285	70.62
236.519	94.62
236.753	76.62
236.987	80.62
237.221	76.62
237.455	82.62
237.689	84.62
237.922	88.62
238.156	76.62
238.39	72.62
238.624	90.62
238.858	88.62
239.091	77.62
239.325	74.62
239.559	112.62
239.793	77.62
240.027	99.62
240.26	75.62
240.494	97.62
240.728	91.62
240.961	101.62
241.195	83.62
241.429	92.62
241.662	75.62
241.896	90.62
242.13	79.62
242.363	95.62
242.597	66.62
242.83	89.62
243.064	89.62
243.298	99.62
243.531	83.62
243.765	92.62
243.998	103.62
244.232	87.62
244.465	78.62
244.699	90.62
244.932	78.62
245.166	96.62
245.399	86.62
245.633	87.62
245.866	101.62
246.099	92.62
246.333	94.62
246.566	92.62
246.8	73.62
247.033	102.62
247.266	97.62
247.5	93.62
247.733	84.62
247.966	85.62
248.2	87.62
248.433	90.62
248.666	101.62
248.899	92.62
249.133	98.62
249.366	101.62
249.599	93.62
249.832	88.62
250.066	95.62
250.299	92.62
250.532	103.62
250.765	111.62
250.998	99.62
251.231	95.62
251.465	100.62
251.698	90.62
251.931	98.62
252.164	99.62
252.397	87.62
252.63	88.62
252.863	99.62
253.096	95.62
253.329	91.62
253.562	103.62
253.795	98.62
254.028	96.62
254.261	86.62
254.494	97.62
254.727	105.62
254.96	100.62
255.193	97.62
255.426	85.62
255.659	88.62
255.892	92.62
256.124	95.62
256.357	99.62
256.59	107.62
256.823	97.62
257.056	110.62
257.289	92.62
257.521	103.62
257.754	96.62
257.987	108.62
258.22	110.62
258.452	102.62
258.685	88.62
258.918	104.62
259.151	88.62
259.383	105.62
259.616	87.62
259.849	107.62
260.081	96.62
260.314	97.62
260.547	95.62
260.779	99.62
261.012	100.62
261.244	90.62
261.477	127.62
261.71	111.62
261.942	105.62
262.175	91.62
262.407	97.62
262.64	97.62
262.872	92.62
263.105	119.62
263.337	110.62
263.57	99.62
263.802	95.62
264.035	103.62
264.267	104.62
264.499	97.62
264.732	114.62
264.964	80.62
265.197	84.62
265.429	94.62
265.661	93.62
265.894	113.62
266.126	114.62
266.358	102.62
266.591	116.62
266.823	103.62
267.055	92.62
267.287	96.62
267.52	106.62
267.752	115.62
267.984	110.62
268.216	107.62
268.448	119.62
268.681	109.62
268.913	101.62
269.145	89.62
269.377	93.62
269.609	108.62
269.841	106.62
270.073	105.62
270.306	115.62
270.538	112.62
270.77	101.62
271.002	119.62
271.234	108.62
271.466	103.62
271.698	104.62
271.93	107.62
272.162	87.62
272.394	107.62
272.626	122.62
272.858	107.62
273.09	112.62
273.322	112.62
273.553	92.62
273.785	117.62
274.017	109.62
274.249	106.62
274.481	108.62
274.713	120.62
274.945	120.62
275.176	105.62
275.408	115.62
275.64	103.62
275.872	107.62
276.104	117.62
276.335	109.62
276.567	120.62
276.799	116.62
277.031	124.62
277.262	113.62
277.494	128.62
277.726	101.62
277.957	109.62
278.189	109.62
278.421	109.62
278.652	126.62
278.884	114.62
279.115	122.62
279.347	112.62
279.579	119.62
279.81	115.62
280.042	117.62
280.273	115.62
280.505	125.62
280.736	115.62
280.968	127.62
281.199	115.62
281.431	118.62
281.662	110.62
281.894	114.62
282.125	115.62
282.356	121.62
282.588	123.62
282.819	119.62
283.051	104.62
283.282	113.62
283.513	106.62
283.745	118.62
283.976	122.62
284.207	102.62
284.439	125.62
284.67	113.62
284.901	106.62
285.132	100.62
285.364	116.62
285.595	103.62
285.826	114.62
286.057	120.62
286.288	111.62
286.52	122.62
286.751	117.62
286.982	131.62
287.213	105.62
287.444	111.62
287.675	115.62
287.906	101.62
288.138	113.62
288.369	125.62
288.6	117.62
288.831	101.62
289.062	124.62
289.293	129.62
289.524	130.62
289.755	101.62
289.986	108.62
290.217	106.62
290.448	110.62
290.679	109.62
290.91	121.62
291.141	125.62
291.371	131.62
291.602	113.62
291.833	122.62
292.064	114.62
292.295	108.62
292.526	99.62
292.757	122.62
292.987	119.62
293.218	112.62
293.449	120.62
293.68	126.62
293.91	105.62
294.141	121.62
294.372	121.62
294.603	117.62
294.833	119.62
295.064	97.62
295.295	128.62
295.525	129.62
295.756	122.62
295.987	120.62
296.217	119.62
296.448	116.62
296.679	123.62
296.909	120.62
297.14	131.62
297.37	112.62
297.601	109.62
297.831	112.62
298.062	120.62
298.292	130.62
298.523	128.62
298.753	118.62
298.984	109.62
299.214	116.62
299.445	127.62
299.675	120.62
299.905	125.62
300.136	127.62
300.366	121.62
300.597	134.62
300.827	132.62
301.057	124.62
301.288	130.62
301.518	121.62
301.748	114.62
301.979	168.62
302.209	116.62
302.439	147.62
302.669	139.62
302.9	116.62
303.13	138.62
303.36	124.62
303.59	122.62
303.82	128.62
304.051	128.62
304.281	124.62
304.511	136.62
304.741	130.62
304.971	105.62
305.201	132.62
305.431	125.62
305.661	125.62
305.891	121.62
306.121	120.62
306.352	127.62
306.582	121.62
306.812	128.62
307.042	137.62
307.272	135.62
307.502	136.62
307.731	137.62
307.961	139.62
308.191	128.62
308.421	123.62
308.651	126.62
308.881	121.62
309.111	119.62
309.341	136.62
309.571	124.62
309.8	123.62
310.03	115.62
310.26	132.62
310.49	142.62
310.72	117.62
310.949	129.62
311.179	131.62
311.409	116.62
311.639	125.62
311.868	130.62
312.098	125.62
312.328	124.62
312.557	143.62
312.787	119.62
313.017	125.62
313.246	139.62
313.476	142.62
313.706	131.62
313.935	132.62
314.165	141.62
314.394	135.62
314.624	115.62
314.853	128.62
315.083	124.62
315.312	136.62
315.542	137.62
315.771	140.62
316.001	142.62
316.23	137.62
316.46	121.62
316.689	119.62
316.919	136.62
317.148	146.62
317.377	144.62
317.607	144.62
317.836	147.62
318.065	125.62
318.295	136.62
318.524	131.62
318.753	132.62
318.983	126.62
319.212	132.62
319.441	121.62
319.67	139.62
319.9	127.62
320.129	144.62
320.358	133.62
320.587	127.62
320.816	139.62
321.046	115.62
321.275	137.62
321.504	129.62
321.733	128.62
321.962	139.62
322.191	128.62
322.42	127.62
322.649	130.62
322.878	141.62
323.108	160.62
323.337	149.62
323.566	126.62
323.795	115.62
324.024	125.62
324.253	124.62
324.482	123.62
324.71	136.62
324.939	139.62
325.168	120.62
325.397	135.62
325.626	132.62
325.855	138.62
326.084	119.62
326.313	143.62
326.542	124.62
326.77	129.62
326.999	131.62
327.228	129.62
327.457	152.62
327.686	151.62
327.914	164.62
328.143	151.62
328.372	154.62
328.6	147.62
328.829	138.62
329.058	152.62
329.287	167.62
329.515	154.62
329.744	160.62
329.972	167.62
330.201	194.62
330.43	185.62
330.658	160.62
330.887	131.62
331.115	149.62
331.344	129.62
331.572	156.62
331.801	152.62
332.03	138.62
332.258	155.62
332.486	165.62
332.715	154.62
332.943	167.62
333.172	169.62
333.4	168.62
333.629	174.62
333.857	169.62
334.085	178.62
334.314	219.62
334.542	225.62
334.771	218.62
334.999	181.62
335.227	153.62
335.455	167.62
335.684	166.62
335.912	146.62
336.14	161.62
336.369	135.62
336.597	138.62
336.825	144.62
337.053	141.62
337.281	153.62
337.51	142.62
337.738	146.62
337.966	136.62
338.194	141.62
338.422	130.62
338.65	155.62
338.878	148.62
339.106	140.62
339.334	145.62
339.562	126.62
339.79	135.62
340.018	127.62
340.246	135.62
340.474	120.62
340.702	137.62
340.93	148.62
341.158	133.62
341.386	143.62
341.614	117.62
341.842	143.62
342.07	118.62
342.298	146.62
342.526	146.62
342.754	116.62
342.981	148.62
343.209	145.62
343.437	166.62
343.665	156.62
343.893	161.62
344.12	159.62
344.348	138.62
344.576	142.62
344.804	129.62
345.031	136.62
345.259	142.62
345.487	135.62
345.714	143.62
345.942	127.62
346.17	132.62
346.397	135.62
346.625	136.62
346.853	133.62
347.08	142.62
347.308	137.62
347.535	139.62
347.763	137.62
347.99	146.62
348.218	128.62
348.445	144.62
348.673	121.62
348.9	135.62
349.128	149.62
349.355	136.62
349.583	137.62
349.81	141.62
350.037	148.62
350.265	129.62
350.492	130.62
350.72	129.62
350.947	132.62
351.174	136.62
351.402	138.62
351.629	146.62
351.856	118.62
352.083	141.62
352.311	152.62
352.538	123.62
352.765	140.62
352.992	151.62
353.22	151.62
353.447	137.62
353.674	130.62
353.901	125.62
354.128	141.62
354.355	137.62
354.583	142.62
354.81	131.62
355.037	140.62
355.264	152.62
355.491	129.62
355.718	132.62
355.945	146.62
356.172	137.62
356.399	125.62
356.626	139.62
356.853	139.62
357.08	141.62
357.307	125.62
357.534	136.62
357.761	137.62
357.988	135.62
358.215	144.62
358.441	128.62
358.668	135.62
358.895	145.62
359.122	142.62
359.349	139.62
359.576	138.62
359.802	132.62
360.029	123.62
360.256	123.62
360.483	131.62
360.709	138.62
360.936	144.62
361.163	135.62
361.39	115.62
361.616	133.62
361.843	132.62
362.07	156.62
362.296	150.62
362.523	122.62
362.749	148.62
362.976	151.62
363.203	159.62
363.429	139.62
363.656	127.62
363.882	148.62
364.109	127.62
364.335	131.62
364.562	138.62
364.788	129.62
365.015	140.62
365.241	144.62
365.468	148.62
365.694	123.62
365.92	141.62
366.147	135.62
366.373	125.62
366.599	130.62
366.826	130.62
367.052	138.62
367.278	144.62
367.505	151.62
367.731	158.62
367.957	152.62
368.184	124.62
368.41	137.62
368.636	135.62
368.862	141.62
369.089	132.62
369.315	125.62
369.541	137.62
369.767	137.62
369.993	140.62
370.219	130.62
370.445	137.62
370.672	135.62
370.898	135.62
371.124	138.62
371.35	141.62
371.576	151.62
371.802	152.62
372.028	143.62
372.254	132.62
372.48	143.62
372.706	157.62
372.932	134.62
373.158	139.62
373.384	164.62
373.61	156.62
373.835	130.62
374.061	130.62
374.287	127.62
374.513	128.62
374.739	159.62
374.965	141.62
375.191	152.62
375.416	147.62
375.642	171.62
375.868	171.62
376.094	154.62
376.319	143.62
376.545	142.62
376.771	133.62
376.997	148.62
377.222	132.62
377.448	148.62
377.674	128.62
377.899	135.62
378.125	148.62
378.35	156.62
378.576	145.62
378.802	155.62
379.027	141.62
379.253	156.62
379.478	144.62
379.704	132.62
379.929	142.62
380.155	147.62
380.38	133.62
380.606	125.62
380.831	138.62
381.057	156.62
381.282	144.62
381.507	149.62
381.733	151.62
381.958	124.62
382.184	136.62
382.409	155.62
382.634	145.62
382.86	146.62
383.085	165.62
383.31	160.62
383.535	171.62
383.761	151.62
383.986	156.62
384.211	156.62
384.436	154.62
384.662	147.62
384.887	150.62
385.112	166.62
385.337	160.62
385.562	154.62
385.787	163.62
386.013	146.62
386.238	159.62
386.463	158.62
386.688	203.62
386.913	145.62
387.138	169.62
387.363	155.62
387.588	161.62
387.813	172.62
388.038	165.62
388.263	158.62
388.488	169.62
388.713	163.62
388.938	159.62
389.163	169.62
389.387	157.62
389.612	158.62
389.837	173.62
390.062	152.62
390.287	163.62
390.512	160.62
390.736	183.62
390.961	168.62
391.186	172.62
391.411	160.62
391.636	152.62
391.86	170.62
392.085	162.62
392.31	176.62
392.534	185.62
392.759	177.62
392.984	180.62
393.208	182.62
393.433	171.62
393.658	173.62
393.882	161.62
394.107	170.62
394.331	170.62
394.556	177.62
394.78	180.62
395.005	176.62
395.229	171.62
395.454	181.62
395.678	165.62
395.903	173.62
396.127	170.62
396.352	185.62
396.576	166.62
396.801	178.62
397.025	186.62
397.249	184.62
397.474	177.62
397.698	181.62
397.922	182.62
398.147	165.62
398.371	186.62
398.595	167.62
398.82	196.62
399.044	197.62
399.268	227.62
399.492	228.62
399.717	249.62
399.941	208.62
400.165	218.62
400.389	206.62
400.613	195.62
400.837	200.62
401.062	203.62
401.286	200.62
401.51	171.62
401.734	188.62
401.958	187.62
402.182	175.62
402.406	200.62
402.63	175.62
402.854	212.62
403.078	196.62
403.302	199.62
403.526	201.62
403.75	217.62
403.974	201.62
404.198	194.62
404.422	221.62
404.645	222.62
404.869	215.62
405.093	205.62
405.317	210.62
405.541	202.62
405.765	184.62
405.988	212.62
406.212	216.62
406.436	200.62
406.66	202.62
406.883	206.62
407.107	206.62
407.331	224.62
407.555	217.62
407.778	217.62
408.002	210.62
408.226	204.62
408.449	205.62
408.673	201.62
408.896	209.62
409.12	210.62
409.344	214.62
409.567	195.62
409.791	197.62
410.014	191.62
410.238	205.62
410.461	207.62
410.685	209.62
410.908	210.62
411.132	185.62
411.355	172.62
411.578	211.62
411.802	189.62
412.025	207.62
412.249	192.62
412.472	194.62
412.695	183.62
412.919	201.62
413.142	199.62
413.365	195.62
413.589	184.62
413.812	196.62
414.035	200.62
414.258	206.62
414.482	196.62
414.705	202.62
414.928	215.62
415.151	195.62
415.374	192.62
415.597	200.62
415.821	207.62
416.044	201.62
416.267	205.62
416.49	190.62
416.713	177.62
416.936	193.62
417.159	207.62
417.382	190.62
417.605	183.62
417.828	193.62
418.051	174.62
418.274	189.62
418.497	199.62
418.72	187.62
418.943	197.62
419.166	213.62
419.389	210.62
419.611	210.62
419.834	208.62
420.057	211.62
420.28	211.62
420.503	180.62
420.726	187.62
420.948	215.62
421.171	209.62
421.394	193.62
421.617	200.62
421.839	204.62
422.062	202.62
422.285	196.62
422.507	206.62
422.73	199.62
422.953	203.62
423.175	193.62
423.398	193.62
423.621	187.62
423.843	196.62
424.066	201.62
424.288	212.62
424.511	204.62
424.733	211.62
424.956	195.62
425.178	192.62
425.401	190.62
425.623	178.62
425.846	195.62
426.068	184.62
426.291	182.62
426.513	201.62
426.735	191.62
426.958	176.62
427.18	210.62
427.402	201.62
427.625	177.62
427.847	179.62
428.069	194.62
428.292	187.62
428.514	180.62
428.736	187.62
428.958	171.62
429.181	195.62
429.403	183.62
429.625	165.62
429.847	181.62
430.069	166.62
430.292	191.62
430.514	179.62
430.736	191.62
430.958	168.62
431.18	180.62
431.402	178.62
431.624	180.62
431.846	176.62
432.068	173.62
432.29	175.62
432.512	183.62
432.734	198.62
432.956	180.62
433.178	215.62
433.4	186.62
433.622	187.62
433.844	191.62
434.066	178.62
434.287	185.62
434.509	171.62
434.731	182.62
434.953	190.62
435.175	187.62
435.397	195.62
435.618	190.62
435.84	174.62
436.062	188.62
436.284	173.62
436.505	180.62
436.727	173.62
436.949	176.62
437.17	190.62
437.392	186.62
437.614	180.62
437.835	159.62
438.057	163.62
438.278	166.62
438.5	177.62
438.721	189.62
438.943	173.62
439.165	171.62
439.386	162.62
439.608	194.62
439.829	185.62
440.05	196.62
440.272	183.62
440.493	176.62
440.715	188.62
440.936	190.62
441.158	194.62
441.379	208.62
441.6	182.62
441.822	203.62
442.043	205.62
442.264	194.62
442.486	186.62
442.707	189.62
442.928	208.62
443.149	183.62
443.371	211.62
443.592	189.62
443.813	199.62
444.034	198.62
444.255	199.62
444.476	199.62
444.698	208.62
444.919	212.62
445.14	387.62
445.361	299.62
445.582	192.62
445.803	204.62
446.024	198.62
446.245	193.62
446.466	186.62
446.687	184.62
446.908	188.62
447.129	193.62
447.35	185.62
447.571	187.62
447.792	179.62
448.013	172.62
448.234	160.62
448.455	180.62
448.675	176.62
448.896	177.62
449.117	190.62
449.338	170.62
449.559	171.62
449.779	194.62
450	173.62
450.221	183.62
450.442	174.62
450.662	191.62
450.883	189.62
451.104	172.62
451.324	185.62
451.545	177.62
451.766	162.62
451.986	167.62
452.207	160.62
452.428	170.62
452.648	169.62
452.869	181.62
453.089	165.62
453.31	165.62
453.53	179.62
453.751	155.62
453.971	170.62
454.192	161.62
454.412	169.62
454.633	174.62
454.853	161.62
455.073	148.62
455.294	168.62
455.514	170.62
455.734	160.62
455.955	172.62
456.175	165.62
456.395	141.62
456.616	162.62
456.836	139.62
457.056	159.62
457.276	153.62
457.497	157.62
457.717	143.62
457.937	159.62
458.157	168.62
458.377	154.62
458.598	154.62
458.818	163.62
459.038	163.62
459.258	157.62
459.478	179.62
459.698	154.62
459.918	163.62
460.138	170.62
460.358	181.62
460.578	178.62
460.798	192.62
461.018	186.62
461.238	196.62
461.458	210.62
461.678	189.62
461.898	207.62
462.118	195.62
462.338	206.62
462.558	186.62
462.777	190.62
462.997	209.62
463.217	234.62
463.437	238.62
463.657	209.62
463.876	205.62
464.096	208.62
464.316	192.62
464.536	210.62
464.755	207.62
464.975	196.62
465.195	187.62
465.414	191.62
465.634	174.62
465.854	178.62
466.073	183.62
466.293	181.62
466.512	192.62
466.732	187.62
466.951	188.62
467.171	189.62
467.391	176.62
467.61	187.62
467.829	186.62
468.049	193.62
468.268	188.62
468.488	178.62
468.707	192.62
468.927	171.62
469.146	176.62
469.365	178.62
469.585	168.62
469.804	190.62
470.023	193.62
470.243	175.62
470.462	178.62
470.681	178.62
470.901	192.62
471.12	187.62
471.339	192.62
471.558	189.62
471.777	176.62
471.997	176.62
472.216	208.62
472.435	235.62
472.654	197.62
472.873	199.62
473.092	187.62
473.311	196.62
473.53	174.62
473.749	169.62
473.968	182.62
474.187	168.62
474.406	179.62
474.625	200.62
474.844	192.62
475.063	175.62
475.282	193.62
475.501	164.62
475.72	178.62
475.939	164.62
476.158	165.62
476.377	187.62
476.596	171.62
476.814	175.62
477.033	176.62
477.252	171.62
477.471	170.62
477.69	182.62
477.908	199.62
478.127	186.62
478.346	203.62
478.564	203.62
478.783	195.62
479.002	205.62
479.22	199.62
479.439	194.62
479.658	190.62
479.876	191.62
480.095	189.62
480.313	199.62
480.532	222.62
480.751	222.62
480.969	218.62
481.188	280.62
481.406	274.62
481.624	225.62
481.843	209.62
482.061	203.62
482.28	196.62
482.498	197.62
482.717	187.62
482.935	186.62
483.153	194.62
483.372	201.62
483.59	197.62
483.808	194.62
484.027	195.62
484.245	203.62
484.463	203.62
484.681	220.62
484.9	204.62
485.118	163.62
485.336	198.62
485.554	188.62
485.772	183.62
485.99	204.62
486.209	193.62
486.427	192.62
486.645	190.62
486.863	201.62
487.081	187.62
487.299	185.62
487.517	192.62
487.735	197.62
487.953	219.62
488.171	225.62
488.389	208.62
488.607	205.62
488.825	169.62
489.043	186.62
489.261	191.62
489.479	217.62
489.696	188.62
489.914	179.62
490.132	190.62
490.35	191.62
490.568	209.62
490.786	215.62
491.003	224.62
491.221	207.62
491.439	220.62
491.657	224.62
491.874	216.62
492.092	228.62
492.31	218.62
492.527	225.62
492.745	226.62
492.963	221.62
493.18	220.62
493.398	231.62
493.615	219.62
493.833	217.62
494.05	212.62
494.268	216.62
494.485	227.62
494.703	227.62
494.92	206.62
495.138	211.62
495.355	228.62
495.573	201.62
495.79	209.62
496.008	226.62
496.225	230.62
496.442	216.62
496.66	228.62
496.877	219.62
497.094	228.62
497.312	223.62
497.529	219.62
497.746	244.62
497.963	234.62
498.181	237.62
498.398	235.62
498.615	253.62
498.832	251.62
499.049	276.62
499.267	271.62
499.484	287.62
499.701	320.62
499.918	343.62
500.135	368.62
500.352	394.62
500.569	414.62
500.786	399.62
501.003	379.62
501.22	353.62
501.437	329.62
501.654	282.62
501.871	271.62
502.088	254.62
502.305	264.62
502.522	256.62
502.739	247.62
502.956	239.62
503.172	220.62
503.389	227.62
503.606	212.62
503.823	219.62
504.04	203.62
504.256	211.62
504.473	211.62
