Data from Uncirc_1989_H10_HRD10591_00084.txt Node
Date: Wed Jan 03 11:57:52 EST 2024
User: Yrep
Spectrometer: HR+D1059
Trigger mode: 1
Integration Time (sec): 1.000000E-1
Scans to average: 1
Electric dark correction enabled: true
Nonlinearity correction enabled: false
Boxcar width: 0
XAxis mode: Wavelengths
Number of Pixels in Spectrum: 2048
>>>>>Begin Spectral Data<<<<<
223.165	-10.25
223.4	-10.25
223.635	-10.25
223.869	-17.25
224.104	-17.25
224.338	-34.25
224.573	-14.25
224.808	-18.25
225.042	-11.25
225.277	-11.25
225.511	-18.25
225.746	4.75
225.98	13.75
226.215	-0.25
226.449	17.75
226.683	28.75
226.918	35.75
227.152	51.75
227.387	41.75
227.621	38.75
227.856	42.75
228.09	49.75
228.324	36.75
228.559	56.75
228.793	60.75
229.027	66.75
229.262	63.75
229.496	61.75
229.73	77.75
229.964	67.75
230.199	82.75
230.433	80.75
230.667	85.75
230.901	70.75
231.136	82.75
231.37	77.75
231.604	91.75
231.838	69.75
232.072	87.75
232.306	75.75
232.541	91.75
232.775	83.75
233.009	70.75
233.243	71.75
233.477	72.75
233.711	89.75
233.945	75.75
234.179	58.75
234.413	96.75
234.647	89.75
234.881	88.75
235.115	79.75
235.349	84.75
235.583	83.75
235.817	76.75
236.051	77.75
236.285	86.75
236.519	85.75
236.753	81.75
236.987	64.75
237.221	68.75
237.455	71.75
237.689	73.75
237.922	78.75
238.156	74.75
238.39	73.75
238.624	84.75
238.858	64.75
239.091	69.75
239.325	73.75
239.559	80.75
239.793	81.75
240.027	81.75
240.26	71.75
240.494	61.75
240.728	87.75
240.961	75.75
241.195	90.75
241.429	72.75
241.662	86.75
241.896	84.75
242.13	72.75
242.363	86.75
242.597	71.75
242.83	74.75
243.064	79.75
243.298	92.75
243.531	85.75
243.765	82.75
243.998	94.75
244.232	89.75
244.465	76.75
244.699	79.75
244.932	83.75
245.166	69.75
245.399	85.75
245.633	82.75
245.866	79.75
246.099	86.75
246.333	92.75
246.566	84.75
246.8	86.75
247.033	88.75
247.266	78.75
247.5	81.75
247.733	70.75
247.966	79.75
248.2	75.75
248.433	78.75
248.666	74.75
248.899	70.75
249.133	76.75
249.366	99.75
249.599	96.75
249.832	81.75
250.066	77.75
250.299	91.75
250.532	71.75
250.765	79.75
250.998	75.75
251.231	63.75
251.465	63.75
251.698	57.75
251.931	88.75
252.164	73.75
252.397	91.75
252.63	93.75
252.863	80.75
253.096	88.75
253.329	82.75
253.562	79.75
253.795	98.75
254.028	81.75
254.261	87.75
254.494	77.75
254.727	89.75
254.96	83.75
255.193	81.75
255.426	82.75
255.659	76.75
255.892	90.75
256.124	91.75
256.357	83.75
256.59	75.75
256.823	88.75
257.056	75.75
257.289	83.75
257.521	80.75
257.754	81.75
257.987	81.75
258.22	98.75
258.452	79.75
258.685	85.75
258.918	83.75
259.151	82.75
259.383	89.75
259.616	80.75
259.849	84.75
260.081	81.75
260.314	94.75
260.547	90.75
260.779	80.75
261.012	83.75
261.244	71.75
261.477	91.75
261.71	88.75
261.942	102.75
262.175	104.75
262.407	80.75
262.64	78.75
262.872	87.75
263.105	82.75
263.337	90.75
263.57	76.75
263.802	83.75
264.035	83.75
264.267	83.75
264.499	88.75
264.732	84.75
264.964	91.75
265.197	80.75
265.429	87.75
265.661	86.75
265.894	78.75
266.126	88.75
266.358	81.75
266.591	92.75
266.823	83.75
267.055	89.75
267.287	75.75
267.52	81.75
267.752	80.75
267.984	76.75
268.216	85.75
268.448	91.75
268.681	88.75
268.913	96.75
269.145	73.75
269.377	80.75
269.609	91.75
269.841	75.75
270.073	75.75
270.306	71.75
270.538	81.75
270.77	83.75
271.002	89.75
271.234	86.75
271.466	83.75
271.698	88.75
271.93	85.75
272.162	90.75
272.394	85.75
272.626	82.75
272.858	87.75
273.09	94.75
273.322	61.75
273.553	85.75
273.785	86.75
274.017	87.75
274.249	89.75
274.481	95.75
274.713	89.75
274.945	94.75
275.176	85.75
275.408	83.75
275.64	85.75
275.872	69.75
276.104	93.75
276.335	90.75
276.567	92.75
276.799	110.75
277.031	111.75
277.262	102.75
277.494	99.75
277.726	89.75
277.957	74.75
278.189	81.75
278.421	91.75
278.652	81.75
278.884	79.75
279.115	87.75
279.347	79.75
279.579	93.75
279.81	72.75
280.042	80.75
280.273	99.75
280.505	95.75
280.736	94.75
280.968	92.75
281.199	82.75
281.431	88.75
281.662	95.75
281.894	87.75
282.125	103.75
282.356	119.75
282.588	128.75
282.819	96.75
283.051	82.75
283.282	92.75
283.513	89.75
283.745	83.75
283.976	80.75
284.207	81.75
284.439	94.75
284.67	100.75
284.901	85.75
285.132	88.75
285.364	78.75
285.595	70.75
285.826	83.75
286.057	91.75
286.288	82.75
286.52	91.75
286.751	89.75
286.982	85.75
287.213	82.75
287.444	83.75
287.675	82.75
287.906	86.75
288.138	97.75
288.369	91.75
288.6	82.75
288.831	82.75
289.062	76.75
289.293	101.75
289.524	92.75
289.755	84.75
289.986	82.75
290.217	78.75
290.448	88.75
290.679	87.75
290.91	83.75
291.141	86.75
291.371	81.75
291.602	94.75
291.833	88.75
292.064	89.75
292.295	84.75
292.526	95.75
292.757	91.75
292.987	100.75
293.218	97.75
293.449	104.75
293.68	91.75
293.91	70.75
294.141	83.75
294.372	91.75
294.603	95.75
294.833	80.75
295.064	94.75
295.295	96.75
295.525	94.75
295.756	96.75
295.987	105.75
296.217	133.75
296.448	108.75
296.679	89.75
296.909	88.75
297.14	81.75
297.37	95.75
297.601	84.75
297.831	81.75
298.062	85.75
298.292	85.75
298.523	72.75
298.753	75.75
298.984	90.75
299.214	92.75
299.445	82.75
299.675	111.75
299.905	90.75
300.136	82.75
300.366	105.75
300.597	90.75
300.827	84.75
301.057	99.75
301.288	96.75
301.518	89.75
301.748	95.75
301.979	102.75
302.209	92.75
302.439	92.75
302.669	97.75
302.9	92.75
303.13	90.75
303.36	81.75
303.59	99.75
303.82	94.75
304.051	87.75
304.281	92.75
304.511	91.75
304.741	93.75
304.971	102.75
305.201	85.75
305.431	93.75
305.661	95.75
305.891	86.75
306.121	85.75
306.352	83.75
306.582	103.75
306.812	86.75
307.042	95.75
307.272	101.75
307.502	109.75
307.731	88.75
307.961	95.75
308.191	88.75
308.421	77.75
308.651	97.75
308.881	100.75
309.111	97.75
309.341	86.75
309.571	88.75
309.8	84.75
310.03	91.75
310.26	84.75
310.49	77.75
310.72	98.75
310.949	98.75
311.179	98.75
311.409	101.75
311.639	90.75
311.868	98.75
312.098	102.75
312.328	98.75
312.557	103.75
312.787	95.75
313.017	116.75
313.246	95.75
313.476	70.75
313.706	99.75
313.935	75.75
314.165	113.75
314.394	101.75
314.624	97.75
314.853	105.75
315.083	97.75
315.312	104.75
315.542	92.75
315.771	78.75
316.001	98.75
316.23	89.75
316.46	95.75
316.689	88.75
316.919	79.75
317.148	99.75
317.377	94.75
317.607	78.75
317.836	92.75
318.065	79.75
318.295	88.75
318.524	90.75
318.753	90.75
318.983	84.75
319.212	98.75
319.441	97.75
319.67	107.75
319.9	92.75
320.129	84.75
320.358	91.75
320.587	92.75
320.816	111.75
321.046	111.75
321.275	100.75
321.504	93.75
321.733	94.75
321.962	95.75
322.191	94.75
322.42	94.75
322.649	96.75
322.878	109.75
323.108	115.75
323.337	121.75
323.566	124.75
323.795	152.75
324.024	181.75
324.253	347.75
324.482	717.75
324.71	1473.75
324.939	1901.75
325.168	691.75
325.397	207.75
325.626	139.75
325.855	115.75
326.084	105.75
326.313	125.75
326.542	134.75
326.77	204.75
326.999	415.75
327.228	826.75
327.457	1527.75
327.686	1191.75
327.914	333.75
328.143	199.75
328.372	188.75
328.6	140.75
328.829	122.75
329.058	108.75
329.287	115.75
329.515	87.75
329.744	122.75
329.972	134.75
330.201	190.75
330.43	244.75
330.658	163.75
330.887	145.75
331.115	129.75
331.344	105.75
331.572	102.75
331.801	89.75
332.03	93.75
332.258	96.75
332.486	105.75
332.715	101.75
332.943	95.75
333.172	108.75
333.4	103.75
333.629	102.75
333.857	122.75
334.085	133.75
334.314	203.75
334.542	303.75
334.771	288.75
334.999	144.75
335.227	105.75
335.455	95.75
335.684	105.75
335.912	112.75
336.14	104.75
336.369	97.75
336.597	89.75
336.825	108.75
337.053	90.75
337.281	91.75
337.51	91.75
337.738	99.75
337.966	93.75
338.194	105.75
338.422	97.75
338.65	94.75
338.878	104.75
339.106	97.75
339.334	84.75
339.562	99.75
339.79	83.75
340.018	99.75
340.246	80.75
340.474	95.75
340.702	100.75
340.93	94.75
341.158	86.75
341.386	70.75
341.614	95.75
341.842	91.75
342.07	79.75
342.298	88.75
342.526	67.75
342.754	93.75
342.981	95.75
343.209	84.75
343.437	100.75
343.665	89.75
343.893	92.75
344.12	109.75
344.348	85.75
344.576	87.75
344.804	95.75
345.031	98.75
345.259	94.75
345.487	83.75
345.714	84.75
345.942	80.75
346.17	97.75
346.397	93.75
346.625	99.75
346.853	86.75
347.08	108.75
347.308	96.75
347.535	106.75
347.763	113.75
347.99	94.75
348.218	102.75
348.445	88.75
348.673	98.75
348.9	111.75
349.128	91.75
349.355	97.75
349.583	95.75
349.81	91.75
350.037	94.75
350.265	91.75
350.492	91.75
350.72	93.75
350.947	96.75
351.174	111.75
351.402	93.75
351.629	108.75
351.856	113.75
352.083	91.75
352.311	113.75
352.538	106.75
352.765	89.75
352.992	113.75
353.22	111.75
353.447	101.75
353.674	101.75
353.901	95.75
354.128	101.75
354.355	90.75
354.583	94.75
354.81	101.75
355.037	105.75
355.264	102.75
355.491	95.75
355.718	95.75
355.945	93.75
356.172	93.75
356.399	105.75
356.626	101.75
356.853	87.75
357.08	86.75
357.307	93.75
357.534	62.75
357.761	95.75
357.988	103.75
358.215	93.75
358.441	97.75
358.668	89.75
358.895	107.75
359.122	99.75
359.349	79.75
359.576	81.75
359.802	97.75
360.029	114.75
360.256	101.75
360.483	84.75
360.709	94.75
360.936	94.75
361.163	107.75
361.39	105.75
361.616	83.75
361.843	91.75
362.07	89.75
362.296	103.75
362.523	85.75
362.749	93.75
362.976	96.75
363.203	91.75
363.429	86.75
363.656	100.75
363.882	99.75
364.109	89.75
364.335	88.75
364.562	96.75
364.788	81.75
365.015	108.75
365.241	91.75
365.468	107.75
365.694	102.75
365.92	97.75
366.147	97.75
366.373	82.75
366.599	85.75
366.826	81.75
367.052	81.75
367.278	96.75
367.505	88.75
367.731	86.75
367.957	105.75
368.184	96.75
368.41	95.75
368.636	91.75
368.862	101.75
369.089	108.75
369.315	90.75
369.541	83.75
369.767	99.75
369.993	93.75
370.219	93.75
370.445	96.75
370.672	78.75
370.898	83.75
371.124	87.75
371.35	83.75
371.576	89.75
371.802	88.75
372.028	87.75
372.254	101.75
372.48	83.75
372.706	98.75
372.932	103.75
373.158	98.75
373.384	88.75
373.61	77.75
373.835	96.75
374.061	80.75
374.287	96.75
374.513	91.75
374.739	77.75
374.965	87.75
375.191	73.75
375.416	86.75
375.642	91.75
375.868	100.75
376.094	66.75
376.319	82.75
376.545	89.75
376.771	89.75
376.997	83.75
377.222	84.75
377.448	89.75
377.674	94.75
377.899	75.75
378.125	86.75
378.35	93.75
378.576	95.75
378.802	96.75
379.027	83.75
379.253	85.75
379.478	95.75
379.704	88.75
379.929	100.75
380.155	87.75
380.38	86.75
380.606	88.75
380.831	100.75
381.057	91.75
381.282	78.75
381.507	96.75
381.733	88.75
381.958	90.75
382.184	76.75
382.409	103.75
382.634	98.75
382.86	87.75
383.085	116.75
383.31	90.75
383.535	93.75
383.761	91.75
383.986	85.75
384.211	91.75
384.436	86.75
384.662	95.75
384.887	89.75
385.112	92.75
385.337	93.75
385.562	107.75
385.787	109.75
386.013	111.75
386.238	125.75
386.463	95.75
386.688	119.75
386.913	102.75
387.138	107.75
387.363	92.75
387.588	104.75
387.813	96.75
388.038	93.75
388.263	104.75
388.488	99.75
388.713	103.75
388.938	98.75
389.163	106.75
389.387	91.75
389.612	88.75
389.837	84.75
390.062	93.75
390.287	91.75
390.512	109.75
390.736	88.75
390.961	93.75
391.186	93.75
391.411	95.75
391.636	100.75
391.86	79.75
392.085	70.75
392.31	83.75
392.534	89.75
392.759	99.75
392.984	87.75
393.208	81.75
393.433	75.75
393.658	75.75
393.882	77.75
394.107	96.75
394.331	88.75
394.556	82.75
394.78	85.75
395.005	75.75
395.229	96.75
395.454	93.75
395.678	83.75
395.903	90.75
396.127	87.75
396.352	80.75
396.576	87.75
396.801	87.75
397.025	84.75
397.249	92.75
397.474	91.75
397.698	93.75
397.922	92.75
398.147	88.75
398.371	97.75
398.595	90.75
398.82	85.75
399.044	66.75
399.268	96.75
399.492	85.75
399.717	81.75
399.941	90.75
400.165	87.75
400.389	90.75
400.613	80.75
400.837	83.75
401.062	74.75
401.286	84.75
401.51	79.75
401.734	72.75
401.958	81.75
402.182	115.75
402.406	129.75
402.63	106.75
402.854	116.75
403.078	83.75
403.302	84.75
403.526	90.75
403.75	94.75
403.974	81.75
404.198	87.75
404.422	96.75
404.645	97.75
404.869	99.75
405.093	70.75
405.317	103.75
405.541	88.75
405.765	89.75
405.988	113.75
406.212	141.75
406.436	178.75
406.66	118.75
406.883	88.75
407.107	85.75
407.331	95.75
407.555	83.75
407.778	68.75
408.002	90.75
408.226	72.75
408.449	83.75
408.673	84.75
408.896	85.75
409.12	104.75
409.344	93.75
409.567	90.75
409.791	72.75
410.014	79.75
410.238	98.75
410.461	81.75
410.685	98.75
410.908	102.75
411.132	95.75
411.355	100.75
411.578	104.75
411.802	97.75
412.025	88.75
412.249	82.75
412.472	95.75
412.695	96.75
412.919	86.75
413.142	86.75
413.365	88.75
413.589	86.75
413.812	63.75
414.035	88.75
414.258	94.75
414.482	97.75
414.705	89.75
414.928	76.75
415.151	77.75
415.374	88.75
415.597	91.75
415.821	98.75
416.044	92.75
416.267	90.75
416.49	85.75
416.713	69.75
416.936	92.75
417.159	66.75
417.382	93.75
417.605	96.75
417.828	87.75
418.051	88.75
418.274	84.75
418.497	85.75
418.72	85.75
418.943	80.75
419.166	72.75
419.389	95.75
419.611	85.75
419.834	79.75
420.057	93.75
420.28	99.75
420.503	94.75
420.726	87.75
420.948	98.75
421.171	84.75
421.394	86.75
421.617	87.75
421.839	76.75
422.062	86.75
422.285	96.75
422.507	92.75
422.73	97.75
422.953	96.75
423.175	88.75
423.398	86.75
423.621	97.75
423.843	99.75
424.066	93.75
424.288	80.75
424.511	78.75
424.733	84.75
424.956	108.75
425.178	88.75
425.401	94.75
425.623	95.75
425.846	75.75
426.068	83.75
426.291	86.75
426.513	86.75
426.735	95.75
426.958	86.75
427.18	99.75
427.402	106.75
427.625	159.75
427.847	135.75
428.069	135.75
428.292	92.75
428.514	90.75
428.736	92.75
428.958	80.75
429.181	86.75
429.403	83.75
429.625	84.75
429.847	86.75
430.069	105.75
430.292	99.75
430.514	77.75
430.736	93.75
430.958	88.75
431.18	83.75
431.402	73.75
431.624	93.75
431.846	92.75
432.068	109.75
432.29	77.75
432.512	97.75
432.734	81.75
432.956	92.75
433.178	98.75
433.4	100.75
433.622	99.75
433.844	89.75
434.066	90.75
434.287	97.75
434.509	100.75
434.731	96.75
434.953	84.75
435.175	92.75
435.397	72.75
435.618	80.75
435.84	89.75
436.062	118.75
436.284	118.75
436.505	102.75
436.727	91.75
436.949	86.75
437.17	99.75
437.392	88.75
437.614	104.75
437.835	96.75
438.057	110.75
438.278	92.75
438.5	86.75
438.721	99.75
438.943	91.75
439.165	94.75
439.386	93.75
439.608	95.75
439.829	87.75
440.05	104.75
440.272	142.75
440.493	115.75
440.715	86.75
440.936	80.75
441.158	88.75
441.379	82.75
441.6	87.75
441.822	104.75
442.043	99.75
442.264	104.75
442.486	95.75
442.707	94.75
442.928	100.75
443.149	133.75
443.371	121.75
443.592	85.75
443.813	102.75
444.034	96.75
444.255	89.75
444.476	75.75
444.698	82.75
444.919	78.75
445.14	113.75
445.361	122.75
445.582	103.75
445.803	129.75
446.024	115.75
446.245	121.75
446.466	109.75
446.687	97.75
446.908	75.75
447.129	89.75
447.35	84.75
447.571	100.75
447.792	96.75
448.013	92.75
448.234	110.75
448.455	106.75
448.675	104.75
448.896	89.75
449.117	92.75
449.338	92.75
449.559	108.75
449.779	105.75
450	82.75
450.221	93.75
450.442	82.75
450.662	82.75
450.883	92.75
451.104	116.75
451.324	77.75
451.545	83.75
451.766	72.75
451.986	83.75
452.207	83.75
452.428	79.75
452.648	94.75
452.869	112.75
453.089	103.75
453.31	101.75
453.53	80.75
453.751	102.75
453.971	96.75
454.192	93.75
454.412	94.75
454.633	99.75
454.853	91.75
455.073	97.75
455.294	105.75
455.514	100.75
455.734	85.75
455.955	90.75
456.175	96.75
456.395	76.75
456.616	75.75
456.836	87.75
457.056	72.75
457.276	93.75
457.497	110.75
457.717	86.75
457.937	80.75
458.157	75.75
458.377	76.75
458.598	97.75
458.818	124.75
459.038	134.75
459.258	95.75
459.478	82.75
459.698	83.75
459.918	81.75
460.138	83.75
460.358	81.75
460.578	83.75
460.798	81.75
461.018	89.75
461.238	86.75
461.458	92.75
461.678	89.75
461.898	74.75
462.118	83.75
462.338	72.75
462.558	71.75
462.777	87.75
462.997	82.75
463.217	95.75
463.437	95.75
463.657	71.75
463.876	95.75
464.096	85.75
464.316	87.75
464.536	90.75
464.755	80.75
464.975	78.75
465.195	132.75
465.414	125.75
465.634	88.75
465.854	89.75
466.073	85.75
466.293	67.75
466.512	78.75
466.732	80.75
466.951	95.75
467.171	94.75
467.391	93.75
467.61	98.75
467.829	101.75
468.049	161.75
468.268	159.75
468.488	94.75
468.707	95.75
468.927	91.75
469.146	102.75
469.365	82.75
469.585	82.75
469.804	85.75
470.023	81.75
470.243	85.75
470.462	95.75
470.681	101.75
470.901	76.75
471.12	97.75
471.339	102.75
471.558	85.75
471.777	83.75
471.997	109.75
472.216	222.75
472.435	388.75
472.654	139.75
472.873	85.75
473.092	86.75
473.311	80.75
473.53	80.75
473.749	83.75
473.968	91.75
474.187	94.75
474.406	95.75
474.625	64.75
474.844	76.75
475.063	93.75
475.282	84.75
475.501	92.75
475.72	94.75
475.939	82.75
476.158	75.75
476.377	99.75
476.596	99.75
476.814	89.75
477.033	87.75
477.252	85.75
477.471	94.75
477.69	91.75
477.908	91.75
478.127	72.75
478.346	89.75
478.564	103.75
478.783	88.75
479.002	97.75
479.22	93.75
479.439	107.75
479.658	85.75
479.876	85.75
480.095	92.75
480.313	100.75
480.532	107.75
480.751	111.75
480.969	216.75
481.188	675.75
481.406	401.75
481.624	123.75
481.843	89.75
482.061	85.75
482.28	90.75
482.498	89.75
482.717	81.75
482.935	92.75
483.153	91.75
483.372	85.75
483.59	100.75
483.808	95.75
484.027	89.75
484.245	93.75
484.463	85.75
484.681	94.75
484.9	82.75
485.118	89.75
485.336	95.75
485.554	97.75
485.772	91.75
485.99	97.75
486.209	100.75
486.427	85.75
486.645	89.75
486.863	103.75
487.081	94.75
487.299	87.75
487.517	82.75
487.735	86.75
487.953	85.75
488.171	80.75
488.389	101.75
488.607	84.75
488.825	101.75
489.043	81.75
489.261	96.75
489.479	87.75
489.696	85.75
489.914	88.75
490.132	87.75
490.35	93.75
490.568	96.75
490.786	87.75
491.003	83.75
491.221	83.75
491.439	70.75
491.657	83.75
491.874	85.75
492.092	93.75
492.31	89.75
492.527	91.75
492.745	89.75
492.963	96.75
493.18	98.75
493.398	75.75
493.615	101.75
493.833	105.75
494.05	92.75
494.268	84.75
494.485	100.75
494.703	86.75
494.92	94.75
495.138	98.75
495.355	100.75
495.573	81.75
495.79	88.75
496.008	80.75
496.225	92.75
496.442	79.75
496.66	96.75
496.877	84.75
497.094	91.75
497.312	83.75
497.529	84.75
497.746	91.75
497.963	96.75
498.181	101.75
498.398	101.75
498.615	110.75
498.832	91.75
499.049	79.75
499.267	91.75
499.484	96.75
499.701	93.75
499.918	96.75
500.135	85.75
500.352	87.75
500.569	94.75
500.786	80.75
501.003	101.75
501.22	100.75
501.437	81.75
501.654	106.75
501.871	114.75
502.088	92.75
502.305	88.75
502.522	84.75
502.739	85.75
502.956	97.75
503.172	86.75
503.389	102.75
503.606	102.75
503.823	92.75
504.04	101.75
504.256	81.75
504.473	81.75
504.69	89.75
504.907	89.75
505.123	91.75
505.34	90.75
505.557	83.75
505.773	96.75
505.99	79.75
506.207	86.75
506.423	87.75
506.64	95.75
506.856	89.75
507.073	104.75
507.289	94.75
507.506	91.75
507.722	108.75
507.939	105.75
508.155	89.75
508.372	82.75
508.588	91.75
508.805	87.75
509.021	96.75
509.238	93.75
509.454	88.75
509.67	104.75
509.887	107.75
510.103	98.75
510.319	200.75
510.536	619.75
510.752	1883.75
510.968	510.75
511.184	140.75
511.401	117.75
511.617	111.75
511.833	96.75
512.049	87.75
512.265	93.75
512.481	91.75
512.698	88.75
512.914	95.75
513.13	98.75
513.346	101.75
513.562	82.75
513.778	93.75
513.994	88.75
514.21	106.75
514.426	118.75
514.642	120.75
514.858	116.75
515.074	149.75
515.29	367.75
515.506	1122.75
515.721	421.75
515.937	117.75
516.153	103.75
