Data from Uncirc_1989_H10_HRD10591_00007.txt Node
Date: Wed Jan 03 11:57:37 EST 2024
User: Yrep
Spectrometer: HR+D1059
Trigger mode: 1
Integration Time (sec): 1.000000E-1
Scans to average: 1
Electric dark correction enabled: true
Nonlinearity correction enabled: false
Boxcar width: 0
XAxis mode: Wavelengths
Number of Pixels in Spectrum: 2048
>>>>>Begin Spectral Data<<<<<
223.165	-21.12
223.4	-21.12
223.635	-21.12
223.869	-16.12
224.104	-21.12
224.338	-10.12
224.573	-26.12
224.808	-1.12
225.042	-16.12
225.277	4.88
225.511	-7.12
225.746	13.88
225.98	0.88
226.215	8.88
226.449	18.88
226.683	28.88
226.918	32.88
227.152	9.88
227.387	37.88
227.621	29.88
227.856	27.88
228.09	48.88
228.324	37.88
228.559	57.88
228.793	53.88
229.027	63.88
229.262	65.88
229.496	79.88
229.73	76.88
229.964	74.88
230.199	62.88
230.433	74.88
230.667	80.88
230.901	72.88
231.136	80.88
231.37	72.88
231.604	76.88
231.838	77.88
232.072	76.88
232.306	72.88
232.541	64.88
232.775	67.88
233.009	80.88
233.243	70.88
233.477	90.88
233.711	89.88
233.945	64.88
234.179	67.88
234.413	82.88
234.647	80.88
234.881	62.88
235.115	70.88
235.349	71.88
235.583	76.88
235.817	76.88
236.051	76.88
236.285	78.88
236.519	64.88
236.753	71.88
236.987	74.88
237.221	80.88
237.455	72.88
237.689	66.88
237.922	83.88
238.156	78.88
238.39	66.88
238.624	86.88
238.858	70.88
239.091	83.88
239.325	69.88
239.559	85.88
239.793	77.88
240.027	82.88
240.26	62.88
240.494	89.88
240.728	67.88
240.961	69.88
241.195	77.88
241.429	80.88
241.662	78.88
241.896	74.88
242.13	73.88
242.363	77.88
242.597	70.88
242.83	76.88
243.064	65.88
243.298	75.88
243.531	80.88
243.765	75.88
243.998	69.88
244.232	79.88
244.465	76.88
244.699	81.88
244.932	72.88
245.166	66.88
245.399	75.88
245.633	87.88
245.866	77.88
246.099	70.88
246.333	73.88
246.566	67.88
246.8	84.88
247.033	89.88
247.266	49.88
247.5	80.88
247.733	73.88
247.966	90.88
248.2	88.88
248.433	76.88
248.666	54.88
248.899	63.88
249.133	80.88
249.366	91.88
249.599	81.88
249.832	65.88
250.066	81.88
250.299	68.88
250.532	80.88
250.765	77.88
250.998	77.88
251.231	87.88
251.465	64.88
251.698	81.88
251.931	65.88
252.164	76.88
252.397	77.88
252.63	79.88
252.863	78.88
253.096	77.88
253.329	84.88
253.562	73.88
253.795	78.88
254.028	79.88
254.261	82.88
254.494	70.88
254.727	80.88
254.96	81.88
255.193	68.88
255.426	68.88
255.659	61.88
255.892	89.88
256.124	78.88
256.357	76.88
256.59	83.88
256.823	82.88
257.056	88.88
257.289	76.88
257.521	80.88
257.754	65.88
257.987	89.88
258.22	81.88
258.452	87.88
258.685	80.88
258.918	76.88
259.151	83.88
259.383	81.88
259.616	84.88
259.849	69.88
260.081	74.88
260.314	80.88
260.547	78.88
260.779	70.88
261.012	79.88
261.244	76.88
261.477	66.88
261.71	69.88
261.942	98.88
262.175	96.88
262.407	76.88
262.64	70.88
262.872	81.88
263.105	84.88
263.337	87.88
263.57	76.88
263.802	78.88
264.035	87.88
264.267	72.88
264.499	88.88
264.732	83.88
264.964	77.88
265.197	74.88
265.429	81.88
265.661	76.88
265.894	73.88
266.126	88.88
266.358	81.88
266.591	87.88
266.823	79.88
267.055	81.88
267.287	84.88
267.52	94.88
267.752	77.88
267.984	70.88
268.216	73.88
268.448	76.88
268.681	79.88
268.913	83.88
269.145	82.88
269.377	86.88
269.609	84.88
269.841	83.88
270.073	82.88
270.306	73.88
270.538	94.88
270.77	73.88
271.002	84.88
271.234	78.88
271.466	93.88
271.698	80.88
271.93	76.88
272.162	94.88
272.394	88.88
272.626	88.88
272.858	68.88
273.09	72.88
273.322	62.88
273.553	76.88
273.785	92.88
274.017	69.88
274.249	66.88
274.481	68.88
274.713	86.88
274.945	77.88
275.176	86.88
275.408	74.88
275.64	83.88
275.872	87.88
276.104	84.88
276.335	84.88
276.567	90.88
276.799	84.88
277.031	81.88
277.262	86.88
277.494	101.88
277.726	89.88
277.957	85.88
278.189	83.88
278.421	79.88
278.652	83.88
278.884	82.88
279.115	105.88
279.347	96.88
279.579	73.88
279.81	69.88
280.042	83.88
280.273	80.88
280.505	84.88
280.736	77.88
280.968	80.88
281.199	89.88
281.431	80.88
281.662	77.88
281.894	95.88
282.125	95.88
282.356	102.88
282.588	96.88
282.819	92.88
283.051	90.88
283.282	80.88
283.513	86.88
283.745	75.88
283.976	68.88
284.207	85.88
284.439	86.88
284.67	83.88
284.901	72.88
285.132	101.88
285.364	79.88
285.595	98.88
285.826	80.88
286.057	97.88
286.288	80.88
286.52	88.88
286.751	68.88
286.982	88.88
287.213	77.88
287.444	86.88
287.675	81.88
287.906	92.88
288.138	64.88
288.369	94.88
288.6	88.88
288.831	83.88
289.062	88.88
289.293	90.88
289.524	69.88
289.755	90.88
289.986	78.88
290.217	93.88
290.448	95.88
290.679	93.88
290.91	80.88
291.141	83.88
291.371	83.88
291.602	75.88
291.833	74.88
292.064	82.88
292.295	88.88
292.526	74.88
292.757	73.88
292.987	77.88
293.218	74.88
293.449	87.88
293.68	85.88
293.91	83.88
294.141	77.88
294.372	70.88
294.603	86.88
294.833	80.88
295.064	82.88
295.295	80.88
295.525	81.88
295.756	85.88
295.987	96.88
296.217	99.88
296.448	107.88
296.679	91.88
296.909	95.88
297.14	92.88
297.37	95.88
297.601	95.88
297.831	86.88
298.062	85.88
298.292	73.88
298.523	72.88
298.753	92.88
298.984	81.88
299.214	93.88
299.445	83.88
299.675	92.88
299.905	90.88
300.136	92.88
300.366	84.88
300.597	91.88
300.827	85.88
301.057	97.88
301.288	95.88
301.518	92.88
301.748	88.88
301.979	99.88
302.209	86.88
302.439	81.88
302.669	85.88
302.9	91.88
303.13	81.88
303.36	101.88
303.59	93.88
303.82	98.88
304.051	93.88
304.281	80.88
304.511	76.88
304.741	82.88
304.971	93.88
305.201	78.88
305.431	78.88
305.661	97.88
305.891	84.88
306.121	86.88
306.352	93.88
306.582	89.88
306.812	96.88
307.042	90.88
307.272	78.88
307.502	108.88
307.731	76.88
307.961	94.88
308.191	95.88
308.421	90.88
308.651	80.88
308.881	98.88
309.111	81.88
309.341	73.88
309.571	94.88
309.8	87.88
310.03	89.88
310.26	93.88
310.49	98.88
310.72	104.88
310.949	95.88
311.179	107.88
311.409	81.88
311.639	85.88
311.868	84.88
312.098	73.88
312.328	84.88
312.557	79.88
312.787	82.88
313.017	94.88
313.246	90.88
313.476	89.88
313.706	89.88
313.935	93.88
314.165	81.88
314.394	92.88
314.624	89.88
314.853	86.88
315.083	80.88
315.312	75.88
315.542	86.88
315.771	90.88
316.001	80.88
316.23	81.88
316.46	79.88
316.689	93.88
316.919	79.88
317.148	77.88
317.377	84.88
317.607	93.88
317.836	91.88
318.065	81.88
318.295	77.88
318.524	70.88
318.753	84.88
318.983	81.88
319.212	105.88
319.441	94.88
319.67	93.88
319.9	86.88
320.129	86.88
320.358	74.88
320.587	81.88
320.816	94.88
321.046	100.88
321.275	91.88
321.504	102.88
321.733	91.88
321.962	110.88
322.191	100.88
322.42	94.88
322.649	91.88
322.878	94.88
323.108	93.88
323.337	104.88
323.566	121.88
323.795	125.88
324.024	165.88
324.253	296.88
324.482	610.88
324.71	1249.88
324.939	1612.88
325.168	588.88
325.397	184.88
325.626	124.88
325.855	107.88
326.084	120.88
326.313	113.88
326.542	148.88
326.77	194.88
326.999	361.88
327.228	742.88
327.457	1302.88
327.686	1045.88
327.914	293.88
328.143	153.88
328.372	124.88
328.6	109.88
328.829	107.88
329.058	104.88
329.287	113.88
329.515	92.88
329.744	106.88
329.972	111.88
330.201	97.88
330.43	108.88
330.658	107.88
330.887	115.88
331.115	102.88
331.344	85.88
331.572	87.88
331.801	82.88
332.03	100.88
332.258	93.88
332.486	87.88
332.715	81.88
332.943	83.88
333.172	101.88
333.4	84.88
333.629	90.88
333.857	81.88
334.085	84.88
334.314	96.88
334.542	127.88
334.771	103.88
334.999	99.88
335.227	83.88
335.455	85.88
335.684	85.88
335.912	92.88
336.14	90.88
336.369	98.88
336.597	105.88
336.825	99.88
337.053	95.88
337.281	89.88
337.51	91.88
337.738	92.88
337.966	96.88
338.194	73.88
338.422	79.88
338.65	94.88
338.878	88.88
339.106	82.88
339.334	100.88
339.562	102.88
339.79	79.88
340.018	69.88
340.246	90.88
340.474	90.88
340.702	91.88
340.93	95.88
341.158	99.88
341.386	88.88
341.614	99.88
341.842	96.88
342.07	86.88
342.298	83.88
342.526	82.88
342.754	67.88
342.981	89.88
343.209	86.88
343.437	94.88
343.665	80.88
343.893	88.88
344.12	83.88
344.348	84.88
344.576	84.88
344.804	83.88
345.031	81.88
345.259	90.88
345.487	92.88
345.714	92.88
345.942	86.88
346.17	88.88
346.397	86.88
346.625	94.88
346.853	80.88
347.08	82.88
347.308	93.88
347.535	96.88
347.763	91.88
347.99	86.88
348.218	86.88
348.445	81.88
348.673	80.88
348.9	99.88
349.128	90.88
349.355	107.88
349.583	76.88
349.81	73.88
350.037	76.88
350.265	98.88
350.492	92.88
350.72	108.88
350.947	95.88
351.174	105.88
351.402	90.88
351.629	105.88
351.856	102.88
352.083	91.88
352.311	103.88
352.538	100.88
352.765	96.88
352.992	98.88
353.22	102.88
353.447	111.88
353.674	89.88
353.901	98.88
354.128	84.88
354.355	93.88
354.583	104.88
354.81	87.88
355.037	77.88
355.264	96.88
355.491	110.88
355.718	108.88
355.945	99.88
356.172	91.88
356.399	80.88
356.626	85.88
356.853	86.88
357.08	96.88
357.307	92.88
357.534	92.88
357.761	80.88
357.988	98.88
358.215	94.88
358.441	92.88
358.668	91.88
358.895	103.88
359.122	89.88
359.349	92.88
359.576	80.88
359.802	92.88
360.029	97.88
360.256	94.88
360.483	86.88
360.709	76.88
360.936	95.88
361.163	80.88
361.39	94.88
361.616	90.88
361.843	79.88
362.07	90.88
362.296	93.88
362.523	75.88
362.749	86.88
362.976	83.88
363.203	92.88
363.429	80.88
363.656	83.88
363.882	78.88
364.109	93.88
364.335	83.88
364.562	76.88
364.788	78.88
365.015	89.88
365.241	90.88
365.468	94.88
365.694	95.88
365.92	79.88
366.147	88.88
366.373	73.88
366.599	101.88
366.826	82.88
367.052	86.88
367.278	79.88
367.505	85.88
367.731	91.88
367.957	98.88
368.184	98.88
368.41	91.88
368.636	100.88
368.862	89.88
369.089	90.88
369.315	90.88
369.541	93.88
369.767	83.88
369.993	78.88
370.219	89.88
370.445	80.88
370.672	83.88
370.898	80.88
371.124	88.88
371.35	82.88
371.576	102.88
371.802	84.88
372.028	92.88
372.254	85.88
372.48	84.88
372.706	75.88
372.932	94.88
373.158	99.88
373.384	98.88
373.61	106.88
373.835	92.88
374.061	88.88
374.287	96.88
374.513	88.88
374.739	82.88
374.965	97.88
375.191	98.88
375.416	84.88
375.642	78.88
375.868	80.88
376.094	82.88
376.319	96.88
376.545	93.88
376.771	79.88
376.997	79.88
377.222	84.88
377.448	80.88
377.674	87.88
377.899	79.88
378.125	86.88
378.35	83.88
378.576	79.88
378.802	104.88
379.027	86.88
379.253	81.88
379.478	82.88
379.704	98.88
379.929	83.88
380.155	87.88
380.38	79.88
380.606	89.88
380.831	92.88
381.057	93.88
381.282	102.88
381.507	76.88
381.733	102.88
381.958	107.88
382.184	108.88
382.409	94.88
382.634	95.88
382.86	101.88
383.085	111.88
383.31	94.88
383.535	101.88
383.761	108.88
383.986	77.88
384.211	102.88
384.436	97.88
384.662	87.88
384.887	92.88
385.112	103.88
385.337	96.88
385.562	107.88
385.787	115.88
386.013	99.88
386.238	106.88
386.463	114.88
386.688	104.88
386.913	98.88
387.138	115.88
387.363	108.88
387.588	90.88
387.813	105.88
388.038	104.88
388.263	111.88
388.488	108.88
388.713	94.88
388.938	87.88
389.163	83.88
389.387	102.88
389.612	99.88
389.837	93.88
390.062	93.88
390.287	88.88
390.512	82.88
390.736	82.88
390.961	90.88
391.186	89.88
391.411	92.88
391.636	100.88
391.86	84.88
392.085	67.88
392.31	95.88
392.534	85.88
392.759	92.88
392.984	101.88
393.208	103.88
393.433	125.88
393.658	117.88
393.882	92.88
394.107	82.88
394.331	76.88
394.556	92.88
394.78	77.88
395.005	87.88
395.229	76.88
395.454	92.88
395.678	99.88
395.903	96.88
396.127	67.88
396.352	83.88
396.576	90.88
396.801	82.88
397.025	110.88
397.249	100.88
397.474	80.88
397.698	80.88
397.922	90.88
398.147	85.88
398.371	72.88
398.595	79.88
398.82	83.88
399.044	95.88
399.268	89.88
399.492	75.88
399.717	90.88
399.941	100.88
400.165	90.88
400.389	85.88
400.613	97.88
400.837	97.88
401.062	77.88
401.286	84.88
401.51	90.88
401.734	87.88
401.958	89.88
402.182	107.88
402.406	138.88
402.63	116.88
402.854	86.88
403.078	85.88
403.302	94.88
403.526	92.88
403.75	74.88
403.974	69.88
404.198	83.88
404.422	74.88
404.645	84.88
404.869	74.88
405.093	84.88
405.317	95.88
405.541	95.88
405.765	90.88
405.988	102.88
406.212	132.88
406.436	169.88
406.66	128.88
406.883	86.88
407.107	90.88
407.331	92.88
407.555	88.88
407.778	83.88
408.002	92.88
408.226	82.88
408.449	76.88
408.673	88.88
408.896	100.88
409.12	83.88
409.344	93.88
409.567	78.88
409.791	97.88
410.014	100.88
410.238	80.88
410.461	82.88
410.685	87.88
410.908	86.88
411.132	85.88
411.355	88.88
411.578	102.88
411.802	77.88
412.025	84.88
412.249	100.88
412.472	97.88
412.695	94.88
412.919	85.88
413.142	92.88
413.365	86.88
413.589	89.88
413.812	93.88
414.035	90.88
414.258	81.88
414.482	80.88
414.705	71.88
414.928	82.88
415.151	86.88
415.374	91.88
415.597	92.88
415.821	75.88
416.044	84.88
416.267	85.88
416.49	90.88
416.713	83.88
416.936	76.88
417.159	84.88
417.382	84.88
417.605	78.88
417.828	80.88
418.051	78.88
418.274	89.88
418.497	86.88
418.72	76.88
418.943	91.88
419.166	91.88
419.389	89.88
419.611	94.88
419.834	88.88
420.057	95.88
420.28	84.88
420.503	73.88
420.726	95.88
420.948	83.88
421.171	78.88
421.394	74.88
421.617	97.88
421.839	86.88
422.062	82.88
422.285	97.88
422.507	102.88
422.73	99.88
422.953	100.88
423.175	98.88
423.398	97.88
423.621	88.88
423.843	76.88
424.066	85.88
424.288	87.88
424.511	73.88
424.733	81.88
424.956	93.88
425.178	90.88
425.401	86.88
425.623	99.88
425.846	75.88
426.068	86.88
426.291	94.88
426.513	96.88
426.735	91.88
426.958	88.88
427.18	82.88
427.402	108.88
427.625	134.88
427.847	97.88
428.069	93.88
428.292	86.88
428.514	92.88
428.736	77.88
428.958	91.88
429.181	80.88
429.403	73.88
429.625	85.88
429.847	94.88
430.069	97.88
430.292	85.88
430.514	83.88
430.736	83.88
430.958	109.88
431.18	89.88
431.402	78.88
431.624	68.88
431.846	76.88
432.068	81.88
432.29	79.88
432.512	89.88
432.734	99.88
432.956	77.88
433.178	88.88
433.4	96.88
433.622	105.88
433.844	84.88
434.066	93.88
434.287	87.88
434.509	88.88
434.731	97.88
434.953	86.88
435.175	75.88
435.397	68.88
435.618	89.88
435.84	89.88
436.062	115.88
436.284	100.88
436.505	98.88
436.727	77.88
436.949	88.88
437.17	85.88
437.392	73.88
437.614	84.88
437.835	99.88
438.057	105.88
438.278	97.88
438.5	92.88
438.721	112.88
438.943	105.88
439.165	88.88
439.386	85.88
439.608	89.88
439.829	96.88
440.05	121.88
440.272	129.88
440.493	95.88
440.715	102.88
440.936	82.88
441.158	75.88
441.379	78.88
441.6	105.88
441.822	106.88
442.043	99.88
442.264	98.88
442.486	93.88
442.707	86.88
442.928	92.88
443.149	108.88
443.371	108.88
443.592	89.88
443.813	102.88
444.034	99.88
444.255	81.88
444.476	80.88
444.698	72.88
444.919	89.88
445.14	120.88
445.361	108.88
445.582	92.88
445.803	108.88
446.024	112.88
446.245	126.88
446.466	100.88
446.687	91.88
446.908	87.88
447.129	77.88
447.35	102.88
447.571	91.88
447.792	88.88
448.013	94.88
448.234	96.88
448.455	88.88
448.675	109.88
448.896	106.88
449.117	97.88
449.338	97.88
449.559	108.88
449.779	117.88
450	91.88
450.221	88.88
450.442	87.88
450.662	83.88
450.883	97.88
451.104	94.88
451.324	85.88
451.545	96.88
451.766	92.88
451.986	94.88
452.207	89.88
452.428	87.88
452.648	89.88
452.869	105.88
453.089	85.88
453.31	94.88
453.53	95.88
453.751	98.88
453.971	101.88
454.192	99.88
454.412	84.88
454.633	87.88
454.853	83.88
455.073	98.88
455.294	98.88
455.514	94.88
455.734	60.88
455.955	78.88
456.175	86.88
456.395	79.88
456.616	74.88
456.836	82.88
457.056	98.88
457.276	85.88
457.497	96.88
457.717	84.88
457.937	76.88
458.157	93.88
458.377	72.88
458.598	82.88
458.818	119.88
459.038	118.88
459.258	104.88
459.478	88.88
459.698	81.88
459.918	81.88
460.138	77.88
460.358	80.88
460.578	82.88
460.798	84.88
461.018	90.88
461.238	92.88
461.458	77.88
461.678	91.88
461.898	102.88
462.118	84.88
462.338	65.88
462.558	91.88
462.777	85.88
462.997	79.88
463.217	72.88
463.437	90.88
463.657	79.88
463.876	84.88
464.096	84.88
464.316	88.88
464.536	89.88
464.755	86.88
464.975	104.88
465.195	126.88
465.414	110.88
465.634	96.88
465.854	92.88
466.073	58.88
466.293	76.88
466.512	83.88
466.732	88.88
466.951	65.88
467.171	102.88
467.391	101.88
467.61	95.88
467.829	90.88
468.049	85.88
468.268	94.88
468.488	89.88
468.707	77.88
468.927	83.88
469.146	89.88
469.365	90.88
469.585	87.88
469.804	93.88
470.023	91.88
470.243	86.88
470.462	95.88
470.681	99.88
470.901	85.88
471.12	81.88
471.339	107.88
471.558	88.88
471.777	80.88
471.997	96.88
472.216	88.88
472.435	106.88
472.654	90.88
472.873	92.88
473.092	86.88
473.311	92.88
473.53	79.88
473.749	78.88
473.968	87.88
474.187	96.88
474.406	89.88
474.625	82.88
474.844	92.88
475.063	82.88
475.282	81.88
475.501	95.88
475.72	91.88
475.939	72.88
476.158	84.88
476.377	88.88
476.596	77.88
476.814	93.88
477.033	84.88
477.252	93.88
477.471	84.88
477.69	80.88
477.908	74.88
478.127	92.88
478.346	71.88
478.564	74.88
478.783	93.88
479.002	104.88
479.22	88.88
479.439	94.88
479.658	89.88
479.876	90.88
480.095	81.88
480.313	93.88
480.532	98.88
480.751	99.88
480.969	100.88
481.188	148.88
481.406	120.88
481.624	96.88
481.843	75.88
482.061	89.88
482.28	90.88
482.498	76.88
482.717	95.88
482.935	78.88
483.153	84.88
483.372	95.88
483.59	78.88
483.808	84.88
484.027	93.88
484.245	77.88
484.463	96.88
484.681	94.88
484.9	82.88
485.118	89.88
485.336	90.88
485.554	94.88
485.772	100.88
485.99	94.88
486.209	88.88
486.427	96.88
486.645	93.88
486.863	98.88
487.081	101.88
487.299	105.88
487.517	80.88
487.735	89.88
487.953	98.88
488.171	90.88
488.389	102.88
488.607	86.88
488.825	94.88
489.043	90.88
489.261	93.88
489.479	76.88
489.696	93.88
489.914	86.88
490.132	84.88
490.35	95.88
490.568	83.88
490.786	85.88
491.003	78.88
491.221	81.88
491.439	83.88
491.657	96.88
491.874	86.88
492.092	79.88
492.31	98.88
492.527	86.88
492.745	84.88
492.963	76.88
493.18	78.88
493.398	83.88
493.615	101.88
493.833	96.88
494.05	100.88
494.268	79.88
494.485	85.88
494.703	96.88
494.92	84.88
495.138	90.88
495.355	89.88
495.573	89.88
495.79	89.88
496.008	104.88
496.225	92.88
496.442	80.88
496.66	101.88
496.877	83.88
497.094	99.88
497.312	82.88
497.529	98.88
497.746	97.88
497.963	79.88
498.181	78.88
498.398	85.88
498.615	95.88
498.832	90.88
499.049	86.88
499.267	89.88
499.484	95.88
499.701	95.88
499.918	91.88
500.135	82.88
500.352	85.88
500.569	81.88
500.786	81.88
501.003	88.88
501.22	79.88
501.437	77.88
501.654	87.88
501.871	84.88
502.088	76.88
502.305	87.88
502.522	91.88
502.739	91.88
502.956	92.88
503.172	83.88
503.389	88.88
503.606	77.88
503.823	86.88
504.04	98.88
504.256	91.88
504.473	79.88
504.69	76.88
504.907	98.88
505.123	92.88
505.34	92.88
505.557	93.88
505.773	82.88
505.99	79.88
506.207	98.88
506.423	76.88
506.64	67.88
506.856	89.88
507.073	88.88
507.289	99.88
507.506	92.88
507.722	99.88
507.939	107.88
508.155	97.88
508.372	91.88
508.588	77.88
508.805	85.88
509.021	74.88
509.238	97.88
509.454	99.88
509.67	105.88
509.887	99.88
510.103	118.88
510.319	176.88
510.536	541.88
510.752	1533.88
510.968	432.88
511.184	120.88
511.401	99.88
511.617	88.88
511.833	87.88
512.049	69.88
512.265	88.88
512.481	80.88
512.698	88.88
512.914	83.88
513.13	90.88
513.346	88.88
513.562	87.88
513.778	89.88
513.994	80.88
514.21	91.88
514.426	100.88
514.642	99.88
514.858	121.88
515.074	125.88
515.29	294.88
515.506	953.88
515.721	355.88
515.937	131.88
516.153	93.88
516.369	86.88
516.585	89.88
516.801	82.88
517.016	89.88
517.232	86.88
517.448	87.88
