Data from Uncirc_1989_H10_HRD10591_00062.txt Node
Date: Wed Jan 03 11:57:48 EST 2024
User: Yrep
Spectrometer: HR+D1059
Trigger mode: 1
Integration Time (sec): 1.000000E-1
Scans to average: 1
Electric dark correction enabled: true
Nonlinearity correction enabled: false
Boxcar width: 0
XAxis mode: Wavelengths
Number of Pixels in Spectrum: 2048
>>>>>Begin Spectral Data<<<<<
223.165	-7
223.4	-7
223.635	-7
223.869	-33
224.104	-32
224.338	-10
224.573	-21
224.808	-20
225.042	-8
225.277	-10
225.511	0
225.746	17
225.98	2
226.215	16
226.449	16
226.683	31
226.918	22
227.152	37
227.387	39
227.621	41
227.856	51
228.09	46
228.324	58
228.559	54
228.793	61
229.027	62
229.262	62
229.496	63
229.73	88
229.964	78
230.199	56
230.433	76
230.667	73
230.901	78
231.136	72
231.37	92
231.604	74
231.838	87
232.072	78
232.306	69
232.541	82
232.775	74
233.009	79
233.243	74
233.477	84
233.711	81
233.945	74
234.179	88
234.413	85
234.647	88
234.881	79
235.115	68
235.349	82
235.583	64
235.817	86
236.051	88
236.285	66
236.519	61
236.753	84
236.987	81
237.221	88
237.455	84
237.689	90
237.922	75
238.156	84
238.39	77
238.624	78
238.858	82
239.091	78
239.325	75
239.559	74
239.793	76
240.027	83
240.26	82
240.494	69
240.728	92
240.961	87
241.195	71
241.429	77
241.662	74
241.896	84
242.13	80
242.363	73
242.597	78
242.83	78
243.064	74
243.298	69
243.531	76
243.765	72
243.998	60
244.232	87
244.465	68
244.699	85
244.932	71
245.166	80
245.399	86
245.633	64
245.866	68
246.099	67
246.333	76
246.566	70
246.8	82
247.033	67
247.266	76
247.5	78
247.733	74
247.966	81
248.2	94
248.433	90
248.666	82
248.899	79
249.133	87
249.366	102
249.599	110
249.832	78
250.066	83
250.299	85
250.532	87
250.765	55
250.998	84
251.231	69
251.465	84
251.698	80
251.931	82
252.164	70
252.397	74
252.63	76
252.863	71
253.096	90
253.329	86
253.562	77
253.795	71
254.028	88
254.261	69
254.494	86
254.727	92
254.96	78
255.193	78
255.426	91
255.659	79
255.892	85
256.124	84
256.357	73
256.59	97
256.823	76
257.056	85
257.289	98
257.521	84
257.754	84
257.987	78
258.22	86
258.452	78
258.685	82
258.918	84
259.151	83
259.383	87
259.616	84
259.849	75
260.081	82
260.314	89
260.547	83
260.779	68
261.012	85
261.244	94
261.477	92
261.71	95
261.942	105
262.175	108
262.407	87
262.64	98
262.872	78
263.105	70
263.337	82
263.57	76
263.802	94
264.035	77
264.267	84
264.499	100
264.732	75
264.964	86
265.197	83
265.429	71
265.661	88
265.894	86
266.126	78
266.358	77
266.591	83
266.823	77
267.055	88
267.287	80
267.52	87
267.752	72
267.984	75
268.216	81
268.448	80
268.681	87
268.913	89
269.145	70
269.377	74
269.609	74
269.841	96
270.073	89
270.306	79
270.538	99
270.77	83
271.002	82
271.234	80
271.466	84
271.698	88
271.93	94
272.162	83
272.394	83
272.626	104
272.858	90
273.09	83
273.322	83
273.553	83
273.785	78
274.017	80
274.249	86
274.481	95
274.713	99
274.945	92
275.176	64
275.408	84
275.64	86
275.872	68
276.104	73
276.335	102
276.567	83
276.799	111
277.031	99
277.262	102
277.494	86
277.726	85
277.957	71
278.189	89
278.421	95
278.652	91
278.884	78
279.115	71
279.347	68
279.579	79
279.81	79
280.042	93
280.273	91
280.505	100
280.736	90
280.968	82
281.199	75
281.431	88
281.662	79
281.894	98
282.125	101
282.356	99
282.588	124
282.819	118
283.051	93
283.282	82
283.513	86
283.745	83
283.976	80
284.207	86
284.439	98
284.67	85
284.901	86
285.132	91
285.364	93
285.595	83
285.826	90
286.057	102
286.288	96
286.52	91
286.751	70
286.982	92
287.213	100
287.444	84
287.675	97
287.906	76
288.138	98
288.369	92
288.6	88
288.831	88
289.062	98
289.293	90
289.524	95
289.755	96
289.986	69
290.217	74
290.448	82
290.679	92
290.91	85
291.141	90
291.371	99
291.602	72
291.833	90
292.064	90
292.295	94
292.526	79
292.757	85
292.987	87
293.218	93
293.449	85
293.68	93
293.91	79
294.141	81
294.372	92
294.603	100
294.833	87
295.064	71
295.295	90
295.525	86
295.756	104
295.987	87
296.217	123
296.448	118
296.679	104
296.909	89
297.14	84
297.37	96
297.601	90
297.831	90
298.062	83
298.292	98
298.523	69
298.753	78
298.984	81
299.214	69
299.445	85
299.675	86
299.905	85
300.136	82
300.366	100
300.597	91
300.827	89
301.057	86
301.288	91
301.518	91
301.748	91
301.979	101
302.209	91
302.439	94
302.669	100
302.9	82
303.13	95
303.36	92
303.59	99
303.82	100
304.051	84
304.281	86
304.511	96
304.741	100
304.971	85
305.201	92
305.431	94
305.661	87
305.891	91
306.121	93
306.352	99
306.582	114
306.812	103
307.042	87
307.272	104
307.502	87
307.731	99
307.961	89
308.191	85
308.421	86
308.651	105
308.881	89
309.111	81
309.341	89
309.571	100
309.8	79
310.03	84
310.26	79
310.49	94
310.72	103
310.949	122
311.179	94
311.409	71
311.639	92
311.868	92
312.098	95
312.328	96
312.557	87
312.787	90
313.017	103
313.246	95
313.476	90
313.706	84
313.935	94
314.165	90
314.394	92
314.624	108
314.853	101
315.083	94
315.312	88
315.542	91
315.771	91
316.001	91
316.23	83
316.46	74
316.689	86
316.919	99
317.148	87
317.377	79
317.607	101
317.836	85
318.065	90
318.295	83
318.524	96
318.753	80
318.983	84
319.212	92
319.441	113
319.67	99
319.9	98
320.129	81
320.358	99
320.587	97
320.816	100
321.046	98
321.275	93
321.504	103
321.733	88
321.962	83
322.191	97
322.42	101
322.649	106
322.878	115
323.108	103
323.337	119
323.566	117
323.795	127
324.024	179
324.253	338
324.482	718
324.71	1438
324.939	1933
325.168	688
325.397	207
325.626	139
325.855	125
326.084	125
326.313	127
326.542	132
326.77	222
326.999	405
327.228	860
327.457	1494
327.686	1184
327.914	316
328.143	189
328.372	163
328.6	133
328.829	121
329.058	111
329.287	111
329.515	108
329.744	111
329.972	127
330.201	167
330.43	203
330.658	131
330.887	121
331.115	125
331.344	103
331.572	102
331.801	96
332.03	101
332.258	101
332.486	87
332.715	98
332.943	101
333.172	108
333.4	90
333.629	91
333.857	132
334.085	131
334.314	183
334.542	232
334.771	233
334.999	121
335.227	101
335.455	103
335.684	97
335.912	99
336.14	108
336.369	98
336.597	100
336.825	100
337.053	90
337.281	93
337.51	96
337.738	81
337.966	87
338.194	86
338.422	99
338.65	89
338.878	97
339.106	86
339.334	90
339.562	96
339.79	79
340.018	86
340.246	90
340.474	92
340.702	85
340.93	88
341.158	87
341.386	99
341.614	85
341.842	82
342.07	96
342.298	88
342.526	85
342.754	86
342.981	85
343.209	83
343.437	96
343.665	98
343.893	94
344.12	89
344.348	90
344.576	76
344.804	89
345.031	99
345.259	70
345.487	86
345.714	92
345.942	82
346.17	86
346.397	91
346.625	98
346.853	84
347.08	96
347.308	95
347.535	99
347.763	92
347.99	90
348.218	110
348.445	91
348.673	105
348.9	100
349.128	99
349.355	83
349.583	80
349.81	85
350.037	82
350.265	92
350.492	94
350.72	98
350.947	102
351.174	103
351.402	101
351.629	98
351.856	104
352.083	81
352.311	87
352.538	93
352.765	93
352.992	110
353.22	109
353.447	87
353.674	93
353.901	101
354.128	105
354.355	98
354.583	99
354.81	107
355.037	101
355.264	102
355.491	90
355.718	82
355.945	99
356.172	100
356.399	84
356.626	109
356.853	101
357.08	97
357.307	84
357.534	91
357.761	85
357.988	99
358.215	82
358.441	87
358.668	96
358.895	95
359.122	94
359.349	81
359.576	87
359.802	83
360.029	96
360.256	96
360.483	94
360.709	89
360.936	68
361.163	75
361.39	82
361.616	96
361.843	96
362.07	99
362.296	99
362.523	90
362.749	78
362.976	79
363.203	80
363.429	85
363.656	94
363.882	89
364.109	88
364.335	94
364.562	100
364.788	101
365.015	94
365.241	84
365.468	113
365.694	98
365.92	80
366.147	93
366.373	82
366.599	94
366.826	79
367.052	93
367.278	84
367.505	99
367.731	94
367.957	80
368.184	93
368.41	93
368.636	95
368.862	108
369.089	110
369.315	71
369.541	85
369.767	96
369.993	111
370.219	91
370.445	81
370.672	78
370.898	88
371.124	80
371.35	88
371.576	72
371.802	62
372.028	96
372.254	90
372.48	101
372.706	80
372.932	95
373.158	97
373.384	71
373.61	95
373.835	100
374.061	90
374.287	91
374.513	91
374.739	83
374.965	100
375.191	98
375.416	82
375.642	101
375.868	100
376.094	77
376.319	81
376.545	95
376.771	75
376.997	91
377.222	85
377.448	88
377.674	78
377.899	89
378.125	101
378.35	91
378.576	100
378.802	87
379.027	89
379.253	87
379.478	92
379.704	98
379.929	92
380.155	98
380.38	92
380.606	96
380.831	80
381.057	98
381.282	86
381.507	94
381.733	91
381.958	88
382.184	95
382.409	107
382.634	94
382.86	101
383.085	87
383.31	87
383.535	98
383.761	88
383.986	92
384.211	100
384.436	98
384.662	91
384.887	102
385.112	84
385.337	91
385.562	100
385.787	87
386.013	101
386.238	105
386.463	108
386.688	103
386.913	94
387.138	86
387.363	106
387.588	100
387.813	90
388.038	92
388.263	103
388.488	88
388.713	101
388.938	88
389.163	91
389.387	80
389.612	78
389.837	85
390.062	82
390.287	88
390.512	78
390.736	99
390.961	89
391.186	102
391.411	83
391.636	96
391.86	88
392.085	91
392.31	83
392.534	81
392.759	98
392.984	87
393.208	92
393.433	105
393.658	86
393.882	77
394.107	69
394.331	101
394.556	91
394.78	78
395.005	85
395.229	76
395.454	84
395.678	94
395.903	95
396.127	90
396.352	90
396.576	96
396.801	90
397.025	87
397.249	84
397.474	78
397.698	88
397.922	91
398.147	78
398.371	70
398.595	91
398.82	86
399.044	72
399.268	86
399.492	90
399.717	85
399.941	94
400.165	97
400.389	96
400.613	99
400.837	87
401.062	96
401.286	94
401.51	91
401.734	83
401.958	91
402.182	100
402.406	131
402.63	104
402.854	79
403.078	93
403.302	83
403.526	78
403.75	92
403.974	94
404.198	87
404.422	92
404.645	91
404.869	84
405.093	88
405.317	97
405.541	94
405.765	101
405.988	101
406.212	151
406.436	173
406.66	116
406.883	90
407.107	81
407.331	109
407.555	101
407.778	85
408.002	90
408.226	97
408.449	88
408.673	90
408.896	88
409.12	92
409.344	101
409.567	87
409.791	70
410.014	94
410.238	95
410.461	91
410.685	74
410.908	94
411.132	97
411.355	103
411.578	90
411.802	82
412.025	85
412.249	94
412.472	90
412.695	101
412.919	94
413.142	85
413.365	79
413.589	88
413.812	68
414.035	87
414.258	80
414.482	94
414.705	90
414.928	86
415.151	99
415.374	90
415.597	80
415.821	81
416.044	92
416.267	80
416.49	84
416.713	74
416.936	91
417.159	84
417.382	93
417.605	94
417.828	87
418.051	98
418.274	93
418.497	81
418.72	85
418.943	85
419.166	90
419.389	86
419.611	90
419.834	89
420.057	78
420.28	93
420.503	79
420.726	92
420.948	110
421.171	106
421.394	94
421.617	90
421.839	89
422.062	100
422.285	95
422.507	88
422.73	84
422.953	80
423.175	85
423.398	90
423.621	79
423.843	79
424.066	77
424.288	85
424.511	84
424.733	99
424.956	101
425.178	98
425.401	90
425.623	100
425.846	95
426.068	88
426.291	86
426.513	92
426.735	82
426.958	98
427.18	93
427.402	113
427.625	136
427.847	130
428.069	120
428.292	88
428.514	89
428.736	70
428.958	77
429.181	87
429.403	82
429.625	93
429.847	85
430.069	95
430.292	99
430.514	90
430.736	76
430.958	96
431.18	76
431.402	81
431.624	80
431.846	92
432.068	81
432.29	67
432.512	81
432.734	83
432.956	84
433.178	80
433.4	93
433.622	82
433.844	86
434.066	94
434.287	87
434.509	82
434.731	80
434.953	86
435.175	95
435.397	89
435.618	104
435.84	91
436.062	110
436.284	117
436.505	106
436.727	92
436.949	98
437.17	77
437.392	89
437.614	101
437.835	100
438.057	121
438.278	110
438.5	95
438.721	103
438.943	99
439.165	86
439.386	80
439.608	86
439.829	104
440.05	105
440.272	126
440.493	100
440.715	93
440.936	104
441.158	99
441.379	69
441.6	84
441.822	92
442.043	96
442.264	104
442.486	95
442.707	85
442.928	104
443.149	115
443.371	108
443.592	96
443.813	104
444.034	99
444.255	86
444.476	87
444.698	98
444.919	93
445.14	131
445.361	120
445.582	112
445.803	118
446.024	128
446.245	116
446.466	91
446.687	81
446.908	88
447.129	95
447.35	103
447.571	96
447.792	100
448.013	96
448.234	98
448.455	86
448.675	112
448.896	104
449.117	88
449.338	111
449.559	106
449.779	102
450	95
450.221	82
450.442	80
450.662	82
450.883	98
451.104	104
451.324	99
451.545	97
451.766	85
451.986	94
452.207	65
452.428	91
452.648	103
452.869	90
453.089	95
453.31	100
453.53	83
453.751	80
453.971	99
454.192	101
454.412	78
454.633	82
454.853	82
455.073	76
455.294	99
455.514	92
455.734	84
455.955	76
456.175	76
456.395	92
456.616	88
456.836	89
457.056	78
457.276	88
457.497	79
457.717	83
457.937	84
458.157	84
458.377	86
458.598	111
458.818	125
459.038	135
459.258	103
459.478	95
459.698	88
459.918	74
460.138	69
460.358	85
460.578	81
460.798	87
461.018	90
461.238	92
461.458	90
461.678	75
461.898	64
462.118	82
462.338	91
462.558	88
462.777	83
462.997	83
463.217	71
463.437	80
463.657	80
463.876	96
464.096	92
464.316	104
464.536	93
464.755	92
464.975	104
465.195	140
465.414	138
465.634	99
465.854	76
466.073	88
466.293	79
466.512	87
466.732	79
466.951	82
467.171	77
467.391	94
467.61	106
467.829	109
468.049	113
468.268	136
468.488	102
468.707	97
468.927	82
469.146	82
469.365	70
469.585	78
469.804	90
470.023	98
470.243	89
470.462	94
470.681	94
470.901	79
471.12	96
471.339	87
471.558	90
471.777	86
471.997	104
472.216	185
472.435	279
472.654	129
472.873	87
473.092	78
473.311	80
473.53	78
473.749	80
473.968	93
474.187	86
474.406	92
474.625	88
474.844	79
475.063	63
475.282	89
475.501	78
475.72	99
475.939	90
476.158	86
476.377	87
476.596	98
476.814	94
477.033	81
477.252	88
477.471	70
477.69	80
477.908	90
478.127	90
478.346	85
478.564	83
478.783	91
479.002	91
479.22	98
479.439	97
479.658	93
479.876	93
480.095	90
480.313	86
480.532	104
480.751	101
480.969	195
481.188	497
481.406	301
481.624	111
481.843	94
482.061	88
482.28	86
482.498	93
482.717	91
482.935	70
483.153	96
483.372	86
483.59	93
483.808	89
484.027	104
484.245	100
484.463	80
484.681	96
484.9	85
485.118	100
485.336	98
485.554	92
485.772	95
485.99	96
486.209	101
486.427	97
486.645	99
486.863	105
487.081	98
487.299	86
487.517	98
487.735	80
487.953	98
488.171	88
488.389	91
488.607	111
488.825	77
489.043	88
489.261	110
489.479	87
489.696	75
489.914	92
490.132	90
490.35	83
490.568	98
490.786	86
491.003	90
491.221	90
491.439	96
491.657	86
491.874	86
492.092	87
492.31	89
492.527	82
492.745	88
492.963	86
493.18	87
493.398	89
493.615	95
493.833	106
494.05	93
494.268	74
494.485	90
494.703	77
494.92	79
495.138	83
495.355	92
495.573	95
495.79	67
496.008	81
496.225	93
496.442	92
496.66	98
496.877	88
497.094	84
497.312	91
497.529	97
497.746	83
497.963	87
498.181	76
498.398	94
498.615	111
498.832	80
499.049	85
499.267	83
499.484	86
499.701	81
499.918	84
500.135	78
500.352	80
500.569	87
500.786	83
501.003	88
501.22	99
501.437	86
501.654	98
501.871	104
502.088	91
502.305	80
502.522	93
502.739	93
502.956	101
503.172	107
503.389	100
503.606	94
503.823	83
504.04	106
504.256	90
504.473	104
504.69	80
504.907	97
505.123	93
505.34	84
505.557	96
505.773	87
505.99	78
506.207	95
506.423	86
506.64	85
506.856	87
507.073	96
507.289	101
507.506	94
507.722	113
507.939	92
508.155	99
508.372	78
508.588	85
508.805	91
509.021	88
509.238	96
509.454	100
509.67	89
509.887	105
510.103	112
510.319	176
510.536	621
510.752	1798
510.968	519
511.184	130
511.401	84
511.617	95
511.833	93
512.049	94
512.265	104
512.481	87
512.698	84
512.914	82
513.13	88
513.346	80
513.562	93
513.778	101
513.994	99
514.21	97
514.426	119
514.642	120
514.858	117
515.074	141
515.29	352
515.506	1174
515.721	416
515.937	135
516.153	115
516.369	87
516.585	92
516.801	82
517.016	76
517.232	87
517.448	82
517.664	92
517.879	97
518.095	95
518.311	109
518.527	94
518.742	90
518.958	101
519.173	101
519.389	100
519.605	88
519.82	101
520.036	99
520.251	99
520.467	106
520.682	99
520.898	93
521.113	104
521.329	116
521.544	164
521.76	457
521.975	1876
522.19	1118
522.406	256
522.621	118
522.836	101
523.052	90
523.267	87
523.482	100
523.698	109
523.913	106
524.128	92
524.343	95
524.559	89
524.774	82
524.989	99
525.204	98
525.419	100
525.634	79
525.849	99
526.064	104
526.28	90
526.495	94
526.71	96
526.925	75
527.14	79
527.355	83
527.57	94
527.785	78
527.999	90
528.214	89
528.429	96
528.644	85
528.859	98
529.074	88
529.289	134
529.503	158
529.718	99
529.933	87
530.148	86
530.363	107
530.577	83
530.792	92
531.007	80
531.221	86
531.436	91
531.651	94
531.865	94
532.08	79
532.295	88
532.509	97
532.724	81
532.938	89
533.153	99
533.367	102
533.582	96
533.796	86
534.011	90
534.225	85
534.44	87
534.654	87
534.868	91
535.083	84
535.297	102
535.511	110
535.726	91
535.94	96
536.154	83
536.369	88
536.583	91
536.797	96
537.011	85
537.225	93
537.44	80
537.654	83
537.868	99
538.082	78
538.296	95
538.51	93
538.724	83
538.938	79
539.153	100
539.367	91
539.581	93
539.795	94
540.009	87
540.222	83
540.436	86
540.65	87
540.864	95
541.078	99
541.292	102
541.506	95
541.72	91
541.934	89
542.147	77
542.361	96
542.575	99
542.789	101
543.002	79
543.216	97
543.43	91
543.644	91
543.857	90
544.071	91
544.285	95
544.498	96
544.712	86
544.925	98
545.139	87
545.352	83
545.566	93
545.779	86
545.993	91
546.206	99
546.42	83
546.633	86
546.847	99
547.06	93
547.274	82
547.487	103
547.7	86
547.914	96
548.127	96
548.34	93
548.554	82
548.767	92
548.98	93
549.193	91
549.407	100
549.62	86
549.833	89
550.046	79
550.259	81
550.473	91
550.686	89
550.899	80
551.112	78
551.325	98
551.538	93
551.751	82
551.964	88
552.177	87
552.39	90
552.603	95
552.816	90
553.029	90
553.242	98
553.455	98
553.667	83
553.88	105
554.093	103
554.306	93
554.519	102
554.732	91
554.944	87
555.157	91
555.37	100
555.583	92
555.795	89
556.008	86
556.221	97
556.433	84
556.646	91
556.859	98
557.071	91
557.284	97
557.496	84
557.709	83
557.921	79
558.134	85
558.346	82
558.559	87
558.771	104
558.984	92
559.196	94
559.409	84
559.621	88
559.833	96
560.046	94
560.258	92
560.47	91
560.683	83
560.895	87
561.107	90
561.32	97
561.532	101
561.744	94
561.956	99
562.168	101
562.381	80
562.593	85
562.805	88
563.017	101
563.229	74
563.441	101
563.653	93
563.865	79
564.077	90
564.289	101
564.501	93
564.713	77
564.925	87
565.137	91
565.349	94
565.561	86
565.773	91
565.985	88
566.197	90
566.408	87
566.62	77
566.832	82
567.044	99
567.255	90
567.467	85
567.679	76
567.891	91
568.102	93
568.314	89
568.526	80
568.737	82
568.949	94
569.161	93
569.372	93
569.584	101
569.795	86
570.007	115
570.218	204
570.43	124
570.641	88
570.853	81
571.064	93
571.276	97
571.487	93
571.698	80
571.91	77
572.121	89
572.333	91
572.544	76
572.755	78
572.966	86
573.178	84
573.389	102
573.6	89
573.811	83
574.023	89
574.234	97
574.445	77
574.656	97
574.867	93
575.078	98
575.289	99
575.501	87
575.712	88
575.923	94
576.134	86
576.345	90
576.556	96
576.767	90
576.978	78
577.188	80
577.399	110
577.61	85
577.821	106
578.032	90
578.243	237
578.454	612
578.665	172
578.875	99
579.086	96
579.297	75
579.508	95
579.718	88
579.929	90
580.14	92
580.35	88
580.561	101
580.772	79
580.982	86
581.193	84
581.403	89
581.614	86
581.825	89
582.035	91
582.246	94
582.456	86
582.667	83
582.877	91
583.087	80
583.298	93
583.508	93
583.719	101
583.929	80
584.139	78
584.35	80
584.56	91
584.77	88
584.981	85
585.191	89
585.401	89
