Data from Uncirc_1989_H10_HRD10591_00041.txt Node
Date: Wed Jan 03 11:57:43 EST 2024
User: Yrep
Spectrometer: HR+D1059
Trigger mode: 1
Integration Time (sec): 1.000000E-1
Scans to average: 1
Electric dark correction enabled: true
Nonlinearity correction enabled: false
Boxcar width: 0
XAxis mode: Wavelengths
Number of Pixels in Spectrum: 2048
>>>>>Begin Spectral Data<<<<<
223.165	-18.81
223.4	-18.81
223.635	-18.81
223.869	-18.81
224.104	-18.81
224.338	-12.81
224.573	-9.81
224.808	-3.81
225.042	-8.81
225.277	-9.81
225.511	-4.81
225.746	5.19
225.98	-4.81
226.215	9.19
226.449	2.19
226.683	26.19
226.918	30.19
227.152	38.19
227.387	37.19
227.621	34.19
227.856	33.19
228.09	54.19
228.324	44.19
228.559	46.19
228.793	54.19
229.027	71.19
229.262	57.19
229.496	62.19
229.73	88.19
229.964	86.19
230.199	86.19
230.433	82.19
230.667	48.19
230.901	67.19
231.136	75.19
231.37	79.19
231.604	84.19
231.838	88.19
232.072	80.19
232.306	90.19
232.541	72.19
232.775	91.19
233.009	87.19
233.243	86.19
233.477	74.19
233.711	77.19
233.945	85.19
234.179	90.19
234.413	67.19
234.647	83.19
234.881	81.19
235.115	70.19
235.349	68.19
235.583	89.19
235.817	86.19
236.051	71.19
236.285	81.19
236.519	76.19
236.753	71.19
236.987	86.19
237.221	71.19
237.455	82.19
237.689	77.19
237.922	79.19
238.156	65.19
238.39	76.19
238.624	68.19
238.858	74.19
239.091	71.19
239.325	60.19
239.559	66.19
239.793	72.19
240.027	74.19
240.26	80.19
240.494	86.19
240.728	70.19
240.961	79.19
241.195	82.19
241.429	68.19
241.662	71.19
241.896	68.19
242.13	68.19
242.363	69.19
242.597	60.19
242.83	77.19
243.064	79.19
243.298	90.19
243.531	70.19
243.765	87.19
243.998	76.19
244.232	82.19
244.465	101.19
244.699	76.19
244.932	67.19
245.166	75.19
245.399	64.19
245.633	84.19
245.866	77.19
246.099	71.19
246.333	95.19
246.566	71.19
246.8	85.19
247.033	82.19
247.266	79.19
247.5	84.19
247.733	77.19
247.966	77.19
248.2	83.19
248.433	86.19
248.666	75.19
248.899	90.19
249.133	67.19
249.366	85.19
249.599	94.19
249.832	93.19
250.066	95.19
250.299	76.19
250.532	91.19
250.765	85.19
250.998	69.19
251.231	85.19
251.465	89.19
251.698	76.19
251.931	74.19
252.164	78.19
252.397	88.19
252.63	86.19
252.863	70.19
253.096	78.19
253.329	72.19
253.562	76.19
253.795	86.19
254.028	78.19
254.261	83.19
254.494	89.19
254.727	77.19
254.96	78.19
255.193	74.19
255.426	74.19
255.659	91.19
255.892	70.19
256.124	86.19
256.357	98.19
256.59	98.19
256.823	76.19
257.056	68.19
257.289	79.19
257.521	76.19
257.754	93.19
257.987	72.19
258.22	84.19
258.452	86.19
258.685	78.19
258.918	79.19
259.151	67.19
259.383	82.19
259.616	78.19
259.849	107.19
260.081	90.19
260.314	79.19
260.547	90.19
260.779	84.19
261.012	76.19
261.244	85.19
261.477	103.19
261.71	82.19
261.942	108.19
262.175	113.19
262.407	80.19
262.64	71.19
262.872	83.19
263.105	86.19
263.337	76.19
263.57	85.19
263.802	82.19
264.035	84.19
264.267	78.19
264.499	65.19
264.732	84.19
264.964	66.19
265.197	76.19
265.429	72.19
265.661	70.19
265.894	82.19
266.126	74.19
266.358	85.19
266.591	92.19
266.823	86.19
267.055	74.19
267.287	71.19
267.52	78.19
267.752	74.19
267.984	79.19
268.216	86.19
268.448	99.19
268.681	98.19
268.913	73.19
269.145	84.19
269.377	80.19
269.609	85.19
269.841	78.19
270.073	90.19
270.306	77.19
270.538	91.19
270.77	87.19
271.002	113.19
271.234	73.19
271.466	79.19
271.698	81.19
271.93	99.19
272.162	81.19
272.394	81.19
272.626	94.19
272.858	84.19
273.09	88.19
273.322	86.19
273.553	78.19
273.785	68.19
274.017	74.19
274.249	89.19
274.481	77.19
274.713	87.19
274.945	82.19
275.176	77.19
275.408	93.19
275.64	66.19
275.872	84.19
276.104	94.19
276.335	86.19
276.567	83.19
276.799	105.19
277.031	104.19
277.262	94.19
277.494	80.19
277.726	81.19
277.957	86.19
278.189	69.19
278.421	77.19
278.652	98.19
278.884	90.19
279.115	84.19
279.347	82.19
279.579	84.19
279.81	87.19
280.042	87.19
280.273	94.19
280.505	93.19
280.736	78.19
280.968	96.19
281.199	86.19
281.431	86.19
281.662	79.19
281.894	92.19
282.125	97.19
282.356	118.19
282.588	119.19
282.819	113.19
283.051	84.19
283.282	89.19
283.513	89.19
283.745	101.19
283.976	78.19
284.207	84.19
284.439	87.19
284.67	80.19
284.901	74.19
285.132	83.19
285.364	85.19
285.595	84.19
285.826	80.19
286.057	92.19
286.288	78.19
286.52	91.19
286.751	90.19
286.982	79.19
287.213	82.19
287.444	81.19
287.675	87.19
287.906	84.19
288.138	71.19
288.369	70.19
288.6	68.19
288.831	85.19
289.062	82.19
289.293	81.19
289.524	86.19
289.755	95.19
289.986	74.19
290.217	87.19
290.448	82.19
290.679	86.19
290.91	90.19
291.141	93.19
291.371	82.19
291.602	85.19
291.833	88.19
292.064	75.19
292.295	85.19
292.526	92.19
292.757	76.19
292.987	82.19
293.218	97.19
293.449	77.19
293.68	77.19
293.91	80.19
294.141	80.19
294.372	83.19
294.603	87.19
294.833	95.19
295.064	93.19
295.295	80.19
295.525	100.19
295.756	91.19
295.987	102.19
296.217	129.19
296.448	128.19
296.679	93.19
296.909	83.19
297.14	85.19
297.37	79.19
297.601	93.19
297.831	86.19
298.062	92.19
298.292	87.19
298.523	88.19
298.753	93.19
298.984	85.19
299.214	92.19
299.445	79.19
299.675	89.19
299.905	89.19
300.136	87.19
300.366	84.19
300.597	95.19
300.827	90.19
301.057	93.19
301.288	103.19
301.518	87.19
301.748	84.19
301.979	90.19
302.209	85.19
302.439	92.19
302.669	72.19
302.9	78.19
303.13	100.19
303.36	99.19
303.59	93.19
303.82	108.19
304.051	82.19
304.281	90.19
304.511	72.19
304.741	91.19
304.971	82.19
305.201	97.19
305.431	75.19
305.661	78.19
305.891	96.19
306.121	83.19
306.352	95.19
306.582	90.19
306.812	97.19
307.042	89.19
307.272	98.19
307.502	91.19
307.731	91.19
307.961	85.19
308.191	87.19
308.421	85.19
308.651	82.19
308.881	91.19
309.111	91.19
309.341	90.19
309.571	102.19
309.8	97.19
310.03	84.19
310.26	93.19
310.49	95.19
310.72	92.19
310.949	97.19
311.179	105.19
311.409	92.19
311.639	89.19
311.868	86.19
312.098	92.19
312.328	101.19
312.557	99.19
312.787	88.19
313.017	93.19
313.246	83.19
313.476	99.19
313.706	104.19
313.935	99.19
314.165	89.19
314.394	101.19
314.624	87.19
314.853	97.19
315.083	102.19
315.312	90.19
315.542	83.19
315.771	90.19
316.001	93.19
316.23	87.19
316.46	83.19
316.689	78.19
316.919	92.19
317.148	88.19
317.377	80.19
317.607	94.19
317.836	94.19
318.065	94.19
318.295	111.19
318.524	100.19
318.753	99.19
318.983	97.19
319.212	107.19
319.441	99.19
319.67	93.19
319.9	100.19
320.129	93.19
320.358	101.19
320.587	95.19
320.816	91.19
321.046	84.19
321.275	95.19
321.504	94.19
321.733	102.19
321.962	90.19
322.191	84.19
322.42	104.19
322.649	104.19
322.878	105.19
323.108	121.19
323.337	116.19
323.566	119.19
323.795	138.19
324.024	170.19
324.253	328.19
324.482	734.19
324.71	1459.19
324.939	1890.19
325.168	684.19
325.397	225.19
325.626	136.19
325.855	112.19
326.084	117.19
326.313	112.19
326.542	132.19
326.77	206.19
326.999	414.19
327.228	846.19
327.457	1496.19
327.686	1203.19
327.914	330.19
328.143	176.19
328.372	162.19
328.6	115.19
328.829	119.19
329.058	128.19
329.287	112.19
329.515	102.19
329.744	111.19
329.972	124.19
330.201	159.19
330.43	183.19
330.658	142.19
330.887	127.19
331.115	116.19
331.344	98.19
331.572	92.19
331.801	98.19
332.03	91.19
332.258	92.19
332.486	87.19
332.715	84.19
332.943	84.19
333.172	101.19
333.4	100.19
333.629	115.19
333.857	115.19
334.085	136.19
334.314	150.19
334.542	205.19
334.771	208.19
334.999	113.19
335.227	108.19
335.455	91.19
335.684	101.19
335.912	96.19
336.14	106.19
336.369	107.19
336.597	89.19
336.825	97.19
337.053	88.19
337.281	91.19
337.51	97.19
337.738	93.19
337.966	94.19
338.194	100.19
338.422	100.19
338.65	105.19
338.878	94.19
339.106	86.19
339.334	102.19
339.562	95.19
339.79	88.19
340.018	91.19
340.246	96.19
340.474	98.19
340.702	83.19
340.93	106.19
341.158	77.19
341.386	99.19
341.614	82.19
341.842	95.19
342.07	89.19
342.298	86.19
342.526	91.19
342.754	78.19
342.981	90.19
343.209	96.19
343.437	100.19
343.665	91.19
343.893	82.19
344.12	91.19
344.348	98.19
344.576	90.19
344.804	96.19
345.031	94.19
345.259	91.19
345.487	95.19
345.714	91.19
345.942	92.19
346.17	87.19
346.397	78.19
346.625	85.19
346.853	87.19
347.08	97.19
347.308	95.19
347.535	98.19
347.763	91.19
347.99	96.19
348.218	86.19
348.445	91.19
348.673	92.19
348.9	103.19
349.128	104.19
349.355	106.19
349.583	88.19
349.81	97.19
350.037	96.19
350.265	91.19
350.492	78.19
350.72	90.19
350.947	104.19
351.174	91.19
351.402	97.19
351.629	101.19
351.856	94.19
352.083	105.19
352.311	99.19
352.538	112.19
352.765	100.19
352.992	106.19
353.22	113.19
353.447	102.19
353.674	97.19
353.901	102.19
354.128	100.19
354.355	90.19
354.583	87.19
354.81	103.19
355.037	100.19
355.264	94.19
355.491	98.19
355.718	82.19
355.945	83.19
356.172	104.19
356.399	101.19
356.626	81.19
356.853	92.19
357.08	100.19
357.307	88.19
357.534	91.19
357.761	95.19
357.988	86.19
358.215	77.19
358.441	95.19
358.668	71.19
358.895	99.19
359.122	95.19
359.349	83.19
359.576	82.19
359.802	102.19
360.029	99.19
360.256	101.19
360.483	92.19
360.709	86.19
360.936	92.19
361.163	93.19
361.39	78.19
361.616	97.19
361.843	99.19
362.07	85.19
362.296	84.19
362.523	81.19
362.749	90.19
362.976	96.19
363.203	114.19
363.429	82.19
363.656	94.19
363.882	84.19
364.109	56.19
364.335	84.19
364.562	83.19
364.788	87.19
365.015	99.19
365.241	100.19
365.468	112.19
365.694	118.19
365.92	91.19
366.147	89.19
366.373	86.19
366.599	94.19
366.826	79.19
367.052	95.19
367.278	92.19
367.505	94.19
367.731	77.19
367.957	67.19
368.184	85.19
368.41	95.19
368.636	109.19
368.862	103.19
369.089	94.19
369.315	86.19
369.541	90.19
369.767	97.19
369.993	83.19
370.219	76.19
370.445	94.19
370.672	87.19
370.898	94.19
371.124	86.19
371.35	78.19
371.576	88.19
371.802	82.19
372.028	93.19
372.254	97.19
372.48	91.19
372.706	100.19
372.932	97.19
373.158	94.19
373.384	87.19
373.61	116.19
373.835	98.19
374.061	100.19
374.287	100.19
374.513	71.19
374.739	78.19
374.965	79.19
375.191	83.19
375.416	89.19
375.642	89.19
375.868	84.19
376.094	99.19
376.319	90.19
376.545	80.19
376.771	97.19
376.997	85.19
377.222	87.19
377.448	87.19
377.674	81.19
377.899	82.19
378.125	82.19
378.35	79.19
378.576	83.19
378.802	99.19
379.027	85.19
379.253	104.19
379.478	84.19
379.704	98.19
379.929	111.19
380.155	80.19
380.38	78.19
380.606	82.19
380.831	86.19
381.057	93.19
381.282	85.19
381.507	80.19
381.733	83.19
381.958	103.19
382.184	99.19
382.409	86.19
382.634	115.19
382.86	103.19
383.085	98.19
383.31	94.19
383.535	94.19
383.761	94.19
383.986	95.19
384.211	89.19
384.436	90.19
384.662	91.19
384.887	97.19
385.112	103.19
385.337	104.19
385.562	109.19
385.787	89.19
386.013	104.19
386.238	96.19
386.463	92.19
386.688	115.19
386.913	80.19
387.138	93.19
387.363	90.19
387.588	94.19
387.813	102.19
388.038	98.19
388.263	103.19
388.488	108.19
388.713	90.19
388.938	98.19
389.163	86.19
389.387	98.19
389.612	106.19
389.837	95.19
390.062	88.19
390.287	82.19
390.512	93.19
390.736	102.19
390.961	82.19
391.186	87.19
391.411	87.19
391.636	87.19
391.86	87.19
392.085	72.19
392.31	80.19
392.534	72.19
392.759	95.19
392.984	84.19
393.208	93.19
393.433	113.19
393.658	113.19
393.882	89.19
394.107	82.19
394.331	85.19
394.556	77.19
394.78	86.19
395.005	93.19
395.229	87.19
395.454	91.19
395.678	92.19
395.903	86.19
396.127	100.19
396.352	79.19
396.576	103.19
396.801	102.19
397.025	98.19
397.249	90.19
397.474	86.19
397.698	84.19
397.922	68.19
398.147	92.19
398.371	74.19
398.595	98.19
398.82	81.19
399.044	100.19
399.268	86.19
399.492	85.19
399.717	89.19
399.941	87.19
400.165	109.19
400.389	83.19
400.613	95.19
400.837	84.19
401.062	82.19
401.286	83.19
401.51	96.19
401.734	90.19
401.958	93.19
402.182	102.19
402.406	154.19
402.63	109.19
402.854	86.19
403.078	86.19
403.302	98.19
403.526	88.19
403.75	82.19
403.974	84.19
404.198	83.19
404.422	82.19
404.645	74.19
404.869	95.19
405.093	103.19
405.317	100.19
405.541	102.19
405.765	101.19
405.988	120.19
406.212	172.19
406.436	206.19
406.66	129.19
406.883	90.19
407.107	86.19
407.331	96.19
407.555	103.19
407.778	103.19
408.002	93.19
408.226	93.19
408.449	87.19
408.673	91.19
408.896	81.19
409.12	96.19
409.344	86.19
409.567	72.19
409.791	89.19
410.014	81.19
410.238	87.19
410.461	92.19
410.685	97.19
410.908	95.19
411.132	104.19
411.355	111.19
411.578	82.19
411.802	89.19
412.025	77.19
412.249	85.19
412.472	102.19
412.695	96.19
412.919	83.19
413.142	84.19
413.365	87.19
413.589	87.19
413.812	101.19
414.035	92.19
414.258	90.19
414.482	98.19
414.705	93.19
414.928	85.19
415.151	93.19
415.374	70.19
415.597	84.19
415.821	94.19
416.044	83.19
416.267	84.19
416.49	76.19
416.713	88.19
416.936	99.19
417.159	88.19
417.382	93.19
417.605	86.19
417.828	78.19
418.051	105.19
418.274	91.19
418.497	76.19
418.72	83.19
418.943	94.19
419.166	78.19
419.389	83.19
419.611	76.19
419.834	94.19
420.057	80.19
420.28	80.19
420.503	68.19
420.726	74.19
420.948	80.19
421.171	81.19
421.394	96.19
421.617	84.19
421.839	81.19
422.062	91.19
422.285	91.19
422.507	97.19
422.73	103.19
422.953	99.19
423.175	98.19
423.398	96.19
423.621	98.19
423.843	87.19
424.066	78.19
424.288	96.19
424.511	90.19
424.733	89.19
424.956	86.19
425.178	92.19
425.401	102.19
425.623	87.19
425.846	94.19
426.068	83.19
426.291	92.19
426.513	91.19
426.735	88.19
426.958	96.19
427.18	96.19
427.402	130.19
427.625	149.19
427.847	119.19
428.069	112.19
428.292	94.19
428.514	75.19
428.736	80.19
428.958	90.19
429.181	77.19
429.403	92.19
429.625	75.19
429.847	80.19
430.069	95.19
430.292	72.19
430.514	84.19
430.736	84.19
430.958	72.19
431.18	83.19
431.402	71.19
431.624	89.19
431.846	66.19
432.068	99.19
432.29	94.19
432.512	78.19
432.734	83.19
432.956	90.19
433.178	90.19
433.4	107.19
433.622	82.19
433.844	87.19
434.066	92.19
434.287	94.19
434.509	68.19
434.731	92.19
434.953	87.19
435.175	86.19
435.397	85.19
435.618	88.19
435.84	98.19
436.062	116.19
436.284	116.19
436.505	94.19
436.727	110.19
436.949	93.19
437.17	84.19
437.392	90.19
437.614	94.19
437.835	98.19
438.057	103.19
438.278	101.19
438.5	97.19
438.721	120.19
438.943	96.19
439.165	76.19
439.386	80.19
439.608	86.19
439.829	95.19
440.05	110.19
440.272	134.19
440.493	115.19
440.715	82.19
440.936	83.19
441.158	86.19
441.379	94.19
441.6	92.19
441.822	89.19
442.043	100.19
442.264	117.19
442.486	102.19
442.707	91.19
442.928	95.19
443.149	111.19
443.371	127.19
443.592	97.19
443.813	113.19
444.034	94.19
444.255	92.19
444.476	72.19
444.698	82.19
444.919	72.19
445.14	131.19
445.361	114.19
445.582	112.19
445.803	133.19
446.024	131.19
446.245	107.19
446.466	108.19
446.687	87.19
446.908	99.19
447.129	92.19
447.35	90.19
447.571	97.19
447.792	90.19
448.013	91.19
448.234	111.19
448.455	96.19
448.675	104.19
448.896	107.19
449.117	86.19
449.338	92.19
449.559	114.19
449.779	120.19
450	105.19
450.221	86.19
450.442	109.19
450.662	84.19
450.883	99.19
451.104	100.19
451.324	93.19
451.545	102.19
451.766	76.19
451.986	95.19
452.207	95.19
452.428	87.19
452.648	104.19
452.869	105.19
453.089	95.19
453.31	107.19
453.53	82.19
453.751	83.19
453.971	104.19
454.192	106.19
454.412	76.19
454.633	79.19
454.853	86.19
455.073	90.19
455.294	91.19
455.514	112.19
455.734	74.19
455.955	85.19
456.175	80.19
456.395	90.19
456.616	86.19
456.836	70.19
457.056	95.19
457.276	91.19
457.497	91.19
457.717	84.19
457.937	94.19
458.157	84.19
458.377	88.19
458.598	91.19
458.818	145.19
459.038	133.19
459.258	109.19
459.478	96.19
459.698	90.19
459.918	90.19
460.138	86.19
460.358	76.19
460.578	86.19
460.798	89.19
461.018	89.19
461.238	90.19
461.458	78.19
461.678	84.19
461.898	90.19
462.118	84.19
462.338	84.19
462.558	90.19
462.777	82.19
462.997	89.19
463.217	86.19
463.437	70.19
463.657	91.19
463.876	92.19
464.096	89.19
464.316	80.19
464.536	100.19
464.755	93.19
464.975	112.19
465.195	164.19
465.414	140.19
465.634	87.19
465.854	84.19
466.073	87.19
466.293	85.19
466.512	91.19
466.732	78.19
466.951	84.19
467.171	91.19
467.391	82.19
467.61	111.19
467.829	99.19
468.049	118.19
468.268	118.19
468.488	84.19
468.707	85.19
468.927	76.19
469.146	85.19
469.365	80.19
469.585	88.19
469.804	94.19
470.023	92.19
470.243	91.19
470.462	91.19
470.681	89.19
470.901	74.19
471.12	82.19
471.339	80.19
471.558	69.19
471.777	96.19
471.997	94.19
472.216	155.19
472.435	249.19
472.654	86.19
472.873	98.19
473.092	94.19
473.311	89.19
473.53	80.19
473.749	90.19
473.968	96.19
474.187	114.19
474.406	86.19
474.625	78.19
474.844	90.19
475.063	81.19
475.282	94.19
475.501	85.19
475.72	85.19
475.939	91.19
476.158	94.19
476.377	91.19
476.596	92.19
476.814	95.19
477.033	92.19
477.252	86.19
477.471	90.19
477.69	86.19
477.908	97.19
478.127	101.19
478.346	83.19
478.564	87.19
478.783	86.19
479.002	82.19
479.22	101.19
479.439	100.19
479.658	104.19
479.876	83.19
480.095	88.19
480.313	101.19
480.532	93.19
480.751	101.19
480.969	160.19
481.188	399.19
481.406	259.19
481.624	106.19
481.843	87.19
482.061	74.19
482.28	81.19
482.498	108.19
482.717	90.19
482.935	98.19
483.153	94.19
483.372	77.19
483.59	90.19
483.808	89.19
484.027	96.19
484.245	83.19
484.463	84.19
484.681	94.19
484.9	87.19
485.118	93.19
485.336	86.19
485.554	98.19
485.772	95.19
485.99	102.19
486.209	103.19
486.427	80.19
486.645	93.19
486.863	114.19
487.081	98.19
487.299	95.19
487.517	100.19
487.735	77.19
487.953	93.19
488.171	92.19
488.389	92.19
488.607	103.19
488.825	86.19
489.043	89.19
489.261	80.19
489.479	84.19
489.696	81.19
489.914	83.19
490.132	83.19
490.35	86.19
490.568	84.19
490.786	75.19
491.003	82.19
491.221	88.19
491.439	101.19
491.657	91.19
491.874	78.19
492.092	106.19
492.31	89.19
492.527	82.19
492.745	80.19
492.963	78.19
493.18	89.19
493.398	95.19
493.615	90.19
493.833	82.19
494.05	80.19
494.268	80.19
494.485	90.19
494.703	94.19
494.92	79.19
495.138	87.19
495.355	81.19
495.573	96.19
495.79	87.19
496.008	90.19
496.225	82.19
496.442	84.19
496.66	91.19
496.877	81.19
497.094	91.19
497.312	92.19
497.529	91.19
497.746	89.19
497.963	94.19
498.181	95.19
498.398	94.19
498.615	87.19
498.832	91.19
499.049	86.19
499.267	92.19
499.484	78.19
499.701	94.19
499.918	101.19
500.135	94.19
500.352	69.19
500.569	87.19
500.786	95.19
501.003	98.19
501.22	107.19
501.437	88.19
501.654	83.19
501.871	90.19
502.088	71.19
502.305	80.19
502.522	97.19
502.739	84.19
502.956	83.19
503.172	96.19
503.389	86.19
503.606	93.19
503.823	93.19
504.04	85.19
504.256	98.19
504.473	82.19
504.69	79.19
504.907	103.19
505.123	80.19
505.34	95.19
505.557	94.19
505.773	95.19
505.99	94.19
506.207	92.19
506.423	74.19
506.64	72.19
506.856	69.19
507.073	92.19
507.289	98.19
507.506	99.19
507.722	101.19
507.939	94.19
508.155	71.19
508.372	92.19
508.588	82.19
508.805	101.19
509.021	98.19
509.238	88.19
509.454	98.19
509.67	99.19
509.887	116.19
510.103	134.19
510.319	202.19
510.536	658.19
510.752	1980.19
510.968	547.19
511.184	130.19
511.401	96.19
511.617	97.19
511.833	97.19
512.049	98.19
512.265	91.19
512.481	97.19
512.698	91.19
512.914	86.19
513.13	94.19
513.346	94.19
513.562	93.19
513.778	94.19
513.994	98.19
514.21	99.19
514.426	100.19
514.642	130.19
514.858	108.19
515.074	149.19
515.29	406.19
515.506	1279.19
515.721	462.19
515.937	123.19
516.153	109.19
516.369	96.19
