Data from Uncirc_1989_H10_HRD10591_00073.txt Node
Date: Wed Jan 03 11:57:50 EST 2024
User: Yrep
Spectrometer: HR+D1059
Trigger mode: 1
Integration Time (sec): 1.000000E-1
Scans to average: 1
Electric dark correction enabled: true
Nonlinearity correction enabled: false
Boxcar width: 0
XAxis mode: Wavelengths
Number of Pixels in Spectrum: 2048
>>>>>Begin Spectral Data<<<<<
223.165	-14.06
223.4	-14.06
223.635	-14.06
223.869	-10.06
224.104	-24.06
224.338	-18.06
224.573	-14.06
224.808	-21.06
225.042	-10.06
225.277	-9.06
225.511	-4.06
225.746	5.94
225.98	7.94
226.215	11.94
226.449	22.94
226.683	20.94
226.918	23.94
227.152	30.94
227.387	34.94
227.621	38.94
227.856	43.94
228.09	31.94
228.324	44.94
228.559	55.94
228.793	65.94
229.027	59.94
229.262	64.94
229.496	76.94
229.73	72.94
229.964	74.94
230.199	70.94
230.433	74.94
230.667	76.94
230.901	81.94
231.136	74.94
231.37	81.94
231.604	78.94
231.838	71.94
232.072	71.94
232.306	74.94
232.541	71.94
232.775	65.94
233.009	76.94
233.243	93.94
233.477	74.94
233.711	75.94
233.945	95.94
234.179	59.94
234.413	71.94
234.647	86.94
234.881	83.94
235.115	61.94
235.349	76.94
235.583	67.94
235.817	66.94
236.051	74.94
236.285	75.94
236.519	70.94
236.753	76.94
236.987	76.94
237.221	75.94
237.455	83.94
237.689	79.94
237.922	85.94
238.156	77.94
238.39	87.94
238.624	63.94
238.858	72.94
239.091	64.94
239.325	78.94
239.559	84.94
239.793	69.94
240.027	70.94
240.26	71.94
240.494	82.94
240.728	67.94
240.961	86.94
241.195	90.94
241.429	69.94
241.662	74.94
241.896	71.94
242.13	67.94
242.363	77.94
242.597	72.94
242.83	71.94
243.064	74.94
243.298	71.94
243.531	67.94
243.765	63.94
243.998	75.94
244.232	88.94
244.465	81.94
244.699	75.94
244.932	72.94
245.166	82.94
245.399	70.94
245.633	64.94
245.866	66.94
246.099	68.94
246.333	75.94
246.566	74.94
246.8	71.94
247.033	82.94
247.266	83.94
247.5	71.94
247.733	70.94
247.966	75.94
248.2	76.94
248.433	74.94
248.666	84.94
248.899	78.94
249.133	92.94
249.366	85.94
249.599	86.94
249.832	84.94
250.066	75.94
250.299	85.94
250.532	58.94
250.765	76.94
250.998	75.94
251.231	85.94
251.465	85.94
251.698	90.94
251.931	70.94
252.164	65.94
252.397	74.94
252.63	77.94
252.863	82.94
253.096	77.94
253.329	79.94
253.562	90.94
253.795	88.94
254.028	87.94
254.261	85.94
254.494	87.94
254.727	83.94
254.96	79.94
255.193	84.94
255.426	84.94
255.659	94.94
255.892	103.94
256.124	73.94
256.357	65.94
256.59	82.94
256.823	90.94
257.056	79.94
257.289	83.94
257.521	67.94
257.754	71.94
257.987	67.94
258.22	85.94
258.452	90.94
258.685	74.94
258.918	74.94
259.151	79.94
259.383	74.94
259.616	68.94
259.849	85.94
260.081	60.94
260.314	87.94
260.547	89.94
260.779	82.94
261.012	85.94
261.244	89.94
261.477	97.94
261.71	87.94
261.942	90.94
262.175	94.94
262.407	100.94
262.64	78.94
262.872	95.94
263.105	82.94
263.337	84.94
263.57	96.94
263.802	78.94
264.035	87.94
264.267	67.94
264.499	81.94
264.732	82.94
264.964	95.94
265.197	74.94
265.429	83.94
265.661	71.94
265.894	66.94
266.126	82.94
266.358	93.94
266.591	88.94
266.823	68.94
267.055	80.94
267.287	64.94
267.52	87.94
267.752	90.94
267.984	90.94
268.216	87.94
268.448	78.94
268.681	76.94
268.913	71.94
269.145	70.94
269.377	83.94
269.609	82.94
269.841	84.94
270.073	79.94
270.306	81.94
270.538	82.94
270.77	65.94
271.002	88.94
271.234	69.94
271.466	90.94
271.698	77.94
271.93	102.94
272.162	76.94
272.394	82.94
272.626	75.94
272.858	85.94
273.09	82.94
273.322	86.94
273.553	88.94
273.785	91.94
274.017	88.94
274.249	88.94
274.481	84.94
274.713	97.94
274.945	85.94
275.176	92.94
275.408	89.94
275.64	91.94
275.872	78.94
276.104	81.94
276.335	86.94
276.567	92.94
276.799	99.94
277.031	87.94
277.262	84.94
277.494	88.94
277.726	94.94
277.957	99.94
278.189	91.94
278.421	86.94
278.652	87.94
278.884	85.94
279.115	88.94
279.347	87.94
279.579	67.94
279.81	92.94
280.042	90.94
280.273	96.94
280.505	77.94
280.736	76.94
280.968	78.94
281.199	90.94
281.431	90.94
281.662	76.94
281.894	94.94
282.125	100.94
282.356	108.94
282.588	135.94
282.819	104.94
283.051	84.94
283.282	84.94
283.513	80.94
283.745	94.94
283.976	87.94
284.207	76.94
284.439	77.94
284.67	87.94
284.901	89.94
285.132	96.94
285.364	96.94
285.595	91.94
285.826	85.94
286.057	81.94
286.288	78.94
286.52	99.94
286.751	79.94
286.982	87.94
287.213	82.94
287.444	79.94
287.675	82.94
287.906	82.94
288.138	82.94
288.369	88.94
288.6	80.94
288.831	85.94
289.062	81.94
289.293	87.94
289.524	78.94
289.755	87.94
289.986	96.94
290.217	81.94
290.448	96.94
290.679	90.94
290.91	87.94
291.141	79.94
291.371	86.94
291.602	87.94
291.833	88.94
292.064	91.94
292.295	92.94
292.526	77.94
292.757	86.94
292.987	89.94
293.218	74.94
293.449	74.94
293.68	78.94
293.91	85.94
294.141	98.94
294.372	94.94
294.603	91.94
294.833	88.94
295.064	75.94
295.295	88.94
295.525	86.94
295.756	89.94
295.987	97.94
296.217	130.94
296.448	103.94
296.679	92.94
296.909	90.94
297.14	84.94
297.37	81.94
297.601	69.94
297.831	90.94
298.062	88.94
298.292	84.94
298.523	102.94
298.753	85.94
298.984	78.94
299.214	88.94
299.445	76.94
299.675	92.94
299.905	91.94
300.136	91.94
300.366	81.94
300.597	87.94
300.827	97.94
301.057	95.94
301.288	101.94
301.518	91.94
301.748	67.94
301.979	97.94
302.209	94.94
302.439	97.94
302.669	77.94
302.9	72.94
303.13	91.94
303.36	88.94
303.59	104.94
303.82	98.94
304.051	92.94
304.281	94.94
304.511	97.94
304.741	100.94
304.971	85.94
305.201	87.94
305.431	77.94
305.661	87.94
305.891	81.94
306.121	95.94
306.352	101.94
306.582	109.94
306.812	99.94
307.042	95.94
307.272	98.94
307.502	107.94
307.731	99.94
307.961	86.94
308.191	77.94
308.421	90.94
308.651	84.94
308.881	94.94
309.111	95.94
309.341	96.94
309.571	83.94
309.8	90.94
310.03	91.94
310.26	86.94
310.49	93.94
310.72	90.94
310.949	103.94
311.179	92.94
311.409	79.94
311.639	83.94
311.868	86.94
312.098	98.94
312.328	103.94
312.557	103.94
312.787	103.94
313.017	91.94
313.246	107.94
313.476	88.94
313.706	96.94
313.935	88.94
314.165	88.94
314.394	98.94
314.624	102.94
314.853	100.94
315.083	75.94
315.312	76.94
315.542	94.94
315.771	101.94
316.001	89.94
316.23	92.94
316.46	79.94
316.689	84.94
316.919	94.94
317.148	115.94
317.377	84.94
317.607	102.94
317.836	91.94
318.065	90.94
318.295	85.94
318.524	87.94
318.753	86.94
318.983	102.94
319.212	95.94
319.441	91.94
319.67	100.94
319.9	81.94
320.129	85.94
320.358	84.94
320.587	102.94
320.816	84.94
321.046	116.94
321.275	100.94
321.504	86.94
321.733	85.94
321.962	98.94
322.191	90.94
322.42	95.94
322.649	108.94
322.878	109.94
323.108	120.94
323.337	123.94
323.566	111.94
323.795	159.94
324.024	195.94
324.253	343.94
324.482	715.94
324.71	1466.94
324.939	1939.94
325.168	696.94
325.397	212.94
325.626	140.94
325.855	123.94
326.084	119.94
326.313	133.94
326.542	130.94
326.77	204.94
326.999	392.94
327.228	837.94
327.457	1530.94
327.686	1144.94
327.914	353.94
328.143	198.94
328.372	169.94
328.6	119.94
328.829	118.94
329.058	112.94
329.287	115.94
329.515	102.94
329.744	106.94
329.972	133.94
330.201	174.94
330.43	213.94
330.658	145.94
330.887	124.94
331.115	124.94
331.344	109.94
331.572	106.94
331.801	99.94
332.03	90.94
332.258	89.94
332.486	99.94
332.715	102.94
332.943	95.94
333.172	86.94
333.4	87.94
333.629	101.94
333.857	100.94
334.085	125.94
334.314	178.94
334.542	268.94
334.771	245.94
334.999	121.94
335.227	99.94
335.455	98.94
335.684	88.94
335.912	115.94
336.14	103.94
336.369	103.94
336.597	110.94
336.825	95.94
337.053	94.94
337.281	87.94
337.51	92.94
337.738	91.94
337.966	92.94
338.194	112.94
338.422	95.94
338.65	85.94
338.878	102.94
339.106	90.94
339.334	94.94
339.562	75.94
339.79	86.94
340.018	93.94
340.246	87.94
340.474	96.94
340.702	95.94
340.93	86.94
341.158	98.94
341.386	78.94
341.614	94.94
341.842	96.94
342.07	76.94
342.298	97.94
342.526	102.94
342.754	87.94
342.981	81.94
343.209	87.94
343.437	112.94
343.665	81.94
343.893	93.94
344.12	92.94
344.348	86.94
344.576	86.94
344.804	89.94
345.031	86.94
345.259	103.94
345.487	88.94
345.714	95.94
345.942	84.94
346.17	89.94
346.397	91.94
346.625	96.94
346.853	104.94
347.08	83.94
347.308	88.94
347.535	87.94
347.763	97.94
347.99	93.94
348.218	80.94
348.445	89.94
348.673	87.94
348.9	79.94
349.128	95.94
349.355	79.94
349.583	90.94
349.81	101.94
350.037	96.94
350.265	82.94
350.492	86.94
350.72	100.94
350.947	102.94
351.174	100.94
351.402	91.94
351.629	102.94
351.856	91.94
352.083	98.94
352.311	109.94
352.538	103.94
352.765	96.94
352.992	101.94
353.22	95.94
353.447	100.94
353.674	95.94
353.901	99.94
354.128	100.94
354.355	99.94
354.583	88.94
354.81	92.94
355.037	90.94
355.264	96.94
355.491	90.94
355.718	92.94
355.945	87.94
356.172	87.94
356.399	97.94
356.626	84.94
356.853	91.94
357.08	93.94
357.307	93.94
357.534	88.94
357.761	97.94
357.988	79.94
358.215	86.94
358.441	96.94
358.668	91.94
358.895	79.94
359.122	83.94
359.349	86.94
359.576	105.94
359.802	85.94
360.029	102.94
360.256	107.94
360.483	94.94
360.709	92.94
360.936	70.94
361.163	75.94
361.39	87.94
361.616	100.94
361.843	89.94
362.07	106.94
362.296	83.94
362.523	90.94
362.749	82.94
362.976	84.94
363.203	89.94
363.429	87.94
363.656	88.94
363.882	73.94
364.109	84.94
364.335	104.94
364.562	93.94
364.788	84.94
365.015	86.94
365.241	112.94
365.468	99.94
365.694	92.94
365.92	96.94
366.147	88.94
366.373	80.94
366.599	90.94
366.826	94.94
367.052	83.94
367.278	92.94
367.505	74.94
367.731	87.94
367.957	95.94
368.184	100.94
368.41	85.94
368.636	95.94
368.862	119.94
369.089	98.94
369.315	87.94
369.541	90.94
369.767	92.94
369.993	93.94
370.219	78.94
370.445	85.94
370.672	86.94
370.898	93.94
371.124	97.94
371.35	81.94
371.576	87.94
371.802	86.94
372.028	86.94
372.254	85.94
372.48	92.94
372.706	96.94
372.932	86.94
373.158	92.94
373.384	91.94
373.61	97.94
373.835	66.94
374.061	88.94
374.287	82.94
374.513	103.94
374.739	93.94
374.965	91.94
375.191	90.94
375.416	94.94
375.642	88.94
375.868	80.94
376.094	89.94
376.319	92.94
376.545	80.94
376.771	99.94
376.997	88.94
377.222	80.94
377.448	85.94
377.674	100.94
377.899	88.94
378.125	74.94
378.35	88.94
378.576	82.94
378.802	98.94
379.027	89.94
379.253	100.94
379.478	86.94
379.704	85.94
379.929	109.94
380.155	100.94
380.38	86.94
380.606	92.94
380.831	84.94
381.057	101.94
381.282	90.94
381.507	89.94
381.733	84.94
381.958	101.94
382.184	102.94
382.409	90.94
382.634	93.94
382.86	90.94
383.085	85.94
383.31	97.94
383.535	106.94
383.761	96.94
383.986	91.94
384.211	82.94
384.436	87.94
384.662	96.94
384.887	98.94
385.112	90.94
385.337	94.94
385.562	108.94
385.787	100.94
386.013	101.94
386.238	115.94
386.463	96.94
386.688	110.94
386.913	86.94
387.138	105.94
387.363	93.94
387.588	101.94
387.813	102.94
388.038	99.94
388.263	102.94
388.488	101.94
388.713	92.94
388.938	75.94
389.163	103.94
389.387	92.94
389.612	92.94
389.837	83.94
390.062	89.94
390.287	82.94
390.512	76.94
390.736	86.94
390.961	86.94
391.186	93.94
391.411	94.94
391.636	80.94
391.86	84.94
392.085	79.94
392.31	86.94
392.534	83.94
392.759	88.94
392.984	90.94
393.208	102.94
393.433	89.94
393.658	93.94
393.882	89.94
394.107	100.94
394.331	85.94
394.556	68.94
394.78	74.94
395.005	78.94
395.229	78.94
395.454	83.94
395.678	68.94
395.903	91.94
396.127	90.94
396.352	88.94
396.576	87.94
396.801	88.94
397.025	96.94
397.249	86.94
397.474	87.94
397.698	84.94
397.922	90.94
398.147	92.94
398.371	81.94
398.595	93.94
398.82	76.94
399.044	85.94
399.268	85.94
399.492	80.94
399.717	75.94
399.941	80.94
400.165	94.94
400.389	92.94
400.613	74.94
400.837	78.94
401.062	75.94
401.286	81.94
401.51	91.94
401.734	87.94
401.958	106.94
402.182	115.94
402.406	141.94
402.63	126.94
402.854	84.94
403.078	78.94
403.302	80.94
403.526	70.94
403.75	81.94
403.974	88.94
404.198	93.94
404.422	89.94
404.645	85.94
404.869	88.94
405.093	108.94
405.317	100.94
405.541	95.94
405.765	92.94
405.988	121.94
406.212	158.94
406.436	191.94
406.66	140.94
406.883	82.94
407.107	95.94
407.331	81.94
407.555	94.94
407.778	91.94
408.002	87.94
408.226	98.94
408.449	80.94
408.673	78.94
408.896	79.94
409.12	98.94
409.344	97.94
409.567	73.94
409.791	90.94
410.014	101.94
410.238	67.94
410.461	68.94
410.685	78.94
410.908	75.94
411.132	104.94
411.355	108.94
411.578	84.94
411.802	81.94
412.025	96.94
412.249	97.94
412.472	119.94
412.695	84.94
412.919	90.94
413.142	76.94
413.365	97.94
413.589	88.94
413.812	80.94
414.035	87.94
414.258	92.94
414.482	91.94
414.705	79.94
414.928	85.94
415.151	91.94
415.374	89.94
415.597	104.94
415.821	82.94
416.044	83.94
416.267	93.94
416.49	76.94
416.713	83.94
416.936	83.94
417.159	78.94
417.382	93.94
417.605	68.94
417.828	93.94
418.051	86.94
418.274	70.94
418.497	97.94
418.72	76.94
418.943	87.94
419.166	78.94
419.389	90.94
419.611	85.94
419.834	84.94
420.057	98.94
420.28	99.94
420.503	93.94
420.726	81.94
420.948	82.94
421.171	90.94
421.394	96.94
421.617	95.94
421.839	97.94
422.062	90.94
422.285	103.94
422.507	80.94
422.73	82.94
422.953	92.94
423.175	82.94
423.398	83.94
423.621	99.94
423.843	87.94
424.066	92.94
424.288	84.94
424.511	83.94
424.733	79.94
424.956	97.94
425.178	93.94
425.401	91.94
425.623	99.94
425.846	88.94
426.068	97.94
426.291	86.94
426.513	85.94
426.735	80.94
426.958	100.94
427.18	109.94
427.402	122.94
427.625	154.94
427.847	125.94
428.069	124.94
428.292	91.94
428.514	80.94
428.736	84.94
428.958	83.94
429.181	82.94
429.403	82.94
429.625	81.94
429.847	101.94
430.069	94.94
430.292	78.94
430.514	79.94
430.736	79.94
430.958	75.94
431.18	75.94
431.402	81.94
431.624	78.94
431.846	88.94
432.068	88.94
432.29	79.94
432.512	90.94
432.734	73.94
432.956	93.94
433.178	77.94
433.4	85.94
433.622	82.94
433.844	86.94
434.066	80.94
434.287	99.94
434.509	74.94
434.731	87.94
434.953	92.94
435.175	83.94
435.397	79.94
435.618	89.94
435.84	101.94
436.062	105.94
436.284	112.94
436.505	93.94
436.727	91.94
436.949	77.94
437.17	89.94
437.392	102.94
437.614	81.94
437.835	115.94
438.057	95.94
438.278	110.94
438.5	101.94
438.721	96.94
438.943	95.94
439.165	83.94
439.386	93.94
439.608	103.94
439.829	92.94
440.05	95.94
440.272	138.94
440.493	97.94
440.715	73.94
440.936	82.94
441.158	70.94
441.379	92.94
441.6	95.94
441.822	92.94
442.043	75.94
442.264	83.94
442.486	95.94
442.707	88.94
442.928	89.94
443.149	114.94
443.371	119.94
443.592	92.94
443.813	96.94
444.034	96.94
444.255	89.94
444.476	78.94
444.698	84.94
444.919	78.94
445.14	129.94
445.361	111.94
445.582	100.94
445.803	114.94
446.024	109.94
446.245	118.94
446.466	101.94
446.687	93.94
446.908	77.94
447.129	86.94
447.35	89.94
447.571	89.94
447.792	108.94
448.013	80.94
448.234	80.94
448.455	89.94
448.675	93.94
448.896	95.94
449.117	98.94
449.338	92.94
449.559	125.94
449.779	118.94
450	82.94
450.221	85.94
450.442	82.94
450.662	95.94
450.883	96.94
451.104	101.94
451.324	93.94
451.545	90.94
451.766	86.94
451.986	69.94
452.207	90.94
452.428	104.94
452.648	90.94
452.869	88.94
453.089	96.94
453.31	97.94
453.53	74.94
453.751	94.94
453.971	92.94
454.192	83.94
454.412	91.94
454.633	81.94
454.853	94.94
455.073	90.94
455.294	86.94
455.514	83.94
455.734	86.94
455.955	88.94
456.175	66.94
456.395	92.94
456.616	79.94
456.836	87.94
457.056	84.94
457.276	71.94
457.497	83.94
457.717	76.94
457.937	85.94
458.157	96.94
458.377	76.94
458.598	88.94
458.818	131.94
459.038	151.94
459.258	98.94
459.478	78.94
459.698	90.94
459.918	86.94
460.138	61.94
460.358	79.94
460.578	102.94
460.798	83.94
461.018	94.94
461.238	87.94
461.458	68.94
461.678	84.94
461.898	63.94
462.118	83.94
462.338	89.94
462.558	102.94
462.777	65.94
462.997	88.94
463.217	87.94
463.437	83.94
463.657	82.94
463.876	86.94
464.096	91.94
464.316	98.94
464.536	84.94
464.755	86.94
464.975	99.94
465.195	132.94
465.414	139.94
465.634	98.94
465.854	80.94
466.073	78.94
466.293	89.94
466.512	88.94
466.732	82.94
466.951	84.94
467.171	97.94
467.391	78.94
467.61	101.94
467.829	103.94
468.049	129.94
468.268	156.94
468.488	98.94
468.707	87.94
468.927	81.94
469.146	77.94
469.365	82.94
469.585	87.94
469.804	94.94
470.023	92.94
470.243	84.94
470.462	82.94
470.681	96.94
470.901	92.94
471.12	80.94
471.339	86.94
471.558	93.94
471.777	92.94
471.997	111.94
472.216	215.94
472.435	331.94
472.654	135.94
472.873	94.94
473.092	68.94
473.311	81.94
473.53	81.94
473.749	94.94
473.968	88.94
474.187	102.94
474.406	87.94
474.625	83.94
474.844	93.94
475.063	90.94
475.282	74.94
475.501	75.94
475.72	88.94
475.939	90.94
476.158	80.94
476.377	71.94
476.596	94.94
476.814	95.94
477.033	95.94
477.252	84.94
477.471	84.94
477.69	91.94
477.908	103.94
478.127	108.94
478.346	80.94
478.564	89.94
478.783	94.94
479.002	76.94
479.22	99.94
479.439	92.94
479.658	98.94
479.876	91.94
480.095	81.94
480.313	103.94
480.532	103.94
480.751	111.94
480.969	184.94
481.188	555.94
481.406	338.94
481.624	126.94
481.843	95.94
482.061	87.94
482.28	82.94
482.498	93.94
482.717	102.94
482.935	95.94
483.153	92.94
483.372	98.94
483.59	93.94
483.808	84.94
484.027	90.94
484.245	81.94
484.463	82.94
484.681	100.94
484.9	86.94
485.118	98.94
485.336	93.94
485.554	98.94
485.772	88.94
485.99	87.94
486.209	97.94
486.427	101.94
486.645	90.94
486.863	103.94
487.081	86.94
487.299	80.94
487.517	87.94
487.735	82.94
487.953	92.94
488.171	91.94
488.389	93.94
488.607	93.94
488.825	94.94
489.043	96.94
489.261	88.94
489.479	92.94
489.696	95.94
489.914	83.94
490.132	98.94
490.35	96.94
490.568	77.94
490.786	80.94
491.003	79.94
491.221	83.94
491.439	102.94
491.657	110.94
491.874	104.94
492.092	104.94
492.31	89.94
492.527	84.94
492.745	82.94
492.963	94.94
493.18	68.94
493.398	83.94
493.615	90.94
493.833	90.94
494.05	87.94
494.268	96.94
494.485	96.94
494.703	76.94
494.92	85.94
495.138	84.94
495.355	102.94
495.573	105.94
495.79	80.94
496.008	84.94
496.225	84.94
496.442	88.94
496.66	84.94
496.877	76.94
497.094	87.94
497.312	77.94
497.529	96.94
497.746	83.94
497.963	82.94
498.181	97.94
498.398	83.94
498.615	93.94
498.832	116.94
499.049	98.94
499.267	101.94
499.484	85.94
499.701	93.94
499.918	78.94
500.135	93.94
500.352	87.94
500.569	90.94
500.786	102.94
501.003	93.94
501.22	98.94
501.437	101.94
501.654	97.94
501.871	98.94
502.088	91.94
502.305	76.94
502.522	87.94
502.739	103.94
502.956	82.94
503.172	86.94
503.389	88.94
503.606	105.94
503.823	78.94
504.04	85.94
504.256	77.94
504.473	88.94
504.69	83.94
504.907	92.94
505.123	82.94
505.34	94.94
505.557	87.94
505.773	92.94
505.99	100.94
506.207	88.94
506.423	82.94
506.64	82.94
506.856	94.94
507.073	87.94
507.289	94.94
507.506	77.94
507.722	100.94
507.939	100.94
508.155	82.94
508.372	96.94
508.588	92.94
508.805	94.94
509.021	86.94
509.238	90.94
509.454	100.94
509.67	104.94
509.887	102.94
510.103	122.94
510.319	186.94
510.536	639.94
510.752	1790.94
510.968	517.94
511.184	133.94
511.401	103.94
511.617	92.94
511.833	79.94
512.049	110.94
512.265	103.94
512.481	88.94
512.698	92.94
512.914	86.94
513.13	96.94
513.346	109.94
513.562	94.94
513.778	92.94
513.994	92.94
514.21	110.94
514.426	114.94
514.642	116.94
514.858	100.94
515.074	130.94
515.29	373.94
515.506	1142.94
515.721	396.94
515.937	146.94
516.153	90.94
516.369	92.94
516.585	101.94
