Data from Uncirc_1989_H10_HRD10591_00019.txt Node
Date: Wed Jan 03 11:57:39 EST 2024
User: Yrep
Spectrometer: HR+D1059
Trigger mode: 1
Integration Time (sec): 1.000000E-1
Scans to average: 1
Electric dark correction enabled: true
Nonlinearity correction enabled: false
Boxcar width: 0
XAxis mode: Wavelengths
Number of Pixels in Spectrum: 2048
>>>>>Begin Spectral Data<<<<<
223.165	-17.44
223.4	-17.44
223.635	-17.44
223.869	-16.44
224.104	-16.44
224.338	-15.44
224.573	-3.44
224.808	2.56
225.042	-13.44
225.277	-5.44
225.511	-17.44
225.746	4.56
225.98	6.56
226.215	-2.44
226.449	23.56
226.683	14.56
226.918	22.56
227.152	33.56
227.387	34.56
227.621	40.56
227.856	40.56
228.09	44.56
228.324	54.56
228.559	52.56
228.793	51.56
229.027	53.56
229.262	67.56
229.496	77.56
229.73	74.56
229.964	63.56
230.199	78.56
230.433	71.56
230.667	62.56
230.901	68.56
231.136	81.56
231.37	80.56
231.604	77.56
231.838	81.56
232.072	68.56
232.306	86.56
232.541	87.56
232.775	74.56
233.009	78.56
233.243	75.56
233.477	77.56
233.711	76.56
233.945	82.56
234.179	79.56
234.413	90.56
234.647	66.56
234.881	77.56
235.115	79.56
235.349	74.56
235.583	74.56
235.817	66.56
236.051	59.56
236.285	69.56
236.519	68.56
236.753	70.56
236.987	79.56
237.221	71.56
237.455	70.56
237.689	78.56
237.922	71.56
238.156	83.56
238.39	75.56
238.624	70.56
238.858	71.56
239.091	88.56
239.325	81.56
239.559	79.56
239.793	79.56
240.027	78.56
240.26	73.56
240.494	77.56
240.728	69.56
240.961	75.56
241.195	67.56
241.429	69.56
241.662	65.56
241.896	62.56
242.13	80.56
242.363	59.56
242.597	62.56
242.83	70.56
243.064	74.56
243.298	84.56
243.531	87.56
243.765	76.56
243.998	81.56
244.232	84.56
244.465	83.56
244.699	80.56
244.932	77.56
245.166	85.56
245.399	71.56
245.633	84.56
245.866	68.56
246.099	70.56
246.333	82.56
246.566	71.56
246.8	75.56
247.033	86.56
247.266	62.56
247.5	79.56
247.733	79.56
247.966	94.56
248.2	78.56
248.433	79.56
248.666	66.56
248.899	72.56
249.133	82.56
249.366	101.56
249.599	90.56
249.832	84.56
250.066	89.56
250.299	69.56
250.532	87.56
250.765	75.56
250.998	84.56
251.231	69.56
251.465	77.56
251.698	87.56
251.931	82.56
252.164	74.56
252.397	74.56
252.63	75.56
252.863	69.56
253.096	62.56
253.329	75.56
253.562	83.56
253.795	82.56
254.028	77.56
254.261	87.56
254.494	63.56
254.727	86.56
254.96	61.56
255.193	85.56
255.426	90.56
255.659	71.56
255.892	85.56
256.124	78.56
256.357	76.56
256.59	77.56
256.823	76.56
257.056	83.56
257.289	83.56
257.521	75.56
257.754	80.56
257.987	75.56
258.22	93.56
258.452	77.56
258.685	67.56
258.918	75.56
259.151	69.56
259.383	67.56
259.616	58.56
259.849	79.56
260.081	90.56
260.314	79.56
260.547	74.56
260.779	70.56
261.012	83.56
261.244	74.56
261.477	97.56
261.71	92.56
261.942	100.56
262.175	102.56
262.407	85.56
262.64	75.56
262.872	86.56
263.105	76.56
263.337	86.56
263.57	78.56
263.802	75.56
264.035	89.56
264.267	70.56
264.499	78.56
264.732	83.56
264.964	71.56
265.197	86.56
265.429	76.56
265.661	93.56
265.894	67.56
266.126	74.56
266.358	82.56
266.591	77.56
266.823	83.56
267.055	76.56
267.287	76.56
267.52	74.56
267.752	78.56
267.984	79.56
268.216	82.56
268.448	71.56
268.681	98.56
268.913	78.56
269.145	72.56
269.377	71.56
269.609	82.56
269.841	88.56
270.073	79.56
270.306	79.56
270.538	75.56
270.77	82.56
271.002	75.56
271.234	93.56
271.466	85.56
271.698	79.56
271.93	86.56
272.162	92.56
272.394	86.56
272.626	81.56
272.858	74.56
273.09	88.56
273.322	100.56
273.553	77.56
273.785	71.56
274.017	80.56
274.249	76.56
274.481	89.56
274.713	86.56
274.945	78.56
275.176	91.56
275.408	83.56
275.64	98.56
275.872	85.56
276.104	77.56
276.335	84.56
276.567	81.56
276.799	79.56
277.031	94.56
277.262	88.56
277.494	91.56
277.726	66.56
277.957	88.56
278.189	78.56
278.421	82.56
278.652	80.56
278.884	90.56
279.115	68.56
279.347	82.56
279.579	83.56
279.81	95.56
280.042	86.56
280.273	90.56
280.505	78.56
280.736	88.56
280.968	90.56
281.199	80.56
281.431	79.56
281.662	71.56
281.894	89.56
282.125	85.56
282.356	101.56
282.588	118.56
282.819	90.56
283.051	71.56
283.282	75.56
283.513	90.56
283.745	83.56
283.976	82.56
284.207	81.56
284.439	83.56
284.67	79.56
284.901	64.56
285.132	97.56
285.364	84.56
285.595	78.56
285.826	84.56
286.057	79.56
286.288	75.56
286.52	83.56
286.751	99.56
286.982	91.56
287.213	88.56
287.444	91.56
287.675	82.56
287.906	100.56
288.138	96.56
288.369	90.56
288.6	78.56
288.831	79.56
289.062	80.56
289.293	91.56
289.524	78.56
289.755	83.56
289.986	80.56
290.217	77.56
290.448	82.56
290.679	81.56
290.91	94.56
291.141	87.56
291.371	89.56
291.602	70.56
291.833	83.56
292.064	82.56
292.295	84.56
292.526	70.56
292.757	75.56
292.987	78.56
293.218	91.56
293.449	83.56
293.68	71.56
293.91	87.56
294.141	85.56
294.372	79.56
294.603	107.56
294.833	84.56
295.064	86.56
295.295	90.56
295.525	95.56
295.756	86.56
295.987	104.56
296.217	116.56
296.448	114.56
296.679	77.56
296.909	90.56
297.14	97.56
297.37	75.56
297.601	92.56
297.831	88.56
298.062	87.56
298.292	85.56
298.523	91.56
298.753	93.56
298.984	95.56
299.214	95.56
299.445	67.56
299.675	72.56
299.905	74.56
300.136	80.56
300.366	88.56
300.597	93.56
300.827	84.56
301.057	82.56
301.288	102.56
301.518	83.56
301.748	74.56
301.979	90.56
302.209	88.56
302.439	87.56
302.669	87.56
302.9	84.56
303.13	90.56
303.36	98.56
303.59	102.56
303.82	94.56
304.051	82.56
304.281	86.56
304.511	86.56
304.741	93.56
304.971	100.56
305.201	80.56
305.431	80.56
305.661	84.56
305.891	91.56
306.121	85.56
306.352	87.56
306.582	91.56
306.812	90.56
307.042	93.56
307.272	102.56
307.502	88.56
307.731	81.56
307.961	86.56
308.191	87.56
308.421	84.56
308.651	75.56
308.881	96.56
309.111	101.56
309.341	84.56
309.571	98.56
309.8	79.56
310.03	87.56
310.26	83.56
310.49	82.56
310.72	92.56
310.949	87.56
311.179	86.56
311.409	106.56
311.639	94.56
311.868	88.56
312.098	95.56
312.328	78.56
312.557	107.56
312.787	101.56
313.017	103.56
313.246	104.56
313.476	99.56
313.706	89.56
313.935	102.56
314.165	93.56
314.394	95.56
314.624	95.56
314.853	93.56
315.083	91.56
315.312	95.56
315.542	84.56
315.771	88.56
316.001	94.56
316.23	95.56
316.46	75.56
316.689	103.56
316.919	101.56
317.148	92.56
317.377	87.56
317.607	83.56
317.836	84.56
318.065	81.56
318.295	86.56
318.524	86.56
318.753	85.56
318.983	85.56
319.212	89.56
319.441	103.56
319.67	102.56
319.9	84.56
320.129	93.56
320.358	88.56
320.587	92.56
320.816	94.56
321.046	93.56
321.275	98.56
321.504	88.56
321.733	87.56
321.962	80.56
322.191	94.56
322.42	93.56
322.649	109.56
322.878	103.56
323.108	90.56
323.337	117.56
323.566	102.56
323.795	138.56
324.024	169.56
324.253	309.56
324.482	626.56
324.71	1271.56
324.939	1677.56
325.168	607.56
325.397	203.56
325.626	122.56
325.855	116.56
326.084	112.56
326.313	119.56
326.542	127.56
326.77	176.56
326.999	364.56
327.228	751.56
327.457	1318.56
327.686	1076.56
327.914	300.56
328.143	165.56
328.372	116.56
328.6	109.56
328.829	121.56
329.058	108.56
329.287	125.56
329.515	101.56
329.744	109.56
329.972	103.56
330.201	117.56
330.43	122.56
330.658	130.56
330.887	125.56
331.115	113.56
331.344	97.56
331.572	98.56
331.801	95.56
332.03	88.56
332.258	86.56
332.486	86.56
332.715	84.56
332.943	104.56
333.172	95.56
333.4	107.56
333.629	114.56
333.857	98.56
334.085	94.56
334.314	117.56
334.542	142.56
334.771	130.56
334.999	100.56
335.227	102.56
335.455	84.56
335.684	76.56
335.912	78.56
336.14	103.56
336.369	87.56
336.597	99.56
336.825	84.56
337.053	96.56
337.281	96.56
337.51	82.56
337.738	94.56
337.966	89.56
338.194	100.56
338.422	110.56
338.65	100.56
338.878	102.56
339.106	104.56
339.334	85.56
339.562	99.56
339.79	79.56
340.018	78.56
340.246	90.56
340.474	83.56
340.702	98.56
340.93	101.56
341.158	108.56
341.386	93.56
341.614	82.56
341.842	87.56
342.07	85.56
342.298	106.56
342.526	80.56
342.754	79.56
342.981	97.56
343.209	89.56
343.437	108.56
343.665	79.56
343.893	86.56
344.12	85.56
344.348	93.56
344.576	78.56
344.804	77.56
345.031	100.56
345.259	82.56
345.487	81.56
345.714	87.56
345.942	94.56
346.17	93.56
346.397	94.56
346.625	92.56
346.853	77.56
347.08	96.56
347.308	91.56
347.535	92.56
347.763	82.56
347.99	87.56
348.218	90.56
348.445	96.56
348.673	94.56
348.9	98.56
349.128	82.56
349.355	93.56
349.583	87.56
349.81	92.56
350.037	91.56
350.265	93.56
350.492	90.56
350.72	84.56
350.947	94.56
351.174	103.56
351.402	101.56
351.629	106.56
351.856	94.56
352.083	103.56
352.311	103.56
352.538	87.56
352.765	101.56
352.992	106.56
353.22	109.56
353.447	95.56
353.674	108.56
353.901	92.56
354.128	94.56
354.355	83.56
354.583	100.56
354.81	96.56
355.037	85.56
355.264	92.56
355.491	87.56
355.718	84.56
355.945	94.56
356.172	88.56
356.399	91.56
356.626	90.56
356.853	98.56
357.08	100.56
357.307	107.56
357.534	100.56
357.761	92.56
357.988	85.56
358.215	86.56
358.441	90.56
358.668	84.56
358.895	90.56
359.122	93.56
359.349	83.56
359.576	88.56
359.802	90.56
360.029	101.56
360.256	93.56
360.483	92.56
360.709	78.56
360.936	96.56
361.163	94.56
361.39	94.56
361.616	93.56
361.843	83.56
362.07	92.56
362.296	84.56
362.523	90.56
362.749	95.56
362.976	80.56
363.203	95.56
363.429	76.56
363.656	92.56
363.882	94.56
364.109	88.56
364.335	92.56
364.562	99.56
364.788	86.56
365.015	79.56
365.241	92.56
365.468	96.56
365.694	91.56
365.92	74.56
366.147	83.56
366.373	86.56
366.599	87.56
366.826	76.56
367.052	82.56
367.278	88.56
367.505	75.56
367.731	76.56
367.957	85.56
368.184	93.56
368.41	95.56
368.636	97.56
368.862	113.56
369.089	103.56
369.315	98.56
369.541	98.56
369.767	72.56
369.993	92.56
370.219	93.56
370.445	96.56
370.672	99.56
370.898	83.56
371.124	83.56
371.35	84.56
371.576	84.56
371.802	69.56
372.028	82.56
372.254	76.56
372.48	100.56
372.706	92.56
372.932	77.56
373.158	82.56
373.384	101.56
373.61	86.56
373.835	81.56
374.061	83.56
374.287	96.56
374.513	91.56
374.739	87.56
374.965	89.56
375.191	92.56
375.416	102.56
375.642	95.56
375.868	84.56
376.094	95.56
376.319	75.56
376.545	94.56
376.771	87.56
376.997	91.56
377.222	78.56
377.448	93.56
377.674	79.56
377.899	78.56
378.125	83.56
378.35	83.56
378.576	96.56
378.802	80.56
379.027	84.56
379.253	99.56
379.478	87.56
379.704	94.56
379.929	81.56
380.155	84.56
380.38	87.56
380.606	77.56
380.831	99.56
381.057	87.56
381.282	84.56
381.507	84.56
381.733	89.56
381.958	96.56
382.184	97.56
382.409	102.56
382.634	98.56
382.86	100.56
383.085	95.56
383.31	86.56
383.535	100.56
383.761	102.56
383.986	110.56
384.211	91.56
384.436	90.56
384.662	83.56
384.887	90.56
385.112	101.56
385.337	107.56
385.562	107.56
385.787	91.56
386.013	104.56
386.238	110.56
386.463	105.56
386.688	112.56
386.913	100.56
387.138	88.56
387.363	95.56
387.588	110.56
387.813	96.56
388.038	111.56
388.263	110.56
388.488	90.56
388.713	107.56
388.938	98.56
389.163	86.56
389.387	100.56
389.612	96.56
389.837	86.56
390.062	105.56
390.287	82.56
390.512	86.56
390.736	85.56
390.961	83.56
391.186	94.56
391.411	80.56
391.636	88.56
391.86	94.56
392.085	81.56
392.31	76.56
392.534	102.56
392.759	87.56
392.984	100.56
393.208	117.56
393.433	123.56
393.658	116.56
393.882	71.56
394.107	80.56
394.331	94.56
394.556	87.56
394.78	84.56
395.005	74.56
395.229	81.56
395.454	95.56
395.678	80.56
395.903	85.56
396.127	87.56
396.352	87.56
396.576	95.56
396.801	102.56
397.025	103.56
397.249	89.56
397.474	83.56
397.698	77.56
397.922	86.56
398.147	84.56
398.371	78.56
398.595	84.56
398.82	78.56
399.044	87.56
399.268	87.56
399.492	86.56
399.717	84.56
399.941	74.56
400.165	104.56
400.389	87.56
400.613	92.56
400.837	92.56
401.062	99.56
401.286	86.56
401.51	79.56
401.734	79.56
401.958	109.56
402.182	112.56
402.406	140.56
402.63	118.56
402.854	95.56
403.078	82.56
403.302	93.56
403.526	84.56
403.75	74.56
403.974	86.56
404.198	87.56
404.422	83.56
404.645	64.56
404.869	95.56
405.093	99.56
405.317	90.56
405.541	82.56
405.765	92.56
405.988	106.56
406.212	152.56
406.436	188.56
406.66	126.56
406.883	99.56
407.107	96.56
407.331	80.56
407.555	82.56
407.778	90.56
408.002	85.56
408.226	88.56
408.449	84.56
408.673	99.56
408.896	85.56
409.12	91.56
409.344	95.56
409.567	85.56
409.791	90.56
410.014	86.56
410.238	78.56
410.461	99.56
410.685	86.56
410.908	104.56
411.132	105.56
411.355	85.56
411.578	94.56
411.802	80.56
412.025	70.56
412.249	89.56
412.472	82.56
412.695	94.56
412.919	86.56
413.142	85.56
413.365	79.56
413.589	85.56
413.812	86.56
414.035	80.56
414.258	87.56
414.482	85.56
414.705	92.56
414.928	98.56
415.151	97.56
415.374	74.56
415.597	70.56
415.821	79.56
416.044	82.56
416.267	92.56
416.49	97.56
416.713	89.56
416.936	94.56
417.159	90.56
417.382	84.56
417.605	90.56
417.828	100.56
418.051	88.56
418.274	81.56
418.497	83.56
418.72	85.56
418.943	86.56
419.166	76.56
419.389	83.56
419.611	79.56
419.834	87.56
420.057	79.56
420.28	78.56
420.503	98.56
420.726	80.56
420.948	85.56
421.171	92.56
421.394	96.56
421.617	85.56
421.839	94.56
422.062	82.56
422.285	96.56
422.507	111.56
422.73	101.56
422.953	103.56
423.175	99.56
423.398	100.56
423.621	82.56
423.843	72.56
424.066	94.56
424.288	70.56
424.511	103.56
424.733	72.56
424.956	99.56
425.178	101.56
425.401	84.56
425.623	98.56
425.846	77.56
426.068	87.56
426.291	92.56
426.513	102.56
426.735	97.56
426.958	95.56
427.18	94.56
427.402	112.56
427.625	138.56
427.847	117.56
428.069	108.56
428.292	84.56
428.514	80.56
428.736	77.56
428.958	75.56
429.181	82.56
429.403	81.56
429.625	93.56
429.847	100.56
430.069	98.56
430.292	100.56
430.514	89.56
430.736	83.56
430.958	72.56
431.18	81.56
431.402	95.56
431.624	68.56
431.846	69.56
432.068	83.56
432.29	82.56
432.512	87.56
432.734	92.56
432.956	76.56
433.178	73.56
433.4	90.56
433.622	98.56
433.844	82.56
434.066	95.56
434.287	85.56
434.509	85.56
434.731	71.56
434.953	86.56
435.175	82.56
435.397	87.56
435.618	88.56
435.84	101.56
436.062	108.56
436.284	105.56
436.505	99.56
436.727	86.56
436.949	95.56
437.17	82.56
437.392	78.56
437.614	101.56
437.835	101.56
438.057	109.56
438.278	91.56
438.5	90.56
438.721	95.56
438.943	98.56
439.165	89.56
439.386	86.56
439.608	88.56
439.829	93.56
440.05	119.56
440.272	125.56
440.493	84.56
440.715	100.56
440.936	88.56
441.158	79.56
441.379	84.56
441.6	98.56
441.822	85.56
442.043	90.56
442.264	95.56
442.486	84.56
442.707	70.56
442.928	104.56
443.149	118.56
443.371	112.56
443.592	96.56
443.813	88.56
444.034	88.56
444.255	80.56
444.476	81.56
444.698	82.56
444.919	84.56
445.14	144.56
445.361	117.56
445.582	112.56
445.803	113.56
446.024	117.56
446.245	94.56
446.466	86.56
446.687	83.56
446.908	65.56
447.129	90.56
447.35	94.56
447.571	85.56
447.792	90.56
448.013	93.56
448.234	87.56
448.455	95.56
448.675	84.56
448.896	92.56
449.117	69.56
449.338	93.56
449.559	112.56
449.779	115.56
450	97.56
450.221	78.56
450.442	86.56
450.662	92.56
450.883	108.56
451.104	104.56
451.324	94.56
451.545	91.56
451.766	88.56
451.986	84.56
452.207	98.56
452.428	87.56
452.648	86.56
452.869	92.56
453.089	92.56
453.31	98.56
453.53	74.56
453.751	75.56
453.971	89.56
454.192	93.56
454.412	89.56
454.633	78.56
454.853	86.56
455.073	75.56
455.294	80.56
455.514	94.56
455.734	87.56
455.955	79.56
456.175	91.56
456.395	80.56
456.616	83.56
456.836	81.56
457.056	91.56
457.276	74.56
457.497	80.56
457.717	71.56
457.937	71.56
458.157	83.56
458.377	90.56
458.598	87.56
458.818	121.56
459.038	131.56
459.258	102.56
459.478	90.56
459.698	76.56
459.918	88.56
460.138	73.56
460.358	74.56
460.578	89.56
460.798	87.56
461.018	92.56
461.238	87.56
461.458	86.56
461.678	76.56
461.898	82.56
462.118	79.56
462.338	77.56
462.558	84.56
462.777	82.56
462.997	74.56
463.217	84.56
463.437	75.56
463.657	90.56
463.876	86.56
464.096	87.56
464.316	104.56
464.536	104.56
464.755	92.56
464.975	76.56
465.195	138.56
465.414	125.56
465.634	92.56
465.854	84.56
466.073	83.56
466.293	84.56
466.512	79.56
466.732	94.56
466.951	89.56
467.171	105.56
467.391	101.56
467.61	94.56
467.829	90.56
468.049	98.56
468.268	99.56
468.488	91.56
468.707	95.56
468.927	69.56
469.146	90.56
469.365	90.56
469.585	91.56
469.804	66.56
470.023	92.56
470.243	64.56
470.462	85.56
470.681	105.56
470.901	91.56
471.12	96.56
471.339	75.56
471.558	88.56
471.777	91.56
471.997	78.56
472.216	110.56
472.435	160.56
472.654	91.56
472.873	81.56
473.092	97.56
473.311	75.56
473.53	93.56
473.749	70.56
473.968	93.56
474.187	108.56
474.406	97.56
474.625	68.56
474.844	91.56
475.063	78.56
475.282	90.56
475.501	91.56
475.72	94.56
475.939	85.56
476.158	75.56
476.377	90.56
476.596	82.56
476.814	89.56
477.033	95.56
477.252	83.56
477.471	91.56
477.69	84.56
477.908	91.56
478.127	83.56
478.346	83.56
478.564	89.56
478.783	112.56
479.002	75.56
479.22	86.56
479.439	96.56
479.658	105.56
479.876	79.56
480.095	81.56
480.313	101.56
480.532	80.56
480.751	92.56
480.969	107.56
481.188	214.56
481.406	160.56
481.624	86.56
481.843	81.56
482.061	84.56
482.28	90.56
482.498	86.56
482.717	82.56
482.935	85.56
483.153	81.56
483.372	85.56
483.59	92.56
483.808	87.56
484.027	104.56
484.245	95.56
484.463	104.56
484.681	98.56
484.9	84.56
485.118	85.56
485.336	90.56
485.554	92.56
485.772	101.56
485.99	99.56
486.209	110.56
486.427	101.56
486.645	99.56
486.863	101.56
487.081	91.56
487.299	93.56
487.517	103.56
487.735	83.56
487.953	95.56
488.171	94.56
488.389	95.56
488.607	100.56
488.825	98.56
489.043	68.56
489.261	79.56
489.479	85.56
489.696	87.56
489.914	84.56
490.132	97.56
490.35	80.56
490.568	92.56
490.786	84.56
491.003	93.56
491.221	70.56
491.439	80.56
491.657	93.56
491.874	83.56
492.092	95.56
492.31	79.56
492.527	84.56
492.745	92.56
492.963	96.56
493.18	98.56
493.398	90.56
493.615	103.56
493.833	101.56
494.05	83.56
494.268	85.56
494.485	98.56
494.703	93.56
494.92	84.56
495.138	89.56
495.355	101.56
495.573	70.56
495.79	79.56
496.008	80.56
496.225	97.56
496.442	92.56
496.66	97.56
496.877	96.56
497.094	86.56
497.312	77.56
497.529	92.56
497.746	92.56
497.963	87.56
498.181	89.56
498.398	85.56
498.615	102.56
498.832	93.56
499.049	102.56
499.267	85.56
499.484	89.56
499.701	88.56
499.918	90.56
500.135	78.56
500.352	87.56
500.569	91.56
500.786	75.56
501.003	95.56
501.22	91.56
501.437	83.56
501.654	80.56
501.871	111.56
502.088	85.56
502.305	80.56
502.522	89.56
502.739	86.56
502.956	95.56
503.172	96.56
503.389	88.56
503.606	73.56
503.823	95.56
504.04	91.56
504.256	83.56
504.473	92.56
504.69	79.56
504.907	89.56
505.123	95.56
505.34	91.56
505.557	91.56
505.773	84.56
505.99	86.56
506.207	74.56
506.423	101.56
506.64	87.56
506.856	80.56
507.073	89.56
507.289	92.56
507.506	94.56
507.722	95.56
507.939	103.56
508.155	93.56
508.372	91.56
508.588	85.56
508.805	85.56
509.021	107.56
509.238	95.56
509.454	86.56
509.67	102.56
509.887	97.56
510.103	120.56
510.319	188.56
510.536	631.56
510.752	1797.56
510.968	518.56
511.184	127.56
511.401	102.56
511.617	93.56
511.833	90.56
512.049	74.56
512.265	83.56
512.481	90.56
512.698	84.56
512.914	82.56
513.13	83.56
513.346	89.56
513.562	92.56
513.778	96.56
513.994	94.56
514.21	74.56
514.426	96.56
514.642	138.56
514.858	108.56
515.074	142.56
515.29	357.56
515.506	1095.56
515.721	421.56
515.937	129.56
516.153	89.56
516.369	85.56
516.585	91.56
516.801	82.56
