Data from Uncirc_1989_H10_HRD10591_00072.txt Node
Date: Wed Jan 03 11:57:50 EST 2024
User: Yrep
Spectrometer: HR+D1059
Trigger mode: 1
Integration Time (sec): 1.000000E-1
Scans to average: 1
Electric dark correction enabled: true
Nonlinearity correction enabled: false
Boxcar width: 0
XAxis mode: Wavelengths
Number of Pixels in Spectrum: 2048
>>>>>Begin Spectral Data<<<<<
223.165	-24.69
223.4	-24.69
223.635	-24.69
223.869	-17.69
224.104	-27.69
224.338	-6.69
224.573	-3.69
224.808	-30.69
225.042	2.31
225.277	-15.69
225.511	-7.69
225.746	-12.69
225.98	16.31
226.215	18.31
226.449	19.31
226.683	27.31
226.918	27.31
227.152	36.31
227.387	38.31
227.621	42.31
227.856	40.31
228.09	47.31
228.324	60.31
228.559	49.31
228.793	43.31
229.027	63.31
229.262	68.31
229.496	70.31
229.73	71.31
229.964	83.31
230.199	84.31
230.433	77.31
230.667	65.31
230.901	67.31
231.136	75.31
231.37	73.31
231.604	75.31
231.838	94.31
232.072	74.31
232.306	83.31
232.541	99.31
232.775	82.31
233.009	93.31
233.243	79.31
233.477	96.31
233.711	75.31
233.945	101.31
234.179	80.31
234.413	81.31
234.647	73.31
234.881	71.31
235.115	85.31
235.349	80.31
235.583	85.31
235.817	74.31
236.051	75.31
236.285	75.31
236.519	71.31
236.753	84.31
236.987	84.31
237.221	83.31
237.455	73.31
237.689	75.31
237.922	71.31
238.156	71.31
238.39	67.31
238.624	85.31
238.858	81.31
239.091	88.31
239.325	81.31
239.559	71.31
239.793	78.31
240.027	78.31
240.26	82.31
240.494	84.31
240.728	83.31
240.961	69.31
241.195	78.31
241.429	75.31
241.662	87.31
241.896	86.31
242.13	62.31
242.363	95.31
242.597	75.31
242.83	74.31
243.064	80.31
243.298	69.31
243.531	58.31
243.765	73.31
243.998	66.31
244.232	74.31
244.465	67.31
244.699	87.31
244.932	78.31
245.166	89.31
245.399	90.31
245.633	76.31
245.866	75.31
246.099	90.31
246.333	71.31
246.566	72.31
246.8	90.31
247.033	82.31
247.266	79.31
247.5	78.31
247.733	64.31
247.966	96.31
248.2	89.31
248.433	90.31
248.666	75.31
248.899	86.31
249.133	80.31
249.366	101.31
249.599	100.31
249.832	83.31
250.066	92.31
250.299	86.31
250.532	92.31
250.765	87.31
250.998	79.31
251.231	96.31
251.465	81.31
251.698	84.31
251.931	74.31
252.164	78.31
252.397	70.31
252.63	74.31
252.863	89.31
253.096	88.31
253.329	99.31
253.562	87.31
253.795	94.31
254.028	71.31
254.261	75.31
254.494	78.31
254.727	75.31
254.96	77.31
255.193	71.31
255.426	65.31
255.659	70.31
255.892	96.31
256.124	77.31
256.357	76.31
256.59	80.31
256.823	82.31
257.056	79.31
257.289	92.31
257.521	66.31
257.754	74.31
257.987	81.31
258.22	75.31
258.452	84.31
258.685	96.31
258.918	82.31
259.151	88.31
259.383	84.31
259.616	88.31
259.849	94.31
260.081	91.31
260.314	73.31
260.547	79.31
260.779	82.31
261.012	82.31
261.244	79.31
261.477	84.31
261.71	93.31
261.942	103.31
262.175	104.31
262.407	76.31
262.64	86.31
262.872	78.31
263.105	90.31
263.337	79.31
263.57	80.31
263.802	86.31
264.035	80.31
264.267	89.31
264.499	89.31
264.732	84.31
264.964	89.31
265.197	80.31
265.429	105.31
265.661	88.31
265.894	81.31
266.126	81.31
266.358	89.31
266.591	88.31
266.823	71.31
267.055	80.31
267.287	83.31
267.52	80.31
267.752	87.31
267.984	92.31
268.216	91.31
268.448	87.31
268.681	70.31
268.913	92.31
269.145	88.31
269.377	80.31
269.609	66.31
269.841	93.31
270.073	101.31
270.306	75.31
270.538	92.31
270.77	89.31
271.002	90.31
271.234	90.31
271.466	85.31
271.698	81.31
271.93	99.31
272.162	81.31
272.394	79.31
272.626	83.31
272.858	61.31
273.09	98.31
273.322	85.31
273.553	83.31
273.785	95.31
274.017	67.31
274.249	82.31
274.481	90.31
274.713	89.31
274.945	82.31
275.176	75.31
275.408	91.31
275.64	80.31
275.872	88.31
276.104	82.31
276.335	101.31
276.567	83.31
276.799	99.31
277.031	103.31
277.262	113.31
277.494	98.31
277.726	95.31
277.957	86.31
278.189	83.31
278.421	88.31
278.652	92.31
278.884	90.31
279.115	95.31
279.347	92.31
279.579	72.31
279.81	86.31
280.042	87.31
280.273	94.31
280.505	98.31
280.736	81.31
280.968	85.31
281.199	89.31
281.431	91.31
281.662	81.31
281.894	96.31
282.125	89.31
282.356	96.31
282.588	117.31
282.819	102.31
283.051	97.31
283.282	95.31
283.513	96.31
283.745	90.31
283.976	89.31
284.207	73.31
284.439	74.31
284.67	80.31
284.901	82.31
285.132	81.31
285.364	85.31
285.595	80.31
285.826	95.31
286.057	80.31
286.288	84.31
286.52	93.31
286.751	89.31
286.982	86.31
287.213	75.31
287.444	80.31
287.675	96.31
287.906	98.31
288.138	90.31
288.369	94.31
288.6	98.31
288.831	80.31
289.062	86.31
289.293	102.31
289.524	89.31
289.755	76.31
289.986	83.31
290.217	88.31
290.448	86.31
290.679	86.31
290.91	95.31
291.141	86.31
291.371	81.31
291.602	103.31
291.833	105.31
292.064	101.31
292.295	98.31
292.526	86.31
292.757	88.31
292.987	89.31
293.218	102.31
293.449	88.31
293.68	92.31
293.91	78.31
294.141	97.31
294.372	104.31
294.603	98.31
294.833	83.31
295.064	95.31
295.295	91.31
295.525	91.31
295.756	95.31
295.987	112.31
296.217	129.31
296.448	111.31
296.679	103.31
296.909	89.31
297.14	93.31
297.37	85.31
297.601	91.31
297.831	97.31
298.062	106.31
298.292	97.31
298.523	103.31
298.753	102.31
298.984	86.31
299.214	89.31
299.445	73.31
299.675	99.31
299.905	104.31
300.136	93.31
300.366	99.31
300.597	104.31
300.827	91.31
301.057	106.31
301.288	90.31
301.518	87.31
301.748	89.31
301.979	101.31
302.209	99.31
302.439	82.31
302.669	94.31
302.9	92.31
303.13	92.31
303.36	103.31
303.59	104.31
303.82	96.31
304.051	98.31
304.281	94.31
304.511	84.31
304.741	81.31
304.971	96.31
305.201	102.31
305.431	98.31
305.661	88.31
305.891	81.31
306.121	97.31
306.352	102.31
306.582	90.31
306.812	82.31
307.042	89.31
307.272	102.31
307.502	107.31
307.731	126.31
307.961	92.31
308.191	92.31
308.421	94.31
308.651	95.31
308.881	97.31
309.111	99.31
309.341	95.31
309.571	92.31
309.8	91.31
310.03	95.31
310.26	108.31
310.49	106.31
310.72	106.31
310.949	95.31
311.179	111.31
311.409	99.31
311.639	90.31
311.868	112.31
312.098	95.31
312.328	89.31
312.557	98.31
312.787	103.31
313.017	86.31
313.246	84.31
313.476	87.31
313.706	84.31
313.935	86.31
314.165	97.31
314.394	119.31
314.624	100.31
314.853	104.31
315.083	86.31
315.312	91.31
315.542	87.31
315.771	87.31
316.001	91.31
316.23	98.31
316.46	102.31
316.689	92.31
316.919	97.31
317.148	86.31
317.377	88.31
317.607	107.31
317.836	94.31
318.065	93.31
318.295	87.31
318.524	83.31
318.753	91.31
318.983	95.31
319.212	99.31
319.441	108.31
319.67	106.31
319.9	106.31
320.129	93.31
320.358	97.31
320.587	95.31
320.816	106.31
321.046	91.31
321.275	103.31
321.504	81.31
321.733	98.31
321.962	99.31
322.191	101.31
322.42	94.31
322.649	97.31
322.878	101.31
323.108	114.31
323.337	124.31
323.566	128.31
323.795	144.31
324.024	194.31
324.253	326.31
324.482	644.31
324.71	1356.31
324.939	1768.31
325.168	650.31
325.397	194.31
325.626	136.31
325.855	122.31
326.084	124.31
326.313	143.31
326.542	135.31
326.77	214.31
326.999	393.31
327.228	787.31
327.457	1438.31
327.686	1108.31
327.914	316.31
328.143	186.31
328.372	152.31
328.6	142.31
328.829	123.31
329.058	120.31
329.287	113.31
329.515	103.31
329.744	116.31
329.972	130.31
330.201	172.31
330.43	202.31
330.658	143.31
330.887	126.31
331.115	114.31
331.344	101.31
331.572	103.31
331.801	116.31
332.03	118.31
332.258	95.31
332.486	96.31
332.715	91.31
332.943	102.31
333.172	96.31
333.4	99.31
333.629	105.31
333.857	102.31
334.085	126.31
334.314	177.31
334.542	262.31
334.771	230.31
334.999	118.31
335.227	99.31
335.455	86.31
335.684	92.31
335.912	95.31
336.14	96.31
336.369	106.31
336.597	108.31
336.825	98.31
337.053	92.31
337.281	94.31
337.51	94.31
337.738	96.31
337.966	97.31
338.194	103.31
338.422	93.31
338.65	99.31
338.878	88.31
339.106	92.31
339.334	94.31
339.562	88.31
339.79	83.31
340.018	98.31
340.246	81.31
340.474	85.31
340.702	93.31
340.93	87.31
341.158	90.31
341.386	102.31
341.614	82.31
341.842	87.31
342.07	81.31
342.298	97.31
342.526	84.31
342.754	99.31
342.981	76.31
343.209	92.31
343.437	102.31
343.665	89.31
343.893	83.31
344.12	88.31
344.348	78.31
344.576	97.31
344.804	106.31
345.031	94.31
345.259	95.31
345.487	88.31
345.714	89.31
345.942	92.31
346.17	75.31
346.397	107.31
346.625	91.31
346.853	89.31
347.08	101.31
347.308	96.31
347.535	88.31
347.763	92.31
347.99	96.31
348.218	94.31
348.445	102.31
348.673	100.31
348.9	89.31
349.128	89.31
349.355	84.31
349.583	102.31
349.81	92.31
350.037	84.31
350.265	95.31
350.492	95.31
350.72	108.31
350.947	104.31
351.174	109.31
351.402	102.31
351.629	94.31
351.856	96.31
352.083	111.31
352.311	111.31
352.538	86.31
352.765	96.31
352.992	103.31
353.22	120.31
353.447	114.31
353.674	107.31
353.901	104.31
354.128	90.31
354.355	109.31
354.583	95.31
354.81	83.31
355.037	96.31
355.264	92.31
355.491	97.31
355.718	101.31
355.945	112.31
356.172	109.31
356.399	107.31
356.626	85.31
356.853	82.31
357.08	94.31
357.307	93.31
357.534	88.31
357.761	101.31
357.988	105.31
358.215	87.31
358.441	92.31
358.668	87.31
358.895	88.31
359.122	91.31
359.349	86.31
359.576	92.31
359.802	100.31
360.029	103.31
360.256	102.31
360.483	105.31
360.709	91.31
360.936	94.31
361.163	89.31
361.39	96.31
361.616	107.31
361.843	98.31
362.07	94.31
362.296	97.31
362.523	87.31
362.749	102.31
362.976	84.31
363.203	93.31
363.429	91.31
363.656	88.31
363.882	105.31
364.109	92.31
364.335	104.31
364.562	101.31
364.788	92.31
365.015	95.31
365.241	102.31
365.468	99.31
365.694	98.31
365.92	105.31
366.147	91.31
366.373	84.31
366.599	78.31
366.826	87.31
367.052	89.31
367.278	99.31
367.505	95.31
367.731	98.31
367.957	89.31
368.184	84.31
368.41	108.31
368.636	98.31
368.862	113.31
369.089	104.31
369.315	99.31
369.541	94.31
369.767	94.31
369.993	101.31
370.219	92.31
370.445	80.31
370.672	85.31
370.898	73.31
371.124	82.31
371.35	84.31
371.576	90.31
371.802	91.31
372.028	88.31
372.254	101.31
372.48	98.31
372.706	92.31
372.932	94.31
373.158	96.31
373.384	103.31
373.61	101.31
373.835	111.31
374.061	96.31
374.287	90.31
374.513	84.31
374.739	88.31
374.965	89.31
375.191	85.31
375.416	86.31
375.642	100.31
375.868	96.31
376.094	86.31
376.319	88.31
376.545	84.31
376.771	92.31
376.997	98.31
377.222	87.31
377.448	99.31
377.674	89.31
377.899	80.31
378.125	84.31
378.35	96.31
378.576	75.31
378.802	86.31
379.027	88.31
379.253	94.31
379.478	95.31
379.704	90.31
379.929	90.31
380.155	89.31
380.38	107.31
380.606	86.31
380.831	93.31
381.057	92.31
381.282	84.31
381.507	97.31
381.733	89.31
381.958	70.31
382.184	102.31
382.409	89.31
382.634	101.31
382.86	106.31
383.085	102.31
383.31	101.31
383.535	101.31
383.761	85.31
383.986	98.31
384.211	90.31
384.436	91.31
384.662	96.31
384.887	104.31
385.112	102.31
385.337	95.31
385.562	97.31
385.787	91.31
386.013	107.31
386.238	106.31
386.463	96.31
386.688	118.31
386.913	104.31
387.138	113.31
387.363	105.31
387.588	100.31
387.813	105.31
388.038	110.31
388.263	105.31
388.488	106.31
388.713	112.31
388.938	92.31
389.163	101.31
389.387	96.31
389.612	85.31
389.837	95.31
390.062	95.31
390.287	89.31
390.512	103.31
390.736	91.31
390.961	96.31
391.186	95.31
391.411	113.31
391.636	97.31
391.86	88.31
392.085	100.31
392.31	85.31
392.534	91.31
392.759	87.31
392.984	89.31
393.208	103.31
393.433	94.31
393.658	88.31
393.882	80.31
394.107	89.31
394.331	81.31
394.556	85.31
394.78	88.31
395.005	91.31
395.229	86.31
395.454	90.31
395.678	96.31
395.903	98.31
396.127	83.31
396.352	94.31
396.576	91.31
396.801	91.31
397.025	87.31
397.249	103.31
397.474	98.31
397.698	95.31
397.922	92.31
398.147	90.31
398.371	83.31
398.595	94.31
398.82	94.31
399.044	85.31
399.268	77.31
399.492	70.31
399.717	102.31
399.941	80.31
400.165	105.31
400.389	91.31
400.613	102.31
400.837	96.31
401.062	88.31
401.286	81.31
401.51	90.31
401.734	103.31
401.958	100.31
402.182	105.31
402.406	138.31
402.63	106.31
402.854	86.31
403.078	93.31
403.302	92.31
403.526	82.31
403.75	91.31
403.974	97.31
404.198	92.31
404.422	91.31
404.645	94.31
404.869	89.31
405.093	103.31
405.317	89.31
405.541	96.31
405.765	116.31
405.988	112.31
406.212	152.31
406.436	181.31
406.66	114.31
406.883	102.31
407.107	94.31
407.331	93.31
407.555	94.31
407.778	99.31
408.002	89.31
408.226	89.31
408.449	83.31
408.673	87.31
408.896	91.31
409.12	101.31
409.344	80.31
409.567	98.31
409.791	112.31
410.014	90.31
410.238	90.31
410.461	93.31
410.685	76.31
410.908	95.31
411.132	105.31
411.355	95.31
411.578	92.31
411.802	82.31
412.025	95.31
412.249	86.31
412.472	80.31
412.695	113.31
412.919	94.31
413.142	80.31
413.365	87.31
413.589	91.31
413.812	86.31
414.035	111.31
414.258	78.31
414.482	92.31
414.705	99.31
414.928	88.31
415.151	95.31
415.374	91.31
415.597	72.31
415.821	90.31
416.044	83.31
416.267	107.31
416.49	92.31
416.713	85.31
416.936	104.31
417.159	102.31
417.382	81.31
417.605	94.31
417.828	83.31
418.051	87.31
418.274	75.31
418.497	103.31
418.72	78.31
418.943	104.31
419.166	88.31
419.389	87.31
419.611	72.31
419.834	85.31
420.057	87.31
420.28	83.31
420.503	92.31
420.726	90.31
420.948	97.31
421.171	84.31
421.394	101.31
421.617	91.31
421.839	88.31
422.062	85.31
422.285	95.31
422.507	102.31
422.73	108.31
422.953	85.31
423.175	103.31
423.398	86.31
423.621	78.31
423.843	83.31
424.066	82.31
424.288	94.31
424.511	90.31
424.733	86.31
424.956	108.31
425.178	90.31
425.401	98.31
425.623	98.31
425.846	102.31
426.068	96.31
426.291	84.31
426.513	95.31
426.735	95.31
426.958	100.31
427.18	100.31
427.402	139.31
427.625	133.31
427.847	140.31
428.069	109.31
428.292	102.31
428.514	97.31
428.736	83.31
428.958	85.31
429.181	86.31
429.403	80.31
429.625	91.31
429.847	82.31
430.069	72.31
430.292	108.31
430.514	86.31
430.736	91.31
430.958	99.31
431.18	84.31
431.402	88.31
431.624	84.31
431.846	68.31
432.068	85.31
432.29	86.31
432.512	96.31
432.734	89.31
432.956	106.31
433.178	101.31
433.4	110.31
433.622	88.31
433.844	99.31
434.066	95.31
434.287	91.31
434.509	92.31
434.731	82.31
434.953	86.31
435.175	94.31
435.397	86.31
435.618	92.31
435.84	101.31
436.062	116.31
436.284	101.31
436.505	97.31
436.727	97.31
436.949	92.31
437.17	90.31
437.392	88.31
437.614	88.31
437.835	111.31
438.057	90.31
438.278	98.31
438.5	97.31
438.721	109.31
438.943	95.31
439.165	82.31
439.386	81.31
439.608	98.31
439.829	90.31
440.05	97.31
440.272	128.31
440.493	100.31
440.715	90.31
440.936	87.31
441.158	85.31
441.379	102.31
441.6	85.31
441.822	82.31
442.043	95.31
442.264	95.31
442.486	93.31
442.707	95.31
442.928	107.31
443.149	115.31
443.371	126.31
443.592	96.31
443.813	113.31
444.034	100.31
444.255	98.31
444.476	102.31
444.698	81.31
444.919	91.31
445.14	126.31
445.361	121.31
445.582	110.31
445.803	118.31
446.024	119.31
446.245	106.31
446.466	88.31
446.687	99.31
446.908	85.31
447.129	87.31
447.35	107.31
447.571	92.31
447.792	98.31
448.013	89.31
448.234	107.31
448.455	102.31
448.675	104.31
448.896	107.31
449.117	100.31
449.338	88.31
449.559	123.31
449.779	118.31
450	82.31
450.221	86.31
450.442	85.31
450.662	92.31
450.883	99.31
451.104	103.31
451.324	91.31
451.545	105.31
451.766	88.31
451.986	79.31
452.207	84.31
452.428	99.31
452.648	99.31
452.869	98.31
453.089	101.31
453.31	98.31
453.53	82.31
453.751	85.31
453.971	91.31
454.192	105.31
454.412	96.31
454.633	78.31
454.853	95.31
455.073	98.31
455.294	80.31
455.514	101.31
455.734	90.31
455.955	75.31
456.175	94.31
456.395	89.31
456.616	91.31
456.836	90.31
457.056	88.31
457.276	84.31
457.497	77.31
457.717	83.31
457.937	84.31
458.157	91.31
458.377	100.31
458.598	105.31
458.818	123.31
459.038	143.31
459.258	108.31
459.478	83.31
459.698	80.31
459.918	98.31
460.138	81.31
460.358	75.31
460.578	81.31
460.798	88.31
461.018	82.31
461.238	98.31
461.458	88.31
461.678	91.31
461.898	86.31
462.118	97.31
462.338	78.31
462.558	80.31
462.777	90.31
462.997	84.31
463.217	85.31
463.437	90.31
463.657	95.31
463.876	86.31
464.096	84.31
464.316	97.31
464.536	87.31
464.755	99.31
464.975	87.31
465.195	132.31
465.414	128.31
465.634	86.31
465.854	94.31
466.073	86.31
466.293	87.31
466.512	90.31
466.732	86.31
466.951	78.31
467.171	99.31
467.391	86.31
467.61	101.31
467.829	112.31
468.049	128.31
468.268	134.31
468.488	100.31
468.707	85.31
468.927	94.31
469.146	98.31
469.365	99.31
469.585	95.31
469.804	87.31
470.023	97.31
470.243	90.31
470.462	90.31
470.681	106.31
470.901	87.31
471.12	92.31
471.339	98.31
471.558	97.31
471.777	91.31
471.997	86.31
472.216	184.31
472.435	298.31
472.654	135.31
472.873	96.31
473.092	112.31
473.311	91.31
473.53	83.31
473.749	99.31
473.968	100.31
474.187	95.31
474.406	96.31
474.625	83.31
474.844	79.31
475.063	82.31
475.282	78.31
475.501	95.31
475.72	107.31
475.939	88.31
476.158	90.31
476.377	84.31
476.596	99.31
476.814	96.31
477.033	94.31
477.252	98.31
477.471	107.31
477.69	97.31
477.908	97.31
478.127	88.31
478.346	84.31
478.564	83.31
478.783	87.31
479.002	98.31
479.22	90.31
479.439	105.31
479.658	105.31
479.876	86.31
480.095	90.31
480.313	92.31
480.532	92.31
480.751	116.31
480.969	178.31
481.188	523.31
481.406	318.31
481.624	126.31
481.843	91.31
482.061	101.31
482.28	86.31
482.498	106.31
482.717	83.31
482.935	94.31
483.153	96.31
483.372	90.31
483.59	115.31
483.808	92.31
484.027	83.31
484.245	71.31
484.463	90.31
484.681	92.31
484.9	91.31
485.118	94.31
485.336	90.31
485.554	96.31
485.772	105.31
485.99	112.31
486.209	100.31
486.427	105.31
486.645	113.31
486.863	96.31
487.081	95.31
487.299	98.31
487.517	113.31
487.735	99.31
487.953	90.31
488.171	98.31
488.389	93.31
488.607	87.31
488.825	94.31
489.043	86.31
489.261	86.31
489.479	95.31
489.696	82.31
489.914	103.31
490.132	103.31
490.35	97.31
490.568	98.31
490.786	87.31
491.003	86.31
491.221	84.31
491.439	103.31
491.657	91.31
491.874	96.31
492.092	82.31
492.31	97.31
492.527	85.31
492.745	73.31
492.963	98.31
493.18	89.31
493.398	92.31
493.615	108.31
493.833	94.31
494.05	93.31
494.268	97.31
494.485	92.31
494.703	79.31
494.92	104.31
495.138	103.31
495.355	85.31
495.573	88.31
495.79	81.31
496.008	87.31
496.225	104.31
496.442	80.31
496.66	91.31
496.877	91.31
497.094	97.31
497.312	96.31
497.529	96.31
497.746	102.31
497.963	83.31
498.181	82.31
498.398	83.31
498.615	104.31
498.832	100.31
499.049	85.31
499.267	90.31
499.484	83.31
499.701	101.31
499.918	83.31
500.135	83.31
500.352	97.31
500.569	99.31
500.786	102.31
501.003	107.31
501.22	91.31
501.437	86.31
501.654	97.31
501.871	108.31
502.088	96.31
502.305	96.31
502.522	89.31
502.739	97.31
502.956	92.31
503.172	91.31
503.389	97.31
503.606	106.31
503.823	101.31
504.04	92.31
504.256	86.31
504.473	97.31
504.69	94.31
504.907	90.31
505.123	103.31
505.34	88.31
505.557	112.31
505.773	86.31
505.99	87.31
506.207	86.31
506.423	98.31
506.64	89.31
506.856	98.31
507.073	89.31
507.289	94.31
507.506	74.31
507.722	103.31
507.939	101.31
508.155	106.31
508.372	105.31
508.588	92.31
508.805	105.31
509.021	103.31
509.238	103.31
509.454	90.31
509.67	104.31
509.887	108.31
510.103	123.31
510.319	194.31
510.536	556.31
510.752	1664.31
510.968	476.31
511.184	129.31
511.401	96.31
511.617	86.31
511.833	88.31
512.049	97.31
512.265	103.31
512.481	91.31
512.698	93.31
512.914	88.31
513.13	91.31
513.346	92.31
513.562	83.31
513.778	103.31
513.994	100.31
514.21	87.31
514.426	101.31
514.642	115.31
514.858	116.31
515.074	138.31
515.29	335.31
