Data from Uncirc_1989_H10_HRD10591_00074.txt Node
Date: Wed Jan 03 11:57:50 EST 2024
User: Yrep
Spectrometer: HR+D1059
Trigger mode: 1
Integration Time (sec): 1.000000E-1
Scans to average: 1
Electric dark correction enabled: true
Nonlinearity correction enabled: false
Boxcar width: 0
XAxis mode: Wavelengths
Number of Pixels in Spectrum: 2048
>>>>>Begin Spectral Data<<<<<
223.165	-11.81
223.4	-11.81
223.635	-11.81
223.869	-36.81
224.104	-18.81
224.338	-23.81
224.573	-17.81
224.808	5.19
225.042	-4.81
225.277	6.19
225.511	2.19
225.746	-5.81
225.98	11.19
226.215	1.19
226.449	24.19
226.683	20.19
226.918	20.19
227.152	29.19
227.387	26.19
227.621	35.19
227.856	50.19
228.09	50.19
228.324	43.19
228.559	61.19
228.793	63.19
229.027	75.19
229.262	65.19
229.496	76.19
229.73	76.19
229.964	83.19
230.199	73.19
230.433	87.19
230.667	90.19
230.901	74.19
231.136	82.19
231.37	76.19
231.604	95.19
231.838	99.19
232.072	87.19
232.306	71.19
232.541	86.19
232.775	67.19
233.009	82.19
233.243	81.19
233.477	82.19
233.711	85.19
233.945	81.19
234.179	77.19
234.413	85.19
234.647	81.19
234.881	74.19
235.115	72.19
235.349	82.19
235.583	83.19
235.817	78.19
236.051	70.19
236.285	66.19
236.519	77.19
236.753	46.19
236.987	61.19
237.221	86.19
237.455	85.19
237.689	81.19
237.922	79.19
238.156	70.19
238.39	64.19
238.624	60.19
238.858	84.19
239.091	69.19
239.325	72.19
239.559	72.19
239.793	97.19
240.027	89.19
240.26	82.19
240.494	72.19
240.728	66.19
240.961	77.19
241.195	74.19
241.429	75.19
241.662	71.19
241.896	71.19
242.13	75.19
242.363	71.19
242.597	69.19
242.83	76.19
243.064	74.19
243.298	77.19
243.531	70.19
243.765	70.19
243.998	87.19
244.232	87.19
244.465	86.19
244.699	81.19
244.932	80.19
245.166	82.19
245.399	97.19
245.633	67.19
245.866	93.19
246.099	80.19
246.333	78.19
246.566	75.19
246.8	87.19
247.033	85.19
247.266	79.19
247.5	85.19
247.733	84.19
247.966	86.19
248.2	81.19
248.433	99.19
248.666	79.19
248.899	77.19
249.133	75.19
249.366	96.19
249.599	86.19
249.832	78.19
250.066	76.19
250.299	79.19
250.532	63.19
250.765	77.19
250.998	62.19
251.231	83.19
251.465	62.19
251.698	83.19
251.931	85.19
252.164	75.19
252.397	91.19
252.63	67.19
252.863	61.19
253.096	86.19
253.329	79.19
253.562	87.19
253.795	74.19
254.028	74.19
254.261	77.19
254.494	96.19
254.727	88.19
254.96	75.19
255.193	65.19
255.426	82.19
255.659	72.19
255.892	67.19
256.124	84.19
256.357	80.19
256.59	73.19
256.823	76.19
257.056	78.19
257.289	76.19
257.521	81.19
257.754	88.19
257.987	84.19
258.22	71.19
258.452	76.19
258.685	74.19
258.918	83.19
259.151	70.19
259.383	76.19
259.616	80.19
259.849	83.19
260.081	93.19
260.314	81.19
260.547	72.19
260.779	78.19
261.012	91.19
261.244	83.19
261.477	92.19
261.71	91.19
261.942	112.19
262.175	111.19
262.407	80.19
262.64	76.19
262.872	79.19
263.105	103.19
263.337	89.19
263.57	82.19
263.802	77.19
264.035	76.19
264.267	109.19
264.499	76.19
264.732	87.19
264.964	81.19
265.197	79.19
265.429	80.19
265.661	85.19
265.894	88.19
266.126	80.19
266.358	84.19
266.591	82.19
266.823	94.19
267.055	80.19
267.287	95.19
267.52	85.19
267.752	78.19
267.984	87.19
268.216	78.19
268.448	91.19
268.681	79.19
268.913	88.19
269.145	81.19
269.377	76.19
269.609	75.19
269.841	71.19
270.073	81.19
270.306	76.19
270.538	85.19
270.77	102.19
271.002	92.19
271.234	89.19
271.466	85.19
271.698	83.19
271.93	83.19
272.162	79.19
272.394	89.19
272.626	69.19
272.858	95.19
273.09	76.19
273.322	89.19
273.553	66.19
273.785	74.19
274.017	82.19
274.249	88.19
274.481	85.19
274.713	88.19
274.945	85.19
275.176	88.19
275.408	82.19
275.64	86.19
275.872	91.19
276.104	91.19
276.335	81.19
276.567	90.19
276.799	87.19
277.031	82.19
277.262	88.19
277.494	87.19
277.726	70.19
277.957	79.19
278.189	92.19
278.421	103.19
278.652	109.19
278.884	82.19
279.115	84.19
279.347	87.19
279.579	87.19
279.81	82.19
280.042	91.19
280.273	86.19
280.505	99.19
280.736	96.19
280.968	85.19
281.199	92.19
281.431	74.19
281.662	99.19
281.894	80.19
282.125	104.19
282.356	122.19
282.588	130.19
282.819	116.19
283.051	103.19
283.282	88.19
283.513	86.19
283.745	80.19
283.976	91.19
284.207	90.19
284.439	80.19
284.67	81.19
284.901	84.19
285.132	88.19
285.364	91.19
285.595	64.19
285.826	84.19
286.057	101.19
286.288	81.19
286.52	85.19
286.751	80.19
286.982	74.19
287.213	75.19
287.444	99.19
287.675	84.19
287.906	84.19
288.138	86.19
288.369	93.19
288.6	86.19
288.831	92.19
289.062	93.19
289.293	84.19
289.524	86.19
289.755	82.19
289.986	91.19
290.217	81.19
290.448	75.19
290.679	77.19
290.91	94.19
291.141	90.19
291.371	93.19
291.602	89.19
291.833	80.19
292.064	90.19
292.295	81.19
292.526	82.19
292.757	72.19
292.987	89.19
293.218	92.19
293.449	87.19
293.68	82.19
293.91	68.19
294.141	88.19
294.372	80.19
294.603	85.19
294.833	90.19
295.064	86.19
295.295	82.19
295.525	78.19
295.756	98.19
295.987	115.19
296.217	128.19
296.448	102.19
296.679	95.19
296.909	82.19
297.14	94.19
297.37	90.19
297.601	88.19
297.831	86.19
298.062	80.19
298.292	98.19
298.523	80.19
298.753	98.19
298.984	83.19
299.214	96.19
299.445	85.19
299.675	86.19
299.905	98.19
300.136	72.19
300.366	78.19
300.597	95.19
300.827	79.19
301.057	100.19
301.288	96.19
301.518	97.19
301.748	86.19
301.979	87.19
302.209	86.19
302.439	84.19
302.669	91.19
302.9	95.19
303.13	85.19
303.36	92.19
303.59	99.19
303.82	101.19
304.051	88.19
304.281	84.19
304.511	104.19
304.741	94.19
304.971	82.19
305.201	86.19
305.431	75.19
305.661	85.19
305.891	83.19
306.121	90.19
306.352	98.19
306.582	111.19
306.812	84.19
307.042	95.19
307.272	101.19
307.502	93.19
307.731	104.19
307.961	98.19
308.191	86.19
308.421	75.19
308.651	92.19
308.881	82.19
309.111	93.19
309.341	92.19
309.571	98.19
309.8	85.19
310.03	78.19
310.26	84.19
310.49	85.19
310.72	90.19
310.949	87.19
311.179	108.19
311.409	90.19
311.639	98.19
311.868	86.19
312.098	90.19
312.328	84.19
312.557	95.19
312.787	93.19
313.017	98.19
313.246	89.19
313.476	84.19
313.706	102.19
313.935	85.19
314.165	90.19
314.394	95.19
314.624	93.19
314.853	92.19
315.083	86.19
315.312	84.19
315.542	95.19
315.771	102.19
316.001	98.19
316.23	83.19
316.46	97.19
316.689	96.19
316.919	80.19
317.148	89.19
317.377	89.19
317.607	87.19
317.836	83.19
318.065	80.19
318.295	88.19
318.524	91.19
318.753	78.19
318.983	85.19
319.212	89.19
319.441	115.19
319.67	93.19
319.9	90.19
320.129	97.19
320.358	84.19
320.587	74.19
320.816	90.19
321.046	100.19
321.275	95.19
321.504	95.19
321.733	86.19
321.962	94.19
322.191	95.19
322.42	97.19
322.649	113.19
322.878	112.19
323.108	109.19
323.337	104.19
323.566	123.19
323.795	139.19
324.024	176.19
324.253	342.19
324.482	727.19
324.71	1510.19
324.939	1946.19
325.168	710.19
325.397	228.19
325.626	150.19
325.855	111.19
326.084	124.19
326.313	129.19
326.542	139.19
326.77	202.19
326.999	415.19
327.228	837.19
327.457	1563.19
327.686	1210.19
327.914	355.19
328.143	196.19
328.372	174.19
328.6	141.19
328.829	131.19
329.058	121.19
329.287	118.19
329.515	98.19
329.744	121.19
329.972	129.19
330.201	198.19
330.43	214.19
330.658	154.19
330.887	136.19
331.115	117.19
331.344	96.19
331.572	93.19
331.801	99.19
332.03	94.19
332.258	86.19
332.486	86.19
332.715	100.19
332.943	92.19
333.172	100.19
333.4	104.19
333.629	103.19
333.857	112.19
334.085	137.19
334.314	196.19
334.542	288.19
334.771	255.19
334.999	139.19
335.227	102.19
335.455	103.19
335.684	98.19
335.912	101.19
336.14	91.19
336.369	84.19
336.597	86.19
336.825	94.19
337.053	99.19
337.281	86.19
337.51	99.19
337.738	92.19
337.966	86.19
338.194	90.19
338.422	95.19
338.65	94.19
338.878	87.19
339.106	102.19
339.334	87.19
339.562	88.19
339.79	81.19
340.018	86.19
340.246	87.19
340.474	82.19
340.702	89.19
340.93	105.19
341.158	79.19
341.386	96.19
341.614	101.19
341.842	88.19
342.07	82.19
342.298	81.19
342.526	91.19
342.754	84.19
342.981	87.19
343.209	75.19
343.437	90.19
343.665	84.19
343.893	95.19
344.12	76.19
344.348	82.19
344.576	83.19
344.804	92.19
345.031	94.19
345.259	94.19
345.487	97.19
345.714	97.19
345.942	97.19
346.17	91.19
346.397	94.19
346.625	87.19
346.853	79.19
347.08	88.19
347.308	97.19
347.535	108.19
347.763	96.19
347.99	92.19
348.218	95.19
348.445	114.19
348.673	98.19
348.9	87.19
349.128	96.19
349.355	94.19
349.583	90.19
349.81	96.19
350.037	90.19
350.265	82.19
350.492	88.19
350.72	71.19
350.947	119.19
351.174	116.19
351.402	87.19
351.629	92.19
351.856	98.19
352.083	99.19
352.311	101.19
352.538	106.19
352.765	94.19
352.992	122.19
353.22	109.19
353.447	101.19
353.674	97.19
353.901	95.19
354.128	89.19
354.355	98.19
354.583	90.19
354.81	99.19
355.037	101.19
355.264	87.19
355.491	92.19
355.718	88.19
355.945	96.19
356.172	92.19
356.399	106.19
356.626	89.19
356.853	98.19
357.08	100.19
357.307	96.19
357.534	86.19
357.761	86.19
357.988	95.19
358.215	94.19
358.441	83.19
358.668	77.19
358.895	103.19
359.122	104.19
359.349	95.19
359.576	96.19
359.802	96.19
360.029	92.19
360.256	86.19
360.483	87.19
360.709	92.19
360.936	90.19
361.163	85.19
361.39	94.19
361.616	83.19
361.843	85.19
362.07	91.19
362.296	108.19
362.523	99.19
362.749	81.19
362.976	99.19
363.203	90.19
363.429	89.19
363.656	89.19
363.882	77.19
364.109	83.19
364.335	96.19
364.562	82.19
364.788	84.19
365.015	98.19
365.241	105.19
365.468	93.19
365.694	93.19
365.92	96.19
366.147	78.19
366.373	86.19
366.599	83.19
366.826	98.19
367.052	81.19
367.278	90.19
367.505	93.19
367.731	81.19
367.957	84.19
368.184	85.19
368.41	90.19
368.636	102.19
368.862	102.19
369.089	89.19
369.315	100.19
369.541	95.19
369.767	92.19
369.993	87.19
370.219	87.19
370.445	78.19
370.672	84.19
370.898	90.19
371.124	83.19
371.35	87.19
371.576	81.19
371.802	89.19
372.028	79.19
372.254	87.19
372.48	75.19
372.706	93.19
372.932	91.19
373.158	93.19
373.384	93.19
373.61	88.19
373.835	101.19
374.061	85.19
374.287	83.19
374.513	89.19
374.739	87.19
374.965	85.19
375.191	79.19
375.416	75.19
375.642	97.19
375.868	84.19
376.094	94.19
376.319	94.19
376.545	71.19
376.771	100.19
376.997	69.19
377.222	84.19
377.448	72.19
377.674	69.19
377.899	90.19
378.125	91.19
378.35	78.19
378.576	79.19
378.802	97.19
379.027	88.19
379.253	69.19
379.478	88.19
379.704	100.19
379.929	99.19
380.155	103.19
380.38	91.19
380.606	86.19
380.831	103.19
381.057	94.19
381.282	96.19
381.507	90.19
381.733	103.19
381.958	98.19
382.184	90.19
382.409	90.19
382.634	90.19
382.86	100.19
383.085	92.19
383.31	88.19
383.535	100.19
383.761	88.19
383.986	76.19
384.211	83.19
384.436	90.19
384.662	87.19
384.887	87.19
385.112	94.19
385.337	97.19
385.562	81.19
385.787	92.19
386.013	100.19
386.238	111.19
386.463	98.19
386.688	111.19
386.913	77.19
387.138	103.19
387.363	92.19
387.588	83.19
387.813	78.19
388.038	83.19
388.263	103.19
388.488	109.19
388.713	82.19
388.938	84.19
389.163	90.19
389.387	100.19
389.612	98.19
389.837	97.19
390.062	69.19
390.287	91.19
390.512	90.19
390.736	88.19
390.961	84.19
391.186	94.19
391.411	86.19
391.636	86.19
391.86	66.19
392.085	75.19
392.31	69.19
392.534	80.19
392.759	88.19
392.984	90.19
393.208	85.19
393.433	104.19
393.658	96.19
393.882	77.19
394.107	87.19
394.331	85.19
394.556	90.19
394.78	85.19
395.005	78.19
395.229	88.19
395.454	74.19
395.678	91.19
395.903	77.19
396.127	96.19
396.352	99.19
396.576	87.19
396.801	92.19
397.025	81.19
397.249	88.19
397.474	82.19
397.698	87.19
397.922	77.19
398.147	82.19
398.371	82.19
398.595	88.19
398.82	89.19
399.044	85.19
399.268	87.19
399.492	89.19
399.717	79.19
399.941	91.19
400.165	97.19
400.389	94.19
400.613	88.19
400.837	85.19
401.062	98.19
401.286	93.19
401.51	90.19
401.734	92.19
401.958	93.19
402.182	125.19
402.406	127.19
402.63	98.19
402.854	97.19
403.078	99.19
403.302	86.19
403.526	86.19
403.75	73.19
403.974	87.19
404.198	78.19
404.422	78.19
404.645	80.19
404.869	91.19
405.093	98.19
405.317	103.19
405.541	98.19
405.765	94.19
405.988	107.19
406.212	148.19
406.436	201.19
406.66	130.19
406.883	94.19
407.107	104.19
407.331	71.19
407.555	90.19
407.778	91.19
408.002	96.19
408.226	85.19
408.449	80.19
408.673	94.19
408.896	92.19
409.12	87.19
409.344	91.19
409.567	81.19
409.791	82.19
410.014	91.19
410.238	89.19
410.461	80.19
410.685	82.19
410.908	95.19
411.132	108.19
411.355	82.19
411.578	88.19
411.802	93.19
412.025	79.19
412.249	96.19
412.472	92.19
412.695	116.19
412.919	96.19
413.142	86.19
413.365	81.19
413.589	92.19
413.812	83.19
414.035	70.19
414.258	106.19
414.482	95.19
414.705	69.19
414.928	80.19
415.151	86.19
415.374	83.19
415.597	86.19
415.821	98.19
416.044	89.19
416.267	88.19
416.49	78.19
416.713	85.19
416.936	98.19
417.159	72.19
417.382	86.19
417.605	91.19
417.828	89.19
418.051	101.19
418.274	81.19
418.497	80.19
418.72	100.19
418.943	90.19
419.166	83.19
419.389	83.19
419.611	96.19
419.834	100.19
420.057	108.19
420.28	86.19
420.503	84.19
420.726	76.19
420.948	84.19
421.171	76.19
421.394	99.19
421.617	99.19
421.839	92.19
422.062	90.19
422.285	91.19
422.507	91.19
422.73	103.19
422.953	92.19
423.175	82.19
423.398	70.19
423.621	71.19
423.843	94.19
424.066	78.19
424.288	75.19
424.511	81.19
424.733	91.19
424.956	100.19
425.178	92.19
425.401	86.19
425.623	103.19
425.846	96.19
426.068	86.19
426.291	84.19
426.513	76.19
426.735	76.19
426.958	87.19
427.18	84.19
427.402	118.19
427.625	135.19
427.847	128.19
428.069	127.19
428.292	103.19
428.514	76.19
428.736	82.19
428.958	87.19
429.181	80.19
429.403	77.19
429.625	102.19
429.847	86.19
430.069	104.19
430.292	91.19
430.514	104.19
430.736	87.19
430.958	96.19
431.18	78.19
431.402	80.19
431.624	98.19
431.846	86.19
432.068	93.19
432.29	62.19
432.512	86.19
432.734	79.19
432.956	99.19
433.178	92.19
433.4	96.19
433.622	75.19
433.844	83.19
434.066	95.19
434.287	101.19
434.509	83.19
434.731	90.19
434.953	79.19
435.175	98.19
435.397	78.19
435.618	91.19
435.84	85.19
436.062	94.19
436.284	86.19
436.505	87.19
436.727	96.19
436.949	88.19
437.17	83.19
437.392	82.19
437.614	83.19
437.835	96.19
438.057	112.19
438.278	96.19
438.5	99.19
438.721	116.19
438.943	101.19
439.165	84.19
439.386	82.19
439.608	91.19
439.829	96.19
440.05	115.19
440.272	138.19
440.493	95.19
440.715	74.19
440.936	88.19
441.158	74.19
441.379	80.19
441.6	85.19
441.822	98.19
442.043	94.19
442.264	101.19
442.486	94.19
442.707	84.19
442.928	84.19
443.149	104.19
443.371	123.19
443.592	107.19
443.813	99.19
444.034	97.19
444.255	81.19
444.476	90.19
444.698	76.19
444.919	90.19
445.14	129.19
445.361	126.19
445.582	98.19
445.803	130.19
446.024	124.19
446.245	129.19
446.466	97.19
446.687	93.19
446.908	85.19
447.129	77.19
447.35	88.19
447.571	82.19
447.792	91.19
448.013	99.19
448.234	100.19
448.455	88.19
448.675	110.19
448.896	95.19
449.117	91.19
449.338	94.19
449.559	117.19
449.779	114.19
450	86.19
450.221	102.19
450.442	91.19
450.662	85.19
450.883	104.19
451.104	99.19
451.324	93.19
451.545	74.19
451.766	87.19
451.986	93.19
452.207	98.19
452.428	84.19
452.648	98.19
452.869	102.19
453.089	98.19
453.31	105.19
453.53	86.19
453.751	85.19
453.971	111.19
454.192	110.19
454.412	81.19
454.633	82.19
454.853	88.19
455.073	76.19
455.294	95.19
455.514	95.19
455.734	95.19
455.955	87.19
456.175	92.19
456.395	65.19
456.616	67.19
456.836	98.19
457.056	79.19
457.276	76.19
457.497	79.19
457.717	93.19
457.937	83.19
458.157	89.19
458.377	96.19
458.598	100.19
458.818	143.19
459.038	132.19
459.258	116.19
459.478	78.19
459.698	95.19
459.918	83.19
460.138	86.19
460.358	70.19
460.578	76.19
460.798	96.19
461.018	101.19
461.238	80.19
461.458	92.19
461.678	75.19
461.898	84.19
462.118	79.19
462.338	80.19
462.558	89.19
462.777	86.19
462.997	79.19
463.217	87.19
463.437	91.19
463.657	87.19
463.876	89.19
464.096	89.19
464.316	79.19
464.536	83.19
464.755	94.19
464.975	109.19
465.195	155.19
465.414	129.19
465.634	88.19
465.854	89.19
466.073	76.19
466.293	82.19
466.512	87.19
466.732	81.19
466.951	86.19
467.171	88.19
467.391	91.19
467.61	102.19
467.829	108.19
468.049	143.19
468.268	144.19
468.488	96.19
468.707	95.19
468.927	71.19
469.146	92.19
469.365	91.19
469.585	88.19
469.804	94.19
470.023	97.19
470.243	93.19
470.462	98.19
470.681	99.19
470.901	92.19
471.12	97.19
471.339	79.19
471.558	94.19
471.777	76.19
471.997	110.19
472.216	199.19
472.435	360.19
472.654	135.19
472.873	98.19
473.092	94.19
473.311	82.19
473.53	76.19
473.749	85.19
473.968	76.19
474.187	84.19
474.406	65.19
474.625	86.19
474.844	82.19
475.063	86.19
475.282	83.19
475.501	78.19
475.72	82.19
475.939	77.19
476.158	82.19
476.377	78.19
476.596	84.19
476.814	85.19
477.033	75.19
477.252	75.19
477.471	87.19
477.69	97.19
477.908	70.19
478.127	87.19
478.346	95.19
478.564	95.19
478.783	95.19
479.002	84.19
479.22	101.19
479.439	96.19
479.658	86.19
479.876	93.19
480.095	94.19
480.313	99.19
480.532	98.19
480.751	113.19
480.969	207.19
481.188	600.19
481.406	372.19
481.624	114.19
481.843	82.19
482.061	96.19
482.28	95.19
482.498	81.19
482.717	89.19
482.935	80.19
483.153	83.19
483.372	88.19
483.59	79.19
483.808	78.19
484.027	89.19
484.245	87.19
484.463	95.19
484.681	85.19
484.9	82.19
485.118	94.19
485.336	89.19
485.554	95.19
485.772	95.19
485.99	100.19
486.209	101.19
486.427	96.19
486.645	103.19
486.863	105.19
487.081	84.19
487.299	95.19
487.517	85.19
487.735	91.19
487.953	76.19
488.171	92.19
488.389	99.19
488.607	111.19
488.825	92.19
489.043	78.19
489.261	93.19
489.479	78.19
489.696	84.19
489.914	96.19
490.132	103.19
490.35	80.19
490.568	80.19
490.786	83.19
491.003	77.19
491.221	90.19
491.439	84.19
491.657	89.19
491.874	92.19
492.092	94.19
492.31	78.19
492.527	88.19
492.745	96.19
492.963	82.19
493.18	86.19
493.398	88.19
493.615	100.19
493.833	99.19
494.05	80.19
494.268	85.19
494.485	84.19
494.703	93.19
494.92	90.19
495.138	84.19
495.355	94.19
495.573	87.19
495.79	92.19
496.008	101.19
496.225	102.19
496.442	98.19
496.66	89.19
496.877	92.19
497.094	104.19
497.312	84.19
497.529	76.19
497.746	80.19
497.963	79.19
498.181	74.19
498.398	92.19
498.615	96.19
498.832	98.19
499.049	83.19
499.267	82.19
499.484	100.19
499.701	112.19
499.918	88.19
500.135	94.19
500.352	77.19
500.569	98.19
500.786	83.19
501.003	90.19
501.22	97.19
501.437	94.19
501.654	85.19
501.871	97.19
502.088	87.19
502.305	91.19
502.522	84.19
502.739	92.19
502.956	98.19
503.172	85.19
503.389	92.19
503.606	92.19
503.823	94.19
504.04	98.19
504.256	82.19
504.473	85.19
504.69	90.19
504.907	98.19
505.123	97.19
505.34	76.19
505.557	90.19
505.773	100.19
505.99	88.19
506.207	75.19
506.423	99.19
506.64	99.19
506.856	72.19
507.073	96.19
507.289	101.19
507.506	90.19
507.722	102.19
507.939	103.19
508.155	79.19
508.372	92.19
508.588	99.19
508.805	106.19
509.021	96.19
509.238	89.19
509.454	86.19
509.67	90.19
509.887	111.19
510.103	125.19
510.319	189.19
510.536	641.19
510.752	1911.19
510.968	549.19
511.184	148.19
511.401	105.19
511.617	103.19
511.833	93.19
512.049	83.19
512.265	87.19
512.481	78.19
512.698	84.19
512.914	97.19
513.13	78.19
513.346	95.19
513.562	90.19
513.778	96.19
513.994	88.19
514.21	91.19
514.426	101.19
514.642	119.19
514.858	110.19
515.074	147.19
515.29	380.19
515.506	1228.19
515.721	457.19
515.937	129.19
516.153	97.19
516.369	92.19
516.585	93.19
516.801	96.19
517.016	90.19
