Data from Uncirc_1989_H10_HRD10591_00080.txt Node
Date: Wed Jan 03 11:57:51 EST 2024
User: Yrep
Spectrometer: HR+D1059
Trigger mode: 1
Integration Time (sec): 1.000000E-1
Scans to average: 1
Electric dark correction enabled: true
Nonlinearity correction enabled: false
Boxcar width: 0
XAxis mode: Wavelengths
Number of Pixels in Spectrum: 2048
>>>>>Begin Spectral Data<<<<<
223.165	-21.94
223.4	-21.94
223.635	-21.94
223.869	-28.94
224.104	-26.94
224.338	1.06
224.573	-23.94
224.808	-12.94
225.042	-14.94
225.277	6.06
225.511	-11.94
225.746	6.06
225.98	14.06
226.215	14.06
226.449	20.06
226.683	13.06
226.918	30.06
227.152	37.06
227.387	37.06
227.621	45.06
227.856	47.06
228.09	59.06
228.324	58.06
228.559	55.06
228.793	57.06
229.027	59.06
229.262	66.06
229.496	67.06
229.73	74.06
229.964	73.06
230.199	80.06
230.433	81.06
230.667	85.06
230.901	92.06
231.136	73.06
231.37	72.06
231.604	81.06
231.838	92.06
232.072	84.06
232.306	81.06
232.541	81.06
232.775	81.06
233.009	88.06
233.243	72.06
233.477	79.06
233.711	83.06
233.945	82.06
234.179	88.06
234.413	93.06
234.647	75.06
234.881	82.06
235.115	85.06
235.349	76.06
235.583	85.06
235.817	81.06
236.051	61.06
236.285	73.06
236.519	83.06
236.753	85.06
236.987	70.06
237.221	81.06
237.455	80.06
237.689	73.06
237.922	73.06
238.156	88.06
238.39	82.06
238.624	83.06
238.858	75.06
239.091	77.06
239.325	70.06
239.559	72.06
239.793	72.06
240.027	86.06
240.26	83.06
240.494	69.06
240.728	86.06
240.961	85.06
241.195	92.06
241.429	75.06
241.662	72.06
241.896	75.06
242.13	80.06
242.363	90.06
242.597	62.06
242.83	79.06
243.064	87.06
243.298	81.06
243.531	81.06
243.765	69.06
243.998	72.06
244.232	94.06
244.465	85.06
244.699	81.06
244.932	83.06
245.166	78.06
245.399	64.06
245.633	77.06
245.866	82.06
246.099	79.06
246.333	79.06
246.566	87.06
246.8	85.06
247.033	77.06
247.266	78.06
247.5	73.06
247.733	80.06
247.966	81.06
248.2	88.06
248.433	73.06
248.666	94.06
248.899	88.06
249.133	83.06
249.366	92.06
249.599	97.06
249.832	79.06
250.066	66.06
250.299	68.06
250.532	73.06
250.765	81.06
250.998	85.06
251.231	75.06
251.465	71.06
251.698	67.06
251.931	91.06
252.164	73.06
252.397	86.06
252.63	71.06
252.863	73.06
253.096	90.06
253.329	86.06
253.562	89.06
253.795	82.06
254.028	80.06
254.261	71.06
254.494	79.06
254.727	92.06
254.96	90.06
255.193	91.06
255.426	74.06
255.659	88.06
255.892	81.06
256.124	82.06
256.357	94.06
256.59	90.06
256.823	86.06
257.056	82.06
257.289	82.06
257.521	72.06
257.754	84.06
257.987	86.06
258.22	83.06
258.452	81.06
258.685	81.06
258.918	93.06
259.151	92.06
259.383	91.06
259.616	81.06
259.849	84.06
260.081	79.06
260.314	78.06
260.547	92.06
260.779	68.06
261.012	95.06
261.244	98.06
261.477	87.06
261.71	86.06
261.942	104.06
262.175	113.06
262.407	101.06
262.64	91.06
262.872	86.06
263.105	72.06
263.337	92.06
263.57	73.06
263.802	85.06
264.035	86.06
264.267	78.06
264.499	83.06
264.732	86.06
264.964	91.06
265.197	88.06
265.429	86.06
265.661	83.06
265.894	87.06
266.126	108.06
266.358	87.06
266.591	81.06
266.823	80.06
267.055	91.06
267.287	80.06
267.52	80.06
267.752	80.06
267.984	81.06
268.216	81.06
268.448	86.06
268.681	86.06
268.913	75.06
269.145	71.06
269.377	87.06
269.609	94.06
269.841	95.06
270.073	74.06
270.306	74.06
270.538	80.06
270.77	81.06
271.002	72.06
271.234	87.06
271.466	89.06
271.698	75.06
271.93	87.06
272.162	88.06
272.394	98.06
272.626	91.06
272.858	84.06
273.09	100.06
273.322	74.06
273.553	92.06
273.785	87.06
274.017	83.06
274.249	90.06
274.481	74.06
274.713	87.06
274.945	82.06
275.176	74.06
275.408	99.06
275.64	99.06
275.872	81.06
276.104	91.06
276.335	104.06
276.567	92.06
276.799	103.06
277.031	97.06
277.262	75.06
277.494	106.06
277.726	103.06
277.957	80.06
278.189	73.06
278.421	87.06
278.652	83.06
278.884	83.06
279.115	101.06
279.347	89.06
279.579	99.06
279.81	98.06
280.042	90.06
280.273	101.06
280.505	94.06
280.736	100.06
280.968	86.06
281.199	96.06
281.431	77.06
281.662	88.06
281.894	82.06
282.125	98.06
282.356	107.06
282.588	122.06
282.819	101.06
283.051	94.06
283.282	87.06
283.513	82.06
283.745	84.06
283.976	83.06
284.207	83.06
284.439	80.06
284.67	92.06
284.901	85.06
285.132	84.06
285.364	74.06
285.595	77.06
285.826	74.06
286.057	91.06
286.288	93.06
286.52	87.06
286.751	88.06
286.982	83.06
287.213	80.06
287.444	88.06
287.675	84.06
287.906	82.06
288.138	74.06
288.369	78.06
288.6	88.06
288.831	82.06
289.062	89.06
289.293	90.06
289.524	89.06
289.755	83.06
289.986	83.06
290.217	92.06
290.448	87.06
290.679	89.06
290.91	83.06
291.141	88.06
291.371	88.06
291.602	79.06
291.833	79.06
292.064	91.06
292.295	91.06
292.526	87.06
292.757	88.06
292.987	96.06
293.218	99.06
293.449	100.06
293.68	90.06
293.91	89.06
294.141	82.06
294.372	81.06
294.603	82.06
294.833	86.06
295.064	87.06
295.295	103.06
295.525	97.06
295.756	85.06
295.987	104.06
296.217	112.06
296.448	136.06
296.679	98.06
296.909	87.06
297.14	97.06
297.37	86.06
297.601	93.06
297.831	110.06
298.062	90.06
298.292	89.06
298.523	82.06
298.753	87.06
298.984	78.06
299.214	100.06
299.445	98.06
299.675	99.06
299.905	85.06
300.136	79.06
300.366	90.06
300.597	92.06
300.827	87.06
301.057	111.06
301.288	109.06
301.518	98.06
301.748	85.06
301.979	99.06
302.209	86.06
302.439	100.06
302.669	93.06
302.9	86.06
303.13	87.06
303.36	90.06
303.59	93.06
303.82	96.06
304.051	86.06
304.281	89.06
304.511	106.06
304.741	67.06
304.971	87.06
305.201	81.06
305.431	88.06
305.661	98.06
305.891	99.06
306.121	95.06
306.352	101.06
306.582	92.06
306.812	102.06
307.042	93.06
307.272	98.06
307.502	107.06
307.731	105.06
307.961	95.06
308.191	83.06
308.421	99.06
308.651	97.06
308.881	91.06
309.111	95.06
309.341	91.06
309.571	101.06
309.8	93.06
310.03	98.06
310.26	81.06
310.49	100.06
310.72	91.06
310.949	104.06
311.179	88.06
311.409	95.06
311.639	91.06
311.868	94.06
312.098	97.06
312.328	83.06
312.557	94.06
312.787	111.06
313.017	102.06
313.246	90.06
313.476	91.06
313.706	97.06
313.935	88.06
314.165	96.06
314.394	90.06
314.624	96.06
314.853	98.06
315.083	112.06
315.312	101.06
315.542	87.06
315.771	93.06
316.001	97.06
316.23	83.06
316.46	82.06
316.689	94.06
316.919	97.06
317.148	98.06
317.377	93.06
317.607	87.06
317.836	87.06
318.065	107.06
318.295	95.06
318.524	90.06
318.753	99.06
318.983	97.06
319.212	102.06
319.441	99.06
319.67	110.06
319.9	98.06
320.129	92.06
320.358	107.06
320.587	101.06
320.816	98.06
321.046	79.06
321.275	97.06
321.504	98.06
321.733	97.06
321.962	78.06
322.191	105.06
322.42	101.06
322.649	110.06
322.878	112.06
323.108	106.06
323.337	104.06
323.566	125.06
323.795	139.06
324.024	179.06
324.253	361.06
324.482	721.06
324.71	1491.06
324.939	1967.06
325.168	723.06
325.397	230.06
325.626	147.06
325.855	142.06
326.084	129.06
326.313	131.06
326.542	159.06
326.77	197.06
326.999	412.06
327.228	873.06
327.457	1526.06
327.686	1240.06
327.914	351.06
328.143	213.06
328.372	195.06
328.6	151.06
328.829	105.06
329.058	130.06
329.287	122.06
329.515	102.06
329.744	115.06
329.972	146.06
330.201	200.06
330.43	242.06
330.658	150.06
330.887	137.06
331.115	122.06
331.344	110.06
331.572	101.06
331.801	98.06
332.03	93.06
332.258	88.06
332.486	99.06
332.715	98.06
332.943	87.06
333.172	96.06
333.4	82.06
333.629	122.06
333.857	116.06
334.085	155.06
334.314	200.06
334.542	279.06
334.771	255.06
334.999	130.06
335.227	107.06
335.455	96.06
335.684	83.06
335.912	85.06
336.14	98.06
336.369	97.06
336.597	96.06
336.825	94.06
337.053	98.06
337.281	90.06
337.51	90.06
337.738	90.06
337.966	92.06
338.194	94.06
338.422	98.06
338.65	87.06
338.878	111.06
339.106	101.06
339.334	102.06
339.562	93.06
339.79	86.06
340.018	96.06
340.246	95.06
340.474	102.06
340.702	88.06
340.93	89.06
341.158	98.06
341.386	96.06
341.614	101.06
341.842	106.06
342.07	102.06
342.298	71.06
342.526	94.06
342.754	84.06
342.981	87.06
343.209	102.06
343.437	99.06
343.665	87.06
343.893	92.06
344.12	100.06
344.348	97.06
344.576	99.06
344.804	94.06
345.031	111.06
345.259	85.06
345.487	117.06
345.714	78.06
345.942	86.06
346.17	82.06
346.397	93.06
346.625	86.06
346.853	93.06
347.08	79.06
347.308	106.06
347.535	97.06
347.763	105.06
347.99	98.06
348.218	87.06
348.445	79.06
348.673	103.06
348.9	108.06
349.128	96.06
349.355	95.06
349.583	97.06
349.81	90.06
350.037	99.06
350.265	99.06
350.492	109.06
350.72	100.06
350.947	97.06
351.174	108.06
351.402	120.06
351.629	105.06
351.856	95.06
352.083	93.06
352.311	114.06
352.538	102.06
352.765	102.06
352.992	104.06
353.22	97.06
353.447	90.06
353.674	119.06
353.901	91.06
354.128	100.06
354.355	93.06
354.583	93.06
354.81	84.06
355.037	103.06
355.264	108.06
355.491	97.06
355.718	80.06
355.945	110.06
356.172	85.06
356.399	90.06
356.626	88.06
356.853	103.06
357.08	112.06
357.307	87.06
357.534	98.06
357.761	91.06
357.988	89.06
358.215	98.06
358.441	104.06
358.668	96.06
358.895	86.06
359.122	94.06
359.349	93.06
359.576	85.06
359.802	106.06
360.029	112.06
360.256	107.06
360.483	108.06
360.709	79.06
360.936	97.06
361.163	82.06
361.39	100.06
361.616	84.06
361.843	84.06
362.07	94.06
362.296	85.06
362.523	95.06
362.749	81.06
362.976	83.06
363.203	94.06
363.429	75.06
363.656	73.06
363.882	84.06
364.109	96.06
364.335	89.06
364.562	89.06
364.788	97.06
365.015	98.06
365.241	114.06
365.468	104.06
365.694	108.06
365.92	100.06
366.147	93.06
366.373	81.06
366.599	82.06
366.826	81.06
367.052	83.06
367.278	81.06
367.505	89.06
367.731	92.06
367.957	96.06
368.184	94.06
368.41	98.06
368.636	100.06
368.862	109.06
369.089	114.06
369.315	94.06
369.541	87.06
369.767	100.06
369.993	106.06
370.219	81.06
370.445	85.06
370.672	99.06
370.898	98.06
371.124	78.06
371.35	99.06
371.576	103.06
371.802	77.06
372.028	91.06
372.254	106.06
372.48	91.06
372.706	80.06
372.932	89.06
373.158	91.06
373.384	97.06
373.61	90.06
373.835	90.06
374.061	98.06
374.287	95.06
374.513	70.06
374.739	79.06
374.965	102.06
375.191	86.06
375.416	94.06
375.642	79.06
375.868	91.06
376.094	89.06
376.319	99.06
376.545	85.06
376.771	89.06
376.997	103.06
377.222	96.06
377.448	76.06
377.674	101.06
377.899	73.06
378.125	81.06
378.35	93.06
378.576	96.06
378.802	85.06
379.027	104.06
379.253	101.06
379.478	99.06
379.704	82.06
379.929	93.06
380.155	90.06
380.38	85.06
380.606	101.06
380.831	86.06
381.057	94.06
381.282	94.06
381.507	97.06
381.733	91.06
381.958	113.06
382.184	96.06
382.409	103.06
382.634	99.06
382.86	86.06
383.085	103.06
383.31	95.06
383.535	92.06
383.761	107.06
383.986	96.06
384.211	86.06
384.436	90.06
384.662	96.06
384.887	96.06
385.112	100.06
385.337	102.06
385.562	117.06
385.787	122.06
386.013	100.06
386.238	111.06
386.463	101.06
386.688	97.06
386.913	102.06
387.138	98.06
387.363	94.06
387.588	96.06
387.813	96.06
388.038	101.06
388.263	95.06
388.488	99.06
388.713	91.06
388.938	84.06
389.163	85.06
389.387	74.06
389.612	85.06
389.837	88.06
390.062	95.06
390.287	103.06
390.512	100.06
390.736	83.06
390.961	84.06
391.186	97.06
391.411	105.06
391.636	86.06
391.86	87.06
392.085	86.06
392.31	66.06
392.534	81.06
392.759	84.06
392.984	88.06
393.208	91.06
393.433	115.06
393.658	94.06
393.882	81.06
394.107	85.06
394.331	83.06
394.556	91.06
394.78	81.06
395.005	97.06
395.229	93.06
395.454	96.06
395.678	87.06
395.903	91.06
396.127	81.06
396.352	77.06
396.576	79.06
396.801	93.06
397.025	87.06
397.249	95.06
397.474	88.06
397.698	82.06
397.922	85.06
398.147	89.06
398.371	88.06
398.595	99.06
398.82	91.06
399.044	90.06
399.268	81.06
399.492	89.06
399.717	92.06
399.941	101.06
400.165	91.06
400.389	87.06
400.613	85.06
400.837	100.06
401.062	96.06
401.286	93.06
401.51	87.06
401.734	89.06
401.958	91.06
402.182	123.06
402.406	130.06
402.63	106.06
402.854	103.06
403.078	80.06
403.302	79.06
403.526	89.06
403.75	95.06
403.974	88.06
404.198	81.06
404.422	93.06
404.645	99.06
404.869	91.06
405.093	111.06
405.317	100.06
405.541	102.06
405.765	94.06
405.988	104.06
406.212	148.06
406.436	195.06
406.66	131.06
406.883	92.06
407.107	97.06
407.331	90.06
407.555	101.06
407.778	95.06
408.002	91.06
408.226	92.06
408.449	85.06
408.673	75.06
408.896	89.06
409.12	96.06
409.344	91.06
409.567	102.06
409.791	99.06
410.014	80.06
410.238	100.06
410.461	87.06
410.685	93.06
410.908	101.06
411.132	90.06
411.355	99.06
411.578	86.06
411.802	79.06
412.025	85.06
412.249	87.06
412.472	99.06
412.695	102.06
412.919	97.06
413.142	84.06
413.365	93.06
413.589	95.06
413.812	94.06
414.035	100.06
414.258	89.06
414.482	94.06
414.705	93.06
414.928	91.06
415.151	80.06
415.374	80.06
415.597	92.06
415.821	92.06
416.044	77.06
416.267	97.06
416.49	85.06
416.713	90.06
416.936	88.06
417.159	97.06
417.382	95.06
417.605	87.06
417.828	95.06
418.051	95.06
418.274	84.06
418.497	87.06
418.72	89.06
418.943	95.06
419.166	99.06
419.389	97.06
419.611	93.06
419.834	84.06
420.057	93.06
420.28	93.06
420.503	82.06
420.726	72.06
420.948	81.06
421.171	93.06
421.394	102.06
421.617	98.06
421.839	95.06
422.062	96.06
422.285	84.06
422.507	101.06
422.73	82.06
422.953	77.06
423.175	82.06
423.398	80.06
423.621	84.06
423.843	95.06
424.066	88.06
424.288	93.06
424.511	88.06
424.733	96.06
424.956	94.06
425.178	87.06
425.401	97.06
425.623	104.06
425.846	81.06
426.068	86.06
426.291	91.06
426.513	91.06
426.735	97.06
426.958	101.06
427.18	110.06
427.402	115.06
427.625	138.06
427.847	135.06
428.069	128.06
428.292	99.06
428.514	88.06
428.736	83.06
428.958	86.06
429.181	101.06
429.403	78.06
429.625	85.06
429.847	95.06
430.069	81.06
430.292	98.06
430.514	79.06
430.736	91.06
430.958	86.06
431.18	85.06
431.402	86.06
431.624	79.06
431.846	84.06
432.068	99.06
432.29	99.06
432.512	91.06
432.734	91.06
432.956	84.06
433.178	91.06
433.4	102.06
433.622	106.06
433.844	99.06
434.066	88.06
434.287	86.06
434.509	97.06
434.731	93.06
434.953	75.06
435.175	94.06
435.397	102.06
435.618	91.06
435.84	107.06
436.062	108.06
436.284	100.06
436.505	99.06
436.727	96.06
436.949	101.06
437.17	98.06
437.392	69.06
437.614	87.06
437.835	104.06
438.057	97.06
438.278	90.06
438.5	102.06
438.721	116.06
438.943	92.06
439.165	85.06
439.386	95.06
439.608	73.06
439.829	105.06
440.05	118.06
440.272	114.06
440.493	91.06
440.715	86.06
440.936	98.06
441.158	75.06
441.379	87.06
441.6	83.06
441.822	84.06
442.043	97.06
442.264	97.06
442.486	90.06
442.707	98.06
442.928	114.06
443.149	123.06
443.371	106.06
443.592	98.06
443.813	96.06
444.034	91.06
444.255	94.06
444.476	102.06
444.698	95.06
444.919	79.06
445.14	122.06
445.361	123.06
445.582	111.06
445.803	98.06
446.024	116.06
446.245	105.06
446.466	100.06
446.687	93.06
446.908	86.06
447.129	100.06
447.35	88.06
447.571	88.06
447.792	108.06
448.013	101.06
448.234	101.06
448.455	96.06
448.675	95.06
448.896	120.06
449.117	96.06
449.338	107.06
449.559	116.06
449.779	112.06
450	85.06
450.221	85.06
450.442	86.06
450.662	102.06
450.883	107.06
451.104	109.06
451.324	87.06
451.545	109.06
451.766	96.06
451.986	74.06
452.207	90.06
452.428	81.06
452.648	73.06
452.869	98.06
453.089	119.06
453.31	105.06
453.53	108.06
453.751	90.06
453.971	113.06
454.192	109.06
454.412	84.06
454.633	94.06
454.853	97.06
455.073	90.06
455.294	105.06
455.514	99.06
455.734	97.06
455.955	72.06
456.175	91.06
456.395	83.06
456.616	95.06
456.836	90.06
457.056	98.06
457.276	80.06
457.497	89.06
457.717	85.06
457.937	93.06
458.157	94.06
458.377	91.06
458.598	99.06
458.818	147.06
459.038	138.06
459.258	110.06
459.478	82.06
459.698	84.06
459.918	71.06
460.138	96.06
460.358	102.06
460.578	97.06
460.798	94.06
461.018	97.06
461.238	70.06
461.458	73.06
461.678	86.06
461.898	81.06
462.118	86.06
462.338	77.06
462.558	80.06
462.777	83.06
462.997	72.06
463.217	96.06
463.437	87.06
463.657	83.06
463.876	98.06
464.096	77.06
464.316	93.06
464.536	101.06
464.755	86.06
464.975	109.06
465.195	130.06
465.414	125.06
465.634	90.06
465.854	100.06
466.073	84.06
466.293	87.06
466.512	85.06
466.732	88.06
466.951	87.06
467.171	89.06
467.391	94.06
467.61	105.06
467.829	116.06
468.049	143.06
468.268	161.06
468.488	100.06
468.707	96.06
468.927	86.06
469.146	91.06
469.365	88.06
469.585	97.06
469.804	98.06
470.023	86.06
470.243	97.06
470.462	96.06
470.681	112.06
470.901	93.06
471.12	115.06
471.339	102.06
471.558	102.06
471.777	75.06
471.997	112.06
472.216	241.06
472.435	368.06
472.654	145.06
472.873	97.06
473.092	100.06
473.311	100.06
473.53	90.06
473.749	92.06
473.968	81.06
474.187	107.06
474.406	90.06
474.625	90.06
474.844	96.06
475.063	93.06
475.282	98.06
475.501	90.06
475.72	94.06
475.939	99.06
476.158	82.06
476.377	85.06
476.596	77.06
476.814	85.06
477.033	90.06
477.252	87.06
477.471	93.06
477.69	88.06
477.908	94.06
478.127	81.06
478.346	81.06
478.564	91.06
478.783	97.06
479.002	85.06
479.22	89.06
479.439	97.06
479.658	107.06
479.876	85.06
480.095	101.06
480.313	97.06
480.532	106.06
480.751	118.06
480.969	227.06
481.188	625.06
481.406	375.06
481.624	111.06
481.843	86.06
482.061	79.06
482.28	91.06
482.498	84.06
482.717	73.06
482.935	74.06
483.153	90.06
483.372	88.06
483.59	79.06
483.808	102.06
484.027	93.06
484.245	100.06
484.463	83.06
484.681	87.06
484.9	99.06
485.118	93.06
485.336	99.06
485.554	106.06
485.772	92.06
485.99	92.06
486.209	105.06
486.427	103.06
486.645	86.06
486.863	104.06
487.081	106.06
487.299	107.06
487.517	89.06
487.735	82.06
487.953	102.06
488.171	89.06
488.389	95.06
488.607	104.06
488.825	81.06
489.043	83.06
489.261	89.06
489.479	90.06
489.696	97.06
489.914	90.06
490.132	89.06
490.35	76.06
490.568	86.06
490.786	82.06
491.003	83.06
491.221	79.06
491.439	91.06
491.657	99.06
491.874	79.06
492.092	102.06
492.31	77.06
492.527	97.06
492.745	103.06
492.963	91.06
493.18	81.06
493.398	86.06
493.615	108.06
493.833	89.06
494.05	90.06
494.268	88.06
494.485	90.06
494.703	90.06
494.92	105.06
495.138	93.06
495.355	93.06
495.573	98.06
495.79	96.06
496.008	103.06
496.225	101.06
496.442	103.06
496.66	86.06
496.877	88.06
497.094	94.06
497.312	97.06
497.529	81.06
497.746	98.06
497.963	104.06
498.181	91.06
498.398	76.06
498.615	104.06
498.832	87.06
499.049	89.06
499.267	97.06
499.484	71.06
499.701	102.06
499.918	86.06
500.135	106.06
500.352	86.06
500.569	78.06
500.786	99.06
501.003	85.06
501.22	87.06
501.437	101.06
501.654	93.06
501.871	109.06
502.088	88.06
502.305	90.06
502.522	92.06
502.739	77.06
502.956	87.06
503.172	88.06
503.389	95.06
503.606	112.06
503.823	93.06
504.04	97.06
504.256	78.06
504.473	93.06
504.69	100.06
504.907	96.06
505.123	89.06
505.34	88.06
505.557	107.06
505.773	90.06
505.99	85.06
506.207	95.06
506.423	92.06
506.64	87.06
506.856	86.06
507.073	98.06
507.289	82.06
507.506	93.06
507.722	101.06
507.939	122.06
508.155	90.06
508.372	89.06
508.588	93.06
508.805	87.06
509.021	83.06
509.238	89.06
509.454	97.06
509.67	99.06
509.887	107.06
510.103	122.06
510.319	198.06
510.536	654.06
510.752	1942.06
510.968	561.06
511.184	165.06
511.401	111.06
511.617	97.06
511.833	95.06
512.049	112.06
512.265	91.06
512.481	88.06
512.698	100.06
512.914	97.06
513.13	101.06
513.346	102.06
513.562	104.06
513.778	94.06
513.994	111.06
514.21	106.06
514.426	116.06
514.642	123.06
514.858	123.06
515.074	149.06
515.29	395.06
515.506	1184.06
