Data from Uncirc_1989_H10_HRD10591_00096.txt Node
Date: Wed Jan 03 11:57:54 EST 2024
User: Yrep
Spectrometer: HR+D1059
Trigger mode: 1
Integration Time (sec): 1.000000E-1
Scans to average: 1
Electric dark correction enabled: true
Nonlinearity correction enabled: false
Boxcar width: 0
XAxis mode: Wavelengths
Number of Pixels in Spectrum: 2048
>>>>>Begin Spectral Data<<<<<
223.165	-22.06
223.4	-22.06
223.635	-22.06
223.869	-40.06
224.104	-20.06
224.338	-11.06
224.573	-22.06
224.808	-22.06
225.042	-10.06
225.277	8.94
225.511	4.94
225.746	18.94
225.98	8.94
226.215	3.94
226.449	21.94
226.683	15.94
226.918	26.94
227.152	36.94
227.387	32.94
227.621	34.94
227.856	39.94
228.09	43.94
228.324	42.94
228.559	52.94
228.793	51.94
229.027	77.94
229.262	65.94
229.496	67.94
229.73	76.94
229.964	88.94
230.199	81.94
230.433	65.94
230.667	87.94
230.901	72.94
231.136	67.94
231.37	94.94
231.604	79.94
231.838	73.94
232.072	70.94
232.306	75.94
232.541	79.94
232.775	98.94
233.009	86.94
233.243	89.94
233.477	85.94
233.711	84.94
233.945	67.94
234.179	73.94
234.413	80.94
234.647	98.94
234.881	83.94
235.115	86.94
235.349	89.94
235.583	71.94
235.817	90.94
236.051	75.94
236.285	70.94
236.519	83.94
236.753	85.94
236.987	73.94
237.221	81.94
237.455	85.94
237.689	91.94
237.922	70.94
238.156	67.94
238.39	71.94
238.624	71.94
238.858	88.94
239.091	72.94
239.325	71.94
239.559	87.94
239.793	83.94
240.027	72.94
240.26	75.94
240.494	72.94
240.728	71.94
240.961	72.94
241.195	73.94
241.429	80.94
241.662	79.94
241.896	65.94
242.13	80.94
242.363	81.94
242.597	64.94
242.83	77.94
243.064	88.94
243.298	77.94
243.531	88.94
243.765	80.94
243.998	89.94
244.232	84.94
244.465	80.94
244.699	62.94
244.932	85.94
245.166	85.94
245.399	79.94
245.633	87.94
245.866	64.94
246.099	59.94
246.333	74.94
246.566	80.94
246.8	86.94
247.033	79.94
247.266	66.94
247.5	79.94
247.733	83.94
247.966	66.94
248.2	67.94
248.433	78.94
248.666	93.94
248.899	96.94
249.133	72.94
249.366	98.94
249.599	89.94
249.832	72.94
250.066	75.94
250.299	84.94
250.532	91.94
250.765	82.94
250.998	79.94
251.231	85.94
251.465	95.94
251.698	80.94
251.931	81.94
252.164	86.94
252.397	63.94
252.63	75.94
252.863	88.94
253.096	69.94
253.329	96.94
253.562	98.94
253.795	90.94
254.028	82.94
254.261	83.94
254.494	76.94
254.727	78.94
254.96	85.94
255.193	76.94
255.426	85.94
255.659	77.94
255.892	68.94
256.124	72.94
256.357	84.94
256.59	85.94
256.823	77.94
257.056	81.94
257.289	81.94
257.521	95.94
257.754	80.94
257.987	81.94
258.22	97.94
258.452	76.94
258.685	62.94
258.918	75.94
259.151	86.94
259.383	85.94
259.616	75.94
259.849	74.94
260.081	76.94
260.314	91.94
260.547	82.94
260.779	76.94
261.012	102.94
261.244	86.94
261.477	94.94
261.71	79.94
261.942	115.94
262.175	99.94
262.407	93.94
262.64	71.94
262.872	83.94
263.105	63.94
263.337	91.94
263.57	79.94
263.802	88.94
264.035	66.94
264.267	87.94
264.499	81.94
264.732	82.94
264.964	83.94
265.197	81.94
265.429	80.94
265.661	80.94
265.894	70.94
266.126	83.94
266.358	79.94
266.591	88.94
266.823	82.94
267.055	77.94
267.287	81.94
267.52	78.94
267.752	78.94
267.984	76.94
268.216	96.94
268.448	91.94
268.681	87.94
268.913	81.94
269.145	76.94
269.377	78.94
269.609	82.94
269.841	83.94
270.073	93.94
270.306	80.94
270.538	88.94
270.77	66.94
271.002	85.94
271.234	85.94
271.466	80.94
271.698	70.94
271.93	96.94
272.162	97.94
272.394	100.94
272.626	70.94
272.858	73.94
273.09	84.94
273.322	83.94
273.553	80.94
273.785	87.94
274.017	83.94
274.249	91.94
274.481	88.94
274.713	85.94
274.945	91.94
275.176	86.94
275.408	94.94
275.64	92.94
275.872	93.94
276.104	95.94
276.335	85.94
276.567	96.94
276.799	115.94
277.031	100.94
277.262	92.94
277.494	100.94
277.726	77.94
277.957	84.94
278.189	86.94
278.421	94.94
278.652	88.94
278.884	89.94
279.115	95.94
279.347	89.94
279.579	91.94
279.81	88.94
280.042	95.94
280.273	98.94
280.505	98.94
280.736	86.94
280.968	86.94
281.199	82.94
281.431	87.94
281.662	88.94
281.894	73.94
282.125	88.94
282.356	100.94
282.588	127.94
282.819	102.94
283.051	86.94
283.282	87.94
283.513	89.94
283.745	90.94
283.976	95.94
284.207	102.94
284.439	94.94
284.67	91.94
284.901	93.94
285.132	83.94
285.364	84.94
285.595	95.94
285.826	85.94
286.057	86.94
286.288	80.94
286.52	110.94
286.751	88.94
286.982	82.94
287.213	86.94
287.444	92.94
287.675	78.94
287.906	89.94
288.138	88.94
288.369	91.94
288.6	88.94
288.831	85.94
289.062	90.94
289.293	100.94
289.524	84.94
289.755	80.94
289.986	79.94
290.217	97.94
290.448	98.94
290.679	85.94
290.91	88.94
291.141	81.94
291.371	78.94
291.602	83.94
291.833	77.94
292.064	93.94
292.295	87.94
292.526	89.94
292.757	80.94
292.987	100.94
293.218	85.94
293.449	96.94
293.68	82.94
293.91	72.94
294.141	83.94
294.372	87.94
294.603	85.94
294.833	82.94
295.064	92.94
295.295	99.94
295.525	82.94
295.756	118.94
295.987	110.94
296.217	113.94
296.448	111.94
296.679	95.94
296.909	93.94
297.14	96.94
297.37	88.94
297.601	87.94
297.831	98.94
298.062	95.94
298.292	94.94
298.523	88.94
298.753	91.94
298.984	82.94
299.214	78.94
299.445	92.94
299.675	88.94
299.905	91.94
300.136	88.94
300.366	71.94
300.597	85.94
300.827	82.94
301.057	103.94
301.288	104.94
301.518	93.94
301.748	88.94
301.979	103.94
302.209	88.94
302.439	90.94
302.669	90.94
302.9	96.94
303.13	78.94
303.36	100.94
303.59	100.94
303.82	97.94
304.051	75.94
304.281	103.94
304.511	93.94
304.741	91.94
304.971	102.94
305.201	87.94
305.431	87.94
305.661	101.94
305.891	84.94
306.121	84.94
306.352	109.94
306.582	86.94
306.812	93.94
307.042	96.94
307.272	82.94
307.502	86.94
307.731	103.94
307.961	103.94
308.191	95.94
308.421	92.94
308.651	88.94
308.881	93.94
309.111	88.94
309.341	94.94
309.571	96.94
309.8	88.94
310.03	79.94
310.26	92.94
310.49	92.94
310.72	91.94
310.949	89.94
311.179	95.94
311.409	84.94
311.639	83.94
311.868	88.94
312.098	93.94
312.328	109.94
312.557	100.94
312.787	104.94
313.017	118.94
313.246	89.94
313.476	83.94
313.706	83.94
313.935	92.94
314.165	95.94
314.394	92.94
314.624	101.94
314.853	95.94
315.083	91.94
315.312	85.94
315.542	98.94
315.771	84.94
316.001	100.94
316.23	110.94
316.46	81.94
316.689	84.94
316.919	78.94
317.148	88.94
317.377	87.94
317.607	94.94
317.836	94.94
318.065	91.94
318.295	83.94
318.524	81.94
318.753	95.94
318.983	111.94
319.212	79.94
319.441	103.94
319.67	91.94
319.9	83.94
320.129	100.94
320.358	105.94
320.587	82.94
320.816	107.94
321.046	97.94
321.275	92.94
321.504	95.94
321.733	104.94
321.962	87.94
322.191	114.94
322.42	98.94
322.649	91.94
322.878	103.94
323.108	110.94
323.337	99.94
323.566	125.94
323.795	123.94
324.024	176.94
324.253	348.94
324.482	725.94
324.71	1497.94
324.939	1965.94
325.168	713.94
325.397	213.94
325.626	145.94
325.855	128.94
326.084	123.94
326.313	126.94
326.542	143.94
326.77	200.94
326.999	411.94
327.228	849.94
327.457	1526.94
327.686	1192.94
327.914	331.94
328.143	209.94
328.372	177.94
328.6	150.94
328.829	109.94
329.058	119.94
329.287	120.94
329.515	116.94
329.744	111.94
329.972	159.94
330.201	224.94
330.43	270.94
330.658	185.94
330.887	129.94
331.115	126.94
331.344	102.94
331.572	89.94
331.801	109.94
332.03	100.94
332.258	80.94
332.486	101.94
332.715	89.94
332.943	98.94
333.172	95.94
333.4	104.94
333.629	102.94
333.857	115.94
334.085	146.94
334.314	223.94
334.542	329.94
334.771	312.94
334.999	126.94
335.227	91.94
335.455	102.94
335.684	95.94
335.912	100.94
336.14	104.94
336.369	94.94
336.597	101.94
336.825	96.94
337.053	89.94
337.281	89.94
337.51	94.94
337.738	73.94
337.966	72.94
338.194	110.94
338.422	103.94
338.65	95.94
338.878	93.94
339.106	95.94
339.334	77.94
339.562	91.94
339.79	98.94
340.018	92.94
340.246	82.94
340.474	80.94
340.702	95.94
340.93	99.94
341.158	91.94
341.386	87.94
341.614	102.94
341.842	85.94
342.07	88.94
342.298	84.94
342.526	99.94
342.754	80.94
342.981	72.94
343.209	87.94
343.437	88.94
343.665	96.94
343.893	84.94
344.12	84.94
344.348	99.94
344.576	95.94
344.804	99.94
345.031	97.94
345.259	84.94
345.487	97.94
345.714	103.94
345.942	102.94
346.17	84.94
346.397	98.94
346.625	100.94
346.853	85.94
347.08	96.94
347.308	96.94
347.535	90.94
347.763	95.94
347.99	99.94
348.218	112.94
348.445	104.94
348.673	93.94
348.9	93.94
349.128	67.94
349.355	94.94
349.583	91.94
349.81	75.94
350.037	87.94
350.265	85.94
350.492	87.94
350.72	86.94
350.947	102.94
351.174	108.94
351.402	108.94
351.629	108.94
351.856	88.94
352.083	89.94
352.311	88.94
352.538	101.94
352.765	110.94
352.992	98.94
353.22	100.94
353.447	90.94
353.674	104.94
353.901	103.94
354.128	89.94
354.355	100.94
354.583	100.94
354.81	97.94
355.037	73.94
355.264	84.94
355.491	93.94
355.718	97.94
355.945	88.94
356.172	94.94
356.399	93.94
356.626	108.94
356.853	95.94
357.08	103.94
357.307	94.94
357.534	81.94
357.761	85.94
357.988	82.94
358.215	101.94
358.441	94.94
358.668	87.94
358.895	99.94
359.122	92.94
359.349	87.94
359.576	77.94
359.802	84.94
360.029	112.94
360.256	109.94
360.483	108.94
360.709	107.94
360.936	95.94
361.163	104.94
361.39	79.94
361.616	81.94
361.843	79.94
362.07	101.94
362.296	101.94
362.523	99.94
362.749	71.94
362.976	81.94
363.203	92.94
363.429	91.94
363.656	87.94
363.882	101.94
364.109	96.94
364.335	96.94
364.562	89.94
364.788	81.94
365.015	92.94
365.241	98.94
365.468	95.94
365.694	91.94
365.92	94.94
366.147	91.94
366.373	77.94
366.599	95.94
366.826	101.94
367.052	91.94
367.278	95.94
367.505	93.94
367.731	100.94
367.957	91.94
368.184	103.94
368.41	100.94
368.636	107.94
368.862	115.94
369.089	107.94
369.315	93.94
369.541	89.94
369.767	91.94
369.993	96.94
370.219	98.94
370.445	85.94
370.672	86.94
370.898	101.94
371.124	86.94
371.35	95.94
371.576	86.94
371.802	107.94
372.028	93.94
372.254	93.94
372.48	84.94
372.706	95.94
372.932	91.94
373.158	87.94
373.384	87.94
373.61	87.94
373.835	89.94
374.061	91.94
374.287	90.94
374.513	80.94
374.739	91.94
374.965	85.94
375.191	86.94
375.416	82.94
375.642	84.94
375.868	88.94
376.094	92.94
376.319	82.94
376.545	68.94
376.771	93.94
376.997	100.94
377.222	80.94
377.448	104.94
377.674	80.94
377.899	80.94
378.125	97.94
378.35	93.94
378.576	101.94
378.802	94.94
379.027	88.94
379.253	98.94
379.478	96.94
379.704	108.94
379.929	89.94
380.155	83.94
380.38	91.94
380.606	90.94
380.831	87.94
381.057	85.94
381.282	89.94
381.507	82.94
381.733	85.94
381.958	66.94
382.184	89.94
382.409	84.94
382.634	118.94
382.86	101.94
383.085	102.94
383.31	115.94
383.535	99.94
383.761	86.94
383.986	95.94
384.211	95.94
384.436	89.94
384.662	99.94
384.887	84.94
385.112	101.94
385.337	107.94
385.562	96.94
385.787	85.94
386.013	111.94
386.238	115.94
386.463	96.94
386.688	116.94
386.913	104.94
387.138	108.94
387.363	96.94
387.588	93.94
387.813	108.94
388.038	102.94
388.263	110.94
388.488	109.94
388.713	112.94
388.938	72.94
389.163	98.94
389.387	90.94
389.612	84.94
389.837	97.94
390.062	96.94
390.287	98.94
390.512	77.94
390.736	80.94
390.961	91.94
391.186	108.94
391.411	92.94
391.636	98.94
391.86	81.94
392.085	104.94
392.31	83.94
392.534	77.94
392.759	88.94
392.984	61.94
393.208	95.94
393.433	103.94
393.658	87.94
393.882	91.94
394.107	84.94
394.331	75.94
394.556	87.94
394.78	87.94
395.005	81.94
395.229	95.94
395.454	94.94
395.678	91.94
395.903	94.94
396.127	89.94
396.352	89.94
396.576	95.94
396.801	88.94
397.025	70.94
397.249	83.94
397.474	103.94
397.698	95.94
397.922	81.94
398.147	87.94
398.371	76.94
398.595	92.94
398.82	86.94
399.044	77.94
399.268	79.94
399.492	87.94
399.717	95.94
399.941	82.94
400.165	90.94
400.389	87.94
400.613	93.94
400.837	107.94
401.062	99.94
401.286	111.94
401.51	102.94
401.734	79.94
401.958	112.94
402.182	114.94
402.406	134.94
402.63	115.94
402.854	80.94
403.078	80.94
403.302	81.94
403.526	93.94
403.75	91.94
403.974	79.94
404.198	84.94
404.422	94.94
404.645	86.94
404.869	89.94
405.093	93.94
405.317	114.94
405.541	107.94
405.765	107.94
405.988	102.94
406.212	150.94
406.436	197.94
406.66	134.94
406.883	96.94
407.107	86.94
407.331	77.94
407.555	91.94
407.778	94.94
408.002	100.94
408.226	110.94
408.449	87.94
408.673	92.94
408.896	86.94
409.12	101.94
409.344	92.94
409.567	87.94
409.791	106.94
410.014	101.94
410.238	93.94
410.461	100.94
410.685	88.94
410.908	86.94
411.132	102.94
411.355	94.94
411.578	104.94
411.802	107.94
412.025	76.94
412.249	93.94
412.472	94.94
412.695	93.94
412.919	95.94
413.142	96.94
413.365	91.94
413.589	93.94
413.812	83.94
414.035	98.94
414.258	78.94
414.482	102.94
414.705	102.94
414.928	84.94
415.151	79.94
415.374	94.94
415.597	73.94
415.821	72.94
416.044	85.94
416.267	80.94
416.49	89.94
416.713	97.94
416.936	96.94
417.159	91.94
417.382	86.94
417.605	72.94
417.828	91.94
418.051	92.94
418.274	91.94
418.497	83.94
418.72	84.94
418.943	75.94
419.166	73.94
419.389	91.94
419.611	87.94
419.834	97.94
420.057	75.94
420.28	91.94
420.503	93.94
420.726	89.94
420.948	89.94
421.171	85.94
421.394	80.94
421.617	72.94
421.839	79.94
422.062	84.94
422.285	88.94
422.507	86.94
422.73	96.94
422.953	91.94
423.175	101.94
423.398	92.94
423.621	97.94
423.843	84.94
424.066	88.94
424.288	87.94
424.511	77.94
424.733	91.94
424.956	105.94
425.178	101.94
425.401	100.94
425.623	89.94
425.846	82.94
426.068	88.94
426.291	88.94
426.513	96.94
426.735	89.94
426.958	104.94
427.18	103.94
427.402	127.94
427.625	152.94
427.847	135.94
428.069	128.94
428.292	71.94
428.514	88.94
428.736	81.94
428.958	92.94
429.181	78.94
429.403	87.94
429.625	79.94
429.847	89.94
430.069	99.94
430.292	91.94
430.514	91.94
430.736	113.94
430.958	106.94
431.18	87.94
431.402	81.94
431.624	85.94
431.846	84.94
432.068	87.94
432.29	80.94
432.512	87.94
432.734	88.94
432.956	93.94
433.178	105.94
433.4	100.94
433.622	88.94
433.844	84.94
434.066	94.94
434.287	92.94
434.509	113.94
434.731	91.94
434.953	96.94
435.175	94.94
435.397	100.94
435.618	101.94
435.84	89.94
436.062	107.94
436.284	104.94
436.505	100.94
436.727	87.94
436.949	88.94
437.17	92.94
437.392	88.94
437.614	85.94
437.835	111.94
438.057	114.94
438.278	91.94
438.5	103.94
438.721	113.94
438.943	101.94
439.165	94.94
439.386	94.94
439.608	85.94
439.829	80.94
440.05	109.94
440.272	129.94
440.493	91.94
440.715	81.94
440.936	83.94
441.158	72.94
441.379	87.94
441.6	80.94
441.822	80.94
442.043	87.94
442.264	92.94
442.486	93.94
442.707	98.94
442.928	96.94
443.149	107.94
443.371	109.94
443.592	96.94
443.813	105.94
444.034	104.94
444.255	80.94
444.476	87.94
444.698	99.94
444.919	92.94
445.14	144.94
445.361	122.94
445.582	103.94
445.803	131.94
446.024	111.94
446.245	109.94
446.466	104.94
446.687	84.94
446.908	93.94
447.129	97.94
447.35	92.94
447.571	80.94
447.792	86.94
448.013	103.94
448.234	96.94
448.455	87.94
448.675	100.94
448.896	115.94
449.117	102.94
449.338	107.94
449.559	118.94
449.779	95.94
450	75.94
450.221	86.94
450.442	103.94
450.662	100.94
450.883	101.94
451.104	110.94
451.324	99.94
451.545	94.94
451.766	86.94
451.986	91.94
452.207	78.94
452.428	78.94
452.648	106.94
452.869	97.94
453.089	94.94
453.31	120.94
453.53	90.94
453.751	99.94
453.971	85.94
454.192	104.94
454.412	71.94
454.633	88.94
454.853	99.94
455.073	84.94
455.294	96.94
455.514	93.94
455.734	97.94
455.955	97.94
456.175	76.94
456.395	88.94
456.616	85.94
456.836	87.94
457.056	84.94
457.276	90.94
457.497	80.94
457.717	86.94
457.937	71.94
458.157	87.94
458.377	87.94
458.598	91.94
458.818	125.94
459.038	140.94
459.258	114.94
459.478	94.94
459.698	83.94
459.918	81.94
460.138	82.94
460.358	77.94
460.578	83.94
460.798	90.94
461.018	85.94
461.238	92.94
461.458	69.94
461.678	85.94
461.898	79.94
462.118	88.94
462.338	72.94
462.558	80.94
462.777	89.94
462.997	92.94
463.217	84.94
463.437	87.94
463.657	84.94
463.876	79.94
464.096	87.94
464.316	80.94
464.536	87.94
464.755	90.94
464.975	99.94
465.195	151.94
465.414	146.94
465.634	97.94
465.854	79.94
466.073	86.94
466.293	84.94
466.512	92.94
466.732	86.94
466.951	96.94
467.171	75.94
467.391	87.94
467.61	110.94
467.829	107.94
468.049	151.94
468.268	177.94
468.488	98.94
468.707	91.94
468.927	87.94
469.146	79.94
469.365	78.94
469.585	96.94
469.804	102.94
470.023	100.94
470.243	80.94
470.462	105.94
470.681	101.94
470.901	95.94
471.12	98.94
471.339	86.94
471.558	88.94
471.777	97.94
471.997	129.94
472.216	240.94
472.435	418.94
472.654	151.94
472.873	82.94
473.092	85.94
473.311	85.94
473.53	89.94
473.749	90.94
473.968	101.94
474.187	107.94
474.406	97.94
474.625	88.94
474.844	97.94
475.063	87.94
475.282	88.94
475.501	88.94
475.72	95.94
475.939	88.94
476.158	92.94
476.377	87.94
476.596	94.94
476.814	72.94
477.033	84.94
477.252	83.94
477.471	84.94
477.69	77.94
477.908	87.94
478.127	80.94
478.346	86.94
478.564	94.94
478.783	98.94
479.002	93.94
479.22	83.94
479.439	105.94
479.658	87.94
479.876	105.94
480.095	89.94
480.313	106.94
480.532	88.94
480.751	109.94
480.969	260.94
481.188	715.94
481.406	433.94
481.624	132.94
481.843	95.94
482.061	87.94
482.28	92.94
482.498	91.94
482.717	87.94
482.935	84.94
483.153	87.94
483.372	77.94
483.59	81.94
483.808	89.94
484.027	82.94
484.245	100.94
484.463	87.94
484.681	105.94
484.9	100.94
485.118	79.94
485.336	74.94
485.554	113.94
485.772	83.94
485.99	92.94
486.209	100.94
486.427	89.94
486.645	111.94
486.863	100.94
487.081	84.94
487.299	92.94
487.517	84.94
487.735	93.94
487.953	85.94
488.171	89.94
488.389	87.94
488.607	94.94
488.825	77.94
489.043	89.94
489.261	96.94
489.479	88.94
489.696	106.94
489.914	93.94
490.132	75.94
490.35	86.94
490.568	78.94
490.786	96.94
491.003	80.94
491.221	80.94
491.439	81.94
491.657	89.94
491.874	94.94
492.092	98.94
492.31	92.94
492.527	96.94
492.745	83.94
492.963	92.94
493.18	82.94
493.398	80.94
493.615	100.94
493.833	95.94
494.05	83.94
494.268	87.94
494.485	103.94
494.703	100.94
494.92	94.94
495.138	93.94
495.355	82.94
495.573	73.94
495.79	83.94
496.008	92.94
496.225	96.94
496.442	83.94
496.66	99.94
496.877	100.94
497.094	89.94
497.312	96.94
497.529	87.94
497.746	77.94
497.963	92.94
498.181	85.94
498.398	95.94
498.615	113.94
498.832	109.94
499.049	93.94
499.267	87.94
499.484	91.94
499.701	95.94
499.918	95.94
500.135	92.94
500.352	92.94
500.569	92.94
500.786	92.94
501.003	87.94
501.22	81.94
501.437	101.94
501.654	82.94
501.871	105.94
502.088	91.94
502.305	93.94
502.522	92.94
502.739	95.94
502.956	87.94
503.172	105.94
503.389	91.94
503.606	103.94
503.823	95.94
504.04	85.94
504.256	103.94
504.473	92.94
504.69	73.94
504.907	94.94
505.123	77.94
505.34	95.94
505.557	95.94
505.773	94.94
505.99	81.94
506.207	84.94
506.423	84.94
506.64	88.94
506.856	80.94
507.073	83.94
507.289	74.94
507.506	80.94
507.722	99.94
507.939	97.94
508.155	87.94
508.372	76.94
508.588	93.94
508.805	99.94
509.021	85.94
509.238	88.94
509.454	91.94
509.67	95.94
509.887	112.94
510.103	111.94
510.319	175.94
510.536	619.94
510.752	1812.94
510.968	503.94
511.184	147.94
511.401	89.94
511.617	116.94
511.833	89.94
512.049	91.94
512.265	88.94
512.481	86.94
512.698	92.94
512.914	81.94
513.13	89.94
513.346	87.94
513.562	95.94
513.778	91.94
513.994	81.94
514.21	83.94
514.426	110.94
514.642	115.94
514.858	96.94
515.074	151.94
515.29	362.94
515.506	1160.94
515.721	411.94
515.937	134.94
