Data from Uncirc_1989_H10_HRD10591_00086.txt Node
Date: Wed Jan 03 11:57:52 EST 2024
User: Yrep
Spectrometer: HR+D1059
Trigger mode: 1
Integration Time (sec): 1.000000E-1
Scans to average: 1
Electric dark correction enabled: true
Nonlinearity correction enabled: false
Boxcar width: 0
XAxis mode: Wavelengths
Number of Pixels in Spectrum: 2048
>>>>>Begin Spectral Data<<<<<
223.165	-11.38
223.4	-11.38
223.635	-11.38
223.869	-18.38
224.104	-11.38
224.338	-22.38
224.573	-22.38
224.808	-12.38
225.042	-4.38
225.277	-19.38
225.511	-6.38
225.746	10.62
225.98	2.62
226.215	2.62
226.449	15.62
226.683	25.62
226.918	44.62
227.152	26.62
227.387	33.62
227.621	25.62
227.856	47.62
228.09	43.62
228.324	38.62
228.559	58.62
228.793	50.62
229.027	59.62
229.262	66.62
229.496	53.62
229.73	57.62
229.964	77.62
230.199	70.62
230.433	67.62
230.667	83.62
230.901	68.62
231.136	73.62
231.37	91.62
231.604	80.62
231.838	77.62
232.072	71.62
232.306	69.62
232.541	88.62
232.775	83.62
233.009	80.62
233.243	81.62
233.477	77.62
233.711	80.62
233.945	86.62
234.179	78.62
234.413	68.62
234.647	67.62
234.881	81.62
235.115	78.62
235.349	69.62
235.583	66.62
235.817	80.62
236.051	81.62
236.285	75.62
236.519	57.62
236.753	78.62
236.987	73.62
237.221	69.62
237.455	79.62
237.689	84.62
237.922	79.62
238.156	75.62
238.39	73.62
238.624	60.62
238.858	79.62
239.091	67.62
239.325	62.62
239.559	68.62
239.793	69.62
240.027	61.62
240.26	81.62
240.494	73.62
240.728	68.62
240.961	66.62
241.195	83.62
241.429	84.62
241.662	67.62
241.896	91.62
242.13	71.62
242.363	73.62
242.597	56.62
242.83	89.62
243.064	73.62
243.298	68.62
243.531	77.62
243.765	78.62
243.998	68.62
244.232	78.62
244.465	79.62
244.699	85.62
244.932	72.62
245.166	71.62
245.399	69.62
245.633	70.62
245.866	77.62
246.099	65.62
246.333	80.62
246.566	67.62
246.8	79.62
247.033	70.62
247.266	77.62
247.5	83.62
247.733	71.62
247.966	84.62
248.2	94.62
248.433	77.62
248.666	77.62
248.899	80.62
249.133	81.62
249.366	96.62
249.599	83.62
249.832	83.62
250.066	76.62
250.299	71.62
250.532	72.62
250.765	66.62
250.998	67.62
251.231	80.62
251.465	70.62
251.698	63.62
251.931	85.62
252.164	95.62
252.397	83.62
252.63	81.62
252.863	78.62
253.096	66.62
253.329	74.62
253.562	63.62
253.795	85.62
254.028	87.62
254.261	89.62
254.494	82.62
254.727	82.62
254.96	74.62
255.193	78.62
255.426	78.62
255.659	81.62
255.892	97.62
256.124	100.62
256.357	78.62
256.59	85.62
256.823	81.62
257.056	74.62
257.289	80.62
257.521	84.62
257.754	75.62
257.987	68.62
258.22	83.62
258.452	88.62
258.685	81.62
258.918	85.62
259.151	83.62
259.383	81.62
259.616	76.62
259.849	77.62
260.081	89.62
260.314	78.62
260.547	89.62
260.779	90.62
261.012	95.62
261.244	86.62
261.477	85.62
261.71	79.62
261.942	97.62
262.175	95.62
262.407	88.62
262.64	92.62
262.872	81.62
263.105	70.62
263.337	78.62
263.57	74.62
263.802	86.62
264.035	88.62
264.267	74.62
264.499	81.62
264.732	76.62
264.964	82.62
265.197	84.62
265.429	78.62
265.661	68.62
265.894	77.62
266.126	83.62
266.358	84.62
266.591	87.62
266.823	83.62
267.055	57.62
267.287	70.62
267.52	83.62
267.752	79.62
267.984	61.62
268.216	88.62
268.448	82.62
268.681	70.62
268.913	86.62
269.145	76.62
269.377	85.62
269.609	83.62
269.841	79.62
270.073	84.62
270.306	75.62
270.538	94.62
270.77	84.62
271.002	77.62
271.234	85.62
271.466	73.62
271.698	74.62
271.93	76.62
272.162	83.62
272.394	80.62
272.626	81.62
272.858	89.62
273.09	90.62
273.322	77.62
273.553	76.62
273.785	86.62
274.017	83.62
274.249	82.62
274.481	97.62
274.713	96.62
274.945	86.62
275.176	79.62
275.408	89.62
275.64	81.62
275.872	83.62
276.104	78.62
276.335	88.62
276.567	100.62
276.799	102.62
277.031	101.62
277.262	84.62
277.494	87.62
277.726	93.62
277.957	86.62
278.189	84.62
278.421	95.62
278.652	80.62
278.884	85.62
279.115	89.62
279.347	76.62
279.579	91.62
279.81	90.62
280.042	88.62
280.273	96.62
280.505	95.62
280.736	98.62
280.968	79.62
281.199	89.62
281.431	85.62
281.662	88.62
281.894	95.62
282.125	95.62
282.356	117.62
282.588	126.62
282.819	99.62
283.051	93.62
283.282	86.62
283.513	78.62
283.745	84.62
283.976	88.62
284.207	94.62
284.439	97.62
284.67	89.62
284.901	91.62
285.132	82.62
285.364	99.62
285.595	90.62
285.826	82.62
286.057	83.62
286.288	86.62
286.52	77.62
286.751	78.62
286.982	100.62
287.213	84.62
287.444	86.62
287.675	89.62
287.906	74.62
288.138	84.62
288.369	81.62
288.6	87.62
288.831	90.62
289.062	75.62
289.293	82.62
289.524	86.62
289.755	77.62
289.986	83.62
290.217	87.62
290.448	92.62
290.679	92.62
290.91	77.62
291.141	90.62
291.371	83.62
291.602	79.62
291.833	89.62
292.064	75.62
292.295	75.62
292.526	91.62
292.757	91.62
292.987	85.62
293.218	78.62
293.449	87.62
293.68	80.62
293.91	93.62
294.141	81.62
294.372	70.62
294.603	90.62
294.833	83.62
295.064	97.62
295.295	92.62
295.525	85.62
295.756	97.62
295.987	94.62
296.217	125.62
296.448	104.62
296.679	91.62
296.909	96.62
297.14	103.62
297.37	80.62
297.601	92.62
297.831	87.62
298.062	67.62
298.292	82.62
298.523	85.62
298.753	87.62
298.984	89.62
299.214	78.62
299.445	93.62
299.675	99.62
299.905	94.62
300.136	82.62
300.366	85.62
300.597	85.62
300.827	89.62
301.057	98.62
301.288	90.62
301.518	84.62
301.748	94.62
301.979	79.62
302.209	87.62
302.439	79.62
302.669	79.62
302.9	87.62
303.13	100.62
303.36	89.62
303.59	84.62
303.82	95.62
304.051	92.62
304.281	95.62
304.511	96.62
304.741	85.62
304.971	87.62
305.201	78.62
305.431	70.62
305.661	91.62
305.891	88.62
306.121	90.62
306.352	81.62
306.582	98.62
306.812	91.62
307.042	89.62
307.272	87.62
307.502	108.62
307.731	95.62
307.961	84.62
308.191	93.62
308.421	84.62
308.651	102.62
308.881	97.62
309.111	99.62
309.341	77.62
309.571	93.62
309.8	90.62
310.03	91.62
310.26	93.62
310.49	91.62
310.72	103.62
310.949	94.62
311.179	88.62
311.409	85.62
311.639	82.62
311.868	88.62
312.098	88.62
312.328	107.62
312.557	97.62
312.787	103.62
313.017	90.62
313.246	107.62
313.476	87.62
313.706	103.62
313.935	97.62
314.165	90.62
314.394	103.62
314.624	91.62
314.853	111.62
315.083	103.62
315.312	94.62
315.542	104.62
315.771	91.62
316.001	103.62
316.23	92.62
316.46	89.62
316.689	87.62
316.919	102.62
317.148	100.62
317.377	81.62
317.607	90.62
317.836	85.62
318.065	81.62
318.295	93.62
318.524	94.62
318.753	94.62
318.983	99.62
319.212	93.62
319.441	103.62
319.67	95.62
319.9	93.62
320.129	91.62
320.358	101.62
320.587	100.62
320.816	97.62
321.046	98.62
321.275	97.62
321.504	85.62
321.733	91.62
321.962	91.62
322.191	102.62
322.42	85.62
322.649	111.62
322.878	111.62
323.108	102.62
323.337	102.62
323.566	130.62
323.795	145.62
324.024	182.62
324.253	356.62
324.482	749.62
324.71	1533.62
324.939	1980.62
325.168	717.62
325.397	242.62
325.626	142.62
325.855	130.62
326.084	121.62
326.313	121.62
326.542	132.62
326.77	209.62
326.999	422.62
327.228	845.62
327.457	1547.62
327.686	1244.62
327.914	342.62
328.143	191.62
328.372	192.62
328.6	130.62
328.829	122.62
329.058	124.62
329.287	123.62
329.515	108.62
329.744	113.62
329.972	141.62
330.201	194.62
330.43	243.62
330.658	157.62
330.887	138.62
331.115	109.62
331.344	92.62
331.572	98.62
331.801	103.62
332.03	86.62
332.258	86.62
332.486	90.62
332.715	95.62
332.943	87.62
333.172	96.62
333.4	87.62
333.629	114.62
333.857	102.62
334.085	145.62
334.314	199.62
334.542	299.62
334.771	283.62
334.999	155.62
335.227	102.62
335.455	87.62
335.684	95.62
335.912	101.62
336.14	97.62
336.369	91.62
336.597	102.62
336.825	109.62
337.053	97.62
337.281	73.62
337.51	97.62
337.738	86.62
337.966	84.62
338.194	99.62
338.422	103.62
338.65	93.62
338.878	87.62
339.106	83.62
339.334	96.62
339.562	79.62
339.79	97.62
340.018	82.62
340.246	92.62
340.474	73.62
340.702	87.62
340.93	75.62
341.158	90.62
341.386	81.62
341.614	75.62
341.842	93.62
342.07	83.62
342.298	99.62
342.526	87.62
342.754	92.62
342.981	103.62
343.209	92.62
343.437	92.62
343.665	88.62
343.893	82.62
344.12	97.62
344.348	85.62
344.576	86.62
344.804	89.62
345.031	96.62
345.259	104.62
345.487	73.62
345.714	95.62
345.942	99.62
346.17	81.62
346.397	79.62
346.625	77.62
346.853	88.62
347.08	87.62
347.308	100.62
347.535	94.62
347.763	104.62
347.99	102.62
348.218	97.62
348.445	91.62
348.673	82.62
348.9	80.62
349.128	92.62
349.355	104.62
349.583	93.62
349.81	99.62
350.037	79.62
350.265	88.62
350.492	87.62
350.72	95.62
350.947	90.62
351.174	110.62
351.402	108.62
351.629	97.62
351.856	95.62
352.083	94.62
352.311	89.62
352.538	91.62
352.765	106.62
352.992	95.62
353.22	102.62
353.447	96.62
353.674	103.62
353.901	109.62
354.128	90.62
354.355	93.62
354.583	93.62
354.81	95.62
355.037	91.62
355.264	97.62
355.491	97.62
355.718	91.62
355.945	95.62
356.172	92.62
356.399	94.62
356.626	85.62
356.853	77.62
357.08	93.62
357.307	90.62
357.534	93.62
357.761	88.62
357.988	106.62
358.215	98.62
358.441	83.62
358.668	97.62
358.895	85.62
359.122	89.62
359.349	78.62
359.576	93.62
359.802	89.62
360.029	100.62
360.256	92.62
360.483	101.62
360.709	82.62
360.936	97.62
361.163	90.62
361.39	97.62
361.616	89.62
361.843	84.62
362.07	83.62
362.296	93.62
362.523	95.62
362.749	83.62
362.976	73.62
363.203	84.62
363.429	91.62
363.656	78.62
363.882	97.62
364.109	90.62
364.335	95.62
364.562	104.62
364.788	92.62
365.015	96.62
365.241	88.62
365.468	109.62
365.694	85.62
365.92	79.62
366.147	89.62
366.373	91.62
366.599	78.62
366.826	79.62
367.052	84.62
367.278	83.62
367.505	82.62
367.731	90.62
367.957	85.62
368.184	104.62
368.41	113.62
368.636	109.62
368.862	109.62
369.089	98.62
369.315	91.62
369.541	83.62
369.767	84.62
369.993	91.62
370.219	106.62
370.445	82.62
370.672	81.62
370.898	79.62
371.124	91.62
371.35	73.62
371.576	79.62
371.802	85.62
372.028	90.62
372.254	83.62
372.48	88.62
372.706	95.62
372.932	104.62
373.158	79.62
373.384	105.62
373.61	86.62
373.835	91.62
374.061	89.62
374.287	100.62
374.513	102.62
374.739	96.62
374.965	101.62
375.191	80.62
375.416	91.62
375.642	86.62
375.868	90.62
376.094	87.62
376.319	76.62
376.545	82.62
376.771	77.62
376.997	84.62
377.222	93.62
377.448	81.62
377.674	95.62
377.899	71.62
378.125	80.62
378.35	89.62
378.576	88.62
378.802	100.62
379.027	82.62
379.253	74.62
379.478	93.62
379.704	85.62
379.929	84.62
380.155	94.62
380.38	98.62
380.606	83.62
380.831	99.62
381.057	97.62
381.282	109.62
381.507	94.62
381.733	106.62
381.958	80.62
382.184	99.62
382.409	89.62
382.634	91.62
382.86	90.62
383.085	81.62
383.31	91.62
383.535	92.62
383.761	90.62
383.986	76.62
384.211	92.62
384.436	91.62
384.662	96.62
384.887	95.62
385.112	102.62
385.337	94.62
385.562	101.62
385.787	97.62
386.013	103.62
386.238	107.62
386.463	84.62
386.688	118.62
386.913	97.62
387.138	102.62
387.363	93.62
387.588	81.62
387.813	84.62
388.038	91.62
388.263	91.62
388.488	84.62
388.713	90.62
388.938	88.62
389.163	88.62
389.387	84.62
389.612	86.62
389.837	93.62
390.062	101.62
390.287	91.62
390.512	89.62
390.736	82.62
390.961	85.62
391.186	87.62
391.411	88.62
391.636	82.62
391.86	82.62
392.085	84.62
392.31	100.62
392.534	79.62
392.759	89.62
392.984	81.62
393.208	97.62
393.433	90.62
393.658	85.62
393.882	69.62
394.107	75.62
394.331	92.62
394.556	89.62
394.78	96.62
395.005	81.62
395.229	89.62
395.454	94.62
395.678	84.62
395.903	92.62
396.127	74.62
396.352	90.62
396.576	90.62
396.801	86.62
397.025	91.62
397.249	90.62
397.474	92.62
397.698	89.62
397.922	99.62
398.147	76.62
398.371	77.62
398.595	85.62
398.82	89.62
399.044	77.62
399.268	84.62
399.492	81.62
399.717	84.62
399.941	86.62
400.165	93.62
400.389	81.62
400.613	92.62
400.837	89.62
401.062	90.62
401.286	82.62
401.51	74.62
401.734	76.62
401.958	84.62
402.182	105.62
402.406	121.62
402.63	102.62
402.854	92.62
403.078	106.62
403.302	85.62
403.526	92.62
403.75	93.62
403.974	89.62
404.198	81.62
404.422	95.62
404.645	92.62
404.869	76.62
405.093	107.62
405.317	95.62
405.541	96.62
405.765	89.62
405.988	104.62
406.212	152.62
406.436	197.62
406.66	129.62
406.883	105.62
407.107	88.62
407.331	86.62
407.555	85.62
407.778	97.62
408.002	85.62
408.226	91.62
408.449	73.62
408.673	80.62
408.896	74.62
409.12	80.62
409.344	85.62
409.567	80.62
409.791	100.62
410.014	94.62
410.238	89.62
410.461	84.62
410.685	92.62
410.908	102.62
411.132	84.62
411.355	96.62
411.578	77.62
411.802	97.62
412.025	93.62
412.249	88.62
412.472	91.62
412.695	97.62
412.919	93.62
413.142	90.62
413.365	94.62
413.589	98.62
413.812	76.62
414.035	87.62
414.258	94.62
414.482	93.62
414.705	90.62
414.928	102.62
415.151	94.62
415.374	90.62
415.597	85.62
415.821	83.62
416.044	74.62
416.267	89.62
416.49	99.62
416.713	83.62
416.936	88.62
417.159	78.62
417.382	89.62
417.605	91.62
417.828	99.62
418.051	83.62
418.274	79.62
418.497	92.62
418.72	93.62
418.943	92.62
419.166	81.62
419.389	81.62
419.611	87.62
419.834	90.62
420.057	72.62
420.28	82.62
420.503	78.62
420.726	84.62
420.948	77.62
421.171	91.62
421.394	90.62
421.617	81.62
421.839	81.62
422.062	74.62
422.285	83.62
422.507	82.62
422.73	101.62
422.953	97.62
423.175	91.62
423.398	81.62
423.621	78.62
423.843	83.62
424.066	87.62
424.288	76.62
424.511	90.62
424.733	86.62
424.956	89.62
425.178	100.62
425.401	101.62
425.623	81.62
425.846	79.62
426.068	86.62
426.291	73.62
426.513	86.62
426.735	77.62
426.958	89.62
427.18	105.62
427.402	109.62
427.625	130.62
427.847	131.62
428.069	124.62
428.292	100.62
428.514	90.62
428.736	73.62
428.958	76.62
429.181	93.62
429.403	76.62
429.625	87.62
429.847	85.62
430.069	87.62
430.292	98.62
430.514	82.62
430.736	73.62
430.958	91.62
431.18	94.62
431.402	86.62
431.624	77.62
431.846	85.62
432.068	87.62
432.29	80.62
432.512	93.62
432.734	82.62
432.956	83.62
433.178	77.62
433.4	81.62
433.622	85.62
433.844	77.62
434.066	83.62
434.287	87.62
434.509	90.62
434.731	74.62
434.953	82.62
435.175	90.62
435.397	101.62
435.618	86.62
435.84	97.62
436.062	113.62
436.284	102.62
436.505	94.62
436.727	99.62
436.949	90.62
437.17	92.62
437.392	71.62
437.614	77.62
437.835	96.62
438.057	104.62
438.278	89.62
438.5	97.62
438.721	103.62
438.943	90.62
439.165	89.62
439.386	76.62
439.608	79.62
439.829	101.62
440.05	105.62
440.272	131.62
440.493	101.62
440.715	80.62
440.936	82.62
441.158	94.62
441.379	85.62
441.6	90.62
441.822	63.62
442.043	77.62
442.264	90.62
442.486	83.62
442.707	95.62
442.928	85.62
443.149	124.62
443.371	117.62
443.592	105.62
443.813	111.62
444.034	99.62
444.255	82.62
444.476	86.62
444.698	79.62
444.919	83.62
445.14	142.62
445.361	100.62
445.582	97.62
445.803	110.62
446.024	109.62
446.245	131.62
446.466	95.62
446.687	87.62
446.908	80.62
447.129	93.62
447.35	91.62
447.571	74.62
447.792	83.62
448.013	99.62
448.234	105.62
448.455	87.62
448.675	98.62
448.896	90.62
449.117	89.62
449.338	87.62
449.559	105.62
449.779	117.62
450	88.62
450.221	92.62
450.442	98.62
450.662	90.62
450.883	84.62
451.104	79.62
451.324	89.62
451.545	79.62
451.766	86.62
451.986	87.62
452.207	98.62
452.428	102.62
452.648	101.62
452.869	116.62
453.089	106.62
453.31	111.62
453.53	81.62
453.751	95.62
453.971	106.62
454.192	105.62
454.412	81.62
454.633	83.62
454.853	83.62
455.073	84.62
455.294	79.62
455.514	94.62
455.734	82.62
455.955	83.62
456.175	77.62
456.395	83.62
456.616	83.62
456.836	87.62
457.056	80.62
457.276	70.62
457.497	81.62
457.717	75.62
457.937	81.62
458.157	83.62
458.377	83.62
458.598	90.62
458.818	123.62
459.038	134.62
459.258	112.62
459.478	99.62
459.698	75.62
459.918	81.62
460.138	86.62
460.358	87.62
460.578	77.62
460.798	77.62
461.018	91.62
461.238	81.62
461.458	83.62
461.678	94.62
461.898	100.62
462.118	94.62
462.338	69.62
462.558	86.62
462.777	89.62
462.997	85.62
463.217	100.62
463.437	85.62
463.657	82.62
463.876	77.62
464.096	89.62
464.316	85.62
464.536	88.62
464.755	87.62
464.975	84.62
465.195	141.62
465.414	121.62
465.634	93.62
465.854	93.62
466.073	89.62
466.293	85.62
466.512	87.62
466.732	101.62
466.951	79.62
467.171	99.62
467.391	107.62
467.61	109.62
467.829	86.62
468.049	142.62
468.268	163.62
468.488	94.62
468.707	87.62
468.927	77.62
469.146	96.62
469.365	78.62
469.585	93.62
469.804	94.62
470.023	93.62
470.243	87.62
470.462	99.62
470.681	108.62
470.901	79.62
471.12	86.62
471.339	97.62
471.558	95.62
471.777	77.62
471.997	104.62
472.216	204.62
472.435	382.62
472.654	145.62
472.873	79.62
473.092	88.62
473.311	86.62
473.53	91.62
473.749	78.62
473.968	76.62
474.187	89.62
474.406	97.62
474.625	73.62
474.844	72.62
475.063	90.62
475.282	77.62
475.501	71.62
475.72	83.62
475.939	87.62
476.158	80.62
476.377	82.62
476.596	80.62
476.814	94.62
477.033	93.62
477.252	85.62
477.471	81.62
477.69	88.62
477.908	88.62
478.127	81.62
478.346	74.62
478.564	85.62
478.783	86.62
479.002	94.62
479.22	93.62
479.439	87.62
479.658	102.62
479.876	85.62
480.095	86.62
480.313	86.62
480.532	87.62
480.751	122.62
480.969	222.62
481.188	613.62
481.406	396.62
481.624	131.62
481.843	95.62
482.061	106.62
482.28	78.62
482.498	97.62
482.717	99.62
482.935	79.62
483.153	73.62
483.372	87.62
483.59	77.62
483.808	88.62
484.027	91.62
484.245	101.62
484.463	92.62
484.681	93.62
484.9	88.62
485.118	82.62
485.336	73.62
485.554	93.62
485.772	95.62
485.99	90.62
486.209	95.62
486.427	97.62
486.645	103.62
486.863	118.62
487.081	100.62
487.299	77.62
487.517	91.62
487.735	82.62
487.953	76.62
488.171	94.62
488.389	88.62
488.607	97.62
488.825	91.62
489.043	79.62
489.261	88.62
489.479	85.62
489.696	73.62
489.914	75.62
490.132	94.62
490.35	83.62
490.568	80.62
490.786	85.62
491.003	91.62
491.221	86.62
491.439	90.62
491.657	84.62
491.874	92.62
492.092	81.62
492.31	92.62
492.527	93.62
492.745	94.62
492.963	87.62
493.18	86.62
493.398	89.62
493.615	90.62
493.833	81.62
494.05	83.62
494.268	86.62
494.485	83.62
494.703	91.62
494.92	79.62
495.138	80.62
495.355	81.62
495.573	89.62
495.79	97.62
496.008	88.62
496.225	85.62
496.442	83.62
496.66	80.62
496.877	77.62
497.094	91.62
497.312	80.62
497.529	100.62
497.746	98.62
497.963	84.62
498.181	82.62
498.398	89.62
498.615	97.62
498.832	84.62
499.049	89.62
499.267	86.62
499.484	75.62
499.701	76.62
499.918	91.62
500.135	89.62
500.352	84.62
500.569	89.62
500.786	97.62
501.003	89.62
501.22	91.62
501.437	86.62
501.654	95.62
501.871	116.62
502.088	84.62
502.305	80.62
502.522	86.62
502.739	89.62
502.956	85.62
503.172	77.62
503.389	91.62
503.606	100.62
503.823	98.62
504.04	75.62
504.256	81.62
504.473	99.62
504.69	84.62
504.907	82.62
505.123	107.62
505.34	91.62
505.557	84.62
505.773	77.62
505.99	92.62
506.207	87.62
506.423	93.62
506.64	91.62
506.856	84.62
507.073	77.62
507.289	77.62
507.506	96.62
507.722	100.62
507.939	100.62
508.155	86.62
508.372	83.62
508.588	89.62
508.805	97.62
509.021	86.62
509.238	100.62
509.454	89.62
509.67	95.62
509.887	97.62
510.103	111.62
510.319	173.62
510.536	603.62
510.752	1793.62
510.968	526.62
511.184	137.62
511.401	101.62
511.617	90.62
511.833	81.62
512.049	91.62
512.265	102.62
512.481	85.62
512.698	80.62
512.914	80.62
513.13	83.62
513.346	96.62
513.562	87.62
513.778	79.62
513.994	92.62
514.21	95.62
514.426	114.62
514.642	121.62
514.858	99.62
515.074	135.62
515.29	369.62
515.506	1133.62
515.721	423.62
515.937	138.62
516.153	98.62
516.369	98.62
516.585	88.62
516.801	85.62
517.016	79.62
