Data from Uncirc_1989_H10_HRD10591_00050.txt Node
Date: Wed Jan 03 11:57:45 EST 2024
User: Yrep
Spectrometer: HR+D1059
Trigger mode: 1
Integration Time (sec): 1.000000E-1
Scans to average: 1
Electric dark correction enabled: true
Nonlinearity correction enabled: false
Boxcar width: 0
XAxis mode: Wavelengths
Number of Pixels in Spectrum: 2048
>>>>>Begin Spectral Data<<<<<
223.165	-11.94
223.4	-11.94
223.635	-11.94
223.869	-16.94
224.104	-14.94
224.338	-25.94
224.573	-14.94
224.808	-13.94
225.042	-6.94
225.277	-8.94
225.511	-1.94
225.746	8.06
225.98	3.06
226.215	6.06
226.449	14.06
226.683	19.06
226.918	28.06
227.152	38.06
227.387	54.06
227.621	50.06
227.856	62.06
228.09	44.06
228.324	39.06
228.559	56.06
228.793	56.06
229.027	68.06
229.262	65.06
229.496	64.06
229.73	78.06
229.964	73.06
230.199	72.06
230.433	92.06
230.667	77.06
230.901	84.06
231.136	88.06
231.37	83.06
231.604	57.06
231.838	84.06
232.072	87.06
232.306	82.06
232.541	79.06
232.775	80.06
233.009	82.06
233.243	94.06
233.477	87.06
233.711	86.06
233.945	89.06
234.179	70.06
234.413	90.06
234.647	74.06
234.881	86.06
235.115	68.06
235.349	82.06
235.583	78.06
235.817	80.06
236.051	83.06
236.285	80.06
236.519	80.06
236.753	72.06
236.987	79.06
237.221	94.06
237.455	86.06
237.689	61.06
237.922	68.06
238.156	85.06
238.39	76.06
238.624	72.06
238.858	83.06
239.091	60.06
239.325	81.06
239.559	96.06
239.793	81.06
240.027	71.06
240.26	82.06
240.494	80.06
240.728	76.06
240.961	81.06
241.195	102.06
241.429	83.06
241.662	76.06
241.896	86.06
242.13	83.06
242.363	84.06
242.597	96.06
242.83	88.06
243.064	88.06
243.298	67.06
243.531	86.06
243.765	74.06
243.998	82.06
244.232	102.06
244.465	83.06
244.699	75.06
244.932	83.06
245.166	85.06
245.399	74.06
245.633	70.06
245.866	83.06
246.099	74.06
246.333	87.06
246.566	83.06
246.8	80.06
247.033	87.06
247.266	79.06
247.5	82.06
247.733	75.06
247.966	93.06
248.2	90.06
248.433	83.06
248.666	85.06
248.899	94.06
249.133	86.06
249.366	90.06
249.599	94.06
249.832	87.06
250.066	93.06
250.299	87.06
250.532	86.06
250.765	81.06
250.998	74.06
251.231	74.06
251.465	86.06
251.698	97.06
251.931	78.06
252.164	68.06
252.397	75.06
252.63	91.06
252.863	91.06
253.096	74.06
253.329	80.06
253.562	82.06
253.795	91.06
254.028	86.06
254.261	89.06
254.494	95.06
254.727	74.06
254.96	64.06
255.193	85.06
255.426	87.06
255.659	79.06
255.892	92.06
256.124	78.06
256.357	80.06
256.59	69.06
256.823	91.06
257.056	81.06
257.289	98.06
257.521	80.06
257.754	108.06
257.987	88.06
258.22	84.06
258.452	92.06
258.685	86.06
258.918	89.06
259.151	94.06
259.383	83.06
259.616	97.06
259.849	85.06
260.081	96.06
260.314	91.06
260.547	85.06
260.779	95.06
261.012	90.06
261.244	90.06
261.477	83.06
261.71	88.06
261.942	102.06
262.175	96.06
262.407	101.06
262.64	90.06
262.872	84.06
263.105	74.06
263.337	91.06
263.57	83.06
263.802	98.06
264.035	102.06
264.267	72.06
264.499	85.06
264.732	72.06
264.964	78.06
265.197	93.06
265.429	84.06
265.661	101.06
265.894	82.06
266.126	90.06
266.358	82.06
266.591	80.06
266.823	92.06
267.055	74.06
267.287	92.06
267.52	73.06
267.752	78.06
267.984	88.06
268.216	90.06
268.448	78.06
268.681	98.06
268.913	80.06
269.145	76.06
269.377	92.06
269.609	86.06
269.841	67.06
270.073	95.06
270.306	90.06
270.538	70.06
270.77	89.06
271.002	97.06
271.234	88.06
271.466	90.06
271.698	85.06
271.93	81.06
272.162	78.06
272.394	83.06
272.626	94.06
272.858	82.06
273.09	94.06
273.322	82.06
273.553	86.06
273.785	88.06
274.017	91.06
274.249	84.06
274.481	98.06
274.713	81.06
274.945	97.06
275.176	84.06
275.408	90.06
275.64	91.06
275.872	81.06
276.104	91.06
276.335	80.06
276.567	89.06
276.799	108.06
277.031	96.06
277.262	90.06
277.494	91.06
277.726	90.06
277.957	70.06
278.189	81.06
278.421	96.06
278.652	97.06
278.884	105.06
279.115	89.06
279.347	81.06
279.579	81.06
279.81	85.06
280.042	89.06
280.273	91.06
280.505	94.06
280.736	89.06
280.968	76.06
281.199	95.06
281.431	74.06
281.662	116.06
281.894	97.06
282.125	99.06
282.356	124.06
282.588	109.06
282.819	107.06
283.051	95.06
283.282	106.06
283.513	88.06
283.745	87.06
283.976	74.06
284.207	90.06
284.439	86.06
284.67	89.06
284.901	84.06
285.132	91.06
285.364	90.06
285.595	83.06
285.826	93.06
286.057	83.06
286.288	88.06
286.52	95.06
286.751	88.06
286.982	98.06
287.213	77.06
287.444	96.06
287.675	99.06
287.906	105.06
288.138	95.06
288.369	97.06
288.6	91.06
288.831	86.06
289.062	92.06
289.293	95.06
289.524	97.06
289.755	87.06
289.986	94.06
290.217	99.06
290.448	93.06
290.679	94.06
290.91	91.06
291.141	88.06
291.371	87.06
291.602	82.06
291.833	93.06
292.064	90.06
292.295	97.06
292.526	91.06
292.757	94.06
292.987	94.06
293.218	90.06
293.449	98.06
293.68	83.06
293.91	78.06
294.141	79.06
294.372	98.06
294.603	96.06
294.833	86.06
295.064	88.06
295.295	84.06
295.525	101.06
295.756	98.06
295.987	102.06
296.217	123.06
296.448	117.06
296.679	85.06
296.909	102.06
297.14	94.06
297.37	88.06
297.601	92.06
297.831	91.06
298.062	96.06
298.292	92.06
298.523	81.06
298.753	99.06
298.984	97.06
299.214	79.06
299.445	102.06
299.675	98.06
299.905	97.06
300.136	109.06
300.366	99.06
300.597	98.06
300.827	92.06
301.057	91.06
301.288	108.06
301.518	95.06
301.748	84.06
301.979	103.06
302.209	87.06
302.439	90.06
302.669	87.06
302.9	100.06
303.13	99.06
303.36	99.06
303.59	100.06
303.82	113.06
304.051	85.06
304.281	98.06
304.511	95.06
304.741	86.06
304.971	96.06
305.201	105.06
305.431	95.06
305.661	92.06
305.891	89.06
306.121	105.06
306.352	111.06
306.582	103.06
306.812	77.06
307.042	108.06
307.272	99.06
307.502	88.06
307.731	103.06
307.961	96.06
308.191	91.06
308.421	89.06
308.651	97.06
308.881	89.06
309.111	101.06
309.341	88.06
309.571	101.06
309.8	100.06
310.03	95.06
310.26	95.06
310.49	94.06
310.72	112.06
310.949	90.06
311.179	98.06
311.409	96.06
311.639	88.06
311.868	103.06
312.098	102.06
312.328	96.06
312.557	104.06
312.787	99.06
313.017	108.06
313.246	88.06
313.476	95.06
313.706	79.06
313.935	95.06
314.165	95.06
314.394	100.06
314.624	105.06
314.853	88.06
315.083	78.06
315.312	101.06
315.542	105.06
315.771	111.06
316.001	90.06
316.23	90.06
316.46	80.06
316.689	108.06
316.919	91.06
317.148	105.06
317.377	88.06
317.607	78.06
317.836	90.06
318.065	83.06
318.295	83.06
318.524	84.06
318.753	88.06
318.983	91.06
319.212	101.06
319.441	99.06
319.67	94.06
319.9	99.06
320.129	95.06
320.358	98.06
320.587	88.06
320.816	89.06
321.046	96.06
321.275	99.06
321.504	90.06
321.733	113.06
321.962	88.06
322.191	104.06
322.42	104.06
322.649	105.06
322.878	103.06
323.108	111.06
323.337	119.06
323.566	122.06
323.795	137.06
324.024	175.06
324.253	338.06
324.482	674.06
324.71	1412.06
324.939	1875.06
325.168	698.06
325.397	228.06
325.626	157.06
325.855	121.06
326.084	122.06
326.313	145.06
326.542	156.06
326.77	213.06
326.999	394.06
327.228	802.06
327.457	1476.06
327.686	1170.06
327.914	346.06
328.143	179.06
328.372	168.06
328.6	129.06
328.829	129.06
329.058	126.06
329.287	102.06
329.515	107.06
329.744	111.06
329.972	132.06
330.201	162.06
330.43	199.06
330.658	160.06
330.887	129.06
331.115	113.06
331.344	100.06
331.572	84.06
331.801	91.06
332.03	105.06
332.258	95.06
332.486	104.06
332.715	107.06
332.943	101.06
333.172	94.06
333.4	88.06
333.629	116.06
333.857	113.06
334.085	131.06
334.314	155.06
334.542	203.06
334.771	221.06
334.999	107.06
335.227	96.06
335.455	101.06
335.684	112.06
335.912	106.06
336.14	120.06
336.369	103.06
336.597	107.06
336.825	92.06
337.053	101.06
337.281	96.06
337.51	99.06
337.738	92.06
337.966	108.06
338.194	90.06
338.422	98.06
338.65	98.06
338.878	91.06
339.106	96.06
339.334	97.06
339.562	88.06
339.79	92.06
340.018	95.06
340.246	87.06
340.474	100.06
340.702	88.06
340.93	91.06
341.158	92.06
341.386	81.06
341.614	97.06
341.842	86.06
342.07	84.06
342.298	95.06
342.526	94.06
342.754	89.06
342.981	110.06
343.209	92.06
343.437	111.06
343.665	101.06
343.893	94.06
344.12	102.06
344.348	90.06
344.576	98.06
344.804	98.06
345.031	97.06
345.259	101.06
345.487	97.06
345.714	82.06
345.942	89.06
346.17	83.06
346.397	100.06
346.625	93.06
346.853	96.06
347.08	87.06
347.308	84.06
347.535	92.06
347.763	97.06
347.99	113.06
348.218	96.06
348.445	99.06
348.673	96.06
348.9	98.06
349.128	107.06
349.355	98.06
349.583	101.06
349.81	78.06
350.037	90.06
350.265	84.06
350.492	90.06
350.72	102.06
350.947	100.06
351.174	95.06
351.402	97.06
351.629	95.06
351.856	87.06
352.083	105.06
352.311	105.06
352.538	106.06
352.765	111.06
352.992	117.06
353.22	115.06
353.447	96.06
353.674	102.06
353.901	95.06
354.128	100.06
354.355	104.06
354.583	85.06
354.81	94.06
355.037	98.06
355.264	89.06
355.491	86.06
355.718	78.06
355.945	89.06
356.172	97.06
356.399	111.06
356.626	89.06
356.853	89.06
357.08	105.06
357.307	96.06
357.534	101.06
357.761	106.06
357.988	97.06
358.215	96.06
358.441	94.06
358.668	101.06
358.895	85.06
359.122	96.06
359.349	87.06
359.576	91.06
359.802	88.06
360.029	97.06
360.256	112.06
360.483	94.06
360.709	96.06
360.936	88.06
361.163	94.06
361.39	94.06
361.616	95.06
361.843	94.06
362.07	102.06
362.296	106.06
362.523	104.06
362.749	103.06
362.976	89.06
363.203	86.06
363.429	90.06
363.656	94.06
363.882	74.06
364.109	88.06
364.335	100.06
364.562	86.06
364.788	107.06
365.015	87.06
365.241	92.06
365.468	108.06
365.694	112.06
365.92	95.06
366.147	83.06
366.373	98.06
366.599	81.06
366.826	98.06
367.052	86.06
367.278	97.06
367.505	99.06
367.731	75.06
367.957	91.06
368.184	98.06
368.41	101.06
368.636	114.06
368.862	122.06
369.089	94.06
369.315	100.06
369.541	100.06
369.767	109.06
369.993	92.06
370.219	99.06
370.445	94.06
370.672	97.06
370.898	89.06
371.124	75.06
371.35	83.06
371.576	90.06
371.802	98.06
372.028	79.06
372.254	92.06
372.48	101.06
372.706	96.06
372.932	90.06
373.158	75.06
373.384	98.06
373.61	82.06
373.835	74.06
374.061	88.06
374.287	89.06
374.513	88.06
374.739	84.06
374.965	105.06
375.191	87.06
375.416	90.06
375.642	86.06
375.868	78.06
376.094	97.06
376.319	95.06
376.545	86.06
376.771	84.06
376.997	99.06
377.222	76.06
377.448	96.06
377.674	96.06
377.899	90.06
378.125	93.06
378.35	98.06
378.576	82.06
378.802	86.06
379.027	98.06
379.253	95.06
379.478	80.06
379.704	102.06
379.929	99.06
380.155	101.06
380.38	101.06
380.606	100.06
380.831	95.06
381.057	95.06
381.282	99.06
381.507	88.06
381.733	88.06
381.958	95.06
382.184	96.06
382.409	102.06
382.634	115.06
382.86	99.06
383.085	91.06
383.31	98.06
383.535	105.06
383.761	88.06
383.986	116.06
384.211	89.06
384.436	86.06
384.662	97.06
384.887	98.06
385.112	84.06
385.337	110.06
385.562	93.06
385.787	99.06
386.013	110.06
386.238	107.06
386.463	98.06
386.688	111.06
386.913	85.06
387.138	100.06
387.363	93.06
387.588	96.06
387.813	102.06
388.038	91.06
388.263	105.06
388.488	100.06
388.713	97.06
388.938	99.06
389.163	97.06
389.387	100.06
389.612	91.06
389.837	95.06
390.062	97.06
390.287	96.06
390.512	99.06
390.736	94.06
390.961	90.06
391.186	101.06
391.411	88.06
391.636	84.06
391.86	81.06
392.085	98.06
392.31	90.06
392.534	86.06
392.759	85.06
392.984	96.06
393.208	95.06
393.433	100.06
393.658	96.06
393.882	95.06
394.107	87.06
394.331	91.06
394.556	86.06
394.78	104.06
395.005	97.06
395.229	83.06
395.454	86.06
395.678	79.06
395.903	88.06
396.127	88.06
396.352	98.06
396.576	99.06
396.801	110.06
397.025	109.06
397.249	87.06
397.474	91.06
397.698	78.06
397.922	92.06
398.147	100.06
398.371	100.06
398.595	98.06
398.82	82.06
399.044	72.06
399.268	95.06
399.492	96.06
399.717	85.06
399.941	84.06
400.165	79.06
400.389	85.06
400.613	76.06
400.837	85.06
401.062	82.06
401.286	84.06
401.51	94.06
401.734	106.06
401.958	95.06
402.182	124.06
402.406	140.06
402.63	111.06
402.854	96.06
403.078	99.06
403.302	64.06
403.526	98.06
403.75	90.06
403.974	83.06
404.198	94.06
404.422	84.06
404.645	97.06
404.869	90.06
405.093	84.06
405.317	87.06
405.541	88.06
405.765	83.06
405.988	124.06
406.212	150.06
406.436	201.06
406.66	122.06
406.883	96.06
407.107	96.06
407.331	86.06
407.555	100.06
407.778	101.06
408.002	77.06
408.226	87.06
408.449	101.06
408.673	84.06
408.896	88.06
409.12	94.06
409.344	95.06
409.567	79.06
409.791	100.06
410.014	93.06
410.238	83.06
410.461	91.06
410.685	104.06
410.908	99.06
411.132	119.06
411.355	104.06
411.578	80.06
411.802	90.06
412.025	96.06
412.249	97.06
412.472	100.06
412.695	92.06
412.919	102.06
413.142	100.06
413.365	97.06
413.589	90.06
413.812	90.06
414.035	103.06
414.258	95.06
414.482	88.06
414.705	97.06
414.928	88.06
415.151	83.06
415.374	114.06
415.597	91.06
415.821	94.06
416.044	80.06
416.267	90.06
416.49	97.06
416.713	92.06
416.936	73.06
417.159	96.06
417.382	86.06
417.605	86.06
417.828	99.06
418.051	95.06
418.274	100.06
418.497	86.06
418.72	89.06
418.943	87.06
419.166	82.06
419.389	99.06
419.611	104.06
419.834	95.06
420.057	101.06
420.28	83.06
420.503	83.06
420.726	88.06
420.948	103.06
421.171	84.06
421.394	100.06
421.617	87.06
421.839	92.06
422.062	84.06
422.285	86.06
422.507	94.06
422.73	105.06
422.953	86.06
423.175	94.06
423.398	90.06
423.621	92.06
423.843	88.06
424.066	91.06
424.288	83.06
424.511	81.06
424.733	96.06
424.956	109.06
425.178	105.06
425.401	81.06
425.623	94.06
425.846	90.06
426.068	89.06
426.291	92.06
426.513	95.06
426.735	74.06
426.958	90.06
427.18	112.06
427.402	130.06
427.625	156.06
427.847	126.06
428.069	116.06
428.292	95.06
428.514	98.06
428.736	96.06
428.958	86.06
429.181	97.06
429.403	86.06
429.625	96.06
429.847	92.06
430.069	112.06
430.292	97.06
430.514	96.06
430.736	91.06
430.958	88.06
431.18	95.06
431.402	79.06
431.624	78.06
431.846	73.06
432.068	98.06
432.29	98.06
432.512	89.06
432.734	100.06
432.956	99.06
433.178	92.06
433.4	85.06
433.622	97.06
433.844	95.06
434.066	97.06
434.287	89.06
434.509	94.06
434.731	103.06
434.953	82.06
435.175	91.06
435.397	85.06
435.618	91.06
435.84	106.06
436.062	104.06
436.284	113.06
436.505	88.06
436.727	92.06
436.949	94.06
437.17	97.06
437.392	87.06
437.614	97.06
437.835	106.06
438.057	112.06
438.278	100.06
438.5	91.06
438.721	127.06
438.943	97.06
439.165	98.06
439.386	96.06
439.608	85.06
439.829	91.06
440.05	106.06
440.272	143.06
440.493	93.06
440.715	93.06
440.936	91.06
441.158	94.06
441.379	98.06
441.6	91.06
441.822	103.06
442.043	102.06
442.264	112.06
442.486	94.06
442.707	90.06
442.928	86.06
443.149	111.06
443.371	106.06
443.592	104.06
443.813	98.06
444.034	92.06
444.255	79.06
444.476	88.06
444.698	83.06
444.919	72.06
445.14	140.06
445.361	123.06
445.582	112.06
445.803	122.06
446.024	116.06
446.245	112.06
446.466	104.06
446.687	92.06
446.908	89.06
447.129	77.06
447.35	90.06
447.571	90.06
447.792	94.06
448.013	90.06
448.234	85.06
448.455	91.06
448.675	100.06
448.896	86.06
449.117	105.06
449.338	86.06
449.559	117.06
449.779	107.06
450	89.06
450.221	82.06
450.442	99.06
450.662	94.06
450.883	118.06
451.104	101.06
451.324	84.06
451.545	94.06
451.766	93.06
451.986	102.06
452.207	90.06
452.428	82.06
452.648	95.06
452.869	116.06
453.089	96.06
453.31	100.06
453.53	96.06
453.751	104.06
453.971	103.06
454.192	99.06
454.412	86.06
454.633	85.06
454.853	95.06
455.073	96.06
455.294	87.06
455.514	99.06
455.734	83.06
455.955	84.06
456.175	81.06
456.395	73.06
456.616	99.06
456.836	88.06
457.056	90.06
457.276	94.06
457.497	94.06
457.717	75.06
457.937	79.06
458.157	89.06
458.377	88.06
458.598	95.06
458.818	123.06
459.038	136.06
459.258	106.06
459.478	83.06
459.698	83.06
459.918	86.06
460.138	86.06
460.358	86.06
460.578	92.06
460.798	103.06
461.018	105.06
461.238	87.06
461.458	87.06
461.678	83.06
461.898	84.06
462.118	88.06
462.338	84.06
462.558	83.06
462.777	97.06
462.997	88.06
463.217	84.06
463.437	77.06
463.657	106.06
463.876	90.06
464.096	102.06
464.316	100.06
464.536	86.06
464.755	90.06
464.975	102.06
465.195	144.06
465.414	133.06
465.634	103.06
465.854	100.06
466.073	84.06
466.293	92.06
466.512	85.06
466.732	87.06
466.951	100.06
467.171	84.06
467.391	95.06
467.61	100.06
467.829	114.06
468.049	126.06
468.268	144.06
468.488	92.06
468.707	99.06
468.927	80.06
469.146	83.06
469.365	103.06
469.585	88.06
469.804	98.06
470.023	105.06
470.243	86.06
470.462	92.06
470.681	109.06
470.901	98.06
471.12	82.06
471.339	85.06
471.558	100.06
471.777	91.06
471.997	104.06
472.216	173.06
472.435	258.06
472.654	121.06
472.873	86.06
473.092	94.06
473.311	93.06
473.53	82.06
473.749	89.06
473.968	102.06
474.187	110.06
474.406	93.06
474.625	82.06
474.844	86.06
475.063	90.06
475.282	87.06
475.501	86.06
475.72	98.06
475.939	88.06
476.158	90.06
476.377	114.06
476.596	99.06
476.814	93.06
477.033	100.06
477.252	99.06
477.471	74.06
477.69	72.06
477.908	84.06
478.127	96.06
478.346	90.06
478.564	107.06
478.783	95.06
479.002	97.06
479.22	97.06
479.439	94.06
479.658	106.06
479.876	102.06
480.095	94.06
480.313	107.06
480.532	96.06
480.751	112.06
480.969	180.06
481.188	393.06
481.406	247.06
481.624	96.06
481.843	82.06
482.061	103.06
482.28	85.06
482.498	89.06
482.717	86.06
482.935	99.06
483.153	90.06
483.372	91.06
483.59	90.06
483.808	98.06
484.027	80.06
484.245	91.06
484.463	91.06
484.681	93.06
484.9	81.06
485.118	91.06
485.336	94.06
485.554	99.06
485.772	93.06
485.99	100.06
486.209	103.06
486.427	93.06
486.645	96.06
486.863	100.06
487.081	94.06
487.299	92.06
487.517	105.06
487.735	87.06
487.953	94.06
488.171	93.06
488.389	90.06
488.607	101.06
488.825	89.06
489.043	94.06
489.261	100.06
489.479	96.06
489.696	102.06
489.914	90.06
490.132	97.06
490.35	87.06
490.568	78.06
490.786	89.06
491.003	99.06
491.221	99.06
491.439	85.06
491.657	84.06
491.874	89.06
492.092	95.06
492.31	94.06
492.527	92.06
492.745	92.06
492.963	106.06
493.18	95.06
493.398	96.06
493.615	81.06
493.833	89.06
494.05	99.06
494.268	87.06
494.485	79.06
494.703	95.06
494.92	86.06
495.138	96.06
495.355	97.06
495.573	94.06
495.79	85.06
496.008	94.06
496.225	98.06
496.442	83.06
496.66	102.06
496.877	94.06
497.094	99.06
497.312	83.06
497.529	90.06
497.746	94.06
497.963	77.06
498.181	84.06
498.398	95.06
498.615	108.06
498.832	102.06
499.049	90.06
499.267	79.06
499.484	88.06
499.701	88.06
499.918	85.06
500.135	84.06
500.352	82.06
500.569	97.06
500.786	95.06
501.003	95.06
501.22	97.06
501.437	90.06
501.654	93.06
501.871	100.06
502.088	82.06
502.305	89.06
502.522	87.06
502.739	102.06
502.956	96.06
503.172	105.06
503.389	98.06
503.606	102.06
503.823	103.06
504.04	83.06
504.256	90.06
504.473	83.06
504.69	95.06
504.907	91.06
505.123	87.06
505.34	92.06
505.557	100.06
505.773	92.06
505.99	83.06
506.207	86.06
506.423	90.06
506.64	85.06
506.856	102.06
507.073	96.06
507.289	90.06
507.506	96.06
507.722	87.06
507.939	117.06
508.155	102.06
508.372	94.06
508.588	98.06
508.805	82.06
509.021	91.06
509.238	90.06
509.454	97.06
509.67	94.06
509.887	96.06
510.103	119.06
510.319	182.06
510.536	633.06
510.752	1873.06
510.968	555.06
511.184	130.06
511.401	102.06
511.617	109.06
511.833	92.06
512.049	95.06
512.265	89.06
512.481	93.06
512.698	85.06
512.914	88.06
513.13	90.06
513.346	76.06
513.562	93.06
513.778	96.06
513.994	99.06
514.21	100.06
514.426	121.06
514.642	134.06
514.858	129.06
515.074	158.06
515.29	373.06
515.506	1138.06
