Data from Uncirc_1989_H10_HRD10591_00042.txt Node
Date: Wed Jan 03 11:57:44 EST 2024
User: Yrep
Spectrometer: HR+D1059
Trigger mode: 1
Integration Time (sec): 1.000000E-1
Scans to average: 1
Electric dark correction enabled: true
Nonlinearity correction enabled: false
Boxcar width: 0
XAxis mode: Wavelengths
Number of Pixels in Spectrum: 2048
>>>>>Begin Spectral Data<<<<<
223.165	-6.06
223.4	-6.06
223.635	-6.06
223.869	-26.06
224.104	-27.06
224.338	-5.06
224.573	-21.06
224.808	-23.06
225.042	-8.06
225.277	-4.06
225.511	2.94
225.746	5.94
225.98	1.94
226.215	25.94
226.449	16.94
226.683	15.94
226.918	21.94
227.152	28.94
227.387	40.94
227.621	45.94
227.856	34.94
228.09	52.94
228.324	52.94
228.559	61.94
228.793	56.94
229.027	57.94
229.262	66.94
229.496	78.94
229.73	96.94
229.964	72.94
230.199	63.94
230.433	80.94
230.667	88.94
230.901	86.94
231.136	89.94
231.37	88.94
231.604	75.94
231.838	86.94
232.072	90.94
232.306	83.94
232.541	62.94
232.775	87.94
233.009	80.94
233.243	89.94
233.477	67.94
233.711	74.94
233.945	85.94
234.179	82.94
234.413	70.94
234.647	82.94
234.881	78.94
235.115	82.94
235.349	69.94
235.583	100.94
235.817	79.94
236.051	87.94
236.285	78.94
236.519	74.94
236.753	76.94
236.987	68.94
237.221	86.94
237.455	84.94
237.689	83.94
237.922	62.94
238.156	70.94
238.39	78.94
238.624	67.94
238.858	68.94
239.091	72.94
239.325	80.94
239.559	85.94
239.793	80.94
240.027	86.94
240.26	77.94
240.494	69.94
240.728	82.94
240.961	72.94
241.195	79.94
241.429	65.94
241.662	86.94
241.896	74.94
242.13	67.94
242.363	81.94
242.597	73.94
242.83	81.94
243.064	72.94
243.298	77.94
243.531	84.94
243.765	84.94
243.998	56.94
244.232	93.94
244.465	84.94
244.699	69.94
244.932	81.94
245.166	82.94
245.399	76.94
245.633	89.94
245.866	76.94
246.099	78.94
246.333	69.94
246.566	69.94
246.8	89.94
247.033	86.94
247.266	87.94
247.5	84.94
247.733	81.94
247.966	63.94
248.2	82.94
248.433	74.94
248.666	84.94
248.899	96.94
249.133	88.94
249.366	96.94
249.599	87.94
249.832	89.94
250.066	81.94
250.299	70.94
250.532	79.94
250.765	80.94
250.998	64.94
251.231	101.94
251.465	73.94
251.698	84.94
251.931	92.94
252.164	78.94
252.397	83.94
252.63	87.94
252.863	85.94
253.096	86.94
253.329	80.94
253.562	76.94
253.795	80.94
254.028	79.94
254.261	86.94
254.494	79.94
254.727	68.94
254.96	81.94
255.193	80.94
255.426	78.94
255.659	73.94
255.892	88.94
256.124	76.94
256.357	77.94
256.59	86.94
256.823	95.94
257.056	72.94
257.289	76.94
257.521	76.94
257.754	96.94
257.987	74.94
258.22	84.94
258.452	80.94
258.685	85.94
258.918	88.94
259.151	79.94
259.383	79.94
259.616	93.94
259.849	85.94
260.081	88.94
260.314	84.94
260.547	82.94
260.779	78.94
261.012	84.94
261.244	80.94
261.477	79.94
261.71	77.94
261.942	102.94
262.175	123.94
262.407	88.94
262.64	89.94
262.872	81.94
263.105	88.94
263.337	85.94
263.57	76.94
263.802	74.94
264.035	93.94
264.267	89.94
264.499	89.94
264.732	81.94
264.964	89.94
265.197	81.94
265.429	81.94
265.661	99.94
265.894	86.94
266.126	90.94
266.358	82.94
266.591	84.94
266.823	78.94
267.055	80.94
267.287	99.94
267.52	91.94
267.752	73.94
267.984	85.94
268.216	84.94
268.448	78.94
268.681	81.94
268.913	84.94
269.145	85.94
269.377	89.94
269.609	82.94
269.841	86.94
270.073	103.94
270.306	102.94
270.538	83.94
270.77	94.94
271.002	83.94
271.234	77.94
271.466	81.94
271.698	66.94
271.93	71.94
272.162	85.94
272.394	82.94
272.626	92.94
272.858	82.94
273.09	89.94
273.322	99.94
273.553	102.94
273.785	79.94
274.017	94.94
274.249	73.94
274.481	94.94
274.713	84.94
274.945	89.94
275.176	93.94
275.408	84.94
275.64	94.94
275.872	87.94
276.104	85.94
276.335	83.94
276.567	85.94
276.799	100.94
277.031	107.94
277.262	94.94
277.494	81.94
277.726	87.94
277.957	80.94
278.189	69.94
278.421	84.94
278.652	93.94
278.884	86.94
279.115	79.94
279.347	90.94
279.579	70.94
279.81	65.94
280.042	85.94
280.273	89.94
280.505	104.94
280.736	90.94
280.968	81.94
281.199	71.94
281.431	89.94
281.662	87.94
281.894	92.94
282.125	93.94
282.356	98.94
282.588	127.94
282.819	113.94
283.051	92.94
283.282	105.94
283.513	94.94
283.745	92.94
283.976	73.94
284.207	78.94
284.439	85.94
284.67	89.94
284.901	89.94
285.132	77.94
285.364	93.94
285.595	86.94
285.826	80.94
286.057	83.94
286.288	86.94
286.52	90.94
286.751	78.94
286.982	85.94
287.213	86.94
287.444	98.94
287.675	80.94
287.906	89.94
288.138	87.94
288.369	82.94
288.6	96.94
288.831	93.94
289.062	102.94
289.293	77.94
289.524	96.94
289.755	84.94
289.986	84.94
290.217	91.94
290.448	78.94
290.679	89.94
290.91	93.94
291.141	90.94
291.371	84.94
291.602	93.94
291.833	97.94
292.064	83.94
292.295	83.94
292.526	88.94
292.757	87.94
292.987	86.94
293.218	71.94
293.449	92.94
293.68	86.94
293.91	81.94
294.141	93.94
294.372	88.94
294.603	89.94
294.833	98.94
295.064	98.94
295.295	93.94
295.525	103.94
295.756	92.94
295.987	109.94
296.217	128.94
296.448	107.94
296.679	88.94
296.909	80.94
297.14	90.94
297.37	92.94
297.601	91.94
297.831	86.94
298.062	80.94
298.292	85.94
298.523	98.94
298.753	86.94
298.984	86.94
299.214	73.94
299.445	89.94
299.675	79.94
299.905	97.94
300.136	96.94
300.366	97.94
300.597	88.94
300.827	69.94
301.057	96.94
301.288	97.94
301.518	93.94
301.748	86.94
301.979	104.94
302.209	108.94
302.439	83.94
302.669	81.94
302.9	72.94
303.13	91.94
303.36	109.94
303.59	97.94
303.82	100.94
304.051	91.94
304.281	85.94
304.511	84.94
304.741	96.94
304.971	89.94
305.201	81.94
305.431	86.94
305.661	94.94
305.891	84.94
306.121	99.94
306.352	112.94
306.582	98.94
306.812	91.94
307.042	107.94
307.272	85.94
307.502	79.94
307.731	89.94
307.961	88.94
308.191	105.94
308.421	101.94
308.651	88.94
308.881	87.94
309.111	86.94
309.341	90.94
309.571	98.94
309.8	93.94
310.03	97.94
310.26	75.94
310.49	106.94
310.72	88.94
310.949	87.94
311.179	90.94
311.409	96.94
311.639	89.94
311.868	83.94
312.098	84.94
312.328	96.94
312.557	96.94
312.787	109.94
313.017	106.94
313.246	97.94
313.476	106.94
313.706	92.94
313.935	110.94
314.165	98.94
314.394	108.94
314.624	86.94
314.853	96.94
315.083	105.94
315.312	92.94
315.542	100.94
315.771	96.94
316.001	89.94
316.23	92.94
316.46	89.94
316.689	93.94
316.919	83.94
317.148	92.94
317.377	87.94
317.607	82.94
317.836	105.94
318.065	95.94
318.295	82.94
318.524	93.94
318.753	88.94
318.983	96.94
319.212	99.94
319.441	90.94
319.67	97.94
319.9	96.94
320.129	95.94
320.358	90.94
320.587	94.94
320.816	100.94
321.046	83.94
321.275	102.94
321.504	100.94
321.733	88.94
321.962	86.94
322.191	95.94
322.42	105.94
322.649	115.94
322.878	108.94
323.108	110.94
323.337	133.94
323.566	125.94
323.795	147.94
324.024	188.94
324.253	327.94
324.482	684.94
324.71	1362.94
324.939	1810.94
325.168	668.94
325.397	224.94
325.626	128.94
325.855	126.94
326.084	121.94
326.313	127.94
326.542	140.94
326.77	207.94
326.999	392.94
327.228	769.94
327.457	1455.94
327.686	1138.94
327.914	308.94
328.143	200.94
328.372	180.94
328.6	127.94
328.829	118.94
329.058	112.94
329.287	123.94
329.515	109.94
329.744	109.94
329.972	104.94
330.201	158.94
330.43	184.94
330.658	129.94
330.887	119.94
331.115	115.94
331.344	97.94
331.572	113.94
331.801	99.94
332.03	92.94
332.258	90.94
332.486	91.94
332.715	90.94
332.943	86.94
333.172	95.94
333.4	105.94
333.629	106.94
333.857	116.94
334.085	117.94
334.314	151.94
334.542	204.94
334.771	188.94
334.999	100.94
335.227	100.94
335.455	85.94
335.684	86.94
335.912	100.94
336.14	89.94
336.369	96.94
336.597	98.94
336.825	90.94
337.053	97.94
337.281	99.94
337.51	100.94
337.738	98.94
337.966	94.94
338.194	95.94
338.422	88.94
338.65	88.94
338.878	90.94
339.106	101.94
339.334	84.94
339.562	86.94
339.79	100.94
340.018	87.94
340.246	89.94
340.474	98.94
340.702	100.94
340.93	100.94
341.158	87.94
341.386	93.94
341.614	105.94
341.842	95.94
342.07	101.94
342.298	101.94
342.526	93.94
342.754	93.94
342.981	87.94
343.209	90.94
343.437	104.94
343.665	84.94
343.893	93.94
344.12	85.94
344.348	94.94
344.576	106.94
344.804	93.94
345.031	103.94
345.259	93.94
345.487	86.94
345.714	95.94
345.942	100.94
346.17	107.94
346.397	81.94
346.625	102.94
346.853	94.94
347.08	89.94
347.308	97.94
347.535	87.94
347.763	76.94
347.99	80.94
348.218	85.94
348.445	91.94
348.673	89.94
348.9	85.94
349.128	94.94
349.355	92.94
349.583	94.94
349.81	91.94
350.037	78.94
350.265	89.94
350.492	94.94
350.72	92.94
350.947	95.94
351.174	109.94
351.402	106.94
351.629	98.94
351.856	96.94
352.083	101.94
352.311	109.94
352.538	107.94
352.765	110.94
352.992	102.94
353.22	107.94
353.447	92.94
353.674	93.94
353.901	98.94
354.128	76.94
354.355	90.94
354.583	90.94
354.81	89.94
355.037	91.94
355.264	102.94
355.491	90.94
355.718	90.94
355.945	101.94
356.172	106.94
356.399	85.94
356.626	95.94
356.853	92.94
357.08	80.94
357.307	93.94
357.534	86.94
357.761	80.94
357.988	80.94
358.215	94.94
358.441	88.94
358.668	90.94
358.895	94.94
359.122	88.94
359.349	89.94
359.576	106.94
359.802	96.94
360.029	109.94
360.256	97.94
360.483	94.94
360.709	90.94
360.936	93.94
361.163	101.94
361.39	94.94
361.616	88.94
361.843	84.94
362.07	102.94
362.296	90.94
362.523	93.94
362.749	89.94
362.976	96.94
363.203	84.94
363.429	87.94
363.656	104.94
363.882	82.94
364.109	94.94
364.335	98.94
364.562	91.94
364.788	80.94
365.015	103.94
365.241	96.94
365.468	94.94
365.694	100.94
365.92	88.94
366.147	77.94
366.373	80.94
366.599	83.94
366.826	79.94
367.052	88.94
367.278	93.94
367.505	94.94
367.731	85.94
367.957	89.94
368.184	101.94
368.41	95.94
368.636	102.94
368.862	104.94
369.089	111.94
369.315	101.94
369.541	93.94
369.767	101.94
369.993	77.94
370.219	91.94
370.445	92.94
370.672	78.94
370.898	93.94
371.124	89.94
371.35	90.94
371.576	93.94
371.802	88.94
372.028	92.94
372.254	92.94
372.48	93.94
372.706	100.94
372.932	89.94
373.158	94.94
373.384	96.94
373.61	85.94
373.835	89.94
374.061	80.94
374.287	94.94
374.513	98.94
374.739	99.94
374.965	71.94
375.191	90.94
375.416	86.94
375.642	90.94
375.868	96.94
376.094	84.94
376.319	109.94
376.545	87.94
376.771	90.94
376.997	82.94
377.222	96.94
377.448	95.94
377.674	84.94
377.899	111.94
378.125	88.94
378.35	93.94
378.576	111.94
378.802	95.94
379.027	101.94
379.253	95.94
379.478	81.94
379.704	102.94
379.929	81.94
380.155	100.94
380.38	88.94
380.606	84.94
380.831	90.94
381.057	92.94
381.282	98.94
381.507	91.94
381.733	96.94
381.958	88.94
382.184	86.94
382.409	97.94
382.634	104.94
382.86	100.94
383.085	102.94
383.31	95.94
383.535	96.94
383.761	88.94
383.986	88.94
384.211	84.94
384.436	110.94
384.662	104.94
384.887	101.94
385.112	87.94
385.337	107.94
385.562	109.94
385.787	96.94
386.013	115.94
386.238	115.94
386.463	98.94
386.688	105.94
386.913	110.94
387.138	101.94
387.363	103.94
387.588	87.94
387.813	111.94
388.038	106.94
388.263	106.94
388.488	94.94
388.713	92.94
388.938	97.94
389.163	100.94
389.387	94.94
389.612	93.94
389.837	87.94
390.062	82.94
390.287	93.94
390.512	83.94
390.736	86.94
390.961	86.94
391.186	95.94
391.411	94.94
391.636	92.94
391.86	81.94
392.085	74.94
392.31	76.94
392.534	80.94
392.759	101.94
392.984	85.94
393.208	110.94
393.433	118.94
393.658	81.94
393.882	81.94
394.107	101.94
394.331	110.94
394.556	103.94
394.78	78.94
395.005	87.94
395.229	86.94
395.454	106.94
395.678	95.94
395.903	97.94
396.127	104.94
396.352	86.94
396.576	92.94
396.801	106.94
397.025	99.94
397.249	89.94
397.474	96.94
397.698	86.94
397.922	105.94
398.147	98.94
398.371	93.94
398.595	81.94
398.82	95.94
399.044	76.94
399.268	86.94
399.492	75.94
399.717	98.94
399.941	100.94
400.165	104.94
400.389	90.94
400.613	92.94
400.837	90.94
401.062	88.94
401.286	90.94
401.51	73.94
401.734	92.94
401.958	84.94
402.182	120.94
402.406	160.94
402.63	124.94
402.854	93.94
403.078	95.94
403.302	85.94
403.526	83.94
403.75	93.94
403.974	84.94
404.198	94.94
404.422	90.94
404.645	84.94
404.869	100.94
405.093	104.94
405.317	97.94
405.541	101.94
405.765	96.94
405.988	109.94
406.212	147.94
406.436	212.94
406.66	136.94
406.883	86.94
407.107	79.94
407.331	87.94
407.555	88.94
407.778	93.94
408.002	71.94
408.226	96.94
408.449	95.94
408.673	92.94
408.896	105.94
409.12	97.94
409.344	90.94
409.567	93.94
409.791	94.94
410.014	89.94
410.238	85.94
410.461	97.94
410.685	91.94
410.908	94.94
411.132	100.94
411.355	99.94
411.578	98.94
411.802	83.94
412.025	99.94
412.249	94.94
412.472	89.94
412.695	93.94
412.919	88.94
413.142	95.94
413.365	91.94
413.589	89.94
413.812	86.94
414.035	88.94
414.258	91.94
414.482	88.94
414.705	89.94
414.928	84.94
415.151	89.94
415.374	82.94
415.597	88.94
415.821	81.94
416.044	97.94
416.267	101.94
416.49	98.94
416.713	93.94
416.936	80.94
417.159	89.94
417.382	80.94
417.605	90.94
417.828	92.94
418.051	92.94
418.274	91.94
418.497	95.94
418.72	84.94
418.943	88.94
419.166	69.94
419.389	85.94
419.611	94.94
419.834	87.94
420.057	93.94
420.28	92.94
420.503	80.94
420.726	85.94
420.948	106.94
421.171	92.94
421.394	88.94
421.617	92.94
421.839	87.94
422.062	92.94
422.285	99.94
422.507	99.94
422.73	90.94
422.953	101.94
423.175	82.94
423.398	107.94
423.621	84.94
423.843	94.94
424.066	98.94
424.288	87.94
424.511	105.94
424.733	95.94
424.956	98.94
425.178	114.94
425.401	97.94
425.623	115.94
425.846	89.94
426.068	89.94
426.291	82.94
426.513	96.94
426.735	81.94
426.958	89.94
427.18	94.94
427.402	117.94
427.625	143.94
427.847	121.94
428.069	116.94
428.292	98.94
428.514	94.94
428.736	85.94
428.958	85.94
429.181	93.94
429.403	95.94
429.625	83.94
429.847	101.94
430.069	93.94
430.292	100.94
430.514	83.94
430.736	83.94
430.958	99.94
431.18	84.94
431.402	94.94
431.624	92.94
431.846	94.94
432.068	93.94
432.29	85.94
432.512	78.94
432.734	83.94
432.956	73.94
433.178	86.94
433.4	94.94
433.622	95.94
433.844	98.94
434.066	90.94
434.287	92.94
434.509	89.94
434.731	83.94
434.953	85.94
435.175	96.94
435.397	85.94
435.618	96.94
435.84	110.94
436.062	118.94
436.284	114.94
436.505	101.94
436.727	86.94
436.949	77.94
437.17	85.94
437.392	80.94
437.614	89.94
437.835	92.94
438.057	93.94
438.278	114.94
438.5	96.94
438.721	116.94
438.943	82.94
439.165	92.94
439.386	77.94
439.608	82.94
439.829	102.94
440.05	127.94
440.272	132.94
440.493	111.94
440.715	93.94
440.936	89.94
441.158	88.94
441.379	103.94
441.6	100.94
441.822	90.94
442.043	88.94
442.264	92.94
442.486	102.94
442.707	92.94
442.928	94.94
443.149	127.94
443.371	131.94
443.592	88.94
443.813	109.94
444.034	95.94
444.255	84.94
444.476	86.94
444.698	92.94
444.919	96.94
445.14	150.94
445.361	119.94
445.582	117.94
445.803	128.94
446.024	122.94
446.245	115.94
446.466	113.94
446.687	93.94
446.908	88.94
447.129	87.94
447.35	84.94
447.571	90.94
447.792	97.94
448.013	93.94
448.234	91.94
448.455	94.94
448.675	99.94
448.896	112.94
449.117	104.94
449.338	102.94
449.559	131.94
449.779	129.94
450	77.94
450.221	71.94
450.442	84.94
450.662	92.94
450.883	99.94
451.104	105.94
451.324	103.94
451.545	95.94
451.766	91.94
451.986	93.94
452.207	83.94
452.428	88.94
452.648	103.94
452.869	113.94
453.089	111.94
453.31	128.94
453.53	84.94
453.751	86.94
453.971	96.94
454.192	94.94
454.412	91.94
454.633	88.94
454.853	82.94
455.073	97.94
455.294	94.94
455.514	100.94
455.734	86.94
455.955	78.94
456.175	74.94
456.395	86.94
456.616	93.94
456.836	90.94
457.056	91.94
457.276	93.94
457.497	79.94
457.717	87.94
457.937	81.94
458.157	87.94
458.377	94.94
458.598	106.94
458.818	133.94
459.038	124.94
459.258	124.94
459.478	89.94
459.698	96.94
459.918	101.94
460.138	76.94
460.358	86.94
460.578	92.94
460.798	80.94
461.018	95.94
461.238	83.94
461.458	77.94
461.678	85.94
461.898	76.94
462.118	89.94
462.338	90.94
462.558	85.94
462.777	87.94
462.997	98.94
463.217	90.94
463.437	81.94
463.657	76.94
463.876	96.94
464.096	99.94
464.316	100.94
464.536	95.94
464.755	99.94
464.975	99.94
465.195	151.94
465.414	140.94
465.634	93.94
465.854	102.94
466.073	76.94
466.293	92.94
466.512	89.94
466.732	97.94
466.951	92.94
467.171	100.94
467.391	96.94
467.61	94.94
467.829	105.94
468.049	97.94
468.268	128.94
468.488	95.94
468.707	89.94
468.927	76.94
469.146	100.94
469.365	95.94
469.585	102.94
469.804	108.94
470.023	95.94
470.243	89.94
470.462	98.94
470.681	109.94
470.901	81.94
471.12	87.94
471.339	86.94
471.558	79.94
471.777	84.94
471.997	100.94
472.216	149.94
472.435	233.94
472.654	117.94
472.873	89.94
473.092	94.94
473.311	92.94
473.53	84.94
473.749	80.94
473.968	89.94
474.187	95.94
474.406	99.94
474.625	85.94
474.844	100.94
475.063	93.94
475.282	91.94
475.501	89.94
475.72	97.94
475.939	71.94
476.158	84.94
476.377	89.94
476.596	96.94
476.814	93.94
477.033	92.94
477.252	89.94
477.471	82.94
477.69	81.94
477.908	93.94
478.127	83.94
478.346	87.94
478.564	94.94
478.783	90.94
479.002	84.94
479.22	98.94
479.439	113.94
479.658	104.94
479.876	93.94
480.095	112.94
480.313	93.94
480.532	99.94
480.751	98.94
480.969	163.94
481.188	414.94
481.406	260.94
481.624	108.94
481.843	88.94
482.061	92.94
482.28	82.94
482.498	94.94
482.717	92.94
482.935	79.94
483.153	103.94
483.372	84.94
483.59	80.94
483.808	100.94
484.027	93.94
484.245	83.94
484.463	84.94
484.681	87.94
484.9	85.94
485.118	88.94
485.336	89.94
485.554	95.94
485.772	106.94
485.99	103.94
486.209	87.94
486.427	100.94
486.645	106.94
486.863	104.94
487.081	98.94
487.299	85.94
487.517	98.94
487.735	90.94
487.953	103.94
488.171	102.94
488.389	82.94
488.607	96.94
488.825	86.94
489.043	85.94
489.261	100.94
489.479	88.94
489.696	84.94
489.914	102.94
490.132	89.94
490.35	90.94
490.568	79.94
490.786	96.94
491.003	80.94
491.221	86.94
491.439	101.94
491.657	98.94
491.874	104.94
492.092	96.94
492.31	97.94
492.527	98.94
492.745	82.94
492.963	98.94
493.18	82.94
493.398	84.94
493.615	82.94
493.833	101.94
494.05	91.94
494.268	94.94
494.485	93.94
494.703	74.94
494.92	84.94
495.138	106.94
495.355	97.94
495.573	91.94
495.79	89.94
496.008	92.94
496.225	92.94
496.442	92.94
496.66	72.94
496.877	84.94
497.094	100.94
497.312	89.94
497.529	93.94
497.746	92.94
497.963	85.94
498.181	84.94
498.398	95.94
498.615	112.94
498.832	93.94
499.049	100.94
499.267	93.94
499.484	85.94
499.701	98.94
499.918	100.94
500.135	98.94
500.352	81.94
500.569	93.94
500.786	89.94
501.003	88.94
501.22	88.94
501.437	106.94
501.654	106.94
501.871	94.94
502.088	88.94
502.305	94.94
502.522	90.94
502.739	85.94
502.956	95.94
503.172	85.94
503.389	84.94
503.606	111.94
503.823	93.94
504.04	93.94
504.256	89.94
504.473	86.94
504.69	85.94
504.907	83.94
505.123	88.94
505.34	90.94
505.557	94.94
505.773	88.94
505.99	94.94
506.207	81.94
506.423	89.94
506.64	112.94
506.856	80.94
507.073	81.94
507.289	95.94
507.506	95.94
507.722	106.94
507.939	109.94
508.155	95.94
508.372	102.94
508.588	102.94
508.805	106.94
509.021	103.94
509.238	99.94
509.454	104.94
509.67	98.94
509.887	101.94
510.103	120.94
510.319	200.94
510.536	637.94
510.752	1911.94
510.968	536.94
511.184	140.94
511.401	100.94
511.617	79.94
511.833	88.94
512.049	100.94
512.265	84.94
512.481	87.94
512.698	79.94
512.914	89.94
513.13	107.94
513.346	91.94
513.562	92.94
513.778	94.94
513.994	92.94
514.21	92.94
514.426	114.94
514.642	131.94
514.858	112.94
515.074	129.94
515.29	378.94
515.506	1240.94
515.721	443.94
515.937	137.94
