Data from Uncirc_1989_H10_HRD10591_00021.txt Node
Date: Wed Jan 03 11:57:39 EST 2024
User: Yrep
Spectrometer: HR+D1059
Trigger mode: 1
Integration Time (sec): 1.000000E-1
Scans to average: 1
Electric dark correction enabled: true
Nonlinearity correction enabled: false
Boxcar width: 0
XAxis mode: Wavelengths
Number of Pixels in Spectrum: 2048
>>>>>Begin Spectral Data<<<<<
223.165	-24.94
223.4	-24.94
223.635	-24.94
223.869	-19.94
224.104	-8.94
224.338	-21.94
224.573	-14.94
224.808	-23.94
225.042	10.06
225.277	-14.94
225.511	-23.94
225.746	6.06
225.98	9.06
226.215	21.06
226.449	22.06
226.683	13.06
226.918	37.06
227.152	35.06
227.387	22.06
227.621	44.06
227.856	45.06
228.09	39.06
228.324	56.06
228.559	61.06
228.793	65.06
229.027	50.06
229.262	68.06
229.496	73.06
229.73	77.06
229.964	77.06
230.199	64.06
230.433	65.06
230.667	66.06
230.901	83.06
231.136	82.06
231.37	83.06
231.604	78.06
231.838	77.06
232.072	85.06
232.306	85.06
232.541	88.06
232.775	75.06
233.009	79.06
233.243	87.06
233.477	81.06
233.711	83.06
233.945	71.06
234.179	74.06
234.413	78.06
234.647	86.06
234.881	75.06
235.115	67.06
235.349	73.06
235.583	80.06
235.817	72.06
236.051	84.06
236.285	72.06
236.519	75.06
236.753	81.06
236.987	76.06
237.221	85.06
237.455	76.06
237.689	82.06
237.922	66.06
238.156	63.06
238.39	77.06
238.624	79.06
238.858	62.06
239.091	81.06
239.325	70.06
239.559	71.06
239.793	84.06
240.027	98.06
240.26	58.06
240.494	62.06
240.728	84.06
240.961	72.06
241.195	72.06
241.429	89.06
241.662	76.06
241.896	85.06
242.13	72.06
242.363	88.06
242.597	73.06
242.83	74.06
243.064	72.06
243.298	89.06
243.531	71.06
243.765	79.06
243.998	75.06
244.232	77.06
244.465	85.06
244.699	66.06
244.932	77.06
245.166	71.06
245.399	87.06
245.633	83.06
245.866	88.06
246.099	60.06
246.333	65.06
246.566	87.06
246.8	72.06
247.033	69.06
247.266	73.06
247.5	83.06
247.733	69.06
247.966	93.06
248.2	90.06
248.433	78.06
248.666	71.06
248.899	77.06
249.133	90.06
249.366	86.06
249.599	87.06
249.832	71.06
250.066	89.06
250.299	63.06
250.532	71.06
250.765	95.06
250.998	73.06
251.231	70.06
251.465	84.06
251.698	70.06
251.931	81.06
252.164	77.06
252.397	82.06
252.63	89.06
252.863	82.06
253.096	78.06
253.329	78.06
253.562	64.06
253.795	77.06
254.028	93.06
254.261	75.06
254.494	72.06
254.727	97.06
254.96	79.06
255.193	77.06
255.426	80.06
255.659	71.06
255.892	89.06
256.124	80.06
256.357	78.06
256.59	79.06
256.823	69.06
257.056	92.06
257.289	76.06
257.521	80.06
257.754	88.06
257.987	79.06
258.22	77.06
258.452	95.06
258.685	67.06
258.918	69.06
259.151	76.06
259.383	70.06
259.616	82.06
259.849	96.06
260.081	78.06
260.314	102.06
260.547	74.06
260.779	90.06
261.012	84.06
261.244	90.06
261.477	72.06
261.71	79.06
261.942	98.06
262.175	115.06
262.407	91.06
262.64	92.06
262.872	76.06
263.105	94.06
263.337	86.06
263.57	93.06
263.802	93.06
264.035	89.06
264.267	85.06
264.499	78.06
264.732	90.06
264.964	79.06
265.197	84.06
265.429	67.06
265.661	68.06
265.894	77.06
266.126	85.06
266.358	79.06
266.591	79.06
266.823	70.06
267.055	87.06
267.287	88.06
267.52	80.06
267.752	85.06
267.984	81.06
268.216	86.06
268.448	93.06
268.681	81.06
268.913	89.06
269.145	84.06
269.377	92.06
269.609	97.06
269.841	75.06
270.073	78.06
270.306	72.06
270.538	83.06
270.77	87.06
271.002	89.06
271.234	81.06
271.466	85.06
271.698	83.06
271.93	87.06
272.162	86.06
272.394	81.06
272.626	85.06
272.858	78.06
273.09	89.06
273.322	99.06
273.553	78.06
273.785	86.06
274.017	79.06
274.249	95.06
274.481	84.06
274.713	86.06
274.945	84.06
275.176	88.06
275.408	82.06
275.64	90.06
275.872	87.06
276.104	97.06
276.335	85.06
276.567	107.06
276.799	95.06
277.031	107.06
277.262	91.06
277.494	88.06
277.726	81.06
277.957	97.06
278.189	76.06
278.421	66.06
278.652	95.06
278.884	68.06
279.115	83.06
279.347	102.06
279.579	77.06
279.81	79.06
280.042	88.06
280.273	91.06
280.505	83.06
280.736	83.06
280.968	85.06
281.199	69.06
281.431	85.06
281.662	82.06
281.894	96.06
282.125	104.06
282.356	104.06
282.588	134.06
282.819	99.06
283.051	101.06
283.282	83.06
283.513	85.06
283.745	90.06
283.976	95.06
284.207	71.06
284.439	98.06
284.67	82.06
284.901	91.06
285.132	73.06
285.364	87.06
285.595	76.06
285.826	91.06
286.057	103.06
286.288	93.06
286.52	80.06
286.751	96.06
286.982	100.06
287.213	86.06
287.444	85.06
287.675	87.06
287.906	91.06
288.138	87.06
288.369	87.06
288.6	96.06
288.831	79.06
289.062	91.06
289.293	71.06
289.524	95.06
289.755	85.06
289.986	96.06
290.217	90.06
290.448	81.06
290.679	84.06
290.91	97.06
291.141	79.06
291.371	92.06
291.602	103.06
291.833	92.06
292.064	90.06
292.295	78.06
292.526	80.06
292.757	84.06
292.987	77.06
293.218	81.06
293.449	96.06
293.68	88.06
293.91	76.06
294.141	95.06
294.372	81.06
294.603	91.06
294.833	87.06
295.064	93.06
295.295	91.06
295.525	92.06
295.756	108.06
295.987	114.06
296.217	122.06
296.448	124.06
296.679	80.06
296.909	85.06
297.14	96.06
297.37	100.06
297.601	91.06
297.831	98.06
298.062	95.06
298.292	92.06
298.523	79.06
298.753	87.06
298.984	93.06
299.214	93.06
299.445	92.06
299.675	69.06
299.905	104.06
300.136	89.06
300.366	94.06
300.597	91.06
300.827	94.06
301.057	100.06
301.288	92.06
301.518	83.06
301.748	86.06
301.979	108.06
302.209	87.06
302.439	90.06
302.669	89.06
302.9	93.06
303.13	90.06
303.36	91.06
303.59	97.06
303.82	99.06
304.051	111.06
304.281	89.06
304.511	82.06
304.741	106.06
304.971	82.06
305.201	79.06
305.431	75.06
305.661	71.06
305.891	88.06
306.121	79.06
306.352	93.06
306.582	80.06
306.812	93.06
307.042	85.06
307.272	99.06
307.502	96.06
307.731	95.06
307.961	78.06
308.191	83.06
308.421	92.06
308.651	101.06
308.881	77.06
309.111	103.06
309.341	93.06
309.571	87.06
309.8	91.06
310.03	97.06
310.26	102.06
310.49	76.06
310.72	96.06
310.949	89.06
311.179	101.06
311.409	100.06
311.639	78.06
311.868	85.06
312.098	83.06
312.328	99.06
312.557	97.06
312.787	109.06
313.017	98.06
313.246	95.06
313.476	100.06
313.706	79.06
313.935	93.06
314.165	86.06
314.394	99.06
314.624	77.06
314.853	87.06
315.083	95.06
315.312	85.06
315.542	105.06
315.771	78.06
316.001	100.06
316.23	105.06
316.46	84.06
316.689	93.06
316.919	81.06
317.148	93.06
317.377	97.06
317.607	101.06
317.836	82.06
318.065	90.06
318.295	95.06
318.524	101.06
318.753	96.06
318.983	94.06
319.212	89.06
319.441	104.06
319.67	105.06
319.9	92.06
320.129	94.06
320.358	87.06
320.587	85.06
320.816	99.06
321.046	101.06
321.275	87.06
321.504	84.06
321.733	93.06
321.962	93.06
322.191	98.06
322.42	99.06
322.649	100.06
322.878	121.06
323.108	94.06
323.337	118.06
323.566	121.06
323.795	127.06
324.024	183.06
324.253	330.06
324.482	673.06
324.71	1385.06
324.939	1771.06
325.168	672.06
325.397	193.06
325.626	132.06
325.855	129.06
326.084	128.06
326.313	130.06
326.542	143.06
326.77	203.06
326.999	379.06
327.228	783.06
327.457	1420.06
327.686	1115.06
327.914	323.06
328.143	172.06
328.372	155.06
328.6	121.06
328.829	112.06
329.058	118.06
329.287	111.06
329.515	106.06
329.744	87.06
329.972	104.06
330.201	116.06
330.43	144.06
330.658	123.06
330.887	121.06
331.115	92.06
331.344	103.06
331.572	91.06
331.801	98.06
332.03	111.06
332.258	102.06
332.486	96.06
332.715	94.06
332.943	80.06
333.172	106.06
333.4	87.06
333.629	104.06
333.857	116.06
334.085	120.06
334.314	134.06
334.542	150.06
334.771	143.06
334.999	94.06
335.227	109.06
335.455	114.06
335.684	105.06
335.912	105.06
336.14	106.06
336.369	93.06
336.597	91.06
336.825	82.06
337.053	111.06
337.281	102.06
337.51	102.06
337.738	100.06
337.966	80.06
338.194	96.06
338.422	74.06
338.65	89.06
338.878	94.06
339.106	77.06
339.334	98.06
339.562	103.06
339.79	97.06
340.018	92.06
340.246	97.06
340.474	89.06
340.702	92.06
340.93	83.06
341.158	92.06
341.386	85.06
341.614	92.06
341.842	94.06
342.07	88.06
342.298	86.06
342.526	74.06
342.754	88.06
342.981	82.06
343.209	73.06
343.437	100.06
343.665	93.06
343.893	83.06
344.12	74.06
344.348	96.06
344.576	87.06
344.804	89.06
345.031	79.06
345.259	100.06
345.487	83.06
345.714	91.06
345.942	95.06
346.17	99.06
346.397	87.06
346.625	100.06
346.853	74.06
347.08	89.06
347.308	93.06
347.535	107.06
347.763	83.06
347.99	86.06
348.218	114.06
348.445	116.06
348.673	89.06
348.9	100.06
349.128	96.06
349.355	92.06
349.583	87.06
349.81	79.06
350.037	89.06
350.265	87.06
350.492	109.06
350.72	101.06
350.947	87.06
351.174	105.06
351.402	108.06
351.629	103.06
351.856	98.06
352.083	93.06
352.311	105.06
352.538	96.06
352.765	101.06
352.992	115.06
353.22	95.06
353.447	101.06
353.674	94.06
353.901	102.06
354.128	88.06
354.355	96.06
354.583	89.06
354.81	86.06
355.037	91.06
355.264	105.06
355.491	87.06
355.718	89.06
355.945	85.06
356.172	88.06
356.399	105.06
356.626	94.06
356.853	83.06
357.08	82.06
357.307	95.06
357.534	106.06
357.761	91.06
357.988	96.06
358.215	97.06
358.441	85.06
358.668	85.06
358.895	89.06
359.122	81.06
359.349	89.06
359.576	81.06
359.802	100.06
360.029	104.06
360.256	112.06
360.483	98.06
360.709	97.06
360.936	78.06
361.163	97.06
361.39	97.06
361.616	110.06
361.843	105.06
362.07	91.06
362.296	96.06
362.523	89.06
362.749	84.06
362.976	83.06
363.203	85.06
363.429	85.06
363.656	83.06
363.882	87.06
364.109	90.06
364.335	97.06
364.562	90.06
364.788	94.06
365.015	90.06
365.241	95.06
365.468	115.06
365.694	102.06
365.92	93.06
366.147	95.06
366.373	78.06
366.599	88.06
366.826	83.06
367.052	87.06
367.278	91.06
367.505	98.06
367.731	101.06
367.957	92.06
368.184	85.06
368.41	91.06
368.636	104.06
368.862	104.06
369.089	111.06
369.315	85.06
369.541	95.06
369.767	92.06
369.993	93.06
370.219	85.06
370.445	74.06
370.672	83.06
370.898	85.06
371.124	89.06
371.35	93.06
371.576	73.06
371.802	88.06
372.028	78.06
372.254	93.06
372.48	85.06
372.706	78.06
372.932	79.06
373.158	87.06
373.384	105.06
373.61	86.06
373.835	87.06
374.061	83.06
374.287	90.06
374.513	101.06
374.739	93.06
374.965	83.06
375.191	95.06
375.416	92.06
375.642	81.06
375.868	89.06
376.094	95.06
376.319	81.06
376.545	78.06
376.771	83.06
376.997	93.06
377.222	82.06
377.448	96.06
377.674	93.06
377.899	92.06
378.125	89.06
378.35	80.06
378.576	81.06
378.802	97.06
379.027	91.06
379.253	90.06
379.478	88.06
379.704	92.06
379.929	99.06
380.155	107.06
380.38	93.06
380.606	78.06
380.831	96.06
381.057	101.06
381.282	90.06
381.507	100.06
381.733	86.06
381.958	81.06
382.184	100.06
382.409	81.06
382.634	92.06
382.86	103.06
383.085	93.06
383.31	109.06
383.535	99.06
383.761	96.06
383.986	102.06
384.211	86.06
384.436	91.06
384.662	86.06
384.887	103.06
385.112	102.06
385.337	97.06
385.562	117.06
385.787	100.06
386.013	107.06
386.238	111.06
386.463	96.06
386.688	104.06
386.913	96.06
387.138	111.06
387.363	89.06
387.588	101.06
387.813	101.06
388.038	104.06
388.263	108.06
388.488	99.06
388.713	94.06
388.938	105.06
389.163	94.06
389.387	106.06
389.612	87.06
389.837	85.06
390.062	92.06
390.287	82.06
390.512	94.06
390.736	85.06
390.961	93.06
391.186	103.06
391.411	108.06
391.636	106.06
391.86	84.06
392.085	81.06
392.31	87.06
392.534	98.06
392.759	88.06
392.984	88.06
393.208	102.06
393.433	131.06
393.658	139.06
393.882	86.06
394.107	91.06
394.331	70.06
394.556	85.06
394.78	96.06
395.005	77.06
395.229	91.06
395.454	95.06
395.678	89.06
395.903	90.06
396.127	80.06
396.352	88.06
396.576	81.06
396.801	103.06
397.025	122.06
397.249	92.06
397.474	93.06
397.698	89.06
397.922	97.06
398.147	76.06
398.371	87.06
398.595	89.06
398.82	87.06
399.044	89.06
399.268	96.06
399.492	92.06
399.717	85.06
399.941	95.06
400.165	87.06
400.389	82.06
400.613	78.06
400.837	77.06
401.062	99.06
401.286	86.06
401.51	93.06
401.734	86.06
401.958	85.06
402.182	134.06
402.406	161.06
402.63	111.06
402.854	93.06
403.078	80.06
403.302	92.06
403.526	92.06
403.75	93.06
403.974	94.06
404.198	93.06
404.422	85.06
404.645	96.06
404.869	83.06
405.093	86.06
405.317	97.06
405.541	99.06
405.765	99.06
405.988	114.06
406.212	157.06
406.436	179.06
406.66	135.06
406.883	95.06
407.107	99.06
407.331	107.06
407.555	103.06
407.778	88.06
408.002	84.06
408.226	101.06
408.449	96.06
408.673	97.06
408.896	99.06
409.12	96.06
409.344	94.06
409.567	95.06
409.791	84.06
410.014	88.06
410.238	75.06
410.461	72.06
410.685	77.06
410.908	91.06
411.132	102.06
411.355	98.06
411.578	83.06
411.802	77.06
412.025	80.06
412.249	81.06
412.472	76.06
412.695	101.06
412.919	94.06
413.142	93.06
413.365	91.06
413.589	93.06
413.812	97.06
414.035	92.06
414.258	83.06
414.482	106.06
414.705	86.06
414.928	91.06
415.151	89.06
415.374	79.06
415.597	91.06
415.821	93.06
416.044	79.06
416.267	84.06
416.49	75.06
416.713	86.06
416.936	85.06
417.159	91.06
417.382	93.06
417.605	89.06
417.828	96.06
418.051	80.06
418.274	88.06
418.497	90.06
418.72	78.06
418.943	88.06
419.166	79.06
419.389	95.06
419.611	87.06
419.834	86.06
420.057	88.06
420.28	85.06
420.503	82.06
420.726	69.06
420.948	95.06
421.171	87.06
421.394	84.06
421.617	89.06
421.839	77.06
422.062	97.06
422.285	87.06
422.507	88.06
422.73	95.06
422.953	96.06
423.175	91.06
423.398	89.06
423.621	87.06
423.843	103.06
424.066	69.06
424.288	63.06
424.511	86.06
424.733	98.06
424.956	98.06
425.178	102.06
425.401	93.06
425.623	88.06
425.846	94.06
426.068	92.06
426.291	86.06
426.513	84.06
426.735	87.06
426.958	83.06
427.18	95.06
427.402	122.06
427.625	144.06
427.847	107.06
428.069	110.06
428.292	82.06
428.514	61.06
428.736	85.06
428.958	78.06
429.181	79.06
429.403	87.06
429.625	75.06
429.847	96.06
430.069	85.06
430.292	89.06
430.514	79.06
430.736	89.06
430.958	73.06
431.18	92.06
431.402	93.06
431.624	83.06
431.846	67.06
432.068	83.06
432.29	100.06
432.512	86.06
432.734	99.06
432.956	85.06
433.178	92.06
433.4	71.06
433.622	88.06
433.844	95.06
434.066	86.06
434.287	81.06
434.509	91.06
434.731	86.06
434.953	101.06
435.175	84.06
435.397	86.06
435.618	92.06
435.84	93.06
436.062	97.06
436.284	108.06
436.505	104.06
436.727	100.06
436.949	75.06
437.17	111.06
437.392	79.06
437.614	79.06
437.835	101.06
438.057	101.06
438.278	96.06
438.5	110.06
438.721	119.06
438.943	92.06
439.165	87.06
439.386	69.06
439.608	87.06
439.829	102.06
440.05	117.06
440.272	131.06
440.493	111.06
440.715	102.06
440.936	73.06
441.158	100.06
441.379	80.06
441.6	89.06
441.822	92.06
442.043	97.06
442.264	95.06
442.486	95.06
442.707	89.06
442.928	93.06
443.149	93.06
443.371	107.06
443.592	86.06
443.813	88.06
444.034	108.06
444.255	112.06
444.476	93.06
444.698	91.06
444.919	86.06
445.14	135.06
445.361	111.06
445.582	102.06
445.803	125.06
446.024	118.06
446.245	124.06
446.466	99.06
446.687	75.06
446.908	91.06
447.129	80.06
447.35	83.06
447.571	94.06
447.792	80.06
448.013	95.06
448.234	105.06
448.455	95.06
448.675	108.06
448.896	107.06
449.117	92.06
449.338	103.06
449.559	108.06
449.779	117.06
450	88.06
450.221	82.06
450.442	89.06
450.662	91.06
450.883	89.06
451.104	106.06
451.324	82.06
451.545	102.06
451.766	86.06
451.986	78.06
452.207	100.06
452.428	87.06
452.648	95.06
452.869	109.06
453.089	100.06
453.31	102.06
453.53	76.06
453.751	88.06
453.971	101.06
454.192	92.06
454.412	84.06
454.633	102.06
454.853	80.06
455.073	82.06
455.294	91.06
455.514	101.06
455.734	87.06
455.955	105.06
456.175	75.06
456.395	77.06
456.616	101.06
456.836	92.06
457.056	77.06
457.276	84.06
457.497	89.06
457.717	63.06
457.937	91.06
458.157	99.06
458.377	91.06
458.598	101.06
458.818	140.06
459.038	136.06
459.258	110.06
459.478	83.06
459.698	80.06
459.918	88.06
460.138	79.06
460.358	92.06
460.578	81.06
460.798	95.06
461.018	81.06
461.238	84.06
461.458	84.06
461.678	81.06
461.898	75.06
462.118	75.06
462.338	83.06
462.558	86.06
462.777	80.06
462.997	97.06
463.217	86.06
463.437	85.06
463.657	79.06
463.876	87.06
464.096	87.06
464.316	92.06
464.536	84.06
464.755	91.06
464.975	104.06
465.195	132.06
465.414	153.06
465.634	89.06
465.854	87.06
466.073	100.06
466.293	90.06
466.512	89.06
466.732	87.06
466.951	79.06
467.171	100.06
467.391	96.06
467.61	94.06
467.829	87.06
468.049	104.06
468.268	109.06
468.488	85.06
468.707	95.06
468.927	79.06
469.146	77.06
469.365	97.06
469.585	83.06
469.804	103.06
470.023	100.06
470.243	83.06
470.462	79.06
470.681	93.06
470.901	89.06
471.12	77.06
471.339	107.06
471.558	97.06
471.777	86.06
471.997	100.06
472.216	127.06
472.435	166.06
472.654	103.06
472.873	84.06
473.092	89.06
473.311	89.06
473.53	78.06
473.749	96.06
473.968	91.06
474.187	79.06
474.406	86.06
474.625	74.06
474.844	73.06
475.063	95.06
475.282	81.06
475.501	89.06
475.72	90.06
475.939	92.06
476.158	101.06
476.377	86.06
476.596	90.06
476.814	92.06
477.033	86.06
477.252	97.06
477.471	97.06
477.69	70.06
477.908	91.06
478.127	83.06
478.346	78.06
478.564	79.06
478.783	104.06
479.002	91.06
479.22	84.06
479.439	95.06
479.658	102.06
479.876	82.06
480.095	101.06
480.313	94.06
480.532	97.06
480.751	102.06
480.969	127.06
481.188	268.06
481.406	188.06
481.624	85.06
481.843	100.06
482.061	94.06
482.28	81.06
482.498	85.06
482.717	79.06
482.935	99.06
483.153	94.06
483.372	80.06
483.59	90.06
483.808	80.06
484.027	79.06
484.245	78.06
484.463	83.06
484.681	92.06
484.9	85.06
485.118	88.06
485.336	105.06
485.554	92.06
485.772	88.06
485.99	93.06
486.209	107.06
486.427	100.06
486.645	99.06
486.863	90.06
487.081	94.06
487.299	80.06
487.517	88.06
487.735	80.06
487.953	96.06
488.171	93.06
488.389	95.06
488.607	107.06
488.825	73.06
489.043	97.06
489.261	90.06
489.479	90.06
489.696	81.06
489.914	85.06
490.132	101.06
490.35	85.06
490.568	90.06
490.786	90.06
491.003	90.06
491.221	96.06
491.439	85.06
491.657	81.06
491.874	85.06
492.092	83.06
492.31	85.06
492.527	84.06
492.745	90.06
492.963	89.06
493.18	95.06
493.398	76.06
493.615	86.06
493.833	101.06
494.05	97.06
494.268	91.06
494.485	91.06
494.703	83.06
494.92	75.06
495.138	90.06
495.355	93.06
495.573	94.06
495.79	102.06
496.008	80.06
496.225	87.06
496.442	90.06
496.66	86.06
496.877	80.06
497.094	80.06
497.312	96.06
497.529	81.06
497.746	95.06
497.963	75.06
498.181	85.06
498.398	83.06
498.615	100.06
498.832	102.06
499.049	88.06
499.267	104.06
499.484	85.06
499.701	97.06
499.918	87.06
500.135	83.06
500.352	87.06
500.569	94.06
500.786	87.06
501.003	83.06
501.22	81.06
501.437	87.06
501.654	94.06
501.871	98.06
502.088	95.06
502.305	97.06
502.522	86.06
502.739	85.06
502.956	89.06
503.172	94.06
503.389	105.06
503.606	96.06
503.823	77.06
504.04	100.06
504.256	102.06
504.473	95.06
504.69	101.06
504.907	93.06
505.123	87.06
505.34	86.06
505.557	107.06
505.773	111.06
505.99	81.06
506.207	95.06
506.423	97.06
506.64	87.06
506.856	107.06
507.073	95.06
507.289	106.06
507.506	89.06
507.722	109.06
507.939	101.06
508.155	89.06
508.372	89.06
508.588	92.06
508.805	72.06
509.021	109.06
509.238	96.06
509.454	93.06
509.67	84.06
509.887	99.06
510.103	111.06
510.319	205.06
510.536	620.06
510.752	1961.06
510.968	543.06
511.184	143.06
511.401	100.06
511.617	97.06
511.833	85.06
512.049	87.06
512.265	91.06
512.481	80.06
512.698	85.06
512.914	92.06
513.13	83.06
513.346	91.06
513.562	81.06
513.778	104.06
513.994	80.06
514.21	104.06
514.426	101.06
514.642	118.06
514.858	105.06
515.074	167.06
515.29	415.06
515.506	1221.06
515.721	461.06
515.937	132.06
516.153	91.06
