Data from Uncirc_1989_H10_HRD10591_00070.txt Node
Date: Wed Jan 03 11:57:49 EST 2024
User: Yrep
Spectrometer: HR+D1059
Trigger mode: 1
Integration Time (sec): 1.000000E-1
Scans to average: 1
Electric dark correction enabled: true
Nonlinearity correction enabled: false
Boxcar width: 0
XAxis mode: Wavelengths
Number of Pixels in Spectrum: 2048
>>>>>Begin Spectral Data<<<<<
223.165	-21.88
223.4	-21.88
223.635	-21.88
223.869	-18.88
224.104	-15.88
224.338	-9.88
224.573	-5.88
224.808	-9.88
225.042	-16.88
225.277	-7.88
225.511	-6.88
225.746	9.12
225.98	16.12
226.215	6.12
226.449	17.12
226.683	20.12
226.918	23.12
227.152	22.12
227.387	33.12
227.621	41.12
227.856	58.12
228.09	48.12
228.324	52.12
228.559	65.12
228.793	52.12
229.027	56.12
229.262	78.12
229.496	76.12
229.73	79.12
229.964	77.12
230.199	66.12
230.433	57.12
230.667	51.12
230.901	70.12
231.136	84.12
231.37	85.12
231.604	84.12
231.838	64.12
232.072	69.12
232.306	87.12
232.541	80.12
232.775	77.12
233.009	81.12
233.243	81.12
233.477	90.12
233.711	93.12
233.945	82.12
234.179	75.12
234.413	68.12
234.647	83.12
234.881	73.12
235.115	91.12
235.349	84.12
235.583	87.12
235.817	81.12
236.051	78.12
236.285	73.12
236.519	79.12
236.753	91.12
236.987	86.12
237.221	80.12
237.455	84.12
237.689	80.12
237.922	76.12
238.156	70.12
238.39	83.12
238.624	76.12
238.858	68.12
239.091	64.12
239.325	80.12
239.559	72.12
239.793	69.12
240.027	92.12
240.26	82.12
240.494	86.12
240.728	85.12
240.961	81.12
241.195	79.12
241.429	80.12
241.662	81.12
241.896	68.12
242.13	80.12
242.363	72.12
242.597	71.12
242.83	74.12
243.064	84.12
243.298	77.12
243.531	76.12
243.765	72.12
243.998	81.12
244.232	93.12
244.465	84.12
244.699	76.12
244.932	78.12
245.166	61.12
245.399	93.12
245.633	83.12
245.866	73.12
246.099	87.12
246.333	86.12
246.566	87.12
246.8	76.12
247.033	85.12
247.266	80.12
247.5	76.12
247.733	94.12
247.966	73.12
248.2	80.12
248.433	88.12
248.666	86.12
248.899	85.12
249.133	73.12
249.366	86.12
249.599	91.12
249.832	107.12
250.066	63.12
250.299	67.12
250.532	78.12
250.765	82.12
250.998	88.12
251.231	65.12
251.465	84.12
251.698	78.12
251.931	66.12
252.164	79.12
252.397	70.12
252.63	97.12
252.863	69.12
253.096	72.12
253.329	88.12
253.562	66.12
253.795	79.12
254.028	92.12
254.261	99.12
254.494	88.12
254.727	92.12
254.96	79.12
255.193	79.12
255.426	82.12
255.659	99.12
255.892	69.12
256.124	86.12
256.357	87.12
256.59	90.12
256.823	76.12
257.056	89.12
257.289	86.12
257.521	81.12
257.754	79.12
257.987	92.12
258.22	76.12
258.452	79.12
258.685	92.12
258.918	87.12
259.151	81.12
259.383	78.12
259.616	78.12
259.849	74.12
260.081	85.12
260.314	78.12
260.547	81.12
260.779	80.12
261.012	90.12
261.244	73.12
261.477	88.12
261.71	77.12
261.942	111.12
262.175	97.12
262.407	89.12
262.64	89.12
262.872	81.12
263.105	77.12
263.337	80.12
263.57	78.12
263.802	60.12
264.035	87.12
264.267	84.12
264.499	73.12
264.732	88.12
264.964	74.12
265.197	76.12
265.429	96.12
265.661	92.12
265.894	86.12
266.126	86.12
266.358	89.12
266.591	83.12
266.823	83.12
267.055	81.12
267.287	76.12
267.52	81.12
267.752	85.12
267.984	91.12
268.216	86.12
268.448	95.12
268.681	82.12
268.913	86.12
269.145	74.12
269.377	78.12
269.609	87.12
269.841	82.12
270.073	81.12
270.306	85.12
270.538	85.12
270.77	91.12
271.002	86.12
271.234	88.12
271.466	79.12
271.698	72.12
271.93	73.12
272.162	86.12
272.394	78.12
272.626	79.12
272.858	86.12
273.09	73.12
273.322	73.12
273.553	84.12
273.785	78.12
274.017	87.12
274.249	94.12
274.481	83.12
274.713	87.12
274.945	88.12
275.176	83.12
275.408	89.12
275.64	93.12
275.872	89.12
276.104	93.12
276.335	83.12
276.567	85.12
276.799	93.12
277.031	100.12
277.262	83.12
277.494	76.12
277.726	89.12
277.957	85.12
278.189	73.12
278.421	69.12
278.652	92.12
278.884	86.12
279.115	81.12
279.347	78.12
279.579	80.12
279.81	81.12
280.042	101.12
280.273	101.12
280.505	97.12
280.736	81.12
280.968	71.12
281.199	100.12
281.431	88.12
281.662	104.12
281.894	97.12
282.125	85.12
282.356	101.12
282.588	123.12
282.819	104.12
283.051	87.12
283.282	95.12
283.513	80.12
283.745	86.12
283.976	87.12
284.207	88.12
284.439	94.12
284.67	96.12
284.901	88.12
285.132	80.12
285.364	80.12
285.595	82.12
285.826	98.12
286.057	94.12
286.288	75.12
286.52	90.12
286.751	80.12
286.982	84.12
287.213	90.12
287.444	93.12
287.675	88.12
287.906	100.12
288.138	77.12
288.369	101.12
288.6	82.12
288.831	96.12
289.062	98.12
289.293	87.12
289.524	85.12
289.755	81.12
289.986	89.12
290.217	93.12
290.448	85.12
290.679	112.12
290.91	85.12
291.141	88.12
291.371	86.12
291.602	89.12
291.833	89.12
292.064	82.12
292.295	89.12
292.526	85.12
292.757	81.12
292.987	102.12
293.218	92.12
293.449	90.12
293.68	86.12
293.91	95.12
294.141	97.12
294.372	85.12
294.603	102.12
294.833	94.12
295.064	93.12
295.295	90.12
295.525	110.12
295.756	108.12
295.987	112.12
296.217	122.12
296.448	103.12
296.679	93.12
296.909	88.12
297.14	86.12
297.37	95.12
297.601	74.12
297.831	83.12
298.062	86.12
298.292	94.12
298.523	79.12
298.753	94.12
298.984	85.12
299.214	94.12
299.445	78.12
299.675	87.12
299.905	80.12
300.136	85.12
300.366	98.12
300.597	92.12
300.827	96.12
301.057	82.12
301.288	102.12
301.518	98.12
301.748	87.12
301.979	100.12
302.209	90.12
302.439	96.12
302.669	93.12
302.9	86.12
303.13	82.12
303.36	83.12
303.59	101.12
303.82	87.12
304.051	100.12
304.281	93.12
304.511	88.12
304.741	71.12
304.971	73.12
305.201	84.12
305.431	74.12
305.661	86.12
305.891	93.12
306.121	120.12
306.352	92.12
306.582	97.12
306.812	94.12
307.042	87.12
307.272	102.12
307.502	90.12
307.731	84.12
307.961	91.12
308.191	82.12
308.421	88.12
308.651	92.12
308.881	104.12
309.111	98.12
309.341	79.12
309.571	115.12
309.8	105.12
310.03	96.12
310.26	99.12
310.49	91.12
310.72	102.12
310.949	111.12
311.179	104.12
311.409	89.12
311.639	98.12
311.868	89.12
312.098	99.12
312.328	96.12
312.557	96.12
312.787	94.12
313.017	116.12
313.246	77.12
313.476	84.12
313.706	94.12
313.935	84.12
314.165	94.12
314.394	107.12
314.624	93.12
314.853	101.12
315.083	82.12
315.312	103.12
315.542	97.12
315.771	102.12
316.001	84.12
316.23	85.12
316.46	95.12
316.689	89.12
316.919	78.12
317.148	106.12
317.377	107.12
317.607	81.12
317.836	98.12
318.065	104.12
318.295	90.12
318.524	105.12
318.753	103.12
318.983	76.12
319.212	116.12
319.441	109.12
319.67	97.12
319.9	100.12
320.129	100.12
320.358	90.12
320.587	95.12
320.816	98.12
321.046	106.12
321.275	100.12
321.504	98.12
321.733	96.12
321.962	100.12
322.191	82.12
322.42	105.12
322.649	114.12
322.878	112.12
323.108	106.12
323.337	111.12
323.566	130.12
323.795	151.12
324.024	176.12
324.253	332.12
324.482	691.12
324.71	1423.12
324.939	1909.12
325.168	700.12
325.397	223.12
325.626	137.12
325.855	118.12
326.084	115.12
326.313	126.12
326.542	133.12
326.77	197.12
326.999	398.12
327.228	836.12
327.457	1503.12
327.686	1196.12
327.914	342.12
328.143	197.12
328.372	172.12
328.6	127.12
328.829	112.12
329.058	115.12
329.287	124.12
329.515	109.12
329.744	117.12
329.972	144.12
330.201	182.12
330.43	226.12
330.658	148.12
330.887	128.12
331.115	118.12
331.344	87.12
331.572	93.12
331.801	104.12
332.03	118.12
332.258	81.12
332.486	96.12
332.715	89.12
332.943	92.12
333.172	92.12
333.4	98.12
333.629	109.12
333.857	119.12
334.085	137.12
334.314	198.12
334.542	288.12
334.771	233.12
334.999	133.12
335.227	102.12
335.455	104.12
335.684	98.12
335.912	89.12
336.14	100.12
336.369	87.12
336.597	97.12
336.825	104.12
337.053	100.12
337.281	88.12
337.51	89.12
337.738	87.12
337.966	81.12
338.194	84.12
338.422	100.12
338.65	101.12
338.878	117.12
339.106	92.12
339.334	87.12
339.562	98.12
339.79	83.12
340.018	72.12
340.246	89.12
340.474	93.12
340.702	98.12
340.93	85.12
341.158	88.12
341.386	88.12
341.614	89.12
341.842	92.12
342.07	86.12
342.298	88.12
342.526	81.12
342.754	97.12
342.981	81.12
343.209	91.12
343.437	104.12
343.665	85.12
343.893	85.12
344.12	80.12
344.348	95.12
344.576	93.12
344.804	102.12
345.031	100.12
345.259	98.12
345.487	98.12
345.714	89.12
345.942	100.12
346.17	72.12
346.397	103.12
346.625	87.12
346.853	85.12
347.08	91.12
347.308	103.12
347.535	94.12
347.763	110.12
347.99	96.12
348.218	88.12
348.445	104.12
348.673	99.12
348.9	100.12
349.128	102.12
349.355	91.12
349.583	90.12
349.81	100.12
350.037	84.12
350.265	93.12
350.492	88.12
350.72	96.12
350.947	90.12
351.174	104.12
351.402	112.12
351.629	96.12
351.856	103.12
352.083	87.12
352.311	98.12
352.538	103.12
352.765	104.12
352.992	122.12
353.22	109.12
353.447	104.12
353.674	102.12
353.901	103.12
354.128	92.12
354.355	98.12
354.583	116.12
354.81	80.12
355.037	112.12
355.264	100.12
355.491	85.12
355.718	77.12
355.945	89.12
356.172	93.12
356.399	95.12
356.626	100.12
356.853	97.12
357.08	97.12
357.307	94.12
357.534	82.12
357.761	87.12
357.988	94.12
358.215	100.12
358.441	91.12
358.668	89.12
358.895	95.12
359.122	104.12
359.349	92.12
359.576	86.12
359.802	107.12
360.029	93.12
360.256	95.12
360.483	88.12
360.709	86.12
360.936	103.12
361.163	100.12
361.39	87.12
361.616	88.12
361.843	93.12
362.07	86.12
362.296	101.12
362.523	99.12
362.749	106.12
362.976	102.12
363.203	93.12
363.429	85.12
363.656	79.12
363.882	95.12
364.109	83.12
364.335	95.12
364.562	87.12
364.788	93.12
365.015	101.12
365.241	100.12
365.468	102.12
365.694	90.12
365.92	96.12
366.147	74.12
366.373	76.12
366.599	88.12
366.826	97.12
367.052	92.12
367.278	98.12
367.505	97.12
367.731	96.12
367.957	92.12
368.184	101.12
368.41	101.12
368.636	101.12
368.862	118.12
369.089	117.12
369.315	93.12
369.541	104.12
369.767	80.12
369.993	93.12
370.219	82.12
370.445	98.12
370.672	93.12
370.898	104.12
371.124	103.12
371.35	88.12
371.576	86.12
371.802	83.12
372.028	81.12
372.254	80.12
372.48	88.12
372.706	93.12
372.932	83.12
373.158	80.12
373.384	93.12
373.61	90.12
373.835	90.12
374.061	93.12
374.287	80.12
374.513	85.12
374.739	90.12
374.965	92.12
375.191	82.12
375.416	90.12
375.642	94.12
375.868	80.12
376.094	97.12
376.319	80.12
376.545	88.12
376.771	91.12
376.997	99.12
377.222	96.12
377.448	87.12
377.674	105.12
377.899	85.12
378.125	77.12
378.35	101.12
378.576	98.12
378.802	81.12
379.027	90.12
379.253	97.12
379.478	96.12
379.704	92.12
379.929	90.12
380.155	96.12
380.38	80.12
380.606	84.12
380.831	89.12
381.057	106.12
381.282	81.12
381.507	89.12
381.733	93.12
381.958	101.12
382.184	95.12
382.409	108.12
382.634	86.12
382.86	86.12
383.085	86.12
383.31	113.12
383.535	110.12
383.761	98.12
383.986	101.12
384.211	98.12
384.436	97.12
384.662	80.12
384.887	97.12
385.112	101.12
385.337	91.12
385.562	103.12
385.787	105.12
386.013	101.12
386.238	113.12
386.463	105.12
386.688	98.12
386.913	103.12
387.138	106.12
387.363	103.12
387.588	86.12
387.813	94.12
388.038	99.12
388.263	104.12
388.488	117.12
388.713	102.12
388.938	98.12
389.163	98.12
389.387	90.12
389.612	100.12
389.837	90.12
390.062	89.12
390.287	85.12
390.512	92.12
390.736	85.12
390.961	100.12
391.186	100.12
391.411	102.12
391.636	92.12
391.86	82.12
392.085	86.12
392.31	82.12
392.534	95.12
392.759	97.12
392.984	87.12
393.208	95.12
393.433	98.12
393.658	90.12
393.882	77.12
394.107	76.12
394.331	96.12
394.556	84.12
394.78	102.12
395.005	91.12
395.229	87.12
395.454	93.12
395.678	94.12
395.903	95.12
396.127	97.12
396.352	87.12
396.576	78.12
396.801	68.12
397.025	97.12
397.249	89.12
397.474	92.12
397.698	66.12
397.922	94.12
398.147	74.12
398.371	87.12
398.595	97.12
398.82	82.12
399.044	95.12
399.268	88.12
399.492	91.12
399.717	80.12
399.941	94.12
400.165	95.12
400.389	83.12
400.613	86.12
400.837	83.12
401.062	86.12
401.286	102.12
401.51	85.12
401.734	85.12
401.958	86.12
402.182	114.12
402.406	141.12
402.63	96.12
402.854	99.12
403.078	87.12
403.302	92.12
403.526	92.12
403.75	90.12
403.974	84.12
404.198	94.12
404.422	90.12
404.645	88.12
404.869	88.12
405.093	104.12
405.317	109.12
405.541	100.12
405.765	100.12
405.988	82.12
406.212	158.12
406.436	195.12
406.66	127.12
406.883	100.12
407.107	97.12
407.331	86.12
407.555	94.12
407.778	103.12
408.002	95.12
408.226	93.12
408.449	87.12
408.673	88.12
408.896	94.12
409.12	84.12
409.344	93.12
409.567	87.12
409.791	98.12
410.014	90.12
410.238	94.12
410.461	89.12
410.685	89.12
410.908	78.12
411.132	102.12
411.355	106.12
411.578	106.12
411.802	86.12
412.025	85.12
412.249	90.12
412.472	109.12
412.695	92.12
412.919	89.12
413.142	98.12
413.365	81.12
413.589	83.12
413.812	74.12
414.035	106.12
414.258	104.12
414.482	85.12
414.705	87.12
414.928	96.12
415.151	94.12
415.374	68.12
415.597	80.12
415.821	85.12
416.044	88.12
416.267	93.12
416.49	80.12
416.713	87.12
416.936	89.12
417.159	73.12
417.382	92.12
417.605	104.12
417.828	93.12
418.051	111.12
418.274	95.12
418.497	87.12
418.72	89.12
418.943	97.12
419.166	82.12
419.389	93.12
419.611	89.12
419.834	84.12
420.057	88.12
420.28	91.12
420.503	97.12
420.726	86.12
420.948	90.12
421.171	111.12
421.394	80.12
421.617	92.12
421.839	100.12
422.062	96.12
422.285	97.12
422.507	98.12
422.73	108.12
422.953	85.12
423.175	83.12
423.398	92.12
423.621	79.12
423.843	90.12
424.066	79.12
424.288	95.12
424.511	80.12
424.733	100.12
424.956	92.12
425.178	92.12
425.401	104.12
425.623	104.12
425.846	83.12
426.068	105.12
426.291	96.12
426.513	81.12
426.735	89.12
426.958	105.12
427.18	101.12
427.402	132.12
427.625	149.12
427.847	121.12
428.069	137.12
428.292	94.12
428.514	96.12
428.736	87.12
428.958	72.12
429.181	93.12
429.403	88.12
429.625	88.12
429.847	85.12
430.069	95.12
430.292	92.12
430.514	84.12
430.736	112.12
430.958	84.12
431.18	93.12
431.402	94.12
431.624	92.12
431.846	83.12
432.068	100.12
432.29	84.12
432.512	100.12
432.734	88.12
432.956	82.12
433.178	98.12
433.4	97.12
433.622	90.12
433.844	90.12
434.066	96.12
434.287	94.12
434.509	82.12
434.731	80.12
434.953	86.12
435.175	109.12
435.397	93.12
435.618	82.12
435.84	98.12
436.062	120.12
436.284	102.12
436.505	91.12
436.727	84.12
436.949	89.12
437.17	84.12
437.392	81.12
437.614	91.12
437.835	98.12
438.057	98.12
438.278	110.12
438.5	93.12
438.721	100.12
438.943	96.12
439.165	89.12
439.386	90.12
439.608	92.12
439.829	97.12
440.05	128.12
440.272	122.12
440.493	89.12
440.715	82.12
440.936	92.12
441.158	98.12
441.379	78.12
441.6	102.12
441.822	93.12
442.043	97.12
442.264	88.12
442.486	102.12
442.707	89.12
442.928	115.12
443.149	108.12
443.371	120.12
443.592	102.12
443.813	113.12
444.034	95.12
444.255	93.12
444.476	90.12
444.698	78.12
444.919	94.12
445.14	129.12
445.361	131.12
445.582	102.12
445.803	110.12
446.024	119.12
446.245	122.12
446.466	103.12
446.687	88.12
446.908	82.12
447.129	83.12
447.35	79.12
447.571	96.12
447.792	80.12
448.013	81.12
448.234	106.12
448.455	92.12
448.675	105.12
448.896	115.12
449.117	101.12
449.338	96.12
449.559	109.12
449.779	112.12
450	104.12
450.221	97.12
450.442	98.12
450.662	98.12
450.883	94.12
451.104	119.12
451.324	98.12
451.545	81.12
451.766	70.12
451.986	95.12
452.207	84.12
452.428	93.12
452.648	91.12
452.869	100.12
453.089	102.12
453.31	93.12
453.53	96.12
453.751	93.12
453.971	90.12
454.192	96.12
454.412	94.12
454.633	91.12
454.853	82.12
455.073	77.12
455.294	84.12
455.514	103.12
455.734	79.12
455.955	64.12
456.175	74.12
456.395	87.12
456.616	92.12
456.836	88.12
457.056	84.12
457.276	92.12
457.497	90.12
457.717	89.12
457.937	78.12
458.157	93.12
458.377	96.12
458.598	96.12
458.818	124.12
459.038	126.12
459.258	113.12
459.478	102.12
459.698	86.12
459.918	104.12
460.138	87.12
460.358	82.12
460.578	88.12
460.798	96.12
461.018	92.12
461.238	95.12
461.458	90.12
461.678	90.12
461.898	89.12
462.118	78.12
462.338	86.12
462.558	86.12
462.777	100.12
462.997	95.12
463.217	87.12
463.437	89.12
463.657	82.12
463.876	73.12
464.096	86.12
464.316	90.12
464.536	100.12
464.755	94.12
464.975	98.12
465.195	138.12
465.414	140.12
465.634	94.12
465.854	89.12
466.073	97.12
466.293	90.12
466.512	65.12
466.732	86.12
466.951	79.12
467.171	94.12
467.391	88.12
467.61	93.12
467.829	99.12
468.049	139.12
468.268	152.12
468.488	98.12
468.707	94.12
468.927	90.12
469.146	80.12
469.365	89.12
469.585	99.12
469.804	90.12
470.023	92.12
470.243	79.12
470.462	106.12
470.681	103.12
470.901	82.12
471.12	82.12
471.339	89.12
471.558	101.12
471.777	78.12
471.997	113.12
472.216	204.12
472.435	326.12
472.654	136.12
472.873	82.12
473.092	90.12
473.311	86.12
473.53	98.12
473.749	90.12
473.968	93.12
474.187	93.12
474.406	88.12
474.625	84.12
474.844	91.12
475.063	85.12
475.282	96.12
475.501	82.12
475.72	87.12
475.939	98.12
476.158	93.12
476.377	76.12
476.596	82.12
476.814	101.12
477.033	95.12
477.252	92.12
477.471	95.12
477.69	82.12
477.908	80.12
478.127	84.12
478.346	86.12
478.564	89.12
478.783	96.12
479.002	106.12
479.22	101.12
479.439	102.12
479.658	98.12
479.876	84.12
480.095	96.12
480.313	82.12
480.532	98.12
480.751	100.12
480.969	212.12
481.188	572.12
481.406	341.12
481.624	122.12
481.843	93.12
482.061	98.12
482.28	84.12
482.498	100.12
482.717	87.12
482.935	94.12
483.153	106.12
483.372	95.12
483.59	82.12
483.808	92.12
484.027	80.12
484.245	83.12
484.463	97.12
484.681	95.12
484.9	92.12
485.118	87.12
485.336	103.12
485.554	86.12
485.772	97.12
485.99	98.12
486.209	83.12
486.427	103.12
486.645	105.12
486.863	104.12
487.081	104.12
487.299	97.12
487.517	92.12
487.735	63.12
487.953	79.12
488.171	85.12
488.389	88.12
488.607	98.12
488.825	98.12
489.043	77.12
489.261	86.12
489.479	76.12
489.696	77.12
489.914	94.12
490.132	103.12
490.35	96.12
490.568	78.12
490.786	90.12
491.003	85.12
491.221	88.12
491.439	89.12
491.657	93.12
491.874	101.12
492.092	81.12
492.31	91.12
492.527	82.12
492.745	93.12
492.963	86.12
493.18	89.12
493.398	82.12
493.615	93.12
493.833	95.12
494.05	80.12
494.268	80.12
494.485	96.12
494.703	89.12
494.92	88.12
495.138	87.12
495.355	83.12
495.573	82.12
495.79	76.12
496.008	90.12
496.225	86.12
496.442	94.12
496.66	83.12
496.877	90.12
497.094	106.12
497.312	102.12
497.529	88.12
497.746	84.12
497.963	89.12
498.181	89.12
498.398	86.12
498.615	110.12
498.832	102.12
499.049	95.12
499.267	104.12
499.484	93.12
499.701	82.12
499.918	82.12
500.135	106.12
500.352	89.12
500.569	90.12
500.786	94.12
501.003	88.12
501.22	97.12
501.437	96.12
501.654	107.12
501.871	92.12
502.088	86.12
502.305	76.12
502.522	84.12
502.739	86.12
502.956	86.12
503.172	90.12
503.389	96.12
503.606	102.12
503.823	78.12
504.04	89.12
504.256	96.12
504.473	80.12
504.69	80.12
504.907	90.12
505.123	79.12
505.34	98.12
505.557	97.12
505.773	90.12
505.99	80.12
506.207	73.12
506.423	91.12
506.64	86.12
506.856	95.12
507.073	98.12
507.289	104.12
507.506	89.12
507.722	89.12
507.939	101.12
508.155	94.12
508.372	84.12
508.588	93.12
508.805	95.12
509.021	90.12
509.238	100.12
509.454	105.12
509.67	103.12
509.887	106.12
510.103	106.12
510.319	191.12
510.536	595.12
510.752	1770.12
510.968	504.12
511.184	158.12
511.401	112.12
511.617	84.12
511.833	87.12
512.049	86.12
512.265	102.12
512.481	93.12
512.698	108.12
512.914	100.12
513.13	73.12
513.346	79.12
513.562	74.12
513.778	92.12
513.994	82.12
514.21	95.12
514.426	110.12
514.642	124.12
514.858	119.12
515.074	167.12
515.29	360.12
515.506	1112.12
515.721	412.12
