Data from Uncirc_1989_H10_HRD10591_00009.txt Node
Date: Wed Jan 03 11:57:37 EST 2024
User: Yrep
Spectrometer: HR+D1059
Trigger mode: 1
Integration Time (sec): 1.000000E-1
Scans to average: 1
Electric dark correction enabled: true
Nonlinearity correction enabled: false
Boxcar width: 0
XAxis mode: Wavelengths
Number of Pixels in Spectrum: 2048
>>>>>Begin Spectral Data<<<<<
223.165	-12.5
223.4	-12.5
223.635	-12.5
223.869	-29.5
224.104	-13.5
224.338	4.5
224.573	-11.5
224.808	-12.5
225.042	3.5
225.277	-21.5
225.511	-4.5
225.746	1.5
225.98	15.5
226.215	13.5
226.449	17.5
226.683	15.5
226.918	4.5
227.152	29.5
227.387	18.5
227.621	37.5
227.856	28.5
228.09	55.5
228.324	31.5
228.559	53.5
228.793	44.5
229.027	61.5
229.262	70.5
229.496	71.5
229.73	81.5
229.964	87.5
230.199	70.5
230.433	73.5
230.667	76.5
230.901	89.5
231.136	63.5
231.37	76.5
231.604	72.5
231.838	79.5
232.072	83.5
232.306	75.5
232.541	78.5
232.775	82.5
233.009	91.5
233.243	71.5
233.477	81.5
233.711	90.5
233.945	92.5
234.179	80.5
234.413	81.5
234.647	70.5
234.881	75.5
235.115	79.5
235.349	87.5
235.583	77.5
235.817	80.5
236.051	84.5
236.285	85.5
236.519	80.5
236.753	90.5
236.987	86.5
237.221	75.5
237.455	75.5
237.689	77.5
237.922	91.5
238.156	64.5
238.39	80.5
238.624	83.5
238.858	79.5
239.091	85.5
239.325	76.5
239.559	76.5
239.793	94.5
240.027	93.5
240.26	75.5
240.494	71.5
240.728	81.5
240.961	79.5
241.195	95.5
241.429	86.5
241.662	79.5
241.896	78.5
242.13	84.5
242.363	63.5
242.597	69.5
242.83	82.5
243.064	77.5
243.298	73.5
243.531	76.5
243.765	80.5
243.998	74.5
244.232	88.5
244.465	86.5
244.699	81.5
244.932	83.5
245.166	85.5
245.399	77.5
245.633	78.5
245.866	71.5
246.099	57.5
246.333	78.5
246.566	67.5
246.8	68.5
247.033	72.5
247.266	77.5
247.5	90.5
247.733	64.5
247.966	71.5
248.2	68.5
248.433	73.5
248.666	84.5
248.899	83.5
249.133	78.5
249.366	91.5
249.599	72.5
249.832	81.5
250.066	81.5
250.299	82.5
250.532	79.5
250.765	90.5
250.998	85.5
251.231	72.5
251.465	71.5
251.698	68.5
251.931	69.5
252.164	95.5
252.397	76.5
252.63	58.5
252.863	87.5
253.096	80.5
253.329	89.5
253.562	68.5
253.795	72.5
254.028	85.5
254.261	69.5
254.494	75.5
254.727	77.5
254.96	84.5
255.193	76.5
255.426	56.5
255.659	72.5
255.892	85.5
256.124	80.5
256.357	87.5
256.59	81.5
256.823	85.5
257.056	80.5
257.289	87.5
257.521	80.5
257.754	81.5
257.987	88.5
258.22	92.5
258.452	60.5
258.685	78.5
258.918	69.5
259.151	79.5
259.383	88.5
259.616	83.5
259.849	78.5
260.081	80.5
260.314	88.5
260.547	64.5
260.779	83.5
261.012	82.5
261.244	79.5
261.477	97.5
261.71	85.5
261.942	103.5
262.175	108.5
262.407	84.5
262.64	81.5
262.872	88.5
263.105	82.5
263.337	72.5
263.57	82.5
263.802	81.5
264.035	78.5
264.267	79.5
264.499	85.5
264.732	83.5
264.964	86.5
265.197	81.5
265.429	92.5
265.661	97.5
265.894	83.5
266.126	85.5
266.358	88.5
266.591	71.5
266.823	77.5
267.055	77.5
267.287	81.5
267.52	83.5
267.752	77.5
267.984	77.5
268.216	89.5
268.448	76.5
268.681	88.5
268.913	91.5
269.145	87.5
269.377	82.5
269.609	94.5
269.841	89.5
270.073	79.5
270.306	85.5
270.538	77.5
270.77	76.5
271.002	78.5
271.234	86.5
271.466	95.5
271.698	80.5
271.93	95.5
272.162	71.5
272.394	87.5
272.626	81.5
272.858	77.5
273.09	84.5
273.322	88.5
273.553	78.5
273.785	94.5
274.017	90.5
274.249	80.5
274.481	85.5
274.713	83.5
274.945	79.5
275.176	72.5
275.408	81.5
275.64	93.5
275.872	84.5
276.104	94.5
276.335	89.5
276.567	86.5
276.799	109.5
277.031	87.5
277.262	92.5
277.494	77.5
277.726	77.5
277.957	72.5
278.189	84.5
278.421	71.5
278.652	80.5
278.884	73.5
279.115	75.5
279.347	86.5
279.579	93.5
279.81	95.5
280.042	79.5
280.273	87.5
280.505	79.5
280.736	71.5
280.968	92.5
281.199	85.5
281.431	95.5
281.662	92.5
281.894	91.5
282.125	92.5
282.356	97.5
282.588	123.5
282.819	102.5
283.051	78.5
283.282	89.5
283.513	99.5
283.745	82.5
283.976	83.5
284.207	81.5
284.439	93.5
284.67	89.5
284.901	86.5
285.132	87.5
285.364	87.5
285.595	92.5
285.826	88.5
286.057	78.5
286.288	74.5
286.52	86.5
286.751	92.5
286.982	75.5
287.213	94.5
287.444	81.5
287.675	83.5
287.906	97.5
288.138	93.5
288.369	72.5
288.6	87.5
288.831	97.5
289.062	87.5
289.293	74.5
289.524	93.5
289.755	99.5
289.986	83.5
290.217	85.5
290.448	86.5
290.679	77.5
290.91	91.5
291.141	101.5
291.371	104.5
291.602	95.5
291.833	89.5
292.064	87.5
292.295	80.5
292.526	87.5
292.757	93.5
292.987	95.5
293.218	86.5
293.449	75.5
293.68	87.5
293.91	88.5
294.141	89.5
294.372	93.5
294.603	81.5
294.833	92.5
295.064	80.5
295.295	92.5
295.525	91.5
295.756	105.5
295.987	91.5
296.217	120.5
296.448	108.5
296.679	96.5
296.909	75.5
297.14	87.5
297.37	102.5
297.601	76.5
297.831	88.5
298.062	87.5
298.292	76.5
298.523	81.5
298.753	88.5
298.984	97.5
299.214	92.5
299.445	95.5
299.675	91.5
299.905	89.5
300.136	84.5
300.366	94.5
300.597	79.5
300.827	93.5
301.057	97.5
301.288	98.5
301.518	88.5
301.748	83.5
301.979	102.5
302.209	89.5
302.439	71.5
302.669	80.5
302.9	88.5
303.13	71.5
303.36	91.5
303.59	72.5
303.82	97.5
304.051	98.5
304.281	89.5
304.511	85.5
304.741	84.5
304.971	81.5
305.201	83.5
305.431	90.5
305.661	87.5
305.891	85.5
306.121	79.5
306.352	93.5
306.582	100.5
306.812	96.5
307.042	83.5
307.272	96.5
307.502	77.5
307.731	105.5
307.961	94.5
308.191	86.5
308.421	88.5
308.651	84.5
308.881	84.5
309.111	76.5
309.341	91.5
309.571	91.5
309.8	90.5
310.03	87.5
310.26	78.5
310.49	96.5
310.72	99.5
310.949	93.5
311.179	93.5
311.409	94.5
311.639	97.5
311.868	88.5
312.098	102.5
312.328	94.5
312.557	94.5
312.787	93.5
313.017	91.5
313.246	84.5
313.476	98.5
313.706	94.5
313.935	96.5
314.165	98.5
314.394	95.5
314.624	104.5
314.853	91.5
315.083	98.5
315.312	82.5
315.542	85.5
315.771	88.5
316.001	89.5
316.23	80.5
316.46	94.5
316.689	87.5
316.919	81.5
317.148	102.5
317.377	105.5
317.607	96.5
317.836	96.5
318.065	97.5
318.295	89.5
318.524	83.5
318.753	90.5
318.983	86.5
319.212	99.5
319.441	85.5
319.67	89.5
319.9	92.5
320.129	94.5
320.358	105.5
320.587	80.5
320.816	95.5
321.046	101.5
321.275	85.5
321.504	92.5
321.733	96.5
321.962	101.5
322.191	95.5
322.42	114.5
322.649	93.5
322.878	111.5
323.108	109.5
323.337	100.5
323.566	123.5
323.795	120.5
324.024	155.5
324.253	291.5
324.482	575.5
324.71	1125.5
324.939	1476.5
325.168	559.5
325.397	185.5
325.626	136.5
325.855	111.5
326.084	116.5
326.313	126.5
326.542	131.5
326.77	196.5
326.999	337.5
327.228	677.5
327.457	1215.5
327.686	957.5
327.914	292.5
328.143	161.5
328.372	134.5
328.6	109.5
328.829	109.5
329.058	102.5
329.287	104.5
329.515	104.5
329.744	100.5
329.972	93.5
330.201	94.5
330.43	129.5
330.658	133.5
330.887	123.5
331.115	101.5
331.344	96.5
331.572	108.5
331.801	95.5
332.03	102.5
332.258	83.5
332.486	89.5
332.715	89.5
332.943	93.5
333.172	95.5
333.4	102.5
333.629	105.5
333.857	92.5
334.085	102.5
334.314	102.5
334.542	124.5
334.771	114.5
334.999	103.5
335.227	83.5
335.455	105.5
335.684	81.5
335.912	94.5
336.14	89.5
336.369	101.5
336.597	86.5
336.825	95.5
337.053	95.5
337.281	92.5
337.51	76.5
337.738	97.5
337.966	109.5
338.194	100.5
338.422	87.5
338.65	85.5
338.878	89.5
339.106	100.5
339.334	88.5
339.562	98.5
339.79	97.5
340.018	77.5
340.246	95.5
340.474	87.5
340.702	77.5
340.93	98.5
341.158	84.5
341.386	92.5
341.614	80.5
341.842	92.5
342.07	85.5
342.298	95.5
342.526	83.5
342.754	69.5
342.981	95.5
343.209	81.5
343.437	92.5
343.665	85.5
343.893	94.5
344.12	85.5
344.348	83.5
344.576	100.5
344.804	92.5
345.031	88.5
345.259	90.5
345.487	87.5
345.714	95.5
345.942	80.5
346.17	93.5
346.397	96.5
346.625	85.5
346.853	88.5
347.08	89.5
347.308	98.5
347.535	104.5
347.763	89.5
347.99	88.5
348.218	100.5
348.445	83.5
348.673	89.5
348.9	89.5
349.128	95.5
349.355	96.5
349.583	101.5
349.81	99.5
350.037	78.5
350.265	79.5
350.492	94.5
350.72	85.5
350.947	98.5
351.174	95.5
351.402	104.5
351.629	89.5
351.856	94.5
352.083	94.5
352.311	92.5
352.538	105.5
352.765	117.5
352.992	104.5
353.22	108.5
353.447	107.5
353.674	103.5
353.901	95.5
354.128	97.5
354.355	101.5
354.583	96.5
354.81	89.5
355.037	105.5
355.264	101.5
355.491	91.5
355.718	85.5
355.945	94.5
356.172	100.5
356.399	87.5
356.626	87.5
356.853	91.5
357.08	95.5
357.307	86.5
357.534	96.5
357.761	103.5
357.988	84.5
358.215	98.5
358.441	93.5
358.668	76.5
358.895	87.5
359.122	88.5
359.349	80.5
359.576	85.5
359.802	88.5
360.029	93.5
360.256	95.5
360.483	103.5
360.709	108.5
360.936	89.5
361.163	88.5
361.39	82.5
361.616	105.5
361.843	83.5
362.07	97.5
362.296	89.5
362.523	99.5
362.749	93.5
362.976	94.5
363.203	76.5
363.429	81.5
363.656	93.5
363.882	100.5
364.109	96.5
364.335	86.5
364.562	96.5
364.788	90.5
365.015	79.5
365.241	95.5
365.468	100.5
365.694	87.5
365.92	81.5
366.147	102.5
366.373	85.5
366.599	88.5
366.826	93.5
367.052	79.5
367.278	84.5
367.505	69.5
367.731	97.5
367.957	96.5
368.184	82.5
368.41	89.5
368.636	102.5
368.862	109.5
369.089	104.5
369.315	76.5
369.541	81.5
369.767	80.5
369.993	95.5
370.219	88.5
370.445	93.5
370.672	82.5
370.898	84.5
371.124	83.5
371.35	93.5
371.576	109.5
371.802	89.5
372.028	80.5
372.254	80.5
372.48	69.5
372.706	95.5
372.932	80.5
373.158	85.5
373.384	87.5
373.61	83.5
373.835	76.5
374.061	84.5
374.287	94.5
374.513	90.5
374.739	81.5
374.965	88.5
375.191	84.5
375.416	97.5
375.642	95.5
375.868	95.5
376.094	114.5
376.319	89.5
376.545	80.5
376.771	90.5
376.997	100.5
377.222	96.5
377.448	99.5
377.674	108.5
377.899	89.5
378.125	106.5
378.35	85.5
378.576	92.5
378.802	97.5
379.027	89.5
379.253	93.5
379.478	88.5
379.704	99.5
379.929	88.5
380.155	97.5
380.38	92.5
380.606	91.5
380.831	88.5
381.057	88.5
381.282	89.5
381.507	89.5
381.733	89.5
381.958	94.5
382.184	81.5
382.409	97.5
382.634	98.5
382.86	102.5
383.085	92.5
383.31	108.5
383.535	97.5
383.761	95.5
383.986	104.5
384.211	98.5
384.436	91.5
384.662	112.5
384.887	93.5
385.112	95.5
385.337	111.5
385.562	97.5
385.787	107.5
386.013	109.5
386.238	117.5
386.463	102.5
386.688	99.5
386.913	115.5
387.138	113.5
387.363	104.5
387.588	111.5
387.813	104.5
388.038	123.5
388.263	103.5
388.488	113.5
388.713	93.5
388.938	88.5
389.163	85.5
389.387	101.5
389.612	99.5
389.837	88.5
390.062	113.5
390.287	83.5
390.512	100.5
390.736	88.5
390.961	95.5
391.186	97.5
391.411	113.5
391.636	95.5
391.86	87.5
392.085	88.5
392.31	94.5
392.534	75.5
392.759	96.5
392.984	99.5
393.208	103.5
393.433	134.5
393.658	116.5
393.882	99.5
394.107	87.5
394.331	91.5
394.556	81.5
394.78	93.5
395.005	82.5
395.229	87.5
395.454	91.5
395.678	93.5
395.903	83.5
396.127	71.5
396.352	86.5
396.576	104.5
396.801	95.5
397.025	106.5
397.249	101.5
397.474	86.5
397.698	94.5
397.922	88.5
398.147	79.5
398.371	92.5
398.595	85.5
398.82	95.5
399.044	78.5
399.268	92.5
399.492	90.5
399.717	87.5
399.941	93.5
400.165	97.5
400.389	78.5
400.613	95.5
400.837	76.5
401.062	79.5
401.286	79.5
401.51	84.5
401.734	83.5
401.958	88.5
402.182	104.5
402.406	115.5
402.63	107.5
402.854	99.5
403.078	94.5
403.302	94.5
403.526	84.5
403.75	96.5
403.974	69.5
404.198	86.5
404.422	87.5
404.645	95.5
404.869	78.5
405.093	92.5
405.317	88.5
405.541	100.5
405.765	85.5
405.988	100.5
406.212	131.5
406.436	155.5
406.66	123.5
406.883	90.5
407.107	89.5
407.331	115.5
407.555	98.5
407.778	89.5
408.002	76.5
408.226	80.5
408.449	94.5
408.673	91.5
408.896	98.5
409.12	82.5
409.344	96.5
409.567	71.5
409.791	92.5
410.014	93.5
410.238	93.5
410.461	98.5
410.685	99.5
410.908	100.5
411.132	115.5
411.355	99.5
411.578	96.5
411.802	93.5
412.025	88.5
412.249	91.5
412.472	90.5
412.695	91.5
412.919	81.5
413.142	86.5
413.365	85.5
413.589	88.5
413.812	88.5
414.035	85.5
414.258	98.5
414.482	90.5
414.705	96.5
414.928	101.5
415.151	101.5
415.374	94.5
415.597	85.5
415.821	91.5
416.044	91.5
416.267	93.5
416.49	77.5
416.713	99.5
416.936	93.5
417.159	81.5
417.382	80.5
417.605	90.5
417.828	87.5
418.051	95.5
418.274	86.5
418.497	87.5
418.72	101.5
418.943	88.5
419.166	85.5
419.389	95.5
419.611	94.5
419.834	84.5
420.057	81.5
420.28	103.5
420.503	88.5
420.726	100.5
420.948	88.5
421.171	99.5
421.394	75.5
421.617	79.5
421.839	92.5
422.062	100.5
422.285	97.5
422.507	110.5
422.73	103.5
422.953	104.5
423.175	102.5
423.398	83.5
423.621	88.5
423.843	88.5
424.066	87.5
424.288	88.5
424.511	89.5
424.733	100.5
424.956	82.5
425.178	87.5
425.401	89.5
425.623	85.5
425.846	103.5
426.068	103.5
426.291	80.5
426.513	92.5
426.735	81.5
426.958	78.5
427.18	100.5
427.402	119.5
427.625	115.5
427.847	121.5
428.069	113.5
428.292	90.5
428.514	87.5
428.736	102.5
428.958	86.5
429.181	94.5
429.403	89.5
429.625	71.5
429.847	89.5
430.069	69.5
430.292	81.5
430.514	87.5
430.736	87.5
430.958	89.5
431.18	94.5
431.402	101.5
431.624	85.5
431.846	103.5
432.068	89.5
432.29	84.5
432.512	86.5
432.734	85.5
432.956	85.5
433.178	97.5
433.4	98.5
433.622	82.5
433.844	85.5
434.066	106.5
434.287	85.5
434.509	93.5
434.731	82.5
434.953	75.5
435.175	87.5
435.397	91.5
435.618	86.5
435.84	86.5
436.062	118.5
436.284	99.5
436.505	96.5
436.727	93.5
436.949	82.5
437.17	86.5
437.392	93.5
437.614	85.5
437.835	85.5
438.057	93.5
438.278	106.5
438.5	86.5
438.721	115.5
438.943	111.5
439.165	86.5
439.386	76.5
439.608	99.5
439.829	110.5
440.05	103.5
440.272	115.5
440.493	95.5
440.715	87.5
440.936	91.5
441.158	89.5
441.379	91.5
441.6	82.5
441.822	95.5
442.043	80.5
442.264	100.5
442.486	87.5
442.707	87.5
442.928	91.5
443.149	111.5
443.371	111.5
443.592	99.5
443.813	91.5
444.034	81.5
444.255	100.5
444.476	86.5
444.698	95.5
444.919	94.5
445.14	137.5
445.361	112.5
445.582	114.5
445.803	122.5
446.024	115.5
446.245	113.5
446.466	100.5
446.687	77.5
446.908	86.5
447.129	65.5
447.35	88.5
447.571	85.5
447.792	96.5
448.013	99.5
448.234	87.5
448.455	94.5
448.675	101.5
448.896	88.5
449.117	96.5
449.338	95.5
449.559	117.5
449.779	107.5
450	82.5
450.221	84.5
450.442	91.5
450.662	95.5
450.883	99.5
451.104	75.5
451.324	100.5
451.545	84.5
451.766	72.5
451.986	93.5
452.207	91.5
452.428	100.5
452.648	83.5
452.869	96.5
453.089	95.5
453.31	87.5
453.53	100.5
453.751	72.5
453.971	91.5
454.192	105.5
454.412	101.5
454.633	96.5
454.853	93.5
455.073	86.5
455.294	89.5
455.514	89.5
455.734	88.5
455.955	84.5
456.175	75.5
456.395	94.5
456.616	83.5
456.836	87.5
457.056	88.5
457.276	90.5
457.497	94.5
457.717	90.5
457.937	83.5
458.157	88.5
458.377	87.5
458.598	94.5
458.818	121.5
459.038	117.5
459.258	102.5
459.478	79.5
459.698	79.5
459.918	88.5
460.138	87.5
460.358	88.5
460.578	93.5
460.798	84.5
461.018	87.5
461.238	96.5
461.458	79.5
461.678	86.5
461.898	86.5
462.118	80.5
462.338	80.5
462.558	86.5
462.777	86.5
462.997	77.5
463.217	89.5
463.437	90.5
463.657	87.5
463.876	71.5
464.096	91.5
464.316	91.5
464.536	72.5
464.755	85.5
464.975	91.5
465.195	123.5
465.414	128.5
465.634	96.5
465.854	80.5
466.073	84.5
466.293	87.5
466.512	97.5
466.732	101.5
466.951	95.5
467.171	103.5
467.391	93.5
467.61	89.5
467.829	93.5
468.049	96.5
468.268	99.5
468.488	76.5
468.707	87.5
468.927	83.5
469.146	81.5
469.365	100.5
469.585	95.5
469.804	77.5
470.023	83.5
470.243	96.5
470.462	90.5
470.681	110.5
470.901	94.5
471.12	94.5
471.339	80.5
471.558	96.5
471.777	85.5
471.997	96.5
472.216	109.5
472.435	139.5
472.654	79.5
472.873	95.5
473.092	71.5
473.311	80.5
473.53	102.5
473.749	81.5
473.968	109.5
474.187	93.5
474.406	90.5
474.625	88.5
474.844	91.5
475.063	83.5
475.282	79.5
475.501	85.5
475.72	86.5
475.939	70.5
476.158	83.5
476.377	72.5
476.596	79.5
476.814	80.5
477.033	96.5
477.252	102.5
477.471	83.5
477.69	86.5
477.908	82.5
478.127	94.5
478.346	87.5
478.564	90.5
478.783	99.5
479.002	91.5
479.22	83.5
479.439	85.5
479.658	85.5
479.876	86.5
480.095	79.5
480.313	97.5
480.532	98.5
480.751	92.5
480.969	99.5
481.188	171.5
481.406	141.5
481.624	96.5
481.843	101.5
482.061	78.5
482.28	88.5
482.498	96.5
482.717	92.5
482.935	86.5
483.153	94.5
483.372	88.5
483.59	80.5
483.808	89.5
484.027	80.5
484.245	83.5
484.463	91.5
484.681	96.5
484.9	94.5
485.118	108.5
485.336	85.5
485.554	87.5
485.772	84.5
485.99	89.5
486.209	97.5
486.427	100.5
486.645	98.5
486.863	91.5
487.081	94.5
487.299	97.5
487.517	98.5
487.735	79.5
487.953	89.5
488.171	91.5
488.389	93.5
488.607	90.5
488.825	101.5
489.043	97.5
489.261	85.5
489.479	87.5
489.696	75.5
489.914	91.5
490.132	86.5
490.35	97.5
490.568	84.5
490.786	92.5
491.003	92.5
491.221	83.5
491.439	82.5
491.657	80.5
491.874	98.5
492.092	90.5
492.31	94.5
492.527	72.5
492.745	85.5
492.963	92.5
493.18	102.5
493.398	95.5
493.615	78.5
493.833	79.5
494.05	100.5
494.268	101.5
494.485	84.5
494.703	98.5
494.92	96.5
495.138	95.5
495.355	97.5
495.573	79.5
495.79	84.5
496.008	83.5
496.225	92.5
496.442	80.5
496.66	87.5
496.877	91.5
497.094	87.5
497.312	84.5
497.529	79.5
497.746	101.5
497.963	82.5
498.181	81.5
498.398	89.5
498.615	124.5
498.832	102.5
499.049	89.5
499.267	98.5
499.484	94.5
499.701	86.5
499.918	85.5
500.135	95.5
500.352	76.5
500.569	82.5
500.786	89.5
501.003	77.5
501.22	82.5
501.437	90.5
501.654	102.5
501.871	91.5
502.088	87.5
502.305	78.5
502.522	89.5
502.739	85.5
502.956	72.5
503.172	93.5
503.389	95.5
503.606	92.5
503.823	95.5
504.04	99.5
504.256	93.5
504.473	90.5
504.69	74.5
504.907	101.5
505.123	88.5
505.34	90.5
505.557	90.5
505.773	96.5
505.99	87.5
506.207	95.5
506.423	83.5
506.64	88.5
506.856	95.5
507.073	91.5
507.289	94.5
507.506	92.5
507.722	87.5
507.939	94.5
508.155	91.5
508.372	86.5
508.588	85.5
508.805	86.5
509.021	97.5
509.238	104.5
509.454	89.5
509.67	98.5
509.887	93.5
510.103	103.5
510.319	171.5
510.536	510.5
510.752	1447.5
510.968	415.5
511.184	124.5
511.401	103.5
511.617	101.5
511.833	92.5
512.049	86.5
512.265	96.5
512.481	96.5
512.698	88.5
512.914	87.5
513.13	89.5
513.346	82.5
513.562	79.5
513.778	88.5
513.994	78.5
514.21	114.5
514.426	112.5
514.642	121.5
514.858	103.5
515.074	134.5
515.29	306.5
515.506	880.5
515.721	354.5
515.937	114.5
516.153	100.5
516.369	85.5
516.585	80.5
516.801	83.5
517.016	102.5
517.232	98.5
517.448	95.5
517.664	84.5
517.879	85.5
518.095	101.5
518.311	81.5
518.527	102.5
518.742	91.5
518.958	91.5
519.173	85.5
519.389	92.5
519.605	89.5
519.82	94.5
520.036	85.5
520.251	95.5
520.467	101.5
520.682	97.5
520.898	106.5
521.113	105.5
521.329	118.5
521.544	167.5
521.76	361.5
521.975	1471.5
522.19	853.5
522.406	217.5
522.621	108.5
522.836	89.5
523.052	88.5
523.267	94.5
523.482	77.5
523.698	81.5
523.913	96.5
524.128	89.5
524.343	89.5
524.559	95.5
524.774	98.5
524.989	92.5
525.204	96.5
525.419	105.5
525.634	84.5
525.849	89.5
526.064	97.5
526.28	92.5
526.495	81.5
526.71	91.5
526.925	101.5
527.14	75.5
527.355	91.5
527.57	77.5
527.785	85.5
527.999	85.5
528.214	86.5
528.429	112.5
528.644	99.5
528.859	93.5
529.074	91.5
529.289	111.5
529.503	129.5
529.718	95.5
529.933	103.5
530.148	92.5
530.363	105.5
530.577	86.5
530.792	78.5
531.007	94.5
531.221	79.5
531.436	86.5
531.651	86.5
531.865	92.5
532.08	99.5
532.295	97.5
532.509	94.5
532.724	76.5
532.938	86.5
533.153	84.5
533.367	100.5
533.582	84.5
533.796	84.5
534.011	98.5
534.225	103.5
534.44	92.5
534.654	86.5
534.868	80.5
535.083	78.5
535.297	82.5
535.511	86.5
535.726	90.5
535.94	96.5
536.154	103.5
536.369	96.5
536.583	91.5
