Data from Uncirc_1989_H10_HRD10591_00013.txt Node
Date: Wed Jan 03 11:57:38 EST 2024
User: Yrep
Spectrometer: HR+D1059
Trigger mode: 1
Integration Time (sec): 1.000000E-1
Scans to average: 1
Electric dark correction enabled: true
Nonlinearity correction enabled: false
Boxcar width: 0
XAxis mode: Wavelengths
Number of Pixels in Spectrum: 2048
>>>>>Begin Spectral Data<<<<<
223.165	-21.88
223.4	-21.88
223.635	-21.88
223.869	-7.88
224.104	-26.88
224.338	-11.88
224.573	-19.88
224.808	-10.88
225.042	-7.88
225.277	-8.88
225.511	4.12
225.746	2.12
225.98	-0.88
226.215	9.12
226.449	15.12
226.683	28.12
226.918	32.12
227.152	26.12
227.387	45.12
227.621	41.12
227.856	35.12
228.09	51.12
228.324	59.12
228.559	54.12
228.793	60.12
229.027	68.12
229.262	68.12
229.496	71.12
229.73	82.12
229.964	83.12
230.199	82.12
230.433	76.12
230.667	81.12
230.901	76.12
231.136	83.12
231.37	76.12
231.604	87.12
231.838	74.12
232.072	95.12
232.306	83.12
232.541	73.12
232.775	72.12
233.009	95.12
233.243	83.12
233.477	87.12
233.711	98.12
233.945	67.12
234.179	79.12
234.413	79.12
234.647	91.12
234.881	81.12
235.115	94.12
235.349	84.12
235.583	77.12
235.817	71.12
236.051	77.12
236.285	81.12
236.519	82.12
236.753	84.12
236.987	87.12
237.221	87.12
237.455	86.12
237.689	79.12
237.922	82.12
238.156	77.12
238.39	74.12
238.624	72.12
238.858	50.12
239.091	73.12
239.325	70.12
239.559	72.12
239.793	82.12
240.027	91.12
240.26	78.12
240.494	83.12
240.728	63.12
240.961	88.12
241.195	75.12
241.429	94.12
241.662	101.12
241.896	92.12
242.13	74.12
242.363	81.12
242.597	87.12
242.83	70.12
243.064	90.12
243.298	81.12
243.531	78.12
243.765	81.12
243.998	88.12
244.232	83.12
244.465	94.12
244.699	74.12
244.932	84.12
245.166	84.12
245.399	84.12
245.633	80.12
245.866	87.12
246.099	88.12
246.333	80.12
246.566	65.12
246.8	79.12
247.033	84.12
247.266	91.12
247.5	63.12
247.733	74.12
247.966	72.12
248.2	84.12
248.433	96.12
248.666	72.12
248.899	79.12
249.133	83.12
249.366	109.12
249.599	98.12
249.832	79.12
250.066	80.12
250.299	93.12
250.532	89.12
250.765	74.12
250.998	75.12
251.231	72.12
251.465	83.12
251.698	91.12
251.931	88.12
252.164	75.12
252.397	77.12
252.63	82.12
252.863	63.12
253.096	71.12
253.329	88.12
253.562	92.12
253.795	76.12
254.028	75.12
254.261	67.12
254.494	75.12
254.727	91.12
254.96	80.12
255.193	80.12
255.426	83.12
255.659	83.12
255.892	88.12
256.124	89.12
256.357	97.12
256.59	71.12
256.823	68.12
257.056	80.12
257.289	95.12
257.521	83.12
257.754	72.12
257.987	79.12
258.22	89.12
258.452	97.12
258.685	100.12
258.918	79.12
259.151	88.12
259.383	64.12
259.616	82.12
259.849	86.12
260.081	104.12
260.314	76.12
260.547	83.12
260.779	81.12
261.012	84.12
261.244	79.12
261.477	84.12
261.71	76.12
261.942	106.12
262.175	107.12
262.407	91.12
262.64	86.12
262.872	92.12
263.105	72.12
263.337	91.12
263.57	84.12
263.802	96.12
264.035	83.12
264.267	90.12
264.499	72.12
264.732	79.12
264.964	67.12
265.197	70.12
265.429	72.12
265.661	80.12
265.894	85.12
266.126	92.12
266.358	81.12
266.591	82.12
266.823	79.12
267.055	86.12
267.287	97.12
267.52	88.12
267.752	90.12
267.984	95.12
268.216	93.12
268.448	91.12
268.681	79.12
268.913	88.12
269.145	85.12
269.377	92.12
269.609	92.12
269.841	91.12
270.073	85.12
270.306	93.12
270.538	86.12
270.77	85.12
271.002	82.12
271.234	81.12
271.466	91.12
271.698	82.12
271.93	91.12
272.162	85.12
272.394	96.12
272.626	100.12
272.858	88.12
273.09	90.12
273.322	77.12
273.553	94.12
273.785	95.12
274.017	83.12
274.249	91.12
274.481	88.12
274.713	84.12
274.945	89.12
275.176	87.12
275.408	99.12
275.64	92.12
275.872	80.12
276.104	91.12
276.335	75.12
276.567	98.12
276.799	99.12
277.031	85.12
277.262	88.12
277.494	66.12
277.726	97.12
277.957	90.12
278.189	87.12
278.421	84.12
278.652	100.12
278.884	80.12
279.115	87.12
279.347	97.12
279.579	87.12
279.81	79.12
280.042	90.12
280.273	83.12
280.505	85.12
280.736	80.12
280.968	93.12
281.199	97.12
281.431	89.12
281.662	89.12
281.894	93.12
282.125	90.12
282.356	115.12
282.588	124.12
282.819	95.12
283.051	76.12
283.282	85.12
283.513	87.12
283.745	95.12
283.976	91.12
284.207	91.12
284.439	95.12
284.67	97.12
284.901	82.12
285.132	79.12
285.364	92.12
285.595	84.12
285.826	92.12
286.057	87.12
286.288	85.12
286.52	85.12
286.751	91.12
286.982	81.12
287.213	83.12
287.444	89.12
287.675	92.12
287.906	95.12
288.138	86.12
288.369	90.12
288.6	113.12
288.831	97.12
289.062	91.12
289.293	92.12
289.524	105.12
289.755	81.12
289.986	79.12
290.217	84.12
290.448	81.12
290.679	93.12
290.91	89.12
291.141	74.12
291.371	91.12
291.602	93.12
291.833	89.12
292.064	83.12
292.295	80.12
292.526	107.12
292.757	95.12
292.987	95.12
293.218	92.12
293.449	87.12
293.68	92.12
293.91	84.12
294.141	108.12
294.372	85.12
294.603	91.12
294.833	104.12
295.064	77.12
295.295	80.12
295.525	90.12
295.756	89.12
295.987	98.12
296.217	118.12
296.448	126.12
296.679	93.12
296.909	89.12
297.14	84.12
297.37	95.12
297.601	78.12
297.831	82.12
298.062	83.12
298.292	91.12
298.523	95.12
298.753	95.12
298.984	85.12
299.214	101.12
299.445	82.12
299.675	97.12
299.905	96.12
300.136	95.12
300.366	104.12
300.597	92.12
300.827	101.12
301.057	92.12
301.288	98.12
301.518	73.12
301.748	91.12
301.979	103.12
302.209	84.12
302.439	82.12
302.669	94.12
302.9	65.12
303.13	91.12
303.36	95.12
303.59	99.12
303.82	108.12
304.051	102.12
304.281	109.12
304.511	92.12
304.741	99.12
304.971	78.12
305.201	92.12
305.431	93.12
305.661	83.12
305.891	89.12
306.121	86.12
306.352	109.12
306.582	107.12
306.812	101.12
307.042	101.12
307.272	84.12
307.502	115.12
307.731	94.12
307.961	88.12
308.191	92.12
308.421	88.12
308.651	86.12
308.881	85.12
309.111	86.12
309.341	84.12
309.571	114.12
309.8	94.12
310.03	100.12
310.26	96.12
310.49	99.12
310.72	109.12
310.949	104.12
311.179	103.12
311.409	101.12
311.639	84.12
311.868	85.12
312.098	91.12
312.328	105.12
312.557	84.12
312.787	96.12
313.017	107.12
313.246	93.12
313.476	81.12
313.706	95.12
313.935	97.12
314.165	99.12
314.394	97.12
314.624	92.12
314.853	84.12
315.083	97.12
315.312	99.12
315.542	85.12
315.771	101.12
316.001	96.12
316.23	102.12
316.46	92.12
316.689	98.12
316.919	76.12
317.148	99.12
317.377	99.12
317.607	92.12
317.836	101.12
318.065	92.12
318.295	94.12
318.524	117.12
318.753	96.12
318.983	90.12
319.212	100.12
319.441	106.12
319.67	80.12
319.9	87.12
320.129	92.12
320.358	96.12
320.587	91.12
320.816	99.12
321.046	100.12
321.275	96.12
321.504	97.12
321.733	90.12
321.962	97.12
322.191	103.12
322.42	94.12
322.649	96.12
322.878	100.12
323.108	109.12
323.337	124.12
323.566	130.12
323.795	131.12
324.024	192.12
324.253	336.12
324.482	677.12
324.71	1402.12
324.939	1810.12
325.168	659.12
325.397	220.12
325.626	145.12
325.855	136.12
326.084	136.12
326.313	116.12
326.542	132.12
326.77	207.12
326.999	390.12
327.228	808.12
327.457	1427.12
327.686	1140.12
327.914	310.12
328.143	173.12
328.372	133.12
328.6	113.12
328.829	115.12
329.058	126.12
329.287	109.12
329.515	104.12
329.744	107.12
329.972	97.12
330.201	122.12
330.43	121.12
330.658	113.12
330.887	131.12
331.115	112.12
331.344	99.12
331.572	100.12
331.801	100.12
332.03	92.12
332.258	109.12
332.486	100.12
332.715	99.12
332.943	90.12
333.172	98.12
333.4	93.12
333.629	106.12
333.857	116.12
334.085	109.12
334.314	118.12
334.542	124.12
334.771	116.12
334.999	91.12
335.227	97.12
335.455	106.12
335.684	102.12
335.912	107.12
336.14	93.12
336.369	113.12
336.597	103.12
336.825	92.12
337.053	95.12
337.281	112.12
337.51	91.12
337.738	89.12
337.966	90.12
338.194	97.12
338.422	97.12
338.65	113.12
338.878	102.12
339.106	97.12
339.334	91.12
339.562	92.12
339.79	93.12
340.018	90.12
340.246	97.12
340.474	97.12
340.702	93.12
340.93	93.12
341.158	76.12
341.386	99.12
341.614	98.12
341.842	95.12
342.07	102.12
342.298	89.12
342.526	87.12
342.754	96.12
342.981	93.12
343.209	84.12
343.437	108.12
343.665	93.12
343.893	99.12
344.12	92.12
344.348	102.12
344.576	95.12
344.804	76.12
345.031	104.12
345.259	99.12
345.487	95.12
345.714	90.12
345.942	79.12
346.17	92.12
346.397	80.12
346.625	91.12
346.853	91.12
347.08	100.12
347.308	99.12
347.535	91.12
347.763	95.12
347.99	95.12
348.218	93.12
348.445	109.12
348.673	87.12
348.9	101.12
349.128	105.12
349.355	106.12
349.583	85.12
349.81	97.12
350.037	90.12
350.265	101.12
350.492	95.12
350.72	103.12
350.947	112.12
351.174	97.12
351.402	108.12
351.629	96.12
351.856	105.12
352.083	97.12
352.311	118.12
352.538	99.12
352.765	120.12
352.992	117.12
353.22	129.12
353.447	118.12
353.674	104.12
353.901	104.12
354.128	92.12
354.355	105.12
354.583	97.12
354.81	111.12
355.037	91.12
355.264	93.12
355.491	91.12
355.718	88.12
355.945	105.12
356.172	102.12
356.399	90.12
356.626	89.12
356.853	107.12
357.08	88.12
357.307	97.12
357.534	98.12
357.761	92.12
357.988	92.12
358.215	96.12
358.441	95.12
358.668	100.12
358.895	95.12
359.122	100.12
359.349	87.12
359.576	84.12
359.802	86.12
360.029	106.12
360.256	108.12
360.483	92.12
360.709	89.12
360.936	85.12
361.163	95.12
361.39	93.12
361.616	97.12
361.843	85.12
362.07	101.12
362.296	89.12
362.523	91.12
362.749	83.12
362.976	96.12
363.203	84.12
363.429	102.12
363.656	83.12
363.882	84.12
364.109	86.12
364.335	96.12
364.562	99.12
364.788	97.12
365.015	83.12
365.241	100.12
365.468	108.12
365.694	89.12
365.92	110.12
366.147	114.12
366.373	80.12
366.599	99.12
366.826	94.12
367.052	84.12
367.278	93.12
367.505	71.12
367.731	99.12
367.957	81.12
368.184	97.12
368.41	101.12
368.636	110.12
368.862	119.12
369.089	110.12
369.315	95.12
369.541	90.12
369.767	83.12
369.993	95.12
370.219	97.12
370.445	83.12
370.672	91.12
370.898	81.12
371.124	94.12
371.35	89.12
371.576	94.12
371.802	80.12
372.028	94.12
372.254	95.12
372.48	96.12
372.706	108.12
372.932	92.12
373.158	92.12
373.384	95.12
373.61	91.12
373.835	98.12
374.061	96.12
374.287	104.12
374.513	101.12
374.739	95.12
374.965	90.12
375.191	88.12
375.416	88.12
375.642	90.12
375.868	106.12
376.094	70.12
376.319	90.12
376.545	89.12
376.771	99.12
376.997	92.12
377.222	99.12
377.448	101.12
377.674	89.12
377.899	90.12
378.125	95.12
378.35	88.12
378.576	95.12
378.802	106.12
379.027	92.12
379.253	91.12
379.478	97.12
379.704	95.12
379.929	99.12
380.155	93.12
380.38	104.12
380.606	93.12
380.831	87.12
381.057	86.12
381.282	87.12
381.507	94.12
381.733	91.12
381.958	99.12
382.184	91.12
382.409	103.12
382.634	101.12
382.86	105.12
383.085	90.12
383.31	98.12
383.535	101.12
383.761	96.12
383.986	94.12
384.211	101.12
384.436	98.12
384.662	101.12
384.887	92.12
385.112	100.12
385.337	92.12
385.562	113.12
385.787	103.12
386.013	95.12
386.238	96.12
386.463	109.12
386.688	129.12
386.913	105.12
387.138	103.12
387.363	104.12
387.588	110.12
387.813	101.12
388.038	117.12
388.263	111.12
388.488	107.12
388.713	91.12
388.938	95.12
389.163	97.12
389.387	95.12
389.612	109.12
389.837	96.12
390.062	87.12
390.287	99.12
390.512	102.12
390.736	98.12
390.961	94.12
391.186	101.12
391.411	106.12
391.636	95.12
391.86	94.12
392.085	86.12
392.31	89.12
392.534	96.12
392.759	94.12
392.984	95.12
393.208	107.12
393.433	139.12
393.658	122.12
393.882	98.12
394.107	98.12
394.331	97.12
394.556	83.12
394.78	92.12
395.005	99.12
395.229	76.12
395.454	81.12
395.678	86.12
395.903	98.12
396.127	87.12
396.352	101.12
396.576	98.12
396.801	115.12
397.025	106.12
397.249	75.12
397.474	98.12
397.698	86.12
397.922	90.12
398.147	100.12
398.371	93.12
398.595	103.12
398.82	97.12
399.044	98.12
399.268	95.12
399.492	79.12
399.717	103.12
399.941	100.12
400.165	101.12
400.389	102.12
400.613	101.12
400.837	83.12
401.062	93.12
401.286	83.12
401.51	97.12
401.734	88.12
401.958	95.12
402.182	113.12
402.406	143.12
402.63	111.12
402.854	101.12
403.078	88.12
403.302	94.12
403.526	88.12
403.75	93.12
403.974	94.12
404.198	81.12
404.422	83.12
404.645	87.12
404.869	101.12
405.093	98.12
405.317	109.12
405.541	92.12
405.765	85.12
405.988	102.12
406.212	138.12
406.436	185.12
406.66	127.12
406.883	93.12
407.107	91.12
407.331	94.12
407.555	83.12
407.778	90.12
408.002	96.12
408.226	97.12
408.449	84.12
408.673	107.12
408.896	102.12
409.12	89.12
409.344	100.12
409.567	95.12
409.791	101.12
410.014	91.12
410.238	100.12
410.461	97.12
410.685	93.12
410.908	86.12
411.132	103.12
411.355	109.12
411.578	99.12
411.802	75.12
412.025	78.12
412.249	83.12
412.472	96.12
412.695	104.12
412.919	87.12
413.142	91.12
413.365	82.12
413.589	91.12
413.812	89.12
414.035	98.12
414.258	89.12
414.482	106.12
414.705	88.12
414.928	93.12
415.151	94.12
415.374	77.12
415.597	101.12
415.821	96.12
416.044	80.12
416.267	87.12
416.49	92.12
416.713	81.12
416.936	92.12
417.159	98.12
417.382	100.12
417.605	96.12
417.828	92.12
418.051	96.12
418.274	92.12
418.497	97.12
418.72	81.12
418.943	85.12
419.166	103.12
419.389	86.12
419.611	90.12
419.834	95.12
420.057	95.12
420.28	98.12
420.503	89.12
420.726	83.12
420.948	93.12
421.171	88.12
421.394	92.12
421.617	95.12
421.839	99.12
422.062	105.12
422.285	105.12
422.507	109.12
422.73	108.12
422.953	92.12
423.175	88.12
423.398	97.12
423.621	85.12
423.843	88.12
424.066	82.12
424.288	99.12
424.511	91.12
424.733	89.12
424.956	101.12
425.178	98.12
425.401	92.12
425.623	85.12
425.846	82.12
426.068	86.12
426.291	98.12
426.513	95.12
426.735	91.12
426.958	83.12
427.18	109.12
427.402	123.12
427.625	139.12
427.847	110.12
428.069	108.12
428.292	79.12
428.514	90.12
428.736	82.12
428.958	80.12
429.181	93.12
429.403	83.12
429.625	91.12
429.847	91.12
430.069	102.12
430.292	96.12
430.514	114.12
430.736	83.12
430.958	87.12
431.18	91.12
431.402	90.12
431.624	106.12
431.846	92.12
432.068	89.12
432.29	104.12
432.512	97.12
432.734	78.12
432.956	90.12
433.178	97.12
433.4	100.12
433.622	83.12
433.844	92.12
434.066	89.12
434.287	86.12
434.509	75.12
434.731	83.12
434.953	75.12
435.175	76.12
435.397	85.12
435.618	103.12
435.84	104.12
436.062	114.12
436.284	117.12
436.505	85.12
436.727	88.12
436.949	100.12
437.17	104.12
437.392	107.12
437.614	95.12
437.835	103.12
438.057	103.12
438.278	92.12
438.5	104.12
438.721	124.12
438.943	98.12
439.165	76.12
439.386	91.12
439.608	104.12
439.829	107.12
440.05	95.12
440.272	112.12
440.493	93.12
440.715	88.12
440.936	102.12
441.158	104.12
441.379	96.12
441.6	95.12
441.822	92.12
442.043	97.12
442.264	105.12
442.486	105.12
442.707	99.12
442.928	108.12
443.149	113.12
443.371	119.12
443.592	115.12
443.813	103.12
444.034	103.12
444.255	84.12
444.476	92.12
444.698	95.12
444.919	88.12
445.14	149.12
445.361	128.12
445.582	103.12
445.803	126.12
446.024	116.12
446.245	124.12
446.466	108.12
446.687	103.12
446.908	77.12
447.129	97.12
447.35	98.12
447.571	83.12
447.792	96.12
448.013	96.12
448.234	97.12
448.455	97.12
448.675	107.12
448.896	112.12
449.117	103.12
449.338	106.12
449.559	120.12
449.779	114.12
450	98.12
450.221	92.12
450.442	97.12
450.662	108.12
450.883	98.12
451.104	103.12
451.324	107.12
451.545	82.12
451.766	84.12
451.986	87.12
452.207	87.12
452.428	84.12
452.648	105.12
452.869	95.12
453.089	101.12
453.31	113.12
453.53	86.12
453.751	91.12
453.971	120.12
454.192	106.12
454.412	96.12
454.633	102.12
454.853	81.12
455.073	87.12
455.294	101.12
455.514	93.12
455.734	96.12
455.955	97.12
456.175	95.12
456.395	82.12
456.616	87.12
456.836	97.12
457.056	84.12
457.276	90.12
457.497	85.12
457.717	91.12
457.937	92.12
458.157	86.12
458.377	87.12
458.598	108.12
458.818	130.12
459.038	143.12
459.258	115.12
459.478	103.12
459.698	92.12
459.918	100.12
460.138	96.12
460.358	92.12
460.578	91.12
460.798	80.12
461.018	81.12
461.238	88.12
461.458	105.12
461.678	94.12
461.898	92.12
462.118	94.12
462.338	76.12
462.558	93.12
462.777	83.12
462.997	94.12
463.217	98.12
463.437	91.12
463.657	97.12
463.876	92.12
464.096	101.12
464.316	95.12
464.536	109.12
464.755	102.12
464.975	95.12
465.195	136.12
465.414	126.12
465.634	97.12
465.854	83.12
466.073	103.12
466.293	90.12
466.512	98.12
466.732	95.12
466.951	80.12
467.171	88.12
467.391	91.12
467.61	99.12
467.829	85.12
468.049	92.12
468.268	109.12
468.488	91.12
468.707	79.12
468.927	86.12
469.146	83.12
469.365	83.12
469.585	85.12
469.804	89.12
470.023	107.12
470.243	90.12
470.462	96.12
470.681	112.12
470.901	95.12
471.12	81.12
471.339	90.12
471.558	87.12
471.777	105.12
471.997	93.12
472.216	116.12
472.435	125.12
472.654	110.12
472.873	100.12
473.092	93.12
473.311	90.12
473.53	96.12
473.749	83.12
473.968	104.12
474.187	99.12
474.406	99.12
474.625	80.12
474.844	93.12
475.063	89.12
475.282	104.12
475.501	67.12
475.72	100.12
475.939	89.12
476.158	84.12
476.377	91.12
476.596	89.12
476.814	83.12
477.033	96.12
477.252	88.12
477.471	100.12
477.69	89.12
477.908	79.12
478.127	96.12
478.346	80.12
478.564	93.12
478.783	99.12
479.002	95.12
479.22	89.12
479.439	100.12
479.658	107.12
479.876	97.12
480.095	91.12
480.313	99.12
480.532	87.12
480.751	81.12
480.969	101.12
481.188	185.12
481.406	161.12
481.624	89.12
481.843	108.12
482.061	88.12
482.28	91.12
482.498	87.12
482.717	92.12
482.935	89.12
483.153	87.12
483.372	88.12
483.59	97.12
483.808	96.12
484.027	101.12
484.245	111.12
484.463	92.12
484.681	103.12
484.9	95.12
485.118	81.12
485.336	108.12
485.554	91.12
485.772	91.12
485.99	112.12
486.209	111.12
486.427	90.12
486.645	86.12
486.863	104.12
487.081	99.12
487.299	85.12
487.517	90.12
487.735	90.12
487.953	105.12
488.171	81.12
488.389	76.12
488.607	101.12
488.825	86.12
489.043	81.12
489.261	85.12
489.479	85.12
489.696	89.12
489.914	84.12
490.132	97.12
490.35	104.12
490.568	87.12
490.786	97.12
491.003	99.12
491.221	102.12
491.439	80.12
491.657	89.12
491.874	84.12
492.092	83.12
492.31	99.12
492.527	92.12
492.745	96.12
492.963	93.12
493.18	89.12
493.398	89.12
493.615	94.12
493.833	95.12
494.05	85.12
494.268	75.12
494.485	97.12
494.703	107.12
494.92	92.12
495.138	95.12
495.355	94.12
495.573	112.12
495.79	103.12
496.008	101.12
496.225	104.12
496.442	100.12
496.66	89.12
496.877	92.12
497.094	93.12
497.312	98.12
497.529	87.12
497.746	89.12
497.963	93.12
498.181	95.12
498.398	117.12
498.615	108.12
498.832	107.12
499.049	106.12
499.267	92.12
499.484	88.12
499.701	91.12
499.918	89.12
500.135	91.12
500.352	106.12
500.569	97.12
500.786	90.12
501.003	95.12
501.22	95.12
501.437	95.12
501.654	97.12
501.871	112.12
502.088	90.12
502.305	93.12
502.522	75.12
502.739	77.12
502.956	89.12
503.172	94.12
503.389	101.12
503.606	109.12
503.823	91.12
504.04	77.12
504.256	89.12
504.473	90.12
504.69	96.12
504.907	84.12
505.123	102.12
505.34	80.12
505.557	96.12
505.773	91.12
505.99	79.12
506.207	90.12
506.423	106.12
506.64	95.12
506.856	106.12
507.073	97.12
507.289	96.12
507.506	93.12
507.722	111.12
507.939	94.12
508.155	104.12
508.372	85.12
508.588	115.12
508.805	99.12
509.021	97.12
509.238	102.12
509.454	101.12
509.67	104.12
509.887	100.12
510.103	115.12
510.319	174.12
510.536	586.12
510.752	1739.12
510.968	496.12
511.184	148.12
511.401	107.12
511.617	95.12
511.833	91.12
512.049	79.12
512.265	92.12
512.481	97.12
512.698	94.12
512.914	109.12
513.13	103.12
513.346	96.12
513.562	86.12
513.778	102.12
513.994	95.12
514.21	93.12
514.426	116.12
514.642	122.12
514.858	116.12
515.074	146.12
