Data from Uncirc_1989_H10_HRD10591_00030.txt Node
Date: Wed Jan 03 11:57:41 EST 2024
User: Yrep
Spectrometer: HR+D1059
Trigger mode: 1
Integration Time (sec): 1.000000E-1
Scans to average: 1
Electric dark correction enabled: true
Nonlinearity correction enabled: false
Boxcar width: 0
XAxis mode: Wavelengths
Number of Pixels in Spectrum: 2048
>>>>>Begin Spectral Data<<<<<
223.165	-18.5
223.4	-18.5
223.635	-18.5
223.869	-24.5
224.104	-3.5
224.338	-12.5
224.573	-13.5
224.808	-4.5
225.042	-3.5
225.277	-13.5
225.511	-10.5
225.746	-3.5
225.98	5.5
226.215	10.5
226.449	15.5
226.683	23.5
226.918	23.5
227.152	29.5
227.387	20.5
227.621	36.5
227.856	43.5
228.09	47.5
228.324	53.5
228.559	61.5
228.793	65.5
229.027	55.5
229.262	70.5
229.496	75.5
229.73	71.5
229.964	76.5
230.199	66.5
230.433	76.5
230.667	66.5
230.901	79.5
231.136	68.5
231.37	70.5
231.604	72.5
231.838	75.5
232.072	78.5
232.306	71.5
232.541	76.5
232.775	76.5
233.009	86.5
233.243	74.5
233.477	80.5
233.711	87.5
233.945	61.5
234.179	91.5
234.413	78.5
234.647	80.5
234.881	66.5
235.115	62.5
235.349	87.5
235.583	80.5
235.817	102.5
236.051	84.5
236.285	68.5
236.519	80.5
236.753	89.5
236.987	64.5
237.221	84.5
237.455	76.5
237.689	77.5
237.922	70.5
238.156	83.5
238.39	83.5
238.624	77.5
238.858	92.5
239.091	72.5
239.325	70.5
239.559	77.5
239.793	71.5
240.027	74.5
240.26	83.5
240.494	66.5
240.728	71.5
240.961	77.5
241.195	76.5
241.429	72.5
241.662	61.5
241.896	66.5
242.13	73.5
242.363	73.5
242.597	66.5
242.83	96.5
243.064	73.5
243.298	77.5
243.531	76.5
243.765	79.5
243.998	87.5
244.232	85.5
244.465	86.5
244.699	70.5
244.932	86.5
245.166	72.5
245.399	74.5
245.633	98.5
245.866	76.5
246.099	65.5
246.333	76.5
246.566	84.5
246.8	74.5
247.033	76.5
247.266	74.5
247.5	76.5
247.733	69.5
247.966	76.5
248.2	71.5
248.433	88.5
248.666	76.5
248.899	87.5
249.133	87.5
249.366	82.5
249.599	88.5
249.832	74.5
250.066	104.5
250.299	71.5
250.532	93.5
250.765	74.5
250.998	83.5
251.231	69.5
251.465	77.5
251.698	90.5
251.931	74.5
252.164	70.5
252.397	88.5
252.63	84.5
252.863	70.5
253.096	78.5
253.329	91.5
253.562	74.5
253.795	63.5
254.028	89.5
254.261	96.5
254.494	79.5
254.727	93.5
254.96	74.5
255.193	80.5
255.426	73.5
255.659	78.5
255.892	88.5
256.124	85.5
256.357	80.5
256.59	80.5
256.823	82.5
257.056	68.5
257.289	68.5
257.521	88.5
257.754	72.5
257.987	86.5
258.22	67.5
258.452	86.5
258.685	80.5
258.918	79.5
259.151	80.5
259.383	83.5
259.616	93.5
259.849	71.5
260.081	82.5
260.314	88.5
260.547	91.5
260.779	64.5
261.012	86.5
261.244	84.5
261.477	90.5
261.71	81.5
261.942	93.5
262.175	90.5
262.407	73.5
262.64	69.5
262.872	84.5
263.105	68.5
263.337	75.5
263.57	95.5
263.802	85.5
264.035	67.5
264.267	67.5
264.499	81.5
264.732	84.5
264.964	82.5
265.197	68.5
265.429	75.5
265.661	84.5
265.894	84.5
266.126	75.5
266.358	78.5
266.591	72.5
266.823	86.5
267.055	75.5
267.287	83.5
267.52	76.5
267.752	78.5
267.984	89.5
268.216	72.5
268.448	68.5
268.681	86.5
268.913	75.5
269.145	78.5
269.377	78.5
269.609	87.5
269.841	101.5
270.073	85.5
270.306	79.5
270.538	90.5
270.77	85.5
271.002	81.5
271.234	77.5
271.466	95.5
271.698	83.5
271.93	82.5
272.162	90.5
272.394	85.5
272.626	91.5
272.858	80.5
273.09	84.5
273.322	75.5
273.553	69.5
273.785	90.5
274.017	84.5
274.249	88.5
274.481	94.5
274.713	96.5
274.945	87.5
275.176	84.5
275.408	87.5
275.64	87.5
275.872	77.5
276.104	82.5
276.335	86.5
276.567	99.5
276.799	99.5
277.031	109.5
277.262	90.5
277.494	88.5
277.726	75.5
277.957	70.5
278.189	84.5
278.421	82.5
278.652	90.5
278.884	81.5
279.115	91.5
279.347	80.5
279.579	78.5
279.81	80.5
280.042	99.5
280.273	86.5
280.505	82.5
280.736	82.5
280.968	62.5
281.199	91.5
281.431	85.5
281.662	69.5
281.894	71.5
282.125	87.5
282.356	98.5
282.588	120.5
282.819	107.5
283.051	76.5
283.282	94.5
283.513	85.5
283.745	88.5
283.976	76.5
284.207	85.5
284.439	84.5
284.67	78.5
284.901	93.5
285.132	90.5
285.364	101.5
285.595	94.5
285.826	78.5
286.057	92.5
286.288	92.5
286.52	81.5
286.751	83.5
286.982	87.5
287.213	79.5
287.444	99.5
287.675	89.5
287.906	84.5
288.138	87.5
288.369	93.5
288.6	94.5
288.831	80.5
289.062	95.5
289.293	99.5
289.524	79.5
289.755	88.5
289.986	70.5
290.217	80.5
290.448	83.5
290.679	85.5
290.91	104.5
291.141	96.5
291.371	89.5
291.602	90.5
291.833	91.5
292.064	98.5
292.295	93.5
292.526	94.5
292.757	88.5
292.987	84.5
293.218	83.5
293.449	92.5
293.68	93.5
293.91	94.5
294.141	93.5
294.372	76.5
294.603	80.5
294.833	84.5
295.064	84.5
295.295	93.5
295.525	101.5
295.756	108.5
295.987	114.5
296.217	125.5
296.448	103.5
296.679	94.5
296.909	96.5
297.14	73.5
297.37	88.5
297.601	87.5
297.831	84.5
298.062	86.5
298.292	88.5
298.523	86.5
298.753	92.5
298.984	76.5
299.214	90.5
299.445	82.5
299.675	88.5
299.905	93.5
300.136	78.5
300.366	83.5
300.597	104.5
300.827	101.5
301.057	94.5
301.288	103.5
301.518	79.5
301.748	96.5
301.979	92.5
302.209	84.5
302.439	95.5
302.669	94.5
302.9	80.5
303.13	94.5
303.36	77.5
303.59	99.5
303.82	106.5
304.051	90.5
304.281	90.5
304.511	96.5
304.741	79.5
304.971	82.5
305.201	90.5
305.431	90.5
305.661	84.5
305.891	87.5
306.121	92.5
306.352	94.5
306.582	98.5
306.812	94.5
307.042	90.5
307.272	91.5
307.502	99.5
307.731	95.5
307.961	99.5
308.191	83.5
308.421	83.5
308.651	70.5
308.881	94.5
309.111	102.5
309.341	77.5
309.571	98.5
309.8	85.5
310.03	94.5
310.26	88.5
310.49	87.5
310.72	97.5
310.949	92.5
311.179	94.5
311.409	81.5
311.639	90.5
311.868	80.5
312.098	93.5
312.328	93.5
312.557	84.5
312.787	96.5
313.017	102.5
313.246	92.5
313.476	102.5
313.706	94.5
313.935	82.5
314.165	97.5
314.394	98.5
314.624	94.5
314.853	102.5
315.083	97.5
315.312	90.5
315.542	96.5
315.771	88.5
316.001	88.5
316.23	88.5
316.46	84.5
316.689	91.5
316.919	108.5
317.148	86.5
317.377	99.5
317.607	92.5
317.836	96.5
318.065	97.5
318.295	97.5
318.524	80.5
318.753	92.5
318.983	97.5
319.212	95.5
319.441	94.5
319.67	109.5
319.9	89.5
320.129	82.5
320.358	81.5
320.587	95.5
320.816	92.5
321.046	98.5
321.275	97.5
321.504	81.5
321.733	98.5
321.962	90.5
322.191	94.5
322.42	95.5
322.649	99.5
322.878	111.5
323.108	115.5
323.337	109.5
323.566	118.5
323.795	127.5
324.024	192.5
324.253	354.5
324.482	673.5
324.71	1360.5
324.939	1831.5
325.168	690.5
325.397	214.5
325.626	139.5
325.855	115.5
326.084	115.5
326.313	121.5
326.542	124.5
326.77	190.5
326.999	383.5
327.228	808.5
327.457	1447.5
327.686	1132.5
327.914	302.5
328.143	175.5
328.372	135.5
328.6	121.5
328.829	96.5
329.058	121.5
329.287	110.5
329.515	108.5
329.744	118.5
329.972	112.5
330.201	127.5
330.43	161.5
330.658	120.5
330.887	132.5
331.115	118.5
331.344	105.5
331.572	87.5
331.801	95.5
332.03	83.5
332.258	96.5
332.486	94.5
332.715	94.5
332.943	91.5
333.172	100.5
333.4	91.5
333.629	94.5
333.857	114.5
334.085	117.5
334.314	124.5
334.542	168.5
334.771	165.5
334.999	110.5
335.227	82.5
335.455	88.5
335.684	92.5
335.912	109.5
336.14	74.5
336.369	86.5
336.597	104.5
336.825	110.5
337.053	99.5
337.281	96.5
337.51	93.5
337.738	102.5
337.966	93.5
338.194	90.5
338.422	95.5
338.65	90.5
338.878	94.5
339.106	84.5
339.334	95.5
339.562	91.5
339.79	90.5
340.018	80.5
340.246	107.5
340.474	103.5
340.702	78.5
340.93	85.5
341.158	100.5
341.386	107.5
341.614	78.5
341.842	93.5
342.07	98.5
342.298	93.5
342.526	93.5
342.754	92.5
342.981	85.5
343.209	86.5
343.437	104.5
343.665	83.5
343.893	92.5
344.12	77.5
344.348	92.5
344.576	78.5
344.804	78.5
345.031	83.5
345.259	97.5
345.487	89.5
345.714	97.5
345.942	100.5
346.17	86.5
346.397	88.5
346.625	82.5
346.853	85.5
347.08	100.5
347.308	94.5
347.535	90.5
347.763	101.5
347.99	91.5
348.218	82.5
348.445	96.5
348.673	96.5
348.9	98.5
349.128	80.5
349.355	77.5
349.583	92.5
349.81	94.5
350.037	79.5
350.265	90.5
350.492	94.5
350.72	92.5
350.947	91.5
351.174	102.5
351.402	103.5
351.629	107.5
351.856	91.5
352.083	114.5
352.311	93.5
352.538	82.5
352.765	93.5
352.992	95.5
353.22	108.5
353.447	94.5
353.674	96.5
353.901	91.5
354.128	97.5
354.355	87.5
354.583	104.5
354.81	97.5
355.037	99.5
355.264	90.5
355.491	87.5
355.718	87.5
355.945	103.5
356.172	106.5
356.399	93.5
356.626	82.5
356.853	97.5
357.08	90.5
357.307	83.5
357.534	91.5
357.761	81.5
357.988	84.5
358.215	88.5
358.441	80.5
358.668	84.5
358.895	85.5
359.122	76.5
359.349	87.5
359.576	102.5
359.802	100.5
360.029	100.5
360.256	99.5
360.483	97.5
360.709	93.5
360.936	95.5
361.163	96.5
361.39	100.5
361.616	92.5
361.843	85.5
362.07	88.5
362.296	99.5
362.523	93.5
362.749	103.5
362.976	85.5
363.203	84.5
363.429	82.5
363.656	90.5
363.882	91.5
364.109	95.5
364.335	90.5
364.562	78.5
364.788	82.5
365.015	94.5
365.241	101.5
365.468	115.5
365.694	106.5
365.92	83.5
366.147	93.5
366.373	95.5
366.599	69.5
366.826	91.5
367.052	91.5
367.278	107.5
367.505	104.5
367.731	95.5
367.957	80.5
368.184	99.5
368.41	85.5
368.636	102.5
368.862	109.5
369.089	97.5
369.315	82.5
369.541	89.5
369.767	90.5
369.993	85.5
370.219	94.5
370.445	88.5
370.672	83.5
370.898	86.5
371.124	81.5
371.35	83.5
371.576	86.5
371.802	94.5
372.028	97.5
372.254	75.5
372.48	78.5
372.706	82.5
372.932	102.5
373.158	91.5
373.384	96.5
373.61	88.5
373.835	84.5
374.061	80.5
374.287	87.5
374.513	99.5
374.739	77.5
374.965	85.5
375.191	83.5
375.416	95.5
375.642	83.5
375.868	78.5
376.094	68.5
376.319	74.5
376.545	94.5
376.771	84.5
376.997	83.5
377.222	77.5
377.448	92.5
377.674	92.5
377.899	93.5
378.125	99.5
378.35	82.5
378.576	72.5
378.802	74.5
379.027	94.5
379.253	96.5
379.478	83.5
379.704	87.5
379.929	85.5
380.155	99.5
380.38	93.5
380.606	90.5
380.831	85.5
381.057	99.5
381.282	94.5
381.507	95.5
381.733	101.5
381.958	103.5
382.184	93.5
382.409	75.5
382.634	94.5
382.86	94.5
383.085	107.5
383.31	114.5
383.535	103.5
383.761	114.5
383.986	98.5
384.211	89.5
384.436	87.5
384.662	100.5
384.887	104.5
385.112	85.5
385.337	112.5
385.562	91.5
385.787	84.5
386.013	102.5
386.238	102.5
386.463	97.5
386.688	109.5
386.913	97.5
387.138	90.5
387.363	101.5
387.588	99.5
387.813	99.5
388.038	111.5
388.263	111.5
388.488	86.5
388.713	100.5
388.938	106.5
389.163	81.5
389.387	94.5
389.612	85.5
389.837	87.5
390.062	93.5
390.287	91.5
390.512	75.5
390.736	96.5
390.961	85.5
391.186	76.5
391.411	90.5
391.636	91.5
391.86	92.5
392.085	86.5
392.31	87.5
392.534	81.5
392.759	85.5
392.984	104.5
393.208	108.5
393.433	124.5
393.658	103.5
393.882	85.5
394.107	80.5
394.331	83.5
394.556	91.5
394.78	92.5
395.005	93.5
395.229	78.5
395.454	86.5
395.678	82.5
395.903	85.5
396.127	85.5
396.352	89.5
396.576	87.5
396.801	96.5
397.025	101.5
397.249	90.5
397.474	95.5
397.698	86.5
397.922	88.5
398.147	84.5
398.371	92.5
398.595	81.5
398.82	75.5
399.044	88.5
399.268	87.5
399.492	83.5
399.717	84.5
399.941	87.5
400.165	83.5
400.389	89.5
400.613	93.5
400.837	67.5
401.062	83.5
401.286	79.5
401.51	90.5
401.734	105.5
401.958	87.5
402.182	92.5
402.406	128.5
402.63	109.5
402.854	91.5
403.078	99.5
403.302	83.5
403.526	81.5
403.75	82.5
403.974	85.5
404.198	86.5
404.422	75.5
404.645	80.5
404.869	94.5
405.093	96.5
405.317	92.5
405.541	89.5
405.765	76.5
405.988	104.5
406.212	132.5
406.436	184.5
406.66	127.5
406.883	91.5
407.107	87.5
407.331	103.5
407.555	94.5
407.778	96.5
408.002	91.5
408.226	79.5
408.449	74.5
408.673	96.5
408.896	89.5
409.12	86.5
409.344	100.5
409.567	83.5
409.791	76.5
410.014	91.5
410.238	77.5
410.461	101.5
410.685	86.5
410.908	86.5
411.132	86.5
411.355	99.5
411.578	91.5
411.802	78.5
412.025	81.5
412.249	91.5
412.472	100.5
412.695	94.5
412.919	93.5
413.142	61.5
413.365	89.5
413.589	90.5
413.812	94.5
414.035	86.5
414.258	104.5
414.482	79.5
414.705	99.5
414.928	82.5
415.151	88.5
415.374	93.5
415.597	88.5
415.821	87.5
416.044	102.5
416.267	87.5
416.49	74.5
416.713	87.5
416.936	88.5
417.159	84.5
417.382	76.5
417.605	94.5
417.828	102.5
418.051	91.5
418.274	81.5
418.497	97.5
418.72	95.5
418.943	92.5
419.166	86.5
419.389	92.5
419.611	85.5
419.834	90.5
420.057	84.5
420.28	89.5
420.503	84.5
420.726	79.5
420.948	90.5
421.171	96.5
421.394	106.5
421.617	90.5
421.839	78.5
422.062	83.5
422.285	100.5
422.507	107.5
422.73	100.5
422.953	94.5
423.175	79.5
423.398	89.5
423.621	86.5
423.843	80.5
424.066	82.5
424.288	86.5
424.511	88.5
424.733	92.5
424.956	84.5
425.178	92.5
425.401	87.5
425.623	93.5
425.846	91.5
426.068	86.5
426.291	83.5
426.513	94.5
426.735	78.5
426.958	100.5
427.18	94.5
427.402	119.5
427.625	139.5
427.847	119.5
428.069	111.5
428.292	90.5
428.514	100.5
428.736	91.5
428.958	82.5
429.181	77.5
429.403	78.5
429.625	90.5
429.847	87.5
430.069	104.5
430.292	93.5
430.514	81.5
430.736	81.5
430.958	90.5
431.18	62.5
431.402	71.5
431.624	81.5
431.846	76.5
432.068	81.5
432.29	94.5
432.512	90.5
432.734	79.5
432.956	86.5
433.178	90.5
433.4	86.5
433.622	93.5
433.844	83.5
434.066	77.5
434.287	70.5
434.509	71.5
434.731	76.5
434.953	87.5
435.175	88.5
435.397	79.5
435.618	99.5
435.84	82.5
436.062	105.5
436.284	109.5
436.505	94.5
436.727	101.5
436.949	88.5
437.17	88.5
437.392	82.5
437.614	90.5
437.835	97.5
438.057	103.5
438.278	94.5
438.5	101.5
438.721	108.5
438.943	106.5
439.165	103.5
439.386	90.5
439.608	93.5
439.829	90.5
440.05	86.5
440.272	120.5
440.493	90.5
440.715	92.5
440.936	84.5
441.158	79.5
441.379	92.5
441.6	90.5
441.822	91.5
442.043	90.5
442.264	114.5
442.486	90.5
442.707	80.5
442.928	93.5
443.149	123.5
443.371	117.5
443.592	91.5
443.813	87.5
444.034	89.5
444.255	84.5
444.476	86.5
444.698	85.5
444.919	76.5
445.14	123.5
445.361	111.5
445.582	110.5
445.803	120.5
446.024	124.5
446.245	115.5
446.466	90.5
446.687	79.5
446.908	83.5
447.129	96.5
447.35	89.5
447.571	90.5
447.792	97.5
448.013	86.5
448.234	106.5
448.455	94.5
448.675	114.5
448.896	99.5
449.117	94.5
449.338	87.5
449.559	119.5
449.779	111.5
450	98.5
450.221	105.5
450.442	84.5
450.662	93.5
450.883	81.5
451.104	100.5
451.324	89.5
451.545	111.5
451.766	91.5
451.986	96.5
452.207	85.5
452.428	88.5
452.648	84.5
452.869	88.5
453.089	123.5
453.31	123.5
453.53	93.5
453.751	95.5
453.971	87.5
454.192	104.5
454.412	88.5
454.633	77.5
454.853	82.5
455.073	89.5
455.294	82.5
455.514	92.5
455.734	74.5
455.955	81.5
456.175	79.5
456.395	86.5
456.616	88.5
456.836	87.5
457.056	83.5
457.276	86.5
457.497	79.5
457.717	79.5
457.937	91.5
458.157	93.5
458.377	83.5
458.598	98.5
458.818	111.5
459.038	122.5
459.258	89.5
459.478	83.5
459.698	76.5
459.918	88.5
460.138	93.5
460.358	94.5
460.578	87.5
460.798	96.5
461.018	81.5
461.238	69.5
461.458	87.5
461.678	94.5
461.898	95.5
462.118	91.5
462.338	71.5
462.558	82.5
462.777	82.5
462.997	102.5
463.217	96.5
463.437	76.5
463.657	86.5
463.876	96.5
464.096	71.5
464.316	96.5
464.536	101.5
464.755	84.5
464.975	104.5
465.195	152.5
465.414	135.5
465.634	101.5
465.854	87.5
466.073	98.5
466.293	90.5
466.512	91.5
466.732	81.5
466.951	84.5
467.171	90.5
467.391	88.5
467.61	100.5
467.829	109.5
468.049	115.5
468.268	112.5
468.488	79.5
468.707	87.5
468.927	86.5
469.146	97.5
469.365	86.5
469.585	84.5
469.804	105.5
470.023	87.5
470.243	76.5
470.462	95.5
470.681	95.5
470.901	88.5
471.12	97.5
471.339	93.5
471.558	90.5
471.777	93.5
471.997	95.5
472.216	123.5
472.435	175.5
472.654	109.5
472.873	86.5
473.092	101.5
473.311	92.5
473.53	84.5
473.749	78.5
473.968	103.5
474.187	98.5
474.406	85.5
474.625	88.5
474.844	95.5
475.063	86.5
475.282	87.5
475.501	83.5
475.72	80.5
475.939	84.5
476.158	94.5
476.377	79.5
476.596	87.5
476.814	99.5
477.033	96.5
477.252	94.5
477.471	81.5
477.69	98.5
477.908	87.5
478.127	92.5
478.346	96.5
478.564	100.5
478.783	91.5
479.002	84.5
479.22	83.5
479.439	95.5
479.658	116.5
479.876	92.5
480.095	76.5
480.313	66.5
480.532	84.5
480.751	104.5
480.969	132.5
481.188	300.5
481.406	184.5
481.624	105.5
481.843	91.5
482.061	97.5
482.28	95.5
482.498	82.5
482.717	82.5
482.935	98.5
483.153	87.5
483.372	85.5
483.59	84.5
483.808	86.5
484.027	89.5
484.245	86.5
484.463	99.5
484.681	83.5
484.9	84.5
485.118	86.5
485.336	98.5
485.554	89.5
485.772	79.5
485.99	98.5
486.209	88.5
486.427	98.5
486.645	112.5
486.863	119.5
487.081	95.5
487.299	109.5
487.517	93.5
487.735	89.5
487.953	86.5
488.171	92.5
488.389	90.5
488.607	97.5
488.825	86.5
489.043	86.5
489.261	81.5
489.479	75.5
489.696	99.5
489.914	102.5
490.132	93.5
490.35	101.5
490.568	92.5
490.786	86.5
491.003	88.5
491.221	80.5
491.439	91.5
491.657	103.5
491.874	87.5
492.092	84.5
492.31	93.5
492.527	93.5
492.745	87.5
492.963	94.5
493.18	82.5
493.398	91.5
493.615	87.5
493.833	93.5
494.05	85.5
494.268	90.5
494.485	93.5
494.703	94.5
494.92	71.5
495.138	76.5
495.355	90.5
495.573	86.5
495.79	79.5
496.008	99.5
496.225	93.5
496.442	92.5
496.66	98.5
496.877	88.5
497.094	92.5
497.312	92.5
497.529	81.5
497.746	94.5
497.963	91.5
498.181	90.5
498.398	92.5
498.615	92.5
498.832	100.5
499.049	86.5
499.267	89.5
499.484	87.5
499.701	94.5
499.918	92.5
500.135	90.5
500.352	87.5
500.569	81.5
500.786	90.5
501.003	90.5
501.22	86.5
501.437	95.5
501.654	85.5
501.871	91.5
502.088	89.5
502.305	91.5
502.522	91.5
502.739	83.5
502.956	87.5
503.172	90.5
503.389	88.5
503.606	87.5
503.823	104.5
504.04	82.5
504.256	86.5
504.473	83.5
504.69	100.5
504.907	96.5
505.123	86.5
505.34	96.5
505.557	91.5
505.773	91.5
505.99	88.5
506.207	86.5
506.423	86.5
506.64	84.5
506.856	91.5
507.073	85.5
507.289	77.5
507.506	94.5
507.722	122.5
507.939	92.5
508.155	87.5
508.372	90.5
508.588	91.5
508.805	88.5
509.021	91.5
509.238	93.5
509.454	95.5
509.67	91.5
509.887	103.5
510.103	123.5
510.319	178.5
510.536	606.5
510.752	1859.5
510.968	517.5
511.184	139.5
511.401	106.5
511.617	101.5
511.833	83.5
512.049	76.5
512.265	87.5
512.481	78.5
512.698	86.5
512.914	87.5
513.13	97.5
513.346	96.5
513.562	84.5
513.778	96.5
513.994	92.5
514.21	91.5
514.426	108.5
514.642	106.5
514.858	117.5
515.074	126.5
515.29	375.5
515.506	1154.5
515.721	420.5
515.937	148.5
516.153	96.5
516.369	100.5
516.585	80.5
516.801	88.5
517.016	90.5
517.232	86.5
517.448	105.5
517.664	95.5
517.879	83.5
518.095	84.5
518.311	100.5
518.527	84.5
518.742	106.5
518.958	92.5
519.173	86.5
519.389	90.5
519.605	90.5
519.82	94.5
520.036	109.5
520.251	116.5
520.467	110.5
520.682	102.5
520.898	100.5
521.113	127.5
521.329	121.5
521.544	168.5
521.76	438.5
521.975	1876.5
522.19	1128.5
522.406	273.5
522.621	113.5
522.836	100.5
523.052	97.5
523.267	90.5
523.482	81.5
523.698	82.5
523.913	113.5
524.128	104.5
524.343	103.5
524.559	91.5
524.774	95.5
524.989	100.5
525.204	99.5
525.419	97.5
525.634	95.5
525.849	78.5
526.064	95.5
526.28	100.5
526.495	76.5
526.71	86.5
526.925	87.5
527.14	90.5
527.355	80.5
527.57	93.5
527.785	87.5
527.999	100.5
528.214	88.5
528.429	90.5
528.644	90.5
528.859	84.5
529.074	99.5
529.289	113.5
529.503	148.5
529.718	100.5
529.933	82.5
530.148	86.5
530.363	87.5
530.577	82.5
530.792	90.5
531.007	92.5
531.221	101.5
531.436	84.5
531.651	81.5
531.865	98.5
532.08	86.5
532.295	91.5
532.509	84.5
532.724	80.5
532.938	84.5
533.153	86.5
533.367	91.5
533.582	79.5
533.796	88.5
534.011	92.5
534.225	96.5
534.44	103.5
534.654	110.5
534.868	83.5
535.083	91.5
535.297	95.5
535.511	96.5
535.726	101.5
535.94	97.5
536.154	97.5
536.369	99.5
