Data from Uncirc_1989_H10_HRD10591_00057.txt Node
Date: Wed Jan 03 11:57:47 EST 2024
User: Yrep
Spectrometer: HR+D1059
Trigger mode: 1
Integration Time (sec): 1.000000E-1
Scans to average: 1
Electric dark correction enabled: true
Nonlinearity correction enabled: false
Boxcar width: 0
XAxis mode: Wavelengths
Number of Pixels in Spectrum: 2048
>>>>>Begin Spectral Data<<<<<
223.165	-14.44
223.4	-14.44
223.635	-14.44
223.869	-13.44
224.104	-34.44
224.338	-7.44
224.573	-28.44
224.808	-8.44
225.042	2.56
225.277	-8.44
225.511	2.56
225.746	-8.44
225.98	7.56
226.215	24.56
226.449	15.56
226.683	11.56
226.918	25.56
227.152	33.56
227.387	44.56
227.621	39.56
227.856	45.56
228.09	43.56
228.324	54.56
228.559	54.56
228.793	66.56
229.027	59.56
229.262	63.56
229.496	81.56
229.73	80.56
229.964	77.56
230.199	75.56
230.433	78.56
230.667	74.56
230.901	69.56
231.136	84.56
231.37	69.56
231.604	77.56
231.838	83.56
232.072	78.56
232.306	81.56
232.541	77.56
232.775	84.56
233.009	93.56
233.243	83.56
233.477	97.56
233.711	82.56
233.945	83.56
234.179	76.56
234.413	68.56
234.647	81.56
234.881	85.56
235.115	63.56
235.349	78.56
235.583	65.56
235.817	65.56
236.051	73.56
236.285	75.56
236.519	81.56
236.753	77.56
236.987	82.56
237.221	81.56
237.455	96.56
237.689	88.56
237.922	83.56
238.156	78.56
238.39	86.56
238.624	75.56
238.858	75.56
239.091	75.56
239.325	69.56
239.559	83.56
239.793	66.56
240.027	87.56
240.26	75.56
240.494	85.56
240.728	69.56
240.961	66.56
241.195	76.56
241.429	66.56
241.662	81.56
241.896	83.56
242.13	82.56
242.363	76.56
242.597	68.56
242.83	78.56
243.064	79.56
243.298	77.56
243.531	79.56
243.765	65.56
243.998	76.56
244.232	67.56
244.465	81.56
244.699	75.56
244.932	71.56
245.166	66.56
245.399	73.56
245.633	63.56
245.866	78.56
246.099	78.56
246.333	79.56
246.566	88.56
246.8	77.56
247.033	80.56
247.266	82.56
247.5	79.56
247.733	91.56
247.966	79.56
248.2	73.56
248.433	82.56
248.666	75.56
248.899	92.56
249.133	87.56
249.366	67.56
249.599	96.56
249.832	71.56
250.066	89.56
250.299	86.56
250.532	77.56
250.765	79.56
250.998	89.56
251.231	84.56
251.465	76.56
251.698	93.56
251.931	77.56
252.164	72.56
252.397	76.56
252.63	85.56
252.863	85.56
253.096	77.56
253.329	85.56
253.562	71.56
253.795	85.56
254.028	85.56
254.261	77.56
254.494	80.56
254.727	92.56
254.96	72.56
255.193	87.56
255.426	83.56
255.659	93.56
255.892	80.56
256.124	91.56
256.357	85.56
256.59	80.56
256.823	82.56
257.056	81.56
257.289	72.56
257.521	77.56
257.754	78.56
257.987	91.56
258.22	87.56
258.452	88.56
258.685	90.56
258.918	98.56
259.151	97.56
259.383	82.56
259.616	69.56
259.849	83.56
260.081	95.56
260.314	82.56
260.547	85.56
260.779	91.56
261.012	87.56
261.244	80.56
261.477	87.56
261.71	88.56
261.942	97.56
262.175	119.56
262.407	86.56
262.64	86.56
262.872	89.56
263.105	91.56
263.337	83.56
263.57	72.56
263.802	92.56
264.035	90.56
264.267	93.56
264.499	97.56
264.732	80.56
264.964	82.56
265.197	86.56
265.429	84.56
265.661	93.56
265.894	91.56
266.126	92.56
266.358	87.56
266.591	85.56
266.823	90.56
267.055	81.56
267.287	87.56
267.52	80.56
267.752	73.56
267.984	94.56
268.216	79.56
268.448	92.56
268.681	85.56
268.913	89.56
269.145	70.56
269.377	75.56
269.609	70.56
269.841	91.56
270.073	92.56
270.306	86.56
270.538	83.56
270.77	69.56
271.002	85.56
271.234	88.56
271.466	82.56
271.698	78.56
271.93	73.56
272.162	96.56
272.394	88.56
272.626	75.56
272.858	85.56
273.09	80.56
273.322	95.56
273.553	97.56
273.785	72.56
274.017	79.56
274.249	87.56
274.481	102.56
274.713	97.56
274.945	95.56
275.176	87.56
275.408	87.56
275.64	93.56
275.872	84.56
276.104	98.56
276.335	87.56
276.567	80.56
276.799	105.56
277.031	99.56
277.262	87.56
277.494	85.56
277.726	90.56
277.957	100.56
278.189	77.56
278.421	86.56
278.652	91.56
278.884	76.56
279.115	78.56
279.347	96.56
279.579	100.56
279.81	84.56
280.042	92.56
280.273	89.56
280.505	86.56
280.736	88.56
280.968	91.56
281.199	86.56
281.431	100.56
281.662	94.56
281.894	93.56
282.125	98.56
282.356	100.56
282.588	126.56
282.819	108.56
283.051	104.56
283.282	77.56
283.513	76.56
283.745	87.56
283.976	80.56
284.207	88.56
284.439	75.56
284.67	91.56
284.901	96.56
285.132	77.56
285.364	95.56
285.595	101.56
285.826	87.56
286.057	83.56
286.288	67.56
286.52	79.56
286.751	84.56
286.982	103.56
287.213	77.56
287.444	91.56
287.675	73.56
287.906	81.56
288.138	94.56
288.369	81.56
288.6	91.56
288.831	84.56
289.062	98.56
289.293	84.56
289.524	82.56
289.755	87.56
289.986	88.56
290.217	93.56
290.448	74.56
290.679	90.56
290.91	91.56
291.141	94.56
291.371	94.56
291.602	79.56
291.833	78.56
292.064	84.56
292.295	71.56
292.526	84.56
292.757	94.56
292.987	88.56
293.218	70.56
293.449	99.56
293.68	86.56
293.91	87.56
294.141	93.56
294.372	94.56
294.603	99.56
294.833	86.56
295.064	75.56
295.295	84.56
295.525	87.56
295.756	101.56
295.987	103.56
296.217	121.56
296.448	108.56
296.679	101.56
296.909	88.56
297.14	83.56
297.37	83.56
297.601	89.56
297.831	88.56
298.062	96.56
298.292	99.56
298.523	84.56
298.753	96.56
298.984	87.56
299.214	94.56
299.445	95.56
299.675	95.56
299.905	104.56
300.136	73.56
300.366	95.56
300.597	89.56
300.827	94.56
301.057	100.56
301.288	97.56
301.518	88.56
301.748	88.56
301.979	100.56
302.209	81.56
302.439	90.56
302.669	88.56
302.9	80.56
303.13	95.56
303.36	102.56
303.59	100.56
303.82	107.56
304.051	81.56
304.281	84.56
304.511	89.56
304.741	86.56
304.971	76.56
305.201	85.56
305.431	94.56
305.661	78.56
305.891	84.56
306.121	92.56
306.352	101.56
306.582	100.56
306.812	103.56
307.042	80.56
307.272	87.56
307.502	89.56
307.731	103.56
307.961	103.56
308.191	85.56
308.421	87.56
308.651	102.56
308.881	93.56
309.111	85.56
309.341	93.56
309.571	94.56
309.8	100.56
310.03	86.56
310.26	109.56
310.49	95.56
310.72	104.56
310.949	98.56
311.179	96.56
311.409	91.56
311.639	95.56
311.868	104.56
312.098	98.56
312.328	90.56
312.557	91.56
312.787	99.56
313.017	98.56
313.246	93.56
313.476	102.56
313.706	89.56
313.935	102.56
314.165	95.56
314.394	107.56
314.624	91.56
314.853	92.56
315.083	92.56
315.312	88.56
315.542	85.56
315.771	85.56
316.001	78.56
316.23	101.56
316.46	93.56
316.689	83.56
316.919	96.56
317.148	88.56
317.377	93.56
317.607	97.56
317.836	88.56
318.065	78.56
318.295	81.56
318.524	91.56
318.753	98.56
318.983	89.56
319.212	91.56
319.441	120.56
319.67	101.56
319.9	91.56
320.129	102.56
320.358	91.56
320.587	101.56
320.816	97.56
321.046	107.56
321.275	104.56
321.504	102.56
321.733	91.56
321.962	94.56
322.191	94.56
322.42	103.56
322.649	104.56
322.878	95.56
323.108	95.56
323.337	108.56
323.566	109.56
323.795	130.56
324.024	197.56
324.253	320.56
324.482	671.56
324.71	1359.56
324.939	1819.56
325.168	661.56
325.397	196.56
325.626	143.56
325.855	111.56
326.084	123.56
326.313	121.56
326.542	121.56
326.77	208.56
326.999	384.56
327.228	767.56
327.457	1366.56
327.686	1117.56
327.914	319.56
328.143	176.56
328.372	164.56
328.6	135.56
328.829	117.56
329.058	108.56
329.287	128.56
329.515	116.56
329.744	130.56
329.972	131.56
330.201	148.56
330.43	208.56
330.658	143.56
330.887	109.56
331.115	96.56
331.344	96.56
331.572	103.56
331.801	84.56
332.03	96.56
332.258	101.56
332.486	93.56
332.715	96.56
332.943	80.56
333.172	102.56
333.4	91.56
333.629	109.56
333.857	116.56
334.085	124.56
334.314	149.56
334.542	241.56
334.771	231.56
334.999	112.56
335.227	91.56
335.455	103.56
335.684	94.56
335.912	87.56
336.14	84.56
336.369	92.56
336.597	100.56
336.825	98.56
337.053	84.56
337.281	97.56
337.51	81.56
337.738	94.56
337.966	97.56
338.194	87.56
338.422	86.56
338.65	92.56
338.878	83.56
339.106	98.56
339.334	104.56
339.562	88.56
339.79	93.56
340.018	95.56
340.246	89.56
340.474	60.56
340.702	89.56
340.93	85.56
341.158	100.56
341.386	108.56
341.614	86.56
341.842	91.56
342.07	89.56
342.298	96.56
342.526	79.56
342.754	98.56
342.981	92.56
343.209	93.56
343.437	103.56
343.665	79.56
343.893	84.56
344.12	99.56
344.348	91.56
344.576	80.56
344.804	90.56
345.031	90.56
345.259	97.56
345.487	97.56
345.714	86.56
345.942	88.56
346.17	105.56
346.397	84.56
346.625	94.56
346.853	87.56
347.08	93.56
347.308	104.56
347.535	95.56
347.763	94.56
347.99	107.56
348.218	91.56
348.445	106.56
348.673	94.56
348.9	101.56
349.128	93.56
349.355	93.56
349.583	95.56
349.81	93.56
350.037	94.56
350.265	86.56
350.492	95.56
350.72	100.56
350.947	105.56
351.174	96.56
351.402	101.56
351.629	89.56
351.856	91.56
352.083	105.56
352.311	92.56
352.538	109.56
352.765	105.56
352.992	115.56
353.22	99.56
353.447	112.56
353.674	101.56
353.901	107.56
354.128	89.56
354.355	79.56
354.583	88.56
354.81	91.56
355.037	81.56
355.264	89.56
355.491	104.56
355.718	97.56
355.945	116.56
356.172	109.56
356.399	88.56
356.626	93.56
356.853	98.56
357.08	101.56
357.307	98.56
357.534	105.56
357.761	84.56
357.988	101.56
358.215	88.56
358.441	94.56
358.668	88.56
358.895	91.56
359.122	105.56
359.349	86.56
359.576	80.56
359.802	84.56
360.029	95.56
360.256	100.56
360.483	107.56
360.709	75.56
360.936	110.56
361.163	92.56
361.39	83.56
361.616	95.56
361.843	106.56
362.07	88.56
362.296	109.56
362.523	75.56
362.749	102.56
362.976	95.56
363.203	100.56
363.429	85.56
363.656	110.56
363.882	83.56
364.109	94.56
364.335	86.56
364.562	108.56
364.788	95.56
365.015	95.56
365.241	93.56
365.468	100.56
365.694	91.56
365.92	96.56
366.147	91.56
366.373	81.56
366.599	94.56
366.826	83.56
367.052	80.56
367.278	86.56
367.505	94.56
367.731	86.56
367.957	83.56
368.184	91.56
368.41	91.56
368.636	96.56
368.862	106.56
369.089	94.56
369.315	97.56
369.541	92.56
369.767	75.56
369.993	86.56
370.219	84.56
370.445	84.56
370.672	78.56
370.898	86.56
371.124	89.56
371.35	97.56
371.576	80.56
371.802	95.56
372.028	97.56
372.254	87.56
372.48	87.56
372.706	78.56
372.932	91.56
373.158	83.56
373.384	87.56
373.61	95.56
373.835	87.56
374.061	80.56
374.287	91.56
374.513	102.56
374.739	89.56
374.965	77.56
375.191	100.56
375.416	95.56
375.642	88.56
375.868	94.56
376.094	80.56
376.319	75.56
376.545	78.56
376.771	84.56
376.997	80.56
377.222	93.56
377.448	85.56
377.674	87.56
377.899	94.56
378.125	81.56
378.35	99.56
378.576	93.56
378.802	100.56
379.027	83.56
379.253	91.56
379.478	90.56
379.704	87.56
379.929	97.56
380.155	95.56
380.38	91.56
380.606	81.56
380.831	91.56
381.057	99.56
381.282	99.56
381.507	90.56
381.733	86.56
381.958	109.56
382.184	99.56
382.409	95.56
382.634	99.56
382.86	99.56
383.085	92.56
383.31	99.56
383.535	102.56
383.761	88.56
383.986	96.56
384.211	91.56
384.436	89.56
384.662	89.56
384.887	100.56
385.112	96.56
385.337	102.56
385.562	105.56
385.787	80.56
386.013	104.56
386.238	100.56
386.463	95.56
386.688	80.56
386.913	91.56
387.138	100.56
387.363	85.56
387.588	93.56
387.813	92.56
388.038	99.56
388.263	95.56
388.488	105.56
388.713	93.56
388.938	92.56
389.163	107.56
389.387	101.56
389.612	109.56
389.837	92.56
390.062	85.56
390.287	94.56
390.512	80.56
390.736	83.56
390.961	105.56
391.186	100.56
391.411	101.56
391.636	84.56
391.86	84.56
392.085	82.56
392.31	83.56
392.534	79.56
392.759	81.56
392.984	79.56
393.208	94.56
393.433	109.56
393.658	88.56
393.882	72.56
394.107	83.56
394.331	91.56
394.556	83.56
394.78	94.56
395.005	89.56
395.229	80.56
395.454	68.56
395.678	85.56
395.903	87.56
396.127	85.56
396.352	79.56
396.576	78.56
396.801	82.56
397.025	88.56
397.249	84.56
397.474	95.56
397.698	91.56
397.922	87.56
398.147	69.56
398.371	85.56
398.595	84.56
398.82	80.56
399.044	95.56
399.268	87.56
399.492	82.56
399.717	94.56
399.941	87.56
400.165	98.56
400.389	83.56
400.613	94.56
400.837	79.56
401.062	76.56
401.286	83.56
401.51	83.56
401.734	78.56
401.958	94.56
402.182	119.56
402.406	136.56
402.63	99.56
402.854	84.56
403.078	99.56
403.302	91.56
403.526	87.56
403.75	92.56
403.974	75.56
404.198	93.56
404.422	85.56
404.645	73.56
404.869	90.56
405.093	108.56
405.317	100.56
405.541	102.56
405.765	100.56
405.988	116.56
406.212	143.56
406.436	164.56
406.66	123.56
406.883	93.56
407.107	96.56
407.331	104.56
407.555	83.56
407.778	91.56
408.002	89.56
408.226	74.56
408.449	93.56
408.673	88.56
408.896	90.56
409.12	76.56
409.344	88.56
409.567	85.56
409.791	76.56
410.014	91.56
410.238	102.56
410.461	88.56
410.685	96.56
410.908	99.56
411.132	115.56
411.355	99.56
411.578	94.56
411.802	78.56
412.025	87.56
412.249	91.56
412.472	103.56
412.695	100.56
412.919	91.56
413.142	91.56
413.365	72.56
413.589	100.56
413.812	83.56
414.035	95.56
414.258	91.56
414.482	102.56
414.705	85.56
414.928	78.56
415.151	89.56
415.374	89.56
415.597	90.56
415.821	87.56
416.044	87.56
416.267	76.56
416.49	77.56
416.713	79.56
416.936	89.56
417.159	91.56
417.382	77.56
417.605	85.56
417.828	82.56
418.051	96.56
418.274	83.56
418.497	80.56
418.72	76.56
418.943	72.56
419.166	84.56
419.389	87.56
419.611	88.56
419.834	72.56
420.057	81.56
420.28	83.56
420.503	97.56
420.726	95.56
420.948	85.56
421.171	78.56
421.394	75.56
421.617	96.56
421.839	94.56
422.062	82.56
422.285	99.56
422.507	93.56
422.73	105.56
422.953	99.56
423.175	85.56
423.398	78.56
423.621	108.56
423.843	81.56
424.066	79.56
424.288	90.56
424.511	75.56
424.733	91.56
424.956	102.56
425.178	87.56
425.401	92.56
425.623	100.56
425.846	97.56
426.068	93.56
426.291	96.56
426.513	78.56
426.735	74.56
426.958	84.56
427.18	97.56
427.402	123.56
427.625	140.56
427.847	132.56
428.069	122.56
428.292	94.56
428.514	88.56
428.736	94.56
428.958	88.56
429.181	83.56
429.403	86.56
429.625	71.56
429.847	79.56
430.069	90.56
430.292	96.56
430.514	85.56
430.736	92.56
430.958	95.56
431.18	105.56
431.402	88.56
431.624	68.56
431.846	91.56
432.068	85.56
432.29	92.56
432.512	85.56
432.734	86.56
432.956	80.56
433.178	96.56
433.4	97.56
433.622	83.56
433.844	79.56
434.066	89.56
434.287	100.56
434.509	93.56
434.731	87.56
434.953	99.56
435.175	94.56
435.397	67.56
435.618	91.56
435.84	105.56
436.062	115.56
436.284	97.56
436.505	87.56
436.727	92.56
436.949	93.56
437.17	83.56
437.392	85.56
437.614	91.56
437.835	104.56
438.057	112.56
438.278	99.56
438.5	96.56
438.721	87.56
438.943	94.56
439.165	85.56
439.386	91.56
439.608	94.56
439.829	99.56
440.05	112.56
440.272	123.56
440.493	99.56
440.715	80.56
440.936	96.56
441.158	85.56
441.379	87.56
441.6	97.56
441.822	85.56
442.043	97.56
442.264	87.56
442.486	89.56
442.707	95.56
442.928	95.56
443.149	109.56
443.371	106.56
443.592	109.56
443.813	97.56
444.034	99.56
444.255	88.56
444.476	94.56
444.698	108.56
444.919	80.56
445.14	140.56
445.361	111.56
445.582	99.56
445.803	117.56
446.024	114.56
446.245	115.56
446.466	97.56
446.687	87.56
446.908	84.56
447.129	92.56
447.35	92.56
447.571	79.56
447.792	99.56
448.013	100.56
448.234	93.56
448.455	97.56
448.675	83.56
448.896	103.56
449.117	104.56
449.338	105.56
449.559	115.56
449.779	115.56
450	87.56
450.221	91.56
450.442	83.56
450.662	101.56
450.883	83.56
451.104	111.56
451.324	91.56
451.545	75.56
451.766	97.56
451.986	73.56
452.207	90.56
452.428	95.56
452.648	100.56
452.869	112.56
453.089	103.56
453.31	120.56
453.53	93.56
453.751	89.56
453.971	99.56
454.192	100.56
454.412	93.56
454.633	86.56
454.853	78.56
455.073	82.56
455.294	90.56
455.514	103.56
455.734	91.56
455.955	95.56
456.175	80.56
456.395	77.56
456.616	88.56
456.836	82.56
457.056	83.56
457.276	81.56
457.497	76.56
457.717	84.56
457.937	84.56
458.157	83.56
458.377	98.56
458.598	88.56
458.818	134.56
459.038	134.56
459.258	102.56
459.478	93.56
459.698	103.56
459.918	89.56
460.138	80.56
460.358	83.56
460.578	91.56
460.798	78.56
461.018	94.56
461.238	82.56
461.458	97.56
461.678	89.56
461.898	92.56
462.118	89.56
462.338	73.56
462.558	92.56
462.777	79.56
462.997	81.56
463.217	103.56
463.437	85.56
463.657	84.56
463.876	99.56
464.096	79.56
464.316	80.56
464.536	88.56
464.755	89.56
464.975	94.56
465.195	134.56
465.414	120.56
465.634	75.56
465.854	83.56
466.073	83.56
466.293	82.56
466.512	85.56
466.732	75.56
466.951	85.56
467.171	78.56
467.391	102.56
467.61	105.56
467.829	102.56
468.049	128.56
468.268	129.56
468.488	100.56
468.707	80.56
468.927	88.56
469.146	80.56
469.365	94.56
469.585	97.56
469.804	86.56
470.023	99.56
470.243	93.56
470.462	89.56
470.681	100.56
470.901	98.56
471.12	91.56
471.339	104.56
471.558	85.56
471.777	92.56
471.997	112.56
472.216	186.56
472.435	276.56
472.654	118.56
472.873	89.56
473.092	94.56
473.311	79.56
473.53	89.56
473.749	86.56
473.968	96.56
474.187	92.56
474.406	80.56
474.625	77.56
474.844	86.56
475.063	83.56
475.282	91.56
475.501	84.56
475.72	91.56
475.939	87.56
476.158	88.56
476.377	83.56
476.596	83.56
476.814	83.56
477.033	96.56
477.252	93.56
477.471	89.56
477.69	83.56
477.908	86.56
478.127	77.56
478.346	85.56
478.564	95.56
478.783	91.56
479.002	90.56
479.22	96.56
479.439	95.56
479.658	97.56
479.876	92.56
480.095	89.56
480.313	108.56
480.532	93.56
480.751	127.56
480.969	175.56
481.188	480.56
481.406	315.56
481.624	107.56
481.843	91.56
482.061	75.56
482.28	86.56
482.498	105.56
482.717	77.56
482.935	76.56
483.153	88.56
483.372	89.56
483.59	76.56
483.808	75.56
484.027	87.56
484.245	88.56
484.463	105.56
484.681	89.56
484.9	105.56
485.118	91.56
485.336	85.56
485.554	93.56
485.772	83.56
485.99	102.56
486.209	99.56
486.427	92.56
486.645	112.56
486.863	99.56
487.081	89.56
487.299	92.56
487.517	96.56
487.735	88.56
487.953	77.56
488.171	92.56
488.389	87.56
488.607	96.56
488.825	107.56
489.043	74.56
489.261	73.56
489.479	89.56
489.696	84.56
489.914	78.56
490.132	89.56
490.35	93.56
490.568	76.56
490.786	97.56
491.003	92.56
491.221	91.56
491.439	94.56
491.657	89.56
491.874	93.56
492.092	85.56
492.31	92.56
492.527	91.56
492.745	107.56
492.963	99.56
493.18	82.56
493.398	87.56
493.615	114.56
493.833	100.56
494.05	90.56
494.268	89.56
494.485	93.56
494.703	93.56
494.92	100.56
495.138	100.56
495.355	97.56
495.573	102.56
495.79	100.56
496.008	95.56
496.225	98.56
496.442	85.56
496.66	97.56
496.877	93.56
497.094	91.56
497.312	96.56
497.529	81.56
497.746	99.56
497.963	93.56
498.181	76.56
498.398	90.56
498.615	100.56
498.832	99.56
499.049	90.56
499.267	98.56
499.484	87.56
499.701	84.56
499.918	94.56
500.135	76.56
500.352	77.56
500.569	79.56
500.786	94.56
501.003	89.56
501.22	108.56
501.437	92.56
501.654	96.56
501.871	95.56
502.088	95.56
502.305	89.56
502.522	91.56
502.739	96.56
502.956	81.56
503.172	90.56
503.389	82.56
503.606	113.56
503.823	104.56
504.04	93.56
504.256	104.56
504.473	84.56
504.69	83.56
504.907	98.56
505.123	91.56
505.34	94.56
505.557	76.56
505.773	92.56
505.99	86.56
506.207	92.56
506.423	92.56
506.64	81.56
506.856	83.56
507.073	80.56
507.289	105.56
507.506	91.56
507.722	92.56
507.939	113.56
508.155	91.56
508.372	105.56
508.588	92.56
508.805	86.56
509.021	81.56
509.238	93.56
509.454	95.56
509.67	99.56
509.887	113.56
510.103	123.56
510.319	191.56
510.536	587.56
510.752	1781.56
510.968	492.56
511.184	126.56
511.401	100.56
511.617	99.56
511.833	82.56
512.049	92.56
512.265	110.56
512.481	98.56
512.698	85.56
512.914	95.56
513.13	87.56
513.346	87.56
513.562	96.56
513.778	100.56
513.994	98.56
514.21	102.56
514.426	95.56
514.642	117.56
514.858	109.56
515.074	134.56
515.29	347.56
515.506	1104.56
515.721	410.56
515.937	141.56
516.153	111.56
