Data from Uncirc_1989_H10_HRD10591_00047.txt Node
Date: Wed Jan 03 11:57:45 EST 2024
User: Yrep
Spectrometer: HR+D1059
Trigger mode: 1
Integration Time (sec): 1.000000E-1
Scans to average: 1
Electric dark correction enabled: true
Nonlinearity correction enabled: false
Boxcar width: 0
XAxis mode: Wavelengths
Number of Pixels in Spectrum: 2048
>>>>>Begin Spectral Data<<<<<
223.165	-18.12
223.4	-18.12
223.635	-18.12
223.869	-21.12
224.104	-14.12
224.338	-12.12
224.573	-15.12
224.808	-23.12
225.042	-13.12
225.277	-0.12
225.511	0.88
225.746	10.88
225.98	13.88
226.215	9.88
226.449	13.88
226.683	7.88
226.918	30.88
227.152	28.88
227.387	35.88
227.621	48.88
227.856	50.88
228.09	57.88
228.324	53.88
228.559	55.88
228.793	55.88
229.027	67.88
229.262	68.88
229.496	63.88
229.73	82.88
229.964	81.88
230.199	85.88
230.433	79.88
230.667	86.88
230.901	87.88
231.136	91.88
231.37	78.88
231.604	81.88
231.838	89.88
232.072	82.88
232.306	93.88
232.541	85.88
232.775	81.88
233.009	83.88
233.243	81.88
233.477	89.88
233.711	81.88
233.945	70.88
234.179	79.88
234.413	88.88
234.647	73.88
234.881	61.88
235.115	81.88
235.349	80.88
235.583	85.88
235.817	64.88
236.051	75.88
236.285	88.88
236.519	78.88
236.753	94.88
236.987	90.88
237.221	89.88
237.455	77.88
237.689	85.88
237.922	87.88
238.156	73.88
238.39	70.88
238.624	81.88
238.858	76.88
239.091	82.88
239.325	83.88
239.559	80.88
239.793	81.88
240.027	87.88
240.26	85.88
240.494	73.88
240.728	72.88
240.961	70.88
241.195	89.88
241.429	85.88
241.662	78.88
241.896	93.88
242.13	70.88
242.363	79.88
242.597	89.88
242.83	85.88
243.064	74.88
243.298	98.88
243.531	88.88
243.765	81.88
243.998	82.88
244.232	80.88
244.465	82.88
244.699	67.88
244.932	78.88
245.166	79.88
245.399	91.88
245.633	87.88
245.866	87.88
246.099	78.88
246.333	85.88
246.566	78.88
246.8	89.88
247.033	84.88
247.266	70.88
247.5	85.88
247.733	95.88
247.966	88.88
248.2	72.88
248.433	80.88
248.666	82.88
248.899	81.88
249.133	86.88
249.366	94.88
249.599	96.88
249.832	88.88
250.066	81.88
250.299	82.88
250.532	89.88
250.765	93.88
250.998	77.88
251.231	85.88
251.465	77.88
251.698	77.88
251.931	80.88
252.164	83.88
252.397	80.88
252.63	72.88
252.863	79.88
253.096	78.88
253.329	80.88
253.562	72.88
253.795	87.88
254.028	81.88
254.261	85.88
254.494	81.88
254.727	71.88
254.96	69.88
255.193	86.88
255.426	95.88
255.659	87.88
255.892	90.88
256.124	81.88
256.357	84.88
256.59	72.88
256.823	70.88
257.056	99.88
257.289	85.88
257.521	75.88
257.754	81.88
257.987	99.88
258.22	96.88
258.452	83.88
258.685	71.88
258.918	87.88
259.151	81.88
259.383	89.88
259.616	91.88
259.849	90.88
260.081	91.88
260.314	91.88
260.547	87.88
260.779	78.88
261.012	86.88
261.244	88.88
261.477	81.88
261.71	99.88
261.942	115.88
262.175	110.88
262.407	97.88
262.64	85.88
262.872	80.88
263.105	91.88
263.337	103.88
263.57	74.88
263.802	82.88
264.035	69.88
264.267	67.88
264.499	83.88
264.732	94.88
264.964	98.88
265.197	100.88
265.429	104.88
265.661	90.88
265.894	88.88
266.126	70.88
266.358	87.88
266.591	98.88
266.823	77.88
267.055	88.88
267.287	67.88
267.52	77.88
267.752	89.88
267.984	101.88
268.216	86.88
268.448	78.88
268.681	80.88
268.913	87.88
269.145	85.88
269.377	77.88
269.609	75.88
269.841	78.88
270.073	88.88
270.306	91.88
270.538	85.88
270.77	77.88
271.002	87.88
271.234	74.88
271.466	91.88
271.698	88.88
271.93	70.88
272.162	79.88
272.394	101.88
272.626	71.88
272.858	80.88
273.09	81.88
273.322	96.88
273.553	87.88
273.785	93.88
274.017	81.88
274.249	92.88
274.481	104.88
274.713	91.88
274.945	91.88
275.176	86.88
275.408	93.88
275.64	89.88
275.872	97.88
276.104	101.88
276.335	87.88
276.567	95.88
276.799	102.88
277.031	106.88
277.262	93.88
277.494	86.88
277.726	93.88
277.957	74.88
278.189	81.88
278.421	91.88
278.652	93.88
278.884	93.88
279.115	79.88
279.347	90.88
279.579	102.88
279.81	104.88
280.042	85.88
280.273	91.88
280.505	93.88
280.736	97.88
280.968	83.88
281.199	79.88
281.431	85.88
281.662	97.88
281.894	98.88
282.125	106.88
282.356	104.88
282.588	131.88
282.819	100.88
283.051	93.88
283.282	84.88
283.513	81.88
283.745	91.88
283.976	77.88
284.207	77.88
284.439	89.88
284.67	92.88
284.901	82.88
285.132	88.88
285.364	89.88
285.595	78.88
285.826	100.88
286.057	103.88
286.288	88.88
286.52	85.88
286.751	68.88
286.982	73.88
287.213	79.88
287.444	85.88
287.675	100.88
287.906	83.88
288.138	98.88
288.369	97.88
288.6	99.88
288.831	90.88
289.062	93.88
289.293	102.88
289.524	91.88
289.755	81.88
289.986	79.88
290.217	95.88
290.448	82.88
290.679	87.88
290.91	91.88
291.141	86.88
291.371	86.88
291.602	94.88
291.833	103.88
292.064	89.88
292.295	90.88
292.526	83.88
292.757	81.88
292.987	84.88
293.218	102.88
293.449	89.88
293.68	94.88
293.91	85.88
294.141	95.88
294.372	103.88
294.603	88.88
294.833	105.88
295.064	98.88
295.295	96.88
295.525	91.88
295.756	102.88
295.987	105.88
296.217	118.88
296.448	125.88
296.679	83.88
296.909	90.88
297.14	98.88
297.37	94.88
297.601	82.88
297.831	89.88
298.062	93.88
298.292	80.88
298.523	87.88
298.753	87.88
298.984	90.88
299.214	86.88
299.445	97.88
299.675	94.88
299.905	87.88
300.136	77.88
300.366	96.88
300.597	79.88
300.827	99.88
301.057	99.88
301.288	75.88
301.518	87.88
301.748	83.88
301.979	102.88
302.209	91.88
302.439	91.88
302.669	94.88
302.9	83.88
303.13	100.88
303.36	99.88
303.59	79.88
303.82	115.88
304.051	101.88
304.281	74.88
304.511	96.88
304.741	85.88
304.971	96.88
305.201	91.88
305.431	95.88
305.661	87.88
305.891	87.88
306.121	113.88
306.352	108.88
306.582	92.88
306.812	101.88
307.042	98.88
307.272	114.88
307.502	89.88
307.731	106.88
307.961	96.88
308.191	83.88
308.421	73.88
308.651	88.88
308.881	97.88
309.111	106.88
309.341	96.88
309.571	107.88
309.8	93.88
310.03	106.88
310.26	95.88
310.49	91.88
310.72	87.88
310.949	104.88
311.179	88.88
311.409	101.88
311.639	108.88
311.868	77.88
312.098	93.88
312.328	92.88
312.557	110.88
312.787	99.88
313.017	98.88
313.246	91.88
313.476	97.88
313.706	101.88
313.935	82.88
314.165	103.88
314.394	97.88
314.624	98.88
314.853	99.88
315.083	94.88
315.312	96.88
315.542	98.88
315.771	98.88
316.001	90.88
316.23	93.88
316.46	92.88
316.689	98.88
316.919	92.88
317.148	102.88
317.377	113.88
317.607	83.88
317.836	98.88
318.065	102.88
318.295	93.88
318.524	99.88
318.753	100.88
318.983	115.88
319.212	106.88
319.441	110.88
319.67	99.88
319.9	101.88
320.129	97.88
320.358	90.88
320.587	75.88
320.816	101.88
321.046	102.88
321.275	108.88
321.504	86.88
321.733	94.88
321.962	101.88
322.191	101.88
322.42	88.88
322.649	103.88
322.878	109.88
323.108	112.88
323.337	119.88
323.566	135.88
323.795	151.88
324.024	181.88
324.253	328.88
324.482	750.88
324.71	1480.88
324.939	1915.88
325.168	726.88
325.397	223.88
325.626	157.88
325.855	124.88
326.084	135.88
326.313	132.88
326.542	134.88
326.77	216.88
326.999	422.88
327.228	849.88
327.457	1526.88
327.686	1173.88
327.914	335.88
328.143	191.88
328.372	178.88
328.6	147.88
328.829	107.88
329.058	127.88
329.287	104.88
329.515	104.88
329.744	113.88
329.972	125.88
330.201	166.88
330.43	202.88
330.658	133.88
330.887	146.88
331.115	125.88
331.344	107.88
331.572	97.88
331.801	102.88
332.03	105.88
332.258	104.88
332.486	96.88
332.715	99.88
332.943	107.88
333.172	102.88
333.4	92.88
333.629	112.88
333.857	118.88
334.085	131.88
334.314	161.88
334.542	225.88
334.771	222.88
334.999	123.88
335.227	99.88
335.455	98.88
335.684	104.88
335.912	103.88
336.14	98.88
336.369	91.88
336.597	106.88
336.825	90.88
337.053	91.88
337.281	98.88
337.51	105.88
337.738	86.88
337.966	93.88
338.194	102.88
338.422	99.88
338.65	104.88
338.878	95.88
339.106	84.88
339.334	91.88
339.562	94.88
339.79	84.88
340.018	85.88
340.246	89.88
340.474	95.88
340.702	91.88
340.93	103.88
341.158	88.88
341.386	101.88
341.614	91.88
341.842	89.88
342.07	81.88
342.298	87.88
342.526	90.88
342.754	101.88
342.981	96.88
343.209	93.88
343.437	107.88
343.665	101.88
343.893	89.88
344.12	91.88
344.348	95.88
344.576	82.88
344.804	90.88
345.031	95.88
345.259	80.88
345.487	98.88
345.714	95.88
345.942	87.88
346.17	106.88
346.397	105.88
346.625	98.88
346.853	81.88
347.08	98.88
347.308	105.88
347.535	113.88
347.763	105.88
347.99	98.88
348.218	113.88
348.445	93.88
348.673	89.88
348.9	114.88
349.128	92.88
349.355	79.88
349.583	93.88
349.81	101.88
350.037	103.88
350.265	89.88
350.492	102.88
350.72	84.88
350.947	101.88
351.174	109.88
351.402	117.88
351.629	101.88
351.856	98.88
352.083	101.88
352.311	98.88
352.538	131.88
352.765	111.88
352.992	120.88
353.22	126.88
353.447	111.88
353.674	94.88
353.901	89.88
354.128	105.88
354.355	89.88
354.583	90.88
354.81	93.88
355.037	93.88
355.264	94.88
355.491	96.88
355.718	95.88
355.945	83.88
356.172	89.88
356.399	101.88
356.626	106.88
356.853	98.88
357.08	96.88
357.307	96.88
357.534	89.88
357.761	91.88
357.988	94.88
358.215	83.88
358.441	79.88
358.668	91.88
358.895	85.88
359.122	81.88
359.349	82.88
359.576	87.88
359.802	102.88
360.029	103.88
360.256	113.88
360.483	107.88
360.709	100.88
360.936	98.88
361.163	107.88
361.39	111.88
361.616	74.88
361.843	88.88
362.07	81.88
362.296	104.88
362.523	102.88
362.749	100.88
362.976	93.88
363.203	107.88
363.429	76.88
363.656	75.88
363.882	90.88
364.109	90.88
364.335	105.88
364.562	91.88
364.788	86.88
365.015	95.88
365.241	101.88
365.468	91.88
365.694	100.88
365.92	97.88
366.147	80.88
366.373	98.88
366.599	95.88
366.826	96.88
367.052	88.88
367.278	100.88
367.505	83.88
367.731	94.88
367.957	92.88
368.184	89.88
368.41	103.88
368.636	124.88
368.862	113.88
369.089	99.88
369.315	99.88
369.541	113.88
369.767	94.88
369.993	93.88
370.219	85.88
370.445	97.88
370.672	97.88
370.898	94.88
371.124	77.88
371.35	86.88
371.576	77.88
371.802	85.88
372.028	87.88
372.254	88.88
372.48	81.88
372.706	103.88
372.932	89.88
373.158	81.88
373.384	97.88
373.61	104.88
373.835	86.88
374.061	91.88
374.287	87.88
374.513	95.88
374.739	96.88
374.965	97.88
375.191	95.88
375.416	105.88
375.642	81.88
375.868	104.88
376.094	95.88
376.319	102.88
376.545	79.88
376.771	77.88
376.997	85.88
377.222	86.88
377.448	71.88
377.674	97.88
377.899	86.88
378.125	88.88
378.35	103.88
378.576	87.88
378.802	89.88
379.027	98.88
379.253	101.88
379.478	98.88
379.704	92.88
379.929	82.88
380.155	89.88
380.38	95.88
380.606	85.88
380.831	106.88
381.057	101.88
381.282	88.88
381.507	91.88
381.733	102.88
381.958	100.88
382.184	83.88
382.409	91.88
382.634	101.88
382.86	110.88
383.085	101.88
383.31	95.88
383.535	112.88
383.761	113.88
383.986	87.88
384.211	86.88
384.436	102.88
384.662	107.88
384.887	112.88
385.112	104.88
385.337	92.88
385.562	102.88
385.787	106.88
386.013	104.88
386.238	96.88
386.463	107.88
386.688	111.88
386.913	103.88
387.138	110.88
387.363	97.88
387.588	92.88
387.813	83.88
388.038	111.88
388.263	92.88
388.488	100.88
388.713	98.88
388.938	97.88
389.163	89.88
389.387	108.88
389.612	104.88
389.837	93.88
390.062	96.88
390.287	97.88
390.512	100.88
390.736	97.88
390.961	102.88
391.186	101.88
391.411	99.88
391.636	99.88
391.86	91.88
392.085	99.88
392.31	97.88
392.534	83.88
392.759	97.88
392.984	99.88
393.208	100.88
393.433	114.88
393.658	90.88
393.882	95.88
394.107	87.88
394.331	98.88
394.556	79.88
394.78	85.88
395.005	84.88
395.229	81.88
395.454	78.88
395.678	90.88
395.903	78.88
396.127	105.88
396.352	95.88
396.576	87.88
396.801	100.88
397.025	95.88
397.249	104.88
397.474	95.88
397.698	80.88
397.922	94.88
398.147	88.88
398.371	79.88
398.595	99.88
398.82	85.88
399.044	88.88
399.268	111.88
399.492	103.88
399.717	104.88
399.941	89.88
400.165	93.88
400.389	98.88
400.613	96.88
400.837	84.88
401.062	93.88
401.286	97.88
401.51	99.88
401.734	95.88
401.958	100.88
402.182	120.88
402.406	151.88
402.63	121.88
402.854	87.88
403.078	83.88
403.302	81.88
403.526	82.88
403.75	97.88
403.974	105.88
404.198	101.88
404.422	97.88
404.645	96.88
404.869	98.88
405.093	101.88
405.317	102.88
405.541	103.88
405.765	93.88
405.988	93.88
406.212	151.88
406.436	206.88
406.66	134.88
406.883	114.88
407.107	95.88
407.331	93.88
407.555	87.88
407.778	87.88
408.002	89.88
408.226	102.88
408.449	93.88
408.673	92.88
408.896	82.88
409.12	95.88
409.344	102.88
409.567	96.88
409.791	91.88
410.014	91.88
410.238	95.88
410.461	96.88
410.685	103.88
410.908	99.88
411.132	103.88
411.355	99.88
411.578	87.88
411.802	88.88
412.025	90.88
412.249	105.88
412.472	97.88
412.695	106.88
412.919	85.88
413.142	89.88
413.365	88.88
413.589	93.88
413.812	90.88
414.035	93.88
414.258	96.88
414.482	98.88
414.705	98.88
414.928	71.88
415.151	89.88
415.374	109.88
415.597	79.88
415.821	104.88
416.044	85.88
416.267	94.88
416.49	85.88
416.713	85.88
416.936	104.88
417.159	102.88
417.382	94.88
417.605	107.88
417.828	107.88
418.051	86.88
418.274	93.88
418.497	84.88
418.72	88.88
418.943	86.88
419.166	84.88
419.389	85.88
419.611	92.88
419.834	116.88
420.057	89.88
420.28	89.88
420.503	87.88
420.726	89.88
420.948	88.88
421.171	82.88
421.394	81.88
421.617	90.88
421.839	90.88
422.062	89.88
422.285	91.88
422.507	104.88
422.73	102.88
422.953	94.88
423.175	95.88
423.398	88.88
423.621	86.88
423.843	95.88
424.066	95.88
424.288	80.88
424.511	94.88
424.733	97.88
424.956	102.88
425.178	92.88
425.401	95.88
425.623	99.88
425.846	87.88
426.068	95.88
426.291	112.88
426.513	109.88
426.735	89.88
426.958	98.88
427.18	111.88
427.402	120.88
427.625	158.88
427.847	127.88
428.069	122.88
428.292	102.88
428.514	91.88
428.736	104.88
428.958	85.88
429.181	85.88
429.403	85.88
429.625	89.88
429.847	92.88
430.069	82.88
430.292	94.88
430.514	87.88
430.736	75.88
430.958	82.88
431.18	85.88
431.402	90.88
431.624	85.88
431.846	95.88
432.068	89.88
432.29	85.88
432.512	85.88
432.734	88.88
432.956	98.88
433.178	105.88
433.4	92.88
433.622	86.88
433.844	99.88
434.066	99.88
434.287	94.88
434.509	93.88
434.731	94.88
434.953	95.88
435.175	80.88
435.397	99.88
435.618	99.88
435.84	107.88
436.062	127.88
436.284	101.88
436.505	101.88
436.727	97.88
436.949	90.88
437.17	88.88
437.392	87.88
437.614	90.88
437.835	105.88
438.057	110.88
438.278	117.88
438.5	111.88
438.721	103.88
438.943	96.88
439.165	84.88
439.386	92.88
439.608	95.88
439.829	98.88
440.05	122.88
440.272	123.88
440.493	103.88
440.715	93.88
440.936	91.88
441.158	88.88
441.379	105.88
441.6	93.88
441.822	95.88
442.043	90.88
442.264	97.88
442.486	99.88
442.707	90.88
442.928	103.88
443.149	118.88
443.371	118.88
443.592	109.88
443.813	109.88
444.034	86.88
444.255	84.88
444.476	81.88
444.698	91.88
444.919	97.88
445.14	133.88
445.361	114.88
445.582	130.88
445.803	146.88
446.024	127.88
446.245	117.88
446.466	112.88
446.687	85.88
446.908	87.88
447.129	85.88
447.35	80.88
447.571	100.88
447.792	102.88
448.013	94.88
448.234	97.88
448.455	90.88
448.675	96.88
448.896	104.88
449.117	97.88
449.338	93.88
449.559	118.88
449.779	118.88
450	101.88
450.221	70.88
450.442	100.88
450.662	101.88
450.883	106.88
451.104	113.88
451.324	86.88
451.545	85.88
451.766	70.88
451.986	92.88
452.207	87.88
452.428	102.88
452.648	99.88
452.869	101.88
453.089	96.88
453.31	100.88
453.53	80.88
453.751	87.88
453.971	109.88
454.192	100.88
454.412	98.88
454.633	97.88
454.853	97.88
455.073	93.88
455.294	83.88
455.514	91.88
455.734	94.88
455.955	94.88
456.175	81.88
456.395	78.88
456.616	91.88
456.836	87.88
457.056	84.88
457.276	90.88
457.497	87.88
457.717	88.88
457.937	89.88
458.157	97.88
458.377	85.88
458.598	96.88
458.818	138.88
459.038	138.88
459.258	117.88
459.478	89.88
459.698	96.88
459.918	82.88
460.138	99.88
460.358	82.88
460.578	97.88
460.798	110.88
461.018	90.88
461.238	94.88
461.458	93.88
461.678	82.88
461.898	85.88
462.118	72.88
462.338	95.88
462.558	83.88
462.777	89.88
462.997	87.88
463.217	88.88
463.437	89.88
463.657	82.88
463.876	91.88
464.096	84.88
464.316	94.88
464.536	101.88
464.755	97.88
464.975	103.88
465.195	163.88
465.414	149.88
465.634	98.88
465.854	87.88
466.073	95.88
466.293	89.88
466.512	97.88
466.732	81.88
466.951	93.88
467.171	107.88
467.391	105.88
467.61	107.88
467.829	85.88
468.049	117.88
468.268	149.88
468.488	101.88
468.707	88.88
468.927	89.88
469.146	101.88
469.365	101.88
469.585	90.88
469.804	101.88
470.023	100.88
470.243	99.88
470.462	97.88
470.681	114.88
470.901	91.88
471.12	82.88
471.339	91.88
471.558	84.88
471.777	102.88
471.997	103.88
472.216	202.88
472.435	278.88
472.654	123.88
472.873	84.88
473.092	93.88
473.311	77.88
473.53	87.88
473.749	89.88
473.968	90.88
474.187	111.88
474.406	106.88
474.625	95.88
474.844	103.88
475.063	97.88
475.282	79.88
475.501	80.88
475.72	89.88
475.939	95.88
476.158	97.88
476.377	105.88
476.596	104.88
476.814	91.88
477.033	97.88
477.252	85.88
477.471	85.88
477.69	89.88
477.908	78.88
478.127	87.88
478.346	91.88
478.564	86.88
478.783	92.88
479.002	104.88
479.22	95.88
479.439	109.88
479.658	93.88
479.876	94.88
480.095	97.88
480.313	95.88
480.532	90.88
480.751	115.88
480.969	173.88
481.188	459.88
481.406	286.88
481.624	116.88
481.843	103.88
482.061	90.88
482.28	93.88
482.498	98.88
482.717	109.88
482.935	79.88
483.153	74.88
483.372	93.88
483.59	97.88
483.808	101.88
484.027	97.88
484.245	88.88
484.463	96.88
484.681	95.88
484.9	84.88
485.118	78.88
485.336	99.88
485.554	105.88
485.772	111.88
485.99	102.88
486.209	103.88
486.427	101.88
486.645	107.88
486.863	98.88
487.081	102.88
487.299	93.88
487.517	98.88
487.735	102.88
487.953	90.88
488.171	99.88
488.389	104.88
488.607	99.88
488.825	86.88
489.043	81.88
489.261	87.88
489.479	93.88
489.696	88.88
489.914	92.88
490.132	87.88
490.35	99.88
490.568	91.88
490.786	89.88
491.003	101.88
491.221	94.88
491.439	89.88
491.657	80.88
491.874	88.88
492.092	93.88
492.31	95.88
492.527	86.88
492.745	98.88
492.963	94.88
493.18	91.88
493.398	97.88
493.615	90.88
493.833	91.88
494.05	90.88
494.268	84.88
494.485	92.88
494.703	77.88
494.92	95.88
495.138	100.88
495.355	102.88
495.573	80.88
495.79	97.88
496.008	95.88
496.225	91.88
496.442	83.88
496.66	97.88
496.877	70.88
497.094	81.88
497.312	89.88
497.529	100.88
497.746	102.88
497.963	92.88
498.181	95.88
498.398	96.88
498.615	97.88
498.832	90.88
499.049	88.88
499.267	97.88
499.484	79.88
499.701	92.88
499.918	84.88
500.135	89.88
500.352	91.88
500.569	91.88
500.786	91.88
501.003	106.88
501.22	82.88
501.437	96.88
501.654	97.88
501.871	107.88
502.088	90.88
502.305	107.88
502.522	94.88
502.739	86.88
502.956	91.88
503.172	106.88
503.389	94.88
503.606	108.88
503.823	103.88
504.04	78.88
504.256	87.88
504.473	97.88
504.69	93.88
504.907	98.88
505.123	95.88
505.34	86.88
505.557	99.88
505.773	99.88
505.99	84.88
506.207	101.88
506.423	101.88
506.64	107.88
506.856	114.88
507.073	106.88
507.289	102.88
507.506	110.88
507.722	109.88
507.939	104.88
508.155	110.88
508.372	101.88
508.588	97.88
508.805	104.88
509.021	97.88
509.238	95.88
509.454	95.88
509.67	100.88
509.887	106.88
510.103	131.88
510.319	181.88
510.536	650.88
510.752	1973.88
510.968	558.88
511.184	142.88
511.401	112.88
511.617	104.88
511.833	90.88
512.049	100.88
512.265	89.88
512.481	85.88
512.698	100.88
512.914	99.88
513.13	97.88
513.346	85.88
513.562	101.88
513.778	106.88
513.994	90.88
514.21	100.88
514.426	111.88
514.642	121.88
