Data from Uncirc_1989_H10_HRD10591_00078.txt Node
Date: Wed Jan 03 11:57:51 EST 2024
User: Yrep
Spectrometer: HR+D1059
Trigger mode: 1
Integration Time (sec): 1.000000E-1
Scans to average: 1
Electric dark correction enabled: true
Nonlinearity correction enabled: false
Boxcar width: 0
XAxis mode: Wavelengths
Number of Pixels in Spectrum: 2048
>>>>>Begin Spectral Data<<<<<
223.165	-19.88
223.4	-19.88
223.635	-19.88
223.869	-16.88
224.104	-9.88
224.338	-23.88
224.573	-3.88
224.808	-23.88
225.042	-5.88
225.277	-3.88
225.511	-8.88
225.746	8.12
225.98	19.12
226.215	18.12
226.449	17.12
226.683	16.12
226.918	16.12
227.152	22.12
227.387	33.12
227.621	35.12
227.856	55.12
228.09	48.12
228.324	45.12
228.559	51.12
228.793	61.12
229.027	67.12
229.262	61.12
229.496	60.12
229.73	76.12
229.964	81.12
230.199	67.12
230.433	77.12
230.667	74.12
230.901	85.12
231.136	67.12
231.37	78.12
231.604	86.12
231.838	81.12
232.072	82.12
232.306	80.12
232.541	79.12
232.775	65.12
233.009	76.12
233.243	67.12
233.477	78.12
233.711	87.12
233.945	84.12
234.179	85.12
234.413	83.12
234.647	59.12
234.881	80.12
235.115	87.12
235.349	76.12
235.583	91.12
235.817	88.12
236.051	76.12
236.285	71.12
236.519	84.12
236.753	74.12
236.987	79.12
237.221	74.12
237.455	87.12
237.689	87.12
237.922	79.12
238.156	68.12
238.39	75.12
238.624	80.12
238.858	73.12
239.091	65.12
239.325	74.12
239.559	82.12
239.793	72.12
240.027	67.12
240.26	78.12
240.494	78.12
240.728	65.12
240.961	68.12
241.195	62.12
241.429	87.12
241.662	77.12
241.896	77.12
242.13	82.12
242.363	79.12
242.597	68.12
242.83	82.12
243.064	79.12
243.298	79.12
243.531	80.12
243.765	71.12
243.998	87.12
244.232	83.12
244.465	100.12
244.699	69.12
244.932	83.12
245.166	80.12
245.399	51.12
245.633	78.12
245.866	68.12
246.099	73.12
246.333	71.12
246.566	82.12
246.8	71.12
247.033	66.12
247.266	68.12
247.5	70.12
247.733	76.12
247.966	75.12
248.2	86.12
248.433	74.12
248.666	96.12
248.899	86.12
249.133	85.12
249.366	89.12
249.599	100.12
249.832	85.12
250.066	67.12
250.299	80.12
250.532	79.12
250.765	83.12
250.998	72.12
251.231	66.12
251.465	79.12
251.698	82.12
251.931	89.12
252.164	78.12
252.397	74.12
252.63	71.12
252.863	90.12
253.096	91.12
253.329	76.12
253.562	82.12
253.795	88.12
254.028	72.12
254.261	71.12
254.494	86.12
254.727	76.12
254.96	78.12
255.193	78.12
255.426	67.12
255.659	73.12
255.892	85.12
256.124	82.12
256.357	74.12
256.59	77.12
256.823	80.12
257.056	90.12
257.289	90.12
257.521	75.12
257.754	88.12
257.987	73.12
258.22	88.12
258.452	72.12
258.685	80.12
258.918	75.12
259.151	67.12
259.383	78.12
259.616	62.12
259.849	77.12
260.081	82.12
260.314	75.12
260.547	77.12
260.779	79.12
261.012	77.12
261.244	79.12
261.477	98.12
261.71	94.12
261.942	99.12
262.175	102.12
262.407	89.12
262.64	87.12
262.872	71.12
263.105	76.12
263.337	74.12
263.57	82.12
263.802	90.12
264.035	93.12
264.267	88.12
264.499	80.12
264.732	75.12
264.964	74.12
265.197	87.12
265.429	94.12
265.661	80.12
265.894	86.12
266.126	91.12
266.358	78.12
266.591	88.12
266.823	80.12
267.055	80.12
267.287	67.12
267.52	65.12
267.752	79.12
267.984	88.12
268.216	90.12
268.448	70.12
268.681	74.12
268.913	80.12
269.145	62.12
269.377	69.12
269.609	83.12
269.841	83.12
270.073	91.12
270.306	82.12
270.538	94.12
270.77	76.12
271.002	68.12
271.234	99.12
271.466	94.12
271.698	78.12
271.93	75.12
272.162	83.12
272.394	87.12
272.626	75.12
272.858	87.12
273.09	90.12
273.322	84.12
273.553	77.12
273.785	84.12
274.017	92.12
274.249	84.12
274.481	77.12
274.713	72.12
274.945	88.12
275.176	95.12
275.408	86.12
275.64	83.12
275.872	98.12
276.104	95.12
276.335	90.12
276.567	95.12
276.799	93.12
277.031	94.12
277.262	93.12
277.494	60.12
277.726	82.12
277.957	90.12
278.189	74.12
278.421	83.12
278.652	81.12
278.884	76.12
279.115	89.12
279.347	87.12
279.579	78.12
279.81	87.12
280.042	90.12
280.273	99.12
280.505	90.12
280.736	84.12
280.968	84.12
281.199	78.12
281.431	86.12
281.662	82.12
281.894	91.12
282.125	90.12
282.356	120.12
282.588	125.12
282.819	99.12
283.051	94.12
283.282	83.12
283.513	84.12
283.745	88.12
283.976	86.12
284.207	87.12
284.439	93.12
284.67	90.12
284.901	81.12
285.132	83.12
285.364	95.12
285.595	83.12
285.826	80.12
286.057	82.12
286.288	82.12
286.52	83.12
286.751	97.12
286.982	91.12
287.213	92.12
287.444	76.12
287.675	91.12
287.906	85.12
288.138	88.12
288.369	86.12
288.6	84.12
288.831	71.12
289.062	85.12
289.293	94.12
289.524	89.12
289.755	80.12
289.986	90.12
290.217	70.12
290.448	93.12
290.679	79.12
290.91	102.12
291.141	91.12
291.371	82.12
291.602	78.12
291.833	110.12
292.064	82.12
292.295	80.12
292.526	82.12
292.757	101.12
292.987	96.12
293.218	88.12
293.449	83.12
293.68	84.12
293.91	86.12
294.141	74.12
294.372	86.12
294.603	92.12
294.833	99.12
295.064	83.12
295.295	95.12
295.525	90.12
295.756	86.12
295.987	112.12
296.217	128.12
296.448	109.12
296.679	85.12
296.909	91.12
297.14	74.12
297.37	79.12
297.601	83.12
297.831	78.12
298.062	90.12
298.292	97.12
298.523	84.12
298.753	93.12
298.984	99.12
299.214	85.12
299.445	89.12
299.675	80.12
299.905	71.12
300.136	86.12
300.366	80.12
300.597	93.12
300.827	93.12
301.057	105.12
301.288	97.12
301.518	95.12
301.748	88.12
301.979	99.12
302.209	92.12
302.439	91.12
302.669	83.12
302.9	80.12
303.13	87.12
303.36	90.12
303.59	87.12
303.82	103.12
304.051	99.12
304.281	95.12
304.511	86.12
304.741	87.12
304.971	76.12
305.201	91.12
305.431	85.12
305.661	82.12
305.891	88.12
306.121	93.12
306.352	93.12
306.582	113.12
306.812	72.12
307.042	91.12
307.272	96.12
307.502	92.12
307.731	84.12
307.961	92.12
308.191	83.12
308.421	69.12
308.651	102.12
308.881	87.12
309.111	93.12
309.341	87.12
309.571	98.12
309.8	108.12
310.03	87.12
310.26	80.12
310.49	90.12
310.72	94.12
310.949	90.12
311.179	95.12
311.409	96.12
311.639	81.12
311.868	97.12
312.098	68.12
312.328	102.12
312.557	106.12
312.787	98.12
313.017	98.12
313.246	96.12
313.476	83.12
313.706	89.12
313.935	84.12
314.165	100.12
314.394	100.12
314.624	86.12
314.853	95.12
315.083	94.12
315.312	95.12
315.542	94.12
315.771	90.12
316.001	90.12
316.23	94.12
316.46	78.12
316.689	84.12
316.919	99.12
317.148	100.12
317.377	92.12
317.607	93.12
317.836	90.12
318.065	95.12
318.295	90.12
318.524	90.12
318.753	84.12
318.983	94.12
319.212	98.12
319.441	103.12
319.67	84.12
319.9	84.12
320.129	91.12
320.358	93.12
320.587	94.12
320.816	87.12
321.046	96.12
321.275	82.12
321.504	90.12
321.733	97.12
321.962	98.12
322.191	85.12
322.42	92.12
322.649	105.12
322.878	103.12
323.108	110.12
323.337	109.12
323.566	121.12
323.795	132.12
324.024	177.12
324.253	335.12
324.482	698.12
324.71	1434.12
324.939	1902.12
325.168	693.12
325.397	224.12
325.626	147.12
325.855	116.12
326.084	118.12
326.313	130.12
326.542	140.12
326.77	211.12
326.999	412.12
327.228	831.12
327.457	1515.12
327.686	1187.12
327.914	338.12
328.143	193.12
328.372	188.12
328.6	142.12
328.829	114.12
329.058	108.12
329.287	105.12
329.515	103.12
329.744	113.12
329.972	150.12
330.201	194.12
330.43	236.12
330.658	153.12
330.887	124.12
331.115	106.12
331.344	104.12
331.572	93.12
331.801	93.12
332.03	83.12
332.258	96.12
332.486	87.12
332.715	101.12
332.943	89.12
333.172	108.12
333.4	105.12
333.629	96.12
333.857	110.12
334.085	133.12
334.314	197.12
334.542	300.12
334.771	259.12
334.999	117.12
335.227	106.12
335.455	90.12
335.684	94.12
335.912	96.12
336.14	102.12
336.369	95.12
336.597	99.12
336.825	91.12
337.053	99.12
337.281	86.12
337.51	88.12
337.738	91.12
337.966	72.12
338.194	88.12
338.422	90.12
338.65	87.12
338.878	93.12
339.106	95.12
339.334	103.12
339.562	90.12
339.79	83.12
340.018	100.12
340.246	90.12
340.474	90.12
340.702	80.12
340.93	93.12
341.158	87.12
341.386	95.12
341.614	97.12
341.842	80.12
342.07	86.12
342.298	78.12
342.526	85.12
342.754	78.12
342.981	81.12
343.209	81.12
343.437	88.12
343.665	78.12
343.893	94.12
344.12	91.12
344.348	82.12
344.576	73.12
344.804	91.12
345.031	95.12
345.259	100.12
345.487	93.12
345.714	86.12
345.942	88.12
346.17	93.12
346.397	78.12
346.625	112.12
346.853	96.12
347.08	91.12
347.308	96.12
347.535	101.12
347.763	98.12
347.99	94.12
348.218	89.12
348.445	95.12
348.673	100.12
348.9	86.12
349.128	92.12
349.355	96.12
349.583	90.12
349.81	101.12
350.037	77.12
350.265	111.12
350.492	96.12
350.72	95.12
350.947	100.12
351.174	92.12
351.402	120.12
351.629	107.12
351.856	81.12
352.083	92.12
352.311	98.12
352.538	100.12
352.765	106.12
352.992	90.12
353.22	104.12
353.447	98.12
353.674	99.12
353.901	106.12
354.128	93.12
354.355	87.12
354.583	109.12
354.81	107.12
355.037	105.12
355.264	87.12
355.491	106.12
355.718	78.12
355.945	101.12
356.172	83.12
356.399	86.12
356.626	94.12
356.853	99.12
357.08	105.12
357.307	93.12
357.534	73.12
357.761	100.12
357.988	81.12
358.215	91.12
358.441	79.12
358.668	98.12
358.895	108.12
359.122	104.12
359.349	85.12
359.576	87.12
359.802	99.12
360.029	109.12
360.256	98.12
360.483	91.12
360.709	84.12
360.936	95.12
361.163	81.12
361.39	97.12
361.616	95.12
361.843	91.12
362.07	95.12
362.296	91.12
362.523	90.12
362.749	97.12
362.976	94.12
363.203	100.12
363.429	95.12
363.656	87.12
363.882	92.12
364.109	81.12
364.335	98.12
364.562	89.12
364.788	97.12
365.015	91.12
365.241	86.12
365.468	106.12
365.694	88.12
365.92	80.12
366.147	83.12
366.373	95.12
366.599	104.12
366.826	101.12
367.052	94.12
367.278	89.12
367.505	86.12
367.731	98.12
367.957	69.12
368.184	92.12
368.41	101.12
368.636	107.12
368.862	107.12
369.089	97.12
369.315	87.12
369.541	88.12
369.767	82.12
369.993	82.12
370.219	79.12
370.445	67.12
370.672	72.12
370.898	72.12
371.124	87.12
371.35	84.12
371.576	90.12
371.802	89.12
372.028	78.12
372.254	90.12
372.48	85.12
372.706	86.12
372.932	84.12
373.158	84.12
373.384	81.12
373.61	98.12
373.835	96.12
374.061	91.12
374.287	81.12
374.513	81.12
374.739	99.12
374.965	80.12
375.191	95.12
375.416	87.12
375.642	86.12
375.868	94.12
376.094	98.12
376.319	94.12
376.545	81.12
376.771	85.12
376.997	88.12
377.222	88.12
377.448	81.12
377.674	90.12
377.899	95.12
378.125	87.12
378.35	99.12
378.576	97.12
378.802	74.12
379.027	87.12
379.253	92.12
379.478	101.12
379.704	101.12
379.929	87.12
380.155	96.12
380.38	80.12
380.606	86.12
380.831	89.12
381.057	101.12
381.282	97.12
381.507	97.12
381.733	90.12
381.958	90.12
382.184	94.12
382.409	84.12
382.634	98.12
382.86	81.12
383.085	86.12
383.31	95.12
383.535	100.12
383.761	95.12
383.986	93.12
384.211	94.12
384.436	96.12
384.662	99.12
384.887	105.12
385.112	106.12
385.337	90.12
385.562	97.12
385.787	91.12
386.013	108.12
386.238	100.12
386.463	93.12
386.688	92.12
386.913	113.12
387.138	94.12
387.363	97.12
387.588	107.12
387.813	101.12
388.038	107.12
388.263	107.12
388.488	102.12
388.713	92.12
388.938	103.12
389.163	86.12
389.387	97.12
389.612	105.12
389.837	85.12
390.062	86.12
390.287	104.12
390.512	91.12
390.736	80.12
390.961	98.12
391.186	90.12
391.411	85.12
391.636	71.12
391.86	87.12
392.085	78.12
392.31	87.12
392.534	84.12
392.759	78.12
392.984	81.12
393.208	92.12
393.433	94.12
393.658	90.12
393.882	93.12
394.107	94.12
394.331	86.12
394.556	97.12
394.78	83.12
395.005	94.12
395.229	90.12
395.454	77.12
395.678	88.12
395.903	87.12
396.127	91.12
396.352	83.12
396.576	83.12
396.801	102.12
397.025	90.12
397.249	68.12
397.474	87.12
397.698	80.12
397.922	82.12
398.147	81.12
398.371	87.12
398.595	96.12
398.82	101.12
399.044	86.12
399.268	98.12
399.492	90.12
399.717	91.12
399.941	91.12
400.165	99.12
400.389	91.12
400.613	85.12
400.837	91.12
401.062	98.12
401.286	76.12
401.51	90.12
401.734	86.12
401.958	105.12
402.182	127.12
402.406	146.12
402.63	114.12
402.854	99.12
403.078	93.12
403.302	92.12
403.526	80.12
403.75	92.12
403.974	94.12
404.198	90.12
404.422	87.12
404.645	82.12
404.869	92.12
405.093	104.12
405.317	123.12
405.541	94.12
405.765	106.12
405.988	111.12
406.212	145.12
406.436	186.12
406.66	125.12
406.883	104.12
407.107	92.12
407.331	85.12
407.555	78.12
407.778	101.12
408.002	97.12
408.226	85.12
408.449	92.12
408.673	84.12
408.896	91.12
409.12	99.12
409.344	95.12
409.567	88.12
409.791	103.12
410.014	95.12
410.238	99.12
410.461	87.12
410.685	90.12
410.908	115.12
411.132	99.12
411.355	99.12
411.578	87.12
411.802	94.12
412.025	83.12
412.249	88.12
412.472	92.12
412.695	98.12
412.919	99.12
413.142	90.12
413.365	90.12
413.589	83.12
413.812	93.12
414.035	94.12
414.258	90.12
414.482	85.12
414.705	84.12
414.928	100.12
415.151	72.12
415.374	70.12
415.597	91.12
415.821	88.12
416.044	98.12
416.267	80.12
416.49	85.12
416.713	92.12
416.936	87.12
417.159	69.12
417.382	76.12
417.605	90.12
417.828	94.12
418.051	94.12
418.274	85.12
418.497	86.12
418.72	96.12
418.943	70.12
419.166	79.12
419.389	92.12
419.611	90.12
419.834	76.12
420.057	92.12
420.28	93.12
420.503	91.12
420.726	85.12
420.948	90.12
421.171	87.12
421.394	87.12
421.617	86.12
421.839	77.12
422.062	76.12
422.285	95.12
422.507	89.12
422.73	80.12
422.953	87.12
423.175	95.12
423.398	83.12
423.621	91.12
423.843	62.12
424.066	74.12
424.288	88.12
424.511	94.12
424.733	78.12
424.956	89.12
425.178	92.12
425.401	88.12
425.623	80.12
425.846	97.12
426.068	102.12
426.291	82.12
426.513	98.12
426.735	93.12
426.958	99.12
427.18	105.12
427.402	126.12
427.625	136.12
427.847	126.12
428.069	125.12
428.292	107.12
428.514	100.12
428.736	90.12
428.958	84.12
429.181	98.12
429.403	87.12
429.625	96.12
429.847	83.12
430.069	92.12
430.292	89.12
430.514	85.12
430.736	87.12
430.958	80.12
431.18	84.12
431.402	84.12
431.624	75.12
431.846	81.12
432.068	82.12
432.29	92.12
432.512	88.12
432.734	74.12
432.956	92.12
433.178	88.12
433.4	83.12
433.622	87.12
433.844	79.12
434.066	96.12
434.287	101.12
434.509	92.12
434.731	65.12
434.953	78.12
435.175	90.12
435.397	91.12
435.618	85.12
435.84	99.12
436.062	108.12
436.284	103.12
436.505	93.12
436.727	102.12
436.949	100.12
437.17	74.12
437.392	88.12
437.614	104.12
437.835	98.12
438.057	102.12
438.278	120.12
438.5	95.12
438.721	96.12
438.943	102.12
439.165	82.12
439.386	88.12
439.608	91.12
439.829	97.12
440.05	118.12
440.272	126.12
440.493	107.12
440.715	88.12
440.936	83.12
441.158	91.12
441.379	82.12
441.6	96.12
441.822	81.12
442.043	78.12
442.264	99.12
442.486	97.12
442.707	83.12
442.928	95.12
443.149	123.12
443.371	112.12
443.592	101.12
443.813	93.12
444.034	91.12
444.255	83.12
444.476	85.12
444.698	93.12
444.919	79.12
445.14	143.12
445.361	125.12
445.582	103.12
445.803	126.12
446.024	115.12
446.245	125.12
446.466	112.12
446.687	79.12
446.908	90.12
447.129	92.12
447.35	74.12
447.571	71.12
447.792	87.12
448.013	84.12
448.234	75.12
448.455	87.12
448.675	109.12
448.896	94.12
449.117	89.12
449.338	91.12
449.559	107.12
449.779	110.12
450	89.12
450.221	81.12
450.442	86.12
450.662	86.12
450.883	83.12
451.104	98.12
451.324	82.12
451.545	79.12
451.766	94.12
451.986	87.12
452.207	90.12
452.428	81.12
452.648	104.12
452.869	104.12
453.089	95.12
453.31	82.12
453.53	84.12
453.751	101.12
453.971	86.12
454.192	100.12
454.412	95.12
454.633	96.12
454.853	83.12
455.073	87.12
455.294	91.12
455.514	98.12
455.734	85.12
455.955	94.12
456.175	73.12
456.395	82.12
456.616	89.12
456.836	80.12
457.056	86.12
457.276	79.12
457.497	86.12
457.717	86.12
457.937	90.12
458.157	83.12
458.377	102.12
458.598	112.12
458.818	128.12
459.038	131.12
459.258	104.12
459.478	90.12
459.698	86.12
459.918	71.12
460.138	74.12
460.358	91.12
460.578	78.12
460.798	91.12
461.018	87.12
461.238	98.12
461.458	84.12
461.678	91.12
461.898	84.12
462.118	86.12
462.338	78.12
462.558	86.12
462.777	82.12
462.997	85.12
463.217	84.12
463.437	70.12
463.657	87.12
463.876	100.12
464.096	78.12
464.316	87.12
464.536	103.12
464.755	102.12
464.975	88.12
465.195	135.12
465.414	146.12
465.634	85.12
465.854	89.12
466.073	88.12
466.293	89.12
466.512	76.12
466.732	62.12
466.951	80.12
467.171	91.12
467.391	82.12
467.61	87.12
467.829	85.12
468.049	142.12
468.268	161.12
468.488	94.12
468.707	90.12
468.927	97.12
469.146	93.12
469.365	97.12
469.585	94.12
469.804	104.12
470.023	82.12
470.243	96.12
470.462	99.12
470.681	95.12
470.901	83.12
471.12	89.12
471.339	79.12
471.558	85.12
471.777	95.12
471.997	106.12
472.216	216.12
472.435	375.12
472.654	138.12
472.873	110.12
473.092	82.12
473.311	102.12
473.53	81.12
473.749	75.12
473.968	76.12
474.187	91.12
474.406	93.12
474.625	103.12
474.844	82.12
475.063	85.12
475.282	74.12
475.501	76.12
475.72	86.12
475.939	86.12
476.158	80.12
476.377	86.12
476.596	89.12
476.814	92.12
477.033	84.12
477.252	83.12
477.471	67.12
477.69	85.12
477.908	94.12
478.127	110.12
478.346	99.12
478.564	90.12
478.783	91.12
479.002	100.12
479.22	97.12
479.439	78.12
479.658	97.12
479.876	94.12
480.095	94.12
480.313	100.12
480.532	102.12
480.751	115.12
480.969	229.12
481.188	639.12
481.406	373.12
481.624	113.12
481.843	94.12
482.061	77.12
482.28	86.12
482.498	82.12
482.717	89.12
482.935	102.12
483.153	89.12
483.372	92.12
483.59	91.12
483.808	75.12
484.027	90.12
484.245	94.12
484.463	87.12
484.681	98.12
484.9	100.12
485.118	99.12
485.336	71.12
485.554	97.12
485.772	82.12
485.99	109.12
486.209	106.12
486.427	99.12
486.645	94.12
486.863	111.12
487.081	93.12
487.299	99.12
487.517	102.12
487.735	79.12
487.953	85.12
488.171	85.12
488.389	87.12
488.607	108.12
488.825	101.12
489.043	74.12
489.261	93.12
489.479	101.12
489.696	81.12
489.914	96.12
490.132	108.12
490.35	70.12
490.568	98.12
490.786	103.12
491.003	96.12
491.221	85.12
491.439	89.12
491.657	87.12
491.874	82.12
492.092	89.12
492.31	90.12
492.527	78.12
492.745	76.12
492.963	80.12
493.18	75.12
493.398	89.12
493.615	88.12
493.833	98.12
494.05	88.12
494.268	98.12
494.485	80.12
494.703	74.12
494.92	80.12
495.138	87.12
495.355	85.12
495.573	85.12
495.79	91.12
496.008	94.12
496.225	96.12
496.442	93.12
496.66	86.12
496.877	91.12
497.094	85.12
497.312	88.12
497.529	86.12
497.746	92.12
497.963	98.12
498.181	92.12
498.398	77.12
498.615	97.12
498.832	107.12
499.049	85.12
499.267	89.12
499.484	79.12
499.701	90.12
499.918	98.12
500.135	86.12
500.352	96.12
500.569	88.12
500.786	96.12
501.003	97.12
501.22	83.12
501.437	104.12
501.654	92.12
501.871	92.12
502.088	87.12
502.305	85.12
502.522	96.12
502.739	78.12
502.956	72.12
503.172	93.12
503.389	91.12
503.606	101.12
503.823	101.12
504.04	93.12
504.256	83.12
504.473	88.12
504.69	103.12
504.907	87.12
505.123	86.12
505.34	86.12
505.557	91.12
505.773	92.12
505.99	85.12
506.207	96.12
506.423	87.12
506.64	76.12
506.856	101.12
507.073	82.12
507.289	93.12
507.506	99.12
507.722	96.12
507.939	101.12
508.155	100.12
508.372	108.12
508.588	100.12
508.805	100.12
509.021	93.12
509.238	86.12
509.454	91.12
509.67	91.12
509.887	104.12
510.103	118.12
510.319	181.12
510.536	597.12
510.752	1823.12
510.968	504.12
511.184	152.12
511.401	114.12
511.617	98.12
511.833	86.12
512.049	102.12
512.265	88.12
512.481	87.12
512.698	90.12
512.914	83.12
513.13	84.12
513.346	101.12
513.562	82.12
513.778	87.12
513.994	94.12
514.21	114.12
514.426	110.12
514.642	123.12
514.858	124.12
515.074	149.12
515.29	368.12
515.506	1125.12
515.721	409.12
515.937	133.12
516.153	108.12
516.369	104.12
516.585	94.12
