Data from Uncirc_1989_H10_HRD10591_00082.txt Node
Date: Wed Jan 03 11:57:52 EST 2024
User: Yrep
Spectrometer: HR+D1059
Trigger mode: 1
Integration Time (sec): 1.000000E-1
Scans to average: 1
Electric dark correction enabled: true
Nonlinearity correction enabled: false
Boxcar width: 0
XAxis mode: Wavelengths
Number of Pixels in Spectrum: 2048
>>>>>Begin Spectral Data<<<<<
223.165	-20.44
223.4	-20.44
223.635	-20.44
223.869	-16.44
224.104	-16.44
224.338	-26.44
224.573	-17.44
224.808	-9.44
225.042	-16.44
225.277	-2.44
225.511	2.56
225.746	4.56
225.98	6.56
226.215	5.56
226.449	12.56
226.683	24.56
226.918	31.56
227.152	37.56
227.387	43.56
227.621	25.56
227.856	47.56
228.09	37.56
228.324	41.56
228.559	50.56
228.793	62.56
229.027	53.56
229.262	81.56
229.496	75.56
229.73	68.56
229.964	78.56
230.199	62.56
230.433	62.56
230.667	79.56
230.901	55.56
231.136	77.56
231.37	78.56
231.604	83.56
231.838	81.56
232.072	85.56
232.306	85.56
232.541	89.56
232.775	66.56
233.009	83.56
233.243	77.56
233.477	86.56
233.711	98.56
233.945	93.56
234.179	79.56
234.413	81.56
234.647	59.56
234.881	75.56
235.115	75.56
235.349	80.56
235.583	83.56
235.817	95.56
236.051	75.56
236.285	77.56
236.519	83.56
236.753	69.56
236.987	75.56
237.221	89.56
237.455	94.56
237.689	79.56
237.922	77.56
238.156	68.56
238.39	80.56
238.624	83.56
238.858	69.56
239.091	69.56
239.325	88.56
239.559	55.56
239.793	85.56
240.027	77.56
240.26	84.56
240.494	82.56
240.728	80.56
240.961	70.56
241.195	79.56
241.429	77.56
241.662	77.56
241.896	84.56
242.13	77.56
242.363	70.56
242.597	73.56
242.83	69.56
243.064	70.56
243.298	77.56
243.531	73.56
243.765	78.56
243.998	87.56
244.232	87.56
244.465	81.56
244.699	87.56
244.932	77.56
245.166	69.56
245.399	76.56
245.633	67.56
245.866	75.56
246.099	75.56
246.333	92.56
246.566	78.56
246.8	81.56
247.033	90.56
247.266	77.56
247.5	70.56
247.733	87.56
247.966	89.56
248.2	92.56
248.433	81.56
248.666	81.56
248.899	82.56
249.133	81.56
249.366	99.56
249.599	83.56
249.832	81.56
250.066	103.56
250.299	78.56
250.532	85.56
250.765	76.56
250.998	93.56
251.231	70.56
251.465	79.56
251.698	62.56
251.931	90.56
252.164	83.56
252.397	60.56
252.63	84.56
252.863	80.56
253.096	77.56
253.329	79.56
253.562	85.56
253.795	75.56
254.028	99.56
254.261	76.56
254.494	83.56
254.727	95.56
254.96	76.56
255.193	73.56
255.426	72.56
255.659	83.56
255.892	86.56
256.124	76.56
256.357	75.56
256.59	91.56
256.823	84.56
257.056	81.56
257.289	78.56
257.521	84.56
257.754	70.56
257.987	75.56
258.22	91.56
258.452	84.56
258.685	88.56
258.918	85.56
259.151	79.56
259.383	69.56
259.616	66.56
259.849	94.56
260.081	73.56
260.314	84.56
260.547	92.56
260.779	81.56
261.012	82.56
261.244	88.56
261.477	90.56
261.71	95.56
261.942	89.56
262.175	108.56
262.407	87.56
262.64	80.56
262.872	81.56
263.105	83.56
263.337	96.56
263.57	77.56
263.802	71.56
264.035	74.56
264.267	82.56
264.499	83.56
264.732	83.56
264.964	84.56
265.197	79.56
265.429	86.56
265.661	89.56
265.894	89.56
266.126	84.56
266.358	82.56
266.591	89.56
266.823	84.56
267.055	76.56
267.287	79.56
267.52	80.56
267.752	71.56
267.984	90.56
268.216	80.56
268.448	80.56
268.681	83.56
268.913	99.56
269.145	90.56
269.377	82.56
269.609	92.56
269.841	84.56
270.073	76.56
270.306	86.56
270.538	82.56
270.77	67.56
271.002	92.56
271.234	77.56
271.466	77.56
271.698	70.56
271.93	83.56
272.162	87.56
272.394	90.56
272.626	86.56
272.858	83.56
273.09	68.56
273.322	70.56
273.553	84.56
273.785	88.56
274.017	86.56
274.249	99.56
274.481	73.56
274.713	84.56
274.945	89.56
275.176	95.56
275.408	80.56
275.64	73.56
275.872	77.56
276.104	93.56
276.335	89.56
276.567	94.56
276.799	101.56
277.031	109.56
277.262	99.56
277.494	87.56
277.726	80.56
277.957	82.56
278.189	89.56
278.421	94.56
278.652	83.56
278.884	83.56
279.115	82.56
279.347	93.56
279.579	76.56
279.81	92.56
280.042	92.56
280.273	100.56
280.505	82.56
280.736	92.56
280.968	92.56
281.199	92.56
281.431	98.56
281.662	89.56
281.894	79.56
282.125	83.56
282.356	106.56
282.588	113.56
282.819	116.56
283.051	97.56
283.282	87.56
283.513	94.56
283.745	82.56
283.976	78.56
284.207	71.56
284.439	97.56
284.67	83.56
284.901	88.56
285.132	92.56
285.364	88.56
285.595	88.56
285.826	91.56
286.057	82.56
286.288	84.56
286.52	77.56
286.751	91.56
286.982	82.56
287.213	84.56
287.444	77.56
287.675	84.56
287.906	89.56
288.138	96.56
288.369	85.56
288.6	95.56
288.831	80.56
289.062	84.56
289.293	79.56
289.524	106.56
289.755	74.56
289.986	80.56
290.217	84.56
290.448	86.56
290.679	88.56
290.91	87.56
291.141	105.56
291.371	99.56
291.602	83.56
291.833	77.56
292.064	100.56
292.295	91.56
292.526	79.56
292.757	80.56
292.987	75.56
293.218	89.56
293.449	89.56
293.68	89.56
293.91	84.56
294.141	97.56
294.372	89.56
294.603	87.56
294.833	88.56
295.064	79.56
295.295	76.56
295.525	85.56
295.756	93.56
295.987	108.56
296.217	124.56
296.448	96.56
296.679	92.56
296.909	97.56
297.14	93.56
297.37	84.56
297.601	90.56
297.831	85.56
298.062	82.56
298.292	88.56
298.523	85.56
298.753	82.56
298.984	85.56
299.214	91.56
299.445	72.56
299.675	85.56
299.905	88.56
300.136	86.56
300.366	85.56
300.597	85.56
300.827	78.56
301.057	102.56
301.288	91.56
301.518	96.56
301.748	80.56
301.979	94.56
302.209	87.56
302.439	89.56
302.669	104.56
302.9	83.56
303.13	96.56
303.36	100.56
303.59	95.56
303.82	104.56
304.051	100.56
304.281	97.56
304.511	88.56
304.741	93.56
304.971	86.56
305.201	79.56
305.431	81.56
305.661	104.56
305.891	91.56
306.121	85.56
306.352	97.56
306.582	95.56
306.812	86.56
307.042	105.56
307.272	95.56
307.502	108.56
307.731	110.56
307.961	78.56
308.191	79.56
308.421	76.56
308.651	82.56
308.881	86.56
309.111	80.56
309.341	92.56
309.571	88.56
309.8	95.56
310.03	93.56
310.26	90.56
310.49	91.56
310.72	98.56
310.949	90.56
311.179	94.56
311.409	95.56
311.639	102.56
311.868	100.56
312.098	85.56
312.328	90.56
312.557	105.56
312.787	100.56
313.017	100.56
313.246	84.56
313.476	92.56
313.706	87.56
313.935	87.56
314.165	95.56
314.394	106.56
314.624	101.56
314.853	100.56
315.083	95.56
315.312	111.56
315.542	86.56
315.771	88.56
316.001	88.56
316.23	84.56
316.46	90.56
316.689	84.56
316.919	99.56
317.148	95.56
317.377	89.56
317.607	93.56
317.836	79.56
318.065	85.56
318.295	88.56
318.524	96.56
318.753	87.56
318.983	107.56
319.212	97.56
319.441	103.56
319.67	93.56
319.9	104.56
320.129	98.56
320.358	100.56
320.587	80.56
320.816	99.56
321.046	95.56
321.275	93.56
321.504	102.56
321.733	85.56
321.962	90.56
322.191	105.56
322.42	101.56
322.649	84.56
322.878	92.56
323.108	101.56
323.337	122.56
323.566	141.56
323.795	139.56
324.024	175.56
324.253	331.56
324.482	685.56
324.71	1415.56
324.939	1831.56
325.168	681.56
325.397	207.56
325.626	119.56
325.855	123.56
326.084	113.56
326.313	110.56
326.542	140.56
326.77	212.56
326.999	394.56
327.228	817.56
327.457	1475.56
327.686	1168.56
327.914	343.56
328.143	205.56
328.372	186.56
328.6	134.56
328.829	112.56
329.058	112.56
329.287	128.56
329.515	95.56
329.744	116.56
329.972	137.56
330.201	205.56
330.43	263.56
330.658	159.56
330.887	127.56
331.115	115.56
331.344	87.56
331.572	96.56
331.801	100.56
332.03	98.56
332.258	87.56
332.486	96.56
332.715	99.56
332.943	100.56
333.172	101.56
333.4	92.56
333.629	96.56
333.857	112.56
334.085	152.56
334.314	200.56
334.542	291.56
334.771	273.56
334.999	136.56
335.227	105.56
335.455	99.56
335.684	100.56
335.912	89.56
336.14	99.56
336.369	92.56
336.597	109.56
336.825	97.56
337.053	97.56
337.281	85.56
337.51	96.56
337.738	99.56
337.966	91.56
338.194	90.56
338.422	103.56
338.65	101.56
338.878	97.56
339.106	76.56
339.334	93.56
339.562	88.56
339.79	75.56
340.018	71.56
340.246	102.56
340.474	79.56
340.702	100.56
340.93	94.56
341.158	97.56
341.386	79.56
341.614	92.56
341.842	89.56
342.07	85.56
342.298	84.56
342.526	105.56
342.754	92.56
342.981	84.56
343.209	93.56
343.437	80.56
343.665	82.56
343.893	84.56
344.12	100.56
344.348	86.56
344.576	100.56
344.804	86.56
345.031	85.56
345.259	105.56
345.487	96.56
345.714	90.56
345.942	85.56
346.17	94.56
346.397	89.56
346.625	88.56
346.853	91.56
347.08	89.56
347.308	92.56
347.535	90.56
347.763	93.56
347.99	100.56
348.218	106.56
348.445	101.56
348.673	96.56
348.9	97.56
349.128	84.56
349.355	97.56
349.583	97.56
349.81	97.56
350.037	95.56
350.265	84.56
350.492	97.56
350.72	88.56
350.947	99.56
351.174	111.56
351.402	109.56
351.629	104.56
351.856	92.56
352.083	89.56
352.311	107.56
352.538	96.56
352.765	96.56
352.992	104.56
353.22	108.56
353.447	101.56
353.674	87.56
353.901	85.56
354.128	95.56
354.355	83.56
354.583	97.56
354.81	85.56
355.037	91.56
355.264	101.56
355.491	97.56
355.718	87.56
355.945	100.56
356.172	94.56
356.399	99.56
356.626	89.56
356.853	86.56
357.08	87.56
357.307	100.56
357.534	108.56
357.761	93.56
357.988	86.56
358.215	93.56
358.441	87.56
358.668	80.56
358.895	105.56
359.122	94.56
359.349	91.56
359.576	97.56
359.802	96.56
360.029	113.56
360.256	103.56
360.483	90.56
360.709	89.56
360.936	99.56
361.163	96.56
361.39	85.56
361.616	84.56
361.843	88.56
362.07	92.56
362.296	79.56
362.523	86.56
362.749	95.56
362.976	101.56
363.203	95.56
363.429	78.56
363.656	99.56
363.882	87.56
364.109	96.56
364.335	89.56
364.562	81.56
364.788	89.56
365.015	93.56
365.241	88.56
365.468	110.56
365.694	96.56
365.92	102.56
366.147	94.56
366.373	85.56
366.599	83.56
366.826	82.56
367.052	79.56
367.278	85.56
367.505	91.56
367.731	91.56
367.957	88.56
368.184	81.56
368.41	96.56
368.636	103.56
368.862	105.56
369.089	103.56
369.315	87.56
369.541	78.56
369.767	94.56
369.993	88.56
370.219	91.56
370.445	81.56
370.672	90.56
370.898	101.56
371.124	100.56
371.35	85.56
371.576	81.56
371.802	90.56
372.028	85.56
372.254	93.56
372.48	95.56
372.706	70.56
372.932	82.56
373.158	77.56
373.384	85.56
373.61	93.56
373.835	97.56
374.061	86.56
374.287	86.56
374.513	91.56
374.739	90.56
374.965	101.56
375.191	87.56
375.416	87.56
375.642	91.56
375.868	88.56
376.094	80.56
376.319	87.56
376.545	79.56
376.771	94.56
376.997	94.56
377.222	75.56
377.448	86.56
377.674	79.56
377.899	83.56
378.125	96.56
378.35	93.56
378.576	86.56
378.802	92.56
379.027	82.56
379.253	95.56
379.478	88.56
379.704	95.56
379.929	93.56
380.155	91.56
380.38	86.56
380.606	92.56
380.831	91.56
381.057	93.56
381.282	104.56
381.507	87.56
381.733	94.56
381.958	91.56
382.184	111.56
382.409	97.56
382.634	92.56
382.86	92.56
383.085	96.56
383.31	92.56
383.535	92.56
383.761	85.56
383.986	91.56
384.211	95.56
384.436	84.56
384.662	90.56
384.887	98.56
385.112	93.56
385.337	81.56
385.562	90.56
385.787	99.56
386.013	93.56
386.238	103.56
386.463	95.56
386.688	98.56
386.913	108.56
387.138	98.56
387.363	92.56
387.588	105.56
387.813	110.56
388.038	103.56
388.263	100.56
388.488	112.56
388.713	112.56
388.938	92.56
389.163	104.56
389.387	97.56
389.612	97.56
389.837	69.56
390.062	87.56
390.287	103.56
390.512	96.56
390.736	99.56
390.961	92.56
391.186	102.56
391.411	95.56
391.636	97.56
391.86	95.56
392.085	88.56
392.31	84.56
392.534	89.56
392.759	107.56
392.984	90.56
393.208	93.56
393.433	83.56
393.658	85.56
393.882	85.56
394.107	86.56
394.331	83.56
394.556	72.56
394.78	86.56
395.005	82.56
395.229	76.56
395.454	82.56
395.678	76.56
395.903	89.56
396.127	88.56
396.352	88.56
396.576	88.56
396.801	89.56
397.025	92.56
397.249	71.56
397.474	84.56
397.698	86.56
397.922	73.56
398.147	88.56
398.371	96.56
398.595	88.56
398.82	89.56
399.044	88.56
399.268	73.56
399.492	78.56
399.717	77.56
399.941	91.56
400.165	93.56
400.389	93.56
400.613	87.56
400.837	75.56
401.062	92.56
401.286	95.56
401.51	98.56
401.734	82.56
401.958	88.56
402.182	105.56
402.406	127.56
402.63	103.56
402.854	95.56
403.078	89.56
403.302	81.56
403.526	84.56
403.75	79.56
403.974	97.56
404.198	78.56
404.422	97.56
404.645	77.56
404.869	91.56
405.093	89.56
405.317	93.56
405.541	97.56
405.765	107.56
405.988	113.56
406.212	157.56
406.436	200.56
406.66	135.56
406.883	94.56
407.107	84.56
407.331	86.56
407.555	87.56
407.778	86.56
408.002	94.56
408.226	82.56
408.449	83.56
408.673	77.56
408.896	90.56
409.12	83.56
409.344	87.56
409.567	88.56
409.791	88.56
410.014	87.56
410.238	101.56
410.461	84.56
410.685	94.56
410.908	96.56
411.132	99.56
411.355	84.56
411.578	78.56
411.802	89.56
412.025	90.56
412.249	81.56
412.472	85.56
412.695	83.56
412.919	95.56
413.142	82.56
413.365	85.56
413.589	80.56
413.812	85.56
414.035	82.56
414.258	95.56
414.482	91.56
414.705	93.56
414.928	108.56
415.151	88.56
415.374	77.56
415.597	83.56
415.821	99.56
416.044	86.56
416.267	96.56
416.49	97.56
416.713	87.56
416.936	68.56
417.159	92.56
417.382	79.56
417.605	69.56
417.828	96.56
418.051	87.56
418.274	85.56
418.497	89.56
418.72	78.56
418.943	73.56
419.166	85.56
419.389	84.56
419.611	91.56
419.834	84.56
420.057	88.56
420.28	98.56
420.503	99.56
420.726	77.56
420.948	78.56
421.171	87.56
421.394	87.56
421.617	81.56
421.839	86.56
422.062	81.56
422.285	86.56
422.507	92.56
422.73	104.56
422.953	94.56
423.175	101.56
423.398	77.56
423.621	106.56
423.843	83.56
424.066	84.56
424.288	87.56
424.511	101.56
424.733	88.56
424.956	96.56
425.178	103.56
425.401	94.56
425.623	87.56
425.846	87.56
426.068	100.56
426.291	86.56
426.513	80.56
426.735	88.56
426.958	87.56
427.18	96.56
427.402	112.56
427.625	152.56
427.847	136.56
428.069	140.56
428.292	83.56
428.514	101.56
428.736	86.56
428.958	85.56
429.181	75.56
429.403	72.56
429.625	79.56
429.847	92.56
430.069	89.56
430.292	87.56
430.514	87.56
430.736	78.56
430.958	81.56
431.18	80.56
431.402	99.56
431.624	85.56
431.846	93.56
432.068	85.56
432.29	75.56
432.512	96.56
432.734	87.56
432.956	88.56
433.178	93.56
433.4	94.56
433.622	92.56
433.844	90.56
434.066	91.56
434.287	78.56
434.509	91.56
434.731	81.56
434.953	82.56
435.175	78.56
435.397	84.56
435.618	91.56
435.84	97.56
436.062	119.56
436.284	114.56
436.505	92.56
436.727	104.56
436.949	86.56
437.17	104.56
437.392	75.56
437.614	106.56
437.835	96.56
438.057	108.56
438.278	108.56
438.5	100.56
438.721	112.56
438.943	95.56
439.165	87.56
439.386	88.56
439.608	83.56
439.829	96.56
440.05	113.56
440.272	133.56
440.493	100.56
440.715	99.56
440.936	84.56
441.158	95.56
441.379	89.56
441.6	93.56
441.822	111.56
442.043	96.56
442.264	85.56
442.486	80.56
442.707	95.56
442.928	97.56
443.149	129.56
443.371	122.56
443.592	107.56
443.813	93.56
444.034	95.56
444.255	94.56
444.476	89.56
444.698	67.56
444.919	83.56
445.14	139.56
445.361	135.56
445.582	112.56
445.803	124.56
446.024	119.56
446.245	123.56
446.466	88.56
446.687	87.56
446.908	88.56
447.129	86.56
447.35	93.56
447.571	92.56
447.792	99.56
448.013	99.56
448.234	95.56
448.455	100.56
448.675	96.56
448.896	96.56
449.117	104.56
449.338	90.56
449.559	112.56
449.779	113.56
450	91.56
450.221	83.56
450.442	72.56
450.662	87.56
450.883	99.56
451.104	108.56
451.324	89.56
451.545	91.56
451.766	83.56
451.986	98.56
452.207	82.56
452.428	102.56
452.648	104.56
452.869	113.56
453.089	114.56
453.31	109.56
453.53	105.56
453.751	88.56
453.971	107.56
454.192	104.56
454.412	76.56
454.633	87.56
454.853	103.56
455.073	79.56
455.294	85.56
455.514	91.56
455.734	77.56
455.955	78.56
456.175	79.56
456.395	96.56
456.616	93.56
456.836	87.56
457.056	75.56
457.276	80.56
457.497	95.56
457.717	88.56
457.937	81.56
458.157	88.56
458.377	88.56
458.598	103.56
458.818	132.56
459.038	136.56
459.258	110.56
459.478	92.56
459.698	79.56
459.918	89.56
460.138	82.56
460.358	79.56
460.578	85.56
460.798	83.56
461.018	96.56
461.238	87.56
461.458	91.56
461.678	82.56
461.898	84.56
462.118	91.56
462.338	79.56
462.558	85.56
462.777	94.56
462.997	91.56
463.217	79.56
463.437	96.56
463.657	79.56
463.876	81.56
464.096	85.56
464.316	100.56
464.536	88.56
464.755	83.56
464.975	93.56
465.195	149.56
465.414	135.56
465.634	72.56
465.854	96.56
466.073	73.56
466.293	90.56
466.512	73.56
466.732	83.56
466.951	85.56
467.171	98.56
467.391	106.56
467.61	105.56
467.829	93.56
468.049	142.56
468.268	161.56
468.488	96.56
468.707	83.56
468.927	104.56
469.146	91.56
469.365	91.56
469.585	84.56
469.804	89.56
470.023	90.56
470.243	81.56
470.462	91.56
470.681	100.56
470.901	87.56
471.12	105.56
471.339	91.56
471.558	92.56
471.777	96.56
471.997	120.56
472.216	230.56
472.435	386.56
472.654	157.56
472.873	97.56
473.092	93.56
473.311	87.56
473.53	82.56
473.749	79.56
473.968	98.56
474.187	104.56
474.406	96.56
474.625	98.56
474.844	95.56
475.063	75.56
475.282	87.56
475.501	95.56
475.72	105.56
475.939	91.56
476.158	88.56
476.377	101.56
476.596	91.56
476.814	82.56
477.033	96.56
477.252	85.56
477.471	85.56
477.69	85.56
477.908	82.56
478.127	102.56
478.346	92.56
478.564	92.56
478.783	89.56
479.002	109.56
479.22	93.56
479.439	103.56
479.658	93.56
479.876	83.56
480.095	89.56
480.313	91.56
480.532	99.56
480.751	123.56
480.969	228.56
481.188	669.56
481.406	400.56
481.624	126.56
481.843	96.56
482.061	97.56
482.28	92.56
482.498	77.56
482.717	100.56
482.935	108.56
483.153	83.56
483.372	89.56
483.59	83.56
483.808	93.56
484.027	85.56
484.245	102.56
484.463	96.56
484.681	99.56
484.9	94.56
485.118	85.56
485.336	83.56
485.554	88.56
485.772	93.56
485.99	95.56
486.209	100.56
486.427	95.56
486.645	98.56
486.863	97.56
487.081	83.56
487.299	91.56
487.517	102.56
487.735	79.56
487.953	93.56
488.171	80.56
488.389	91.56
488.607	93.56
488.825	89.56
489.043	88.56
489.261	87.56
489.479	82.56
489.696	90.56
489.914	79.56
490.132	94.56
490.35	87.56
490.568	69.56
490.786	84.56
491.003	77.56
491.221	83.56
491.439	86.56
491.657	91.56
491.874	70.56
492.092	76.56
492.31	97.56
492.527	80.56
492.745	75.56
492.963	88.56
493.18	100.56
493.398	86.56
493.615	83.56
493.833	82.56
494.05	104.56
494.268	97.56
494.485	92.56
494.703	83.56
494.92	99.56
495.138	79.56
495.355	79.56
495.573	102.56
495.79	85.56
496.008	89.56
496.225	85.56
496.442	94.56
496.66	100.56
496.877	90.56
497.094	89.56
497.312	97.56
497.529	88.56
497.746	88.56
497.963	75.56
498.181	92.56
498.398	72.56
498.615	93.56
498.832	91.56
499.049	90.56
499.267	86.56
499.484	98.56
499.701	88.56
499.918	86.56
500.135	68.56
500.352	97.56
500.569	96.56
500.786	81.56
501.003	82.56
501.22	83.56
501.437	92.56
501.654	93.56
501.871	103.56
502.088	88.56
502.305	100.56
502.522	79.56
502.739	81.56
502.956	104.56
503.172	98.56
503.389	84.56
503.606	104.56
503.823	97.56
504.04	93.56
504.256	88.56
504.473	79.56
504.69	91.56
504.907	101.56
505.123	89.56
505.34	82.56
505.557	108.56
505.773	85.56
505.99	97.56
506.207	87.56
506.423	90.56
506.64	89.56
506.856	84.56
507.073	83.56
507.289	100.56
507.506	90.56
507.722	107.56
507.939	94.56
508.155	85.56
508.372	86.56
508.588	106.56
508.805	95.56
509.021	90.56
509.238	91.56
509.454	111.56
509.67	102.56
509.887	111.56
510.103	117.56
510.319	179.56
510.536	607.56
510.752	1793.56
510.968	519.56
511.184	137.56
511.401	94.56
511.617	92.56
511.833	90.56
512.049	89.56
512.265	94.56
512.481	101.56
512.698	76.56
512.914	97.56
513.13	100.56
513.346	94.56
513.562	83.56
513.778	94.56
513.994	97.56
514.21	94.56
514.426	115.56
514.642	114.56
514.858	122.56
515.074	142.56
515.29	354.56
515.506	1157.56
515.721	434.56
515.937	130.56
516.153	121.56
516.369	83.56
