Data from Uncirc_1989_H10_HRD10591_00005.txt Node
Date: Wed Jan 03 11:57:36 EST 2024
User: Yrep
Spectrometer: HR+D1059
Trigger mode: 1
Integration Time (sec): 1.000000E-1
Scans to average: 1
Electric dark correction enabled: true
Nonlinearity correction enabled: false
Boxcar width: 0
XAxis mode: Wavelengths
Number of Pixels in Spectrum: 2048
>>>>>Begin Spectral Data<<<<<
223.165	-31.31
223.4	-31.31
223.635	-31.31
223.869	-11.31
224.104	-7.31
224.338	-2.31
224.573	-12.31
224.808	-20.31
225.042	-15.31
225.277	0.69
225.511	-2.31
225.746	9.69
225.98	12.69
226.215	12.69
226.449	6.69
226.683	6.69
226.918	28.69
227.152	24.69
227.387	38.69
227.621	30.69
227.856	32.69
228.09	48.69
228.324	50.69
228.559	49.69
228.793	56.69
229.027	52.69
229.262	66.69
229.496	69.69
229.73	79.69
229.964	86.69
230.199	48.69
230.433	71.69
230.667	86.69
230.901	77.69
231.136	80.69
231.37	76.69
231.604	92.69
231.838	72.69
232.072	95.69
232.306	84.69
232.541	86.69
232.775	85.69
233.009	90.69
233.243	93.69
233.477	99.69
233.711	73.69
233.945	80.69
234.179	84.69
234.413	86.69
234.647	77.69
234.881	80.69
235.115	76.69
235.349	79.69
235.583	81.69
235.817	81.69
236.051	71.69
236.285	69.69
236.519	84.69
236.753	76.69
236.987	97.69
237.221	84.69
237.455	76.69
237.689	94.69
237.922	65.69
238.156	63.69
238.39	80.69
238.624	84.69
238.858	73.69
239.091	64.69
239.325	64.69
239.559	67.69
239.793	70.69
240.027	80.69
240.26	87.69
240.494	69.69
240.728	86.69
240.961	76.69
241.195	85.69
241.429	80.69
241.662	57.69
241.896	66.69
242.13	72.69
242.363	79.69
242.597	72.69
242.83	84.69
243.064	77.69
243.298	93.69
243.531	90.69
243.765	85.69
243.998	78.69
244.232	85.69
244.465	80.69
244.699	72.69
244.932	73.69
245.166	86.69
245.399	69.69
245.633	73.69
245.866	88.69
246.099	89.69
246.333	76.69
246.566	77.69
246.8	90.69
247.033	92.69
247.266	84.69
247.5	78.69
247.733	56.69
247.966	78.69
248.2	70.69
248.433	72.69
248.666	90.69
248.899	79.69
249.133	78.69
249.366	97.69
249.599	93.69
249.832	85.69
250.066	90.69
250.299	73.69
250.532	79.69
250.765	76.69
250.998	92.69
251.231	77.69
251.465	88.69
251.698	81.69
251.931	63.69
252.164	79.69
252.397	73.69
252.63	66.69
252.863	89.69
253.096	88.69
253.329	79.69
253.562	83.69
253.795	89.69
254.028	70.69
254.261	94.69
254.494	79.69
254.727	76.69
254.96	78.69
255.193	84.69
255.426	94.69
255.659	89.69
255.892	78.69
256.124	80.69
256.357	72.69
256.59	73.69
256.823	80.69
257.056	78.69
257.289	79.69
257.521	82.69
257.754	82.69
257.987	79.69
258.22	84.69
258.452	84.69
258.685	93.69
258.918	73.69
259.151	79.69
259.383	75.69
259.616	80.69
259.849	95.69
260.081	77.69
260.314	69.69
260.547	78.69
260.779	82.69
261.012	89.69
261.244	93.69
261.477	80.69
261.71	87.69
261.942	94.69
262.175	94.69
262.407	82.69
262.64	77.69
262.872	79.69
263.105	87.69
263.337	76.69
263.57	99.69
263.802	84.69
264.035	72.69
264.267	80.69
264.499	68.69
264.732	83.69
264.964	82.69
265.197	72.69
265.429	84.69
265.661	78.69
265.894	96.69
266.126	88.69
266.358	77.69
266.591	85.69
266.823	86.69
267.055	79.69
267.287	86.69
267.52	89.69
267.752	93.69
267.984	100.69
268.216	85.69
268.448	79.69
268.681	81.69
268.913	81.69
269.145	85.69
269.377	104.69
269.609	90.69
269.841	82.69
270.073	85.69
270.306	88.69
270.538	81.69
270.77	63.69
271.002	78.69
271.234	88.69
271.466	85.69
271.698	93.69
271.93	90.69
272.162	96.69
272.394	77.69
272.626	85.69
272.858	75.69
273.09	79.69
273.322	84.69
273.553	80.69
273.785	76.69
274.017	76.69
274.249	87.69
274.481	81.69
274.713	86.69
274.945	87.69
275.176	94.69
275.408	84.69
275.64	95.69
275.872	73.69
276.104	86.69
276.335	92.69
276.567	82.69
276.799	103.69
277.031	80.69
277.262	93.69
277.494	80.69
277.726	82.69
277.957	85.69
278.189	70.69
278.421	83.69
278.652	76.69
278.884	74.69
279.115	103.69
279.347	88.69
279.579	85.69
279.81	80.69
280.042	80.69
280.273	86.69
280.505	87.69
280.736	88.69
280.968	83.69
281.199	88.69
281.431	81.69
281.662	84.69
281.894	93.69
282.125	92.69
282.356	89.69
282.588	105.69
282.819	100.69
283.051	82.69
283.282	95.69
283.513	85.69
283.745	90.69
283.976	84.69
284.207	83.69
284.439	94.69
284.67	86.69
284.901	87.69
285.132	89.69
285.364	78.69
285.595	92.69
285.826	90.69
286.057	82.69
286.288	90.69
286.52	76.69
286.751	85.69
286.982	92.69
287.213	84.69
287.444	91.69
287.675	81.69
287.906	96.69
288.138	99.69
288.369	84.69
288.6	77.69
288.831	86.69
289.062	85.69
289.293	86.69
289.524	81.69
289.755	82.69
289.986	76.69
290.217	85.69
290.448	87.69
290.679	100.69
290.91	86.69
291.141	89.69
291.371	90.69
291.602	84.69
291.833	101.69
292.064	86.69
292.295	89.69
292.526	80.69
292.757	85.69
292.987	86.69
293.218	86.69
293.449	93.69
293.68	77.69
293.91	92.69
294.141	76.69
294.372	78.69
294.603	83.69
294.833	89.69
295.064	89.69
295.295	89.69
295.525	79.69
295.756	101.69
295.987	94.69
296.217	119.69
296.448	96.69
296.679	100.69
296.909	99.69
297.14	69.69
297.37	80.69
297.601	84.69
297.831	99.69
298.062	94.69
298.292	88.69
298.523	94.69
298.753	97.69
298.984	89.69
299.214	91.69
299.445	101.69
299.675	89.69
299.905	93.69
300.136	80.69
300.366	92.69
300.597	111.69
300.827	96.69
301.057	93.69
301.288	88.69
301.518	95.69
301.748	95.69
301.979	123.69
302.209	93.69
302.439	84.69
302.669	102.69
302.9	83.69
303.13	98.69
303.36	72.69
303.59	103.69
303.82	97.69
304.051	74.69
304.281	103.69
304.511	83.69
304.741	80.69
304.971	74.69
305.201	96.69
305.431	92.69
305.661	85.69
305.891	94.69
306.121	103.69
306.352	109.69
306.582	90.69
306.812	98.69
307.042	86.69
307.272	83.69
307.502	92.69
307.731	97.69
307.961	100.69
308.191	78.69
308.421	88.69
308.651	91.69
308.881	95.69
309.111	87.69
309.341	87.69
309.571	80.69
309.8	88.69
310.03	87.69
310.26	100.69
310.49	84.69
310.72	83.69
310.949	93.69
311.179	86.69
311.409	86.69
311.639	104.69
311.868	82.69
312.098	100.69
312.328	98.69
312.557	105.69
312.787	99.69
313.017	77.69
313.246	90.69
313.476	88.69
313.706	80.69
313.935	93.69
314.165	88.69
314.394	92.69
314.624	96.69
314.853	92.69
315.083	85.69
315.312	94.69
315.542	90.69
315.771	86.69
316.001	98.69
316.23	96.69
316.46	87.69
316.689	100.69
316.919	93.69
317.148	84.69
317.377	99.69
317.607	104.69
317.836	97.69
318.065	95.69
318.295	95.69
318.524	94.69
318.753	96.69
318.983	105.69
319.212	107.69
319.441	89.69
319.67	88.69
319.9	97.69
320.129	90.69
320.358	93.69
320.587	89.69
320.816	89.69
321.046	89.69
321.275	79.69
321.504	88.69
321.733	93.69
321.962	104.69
322.191	90.69
322.42	102.69
322.649	109.69
322.878	116.69
323.108	109.69
323.337	102.69
323.566	116.69
323.795	122.69
324.024	180.69
324.253	296.69
324.482	624.69
324.71	1223.69
324.939	1633.69
325.168	601.69
325.397	218.69
325.626	126.69
325.855	121.69
326.084	108.69
326.313	118.69
326.542	147.69
326.77	197.69
326.999	353.69
327.228	736.69
327.457	1287.69
327.686	1033.69
327.914	284.69
328.143	162.69
328.372	110.69
328.6	109.69
328.829	97.69
329.058	94.69
329.287	95.69
329.515	112.69
329.744	99.69
329.972	94.69
330.201	93.69
330.43	107.69
330.658	112.69
330.887	103.69
331.115	101.69
331.344	100.69
331.572	88.69
331.801	102.69
332.03	96.69
332.258	102.69
332.486	109.69
332.715	97.69
332.943	93.69
333.172	91.69
333.4	99.69
333.629	97.69
333.857	102.69
334.085	111.69
334.314	116.69
334.542	116.69
334.771	105.69
334.999	85.69
335.227	93.69
335.455	91.69
335.684	106.69
335.912	100.69
336.14	97.69
336.369	89.69
336.597	98.69
336.825	99.69
337.053	96.69
337.281	94.69
337.51	89.69
337.738	95.69
337.966	89.69
338.194	103.69
338.422	89.69
338.65	101.69
338.878	96.69
339.106	99.69
339.334	92.69
339.562	88.69
339.79	83.69
340.018	85.69
340.246	97.69
340.474	101.69
340.702	89.69
340.93	88.69
341.158	81.69
341.386	87.69
341.614	102.69
341.842	99.69
342.07	82.69
342.298	88.69
342.526	77.69
342.754	81.69
342.981	106.69
343.209	80.69
343.437	83.69
343.665	82.69
343.893	102.69
344.12	98.69
344.348	95.69
344.576	98.69
344.804	90.69
345.031	87.69
345.259	96.69
345.487	91.69
345.714	76.69
345.942	87.69
346.17	101.69
346.397	92.69
346.625	88.69
346.853	96.69
347.08	93.69
347.308	94.69
347.535	95.69
347.763	101.69
347.99	95.69
348.218	104.69
348.445	86.69
348.673	83.69
348.9	85.69
349.128	103.69
349.355	97.69
349.583	88.69
349.81	95.69
350.037	87.69
350.265	92.69
350.492	93.69
350.72	96.69
350.947	90.69
351.174	95.69
351.402	104.69
351.629	98.69
351.856	96.69
352.083	106.69
352.311	92.69
352.538	99.69
352.765	121.69
352.992	104.69
353.22	109.69
353.447	104.69
353.674	105.69
353.901	96.69
354.128	99.69
354.355	116.69
354.583	103.69
354.81	106.69
355.037	111.69
355.264	91.69
355.491	100.69
355.718	120.69
355.945	96.69
356.172	96.69
356.399	86.69
356.626	97.69
356.853	101.69
357.08	100.69
357.307	97.69
357.534	105.69
357.761	83.69
357.988	103.69
358.215	104.69
358.441	97.69
358.668	92.69
358.895	96.69
359.122	98.69
359.349	85.69
359.576	90.69
359.802	88.69
360.029	88.69
360.256	88.69
360.483	88.69
360.709	87.69
360.936	94.69
361.163	105.69
361.39	82.69
361.616	98.69
361.843	93.69
362.07	84.69
362.296	79.69
362.523	86.69
362.749	81.69
362.976	93.69
363.203	92.69
363.429	90.69
363.656	100.69
363.882	92.69
364.109	103.69
364.335	103.69
364.562	95.69
364.788	92.69
365.015	88.69
365.241	90.69
365.468	92.69
365.694	79.69
365.92	88.69
366.147	91.69
366.373	79.69
366.599	97.69
366.826	87.69
367.052	99.69
367.278	102.69
367.505	93.69
367.731	94.69
367.957	89.69
368.184	85.69
368.41	92.69
368.636	94.69
368.862	100.69
369.089	115.69
369.315	84.69
369.541	77.69
369.767	85.69
369.993	94.69
370.219	78.69
370.445	93.69
370.672	90.69
370.898	92.69
371.124	99.69
371.35	76.69
371.576	84.69
371.802	90.69
372.028	91.69
372.254	92.69
372.48	86.69
372.706	89.69
372.932	92.69
373.158	64.69
373.384	88.69
373.61	96.69
373.835	97.69
374.061	82.69
374.287	89.69
374.513	102.69
374.739	80.69
374.965	77.69
375.191	96.69
375.416	88.69
375.642	87.69
375.868	88.69
376.094	100.69
376.319	94.69
376.545	79.69
376.771	89.69
376.997	109.69
377.222	87.69
377.448	108.69
377.674	106.69
377.899	101.69
378.125	94.69
378.35	88.69
378.576	90.69
378.802	88.69
379.027	85.69
379.253	94.69
379.478	96.69
379.704	97.69
379.929	96.69
380.155	91.69
380.38	84.69
380.606	100.69
380.831	93.69
381.057	99.69
381.282	101.69
381.507	81.69
381.733	94.69
381.958	110.69
382.184	103.69
382.409	103.69
382.634	94.69
382.86	84.69
383.085	111.69
383.31	102.69
383.535	112.69
383.761	103.69
383.986	100.69
384.211	93.69
384.436	103.69
384.662	104.69
384.887	95.69
385.112	103.69
385.337	119.69
385.562	112.69
385.787	101.69
386.013	119.69
386.238	117.69
386.463	101.69
386.688	123.69
386.913	96.69
387.138	102.69
387.363	94.69
387.588	93.69
387.813	104.69
388.038	97.69
388.263	118.69
388.488	122.69
388.713	92.69
388.938	100.69
389.163	93.69
389.387	97.69
389.612	85.69
389.837	93.69
390.062	104.69
390.287	100.69
390.512	102.69
390.736	96.69
390.961	81.69
391.186	89.69
391.411	112.69
391.636	97.69
391.86	87.69
392.085	84.69
392.31	84.69
392.534	83.69
392.759	85.69
392.984	93.69
393.208	98.69
393.433	128.69
393.658	117.69
393.882	98.69
394.107	89.69
394.331	90.69
394.556	88.69
394.78	80.69
395.005	87.69
395.229	71.69
395.454	73.69
395.678	87.69
395.903	100.69
396.127	96.69
396.352	79.69
396.576	87.69
396.801	100.69
397.025	101.69
397.249	92.69
397.474	100.69
397.698	92.69
397.922	79.69
398.147	79.69
398.371	90.69
398.595	92.69
398.82	101.69
399.044	95.69
399.268	92.69
399.492	74.69
399.717	90.69
399.941	93.69
400.165	108.69
400.389	74.69
400.613	91.69
400.837	90.69
401.062	74.69
401.286	89.69
401.51	96.69
401.734	91.69
401.958	90.69
402.182	112.69
402.406	113.69
402.63	92.69
402.854	85.69
403.078	99.69
403.302	93.69
403.526	90.69
403.75	81.69
403.974	98.69
404.198	95.69
404.422	86.69
404.645	92.69
404.869	85.69
405.093	85.69
405.317	82.69
405.541	96.69
405.765	92.69
405.988	118.69
406.212	134.69
406.436	146.69
406.66	120.69
406.883	103.69
407.107	91.69
407.331	85.69
407.555	84.69
407.778	104.69
408.002	80.69
408.226	73.69
408.449	69.69
408.673	77.69
408.896	98.69
409.12	90.69
409.344	71.69
409.567	88.69
409.791	81.69
410.014	87.69
410.238	77.69
410.461	85.69
410.685	88.69
410.908	94.69
411.132	82.69
411.355	93.69
411.578	97.69
411.802	77.69
412.025	104.69
412.249	102.69
412.472	81.69
412.695	94.69
412.919	97.69
413.142	100.69
413.365	99.69
413.589	102.69
413.812	97.69
414.035	83.69
414.258	88.69
414.482	100.69
414.705	74.69
414.928	97.69
415.151	90.69
415.374	99.69
415.597	88.69
415.821	92.69
416.044	81.69
416.267	76.69
416.49	100.69
416.713	84.69
416.936	87.69
417.159	92.69
417.382	86.69
417.605	92.69
417.828	91.69
418.051	90.69
418.274	84.69
418.497	82.69
418.72	80.69
418.943	97.69
419.166	101.69
419.389	105.69
419.611	80.69
419.834	91.69
420.057	88.69
420.28	101.69
420.503	69.69
420.726	82.69
420.948	87.69
421.171	95.69
421.394	95.69
421.617	85.69
421.839	78.69
422.062	81.69
422.285	94.69
422.507	109.69
422.73	102.69
422.953	97.69
423.175	88.69
423.398	83.69
423.621	85.69
423.843	89.69
424.066	84.69
424.288	91.69
424.511	85.69
424.733	107.69
424.956	87.69
425.178	84.69
425.401	89.69
425.623	103.69
425.846	84.69
426.068	99.69
426.291	78.69
426.513	88.69
426.735	89.69
426.958	99.69
427.18	112.69
427.402	128.69
427.625	135.69
427.847	105.69
428.069	93.69
428.292	92.69
428.514	87.69
428.736	96.69
428.958	88.69
429.181	92.69
429.403	92.69
429.625	89.69
429.847	85.69
430.069	101.69
430.292	89.69
430.514	98.69
430.736	78.69
430.958	80.69
431.18	81.69
431.402	83.69
431.624	88.69
431.846	81.69
432.068	98.69
432.29	85.69
432.512	95.69
432.734	91.69
432.956	85.69
433.178	96.69
433.4	100.69
433.622	91.69
433.844	93.69
434.066	96.69
434.287	93.69
434.509	84.69
434.731	98.69
434.953	98.69
435.175	95.69
435.397	93.69
435.618	97.69
435.84	78.69
436.062	113.69
436.284	101.69
436.505	104.69
436.727	96.69
436.949	107.69
437.17	82.69
437.392	91.69
437.614	99.69
437.835	90.69
438.057	104.69
438.278	101.69
438.5	89.69
438.721	114.69
438.943	98.69
439.165	88.69
439.386	94.69
439.608	92.69
439.829	89.69
440.05	101.69
440.272	124.69
440.493	92.69
440.715	95.69
440.936	86.69
441.158	87.69
441.379	87.69
441.6	102.69
441.822	98.69
442.043	94.69
442.264	112.69
442.486	108.69
442.707	83.69
442.928	103.69
443.149	121.69
443.371	112.69
443.592	92.69
443.813	88.69
444.034	97.69
444.255	81.69
444.476	84.69
444.698	92.69
444.919	97.69
445.14	127.69
445.361	124.69
445.582	97.69
445.803	115.69
446.024	116.69
446.245	109.69
446.466	99.69
446.687	89.69
446.908	84.69
447.129	85.69
447.35	80.69
447.571	87.69
447.792	81.69
448.013	97.69
448.234	105.69
448.455	102.69
448.675	114.69
448.896	113.69
449.117	106.69
449.338	100.69
449.559	117.69
449.779	114.69
450	98.69
450.221	90.69
450.442	92.69
450.662	80.69
450.883	93.69
451.104	106.69
451.324	111.69
451.545	81.69
451.766	93.69
451.986	85.69
452.207	87.69
452.428	94.69
452.648	96.69
452.869	95.69
453.089	103.69
453.31	110.69
453.53	78.69
453.751	77.69
453.971	82.69
454.192	95.69
454.412	99.69
454.633	91.69
454.853	91.69
455.073	93.69
455.294	82.69
455.514	89.69
455.734	77.69
455.955	84.69
456.175	104.69
456.395	87.69
456.616	87.69
456.836	77.69
457.056	88.69
457.276	80.69
457.497	88.69
457.717	99.69
457.937	86.69
458.157	73.69
458.377	87.69
458.598	92.69
458.818	129.69
459.038	112.69
459.258	113.69
459.478	81.69
459.698	90.69
459.918	85.69
460.138	78.69
460.358	84.69
460.578	95.69
460.798	91.69
461.018	89.69
461.238	77.69
461.458	78.69
461.678	77.69
461.898	86.69
462.118	92.69
462.338	86.69
462.558	84.69
462.777	97.69
462.997	82.69
463.217	80.69
463.437	64.69
463.657	86.69
463.876	91.69
464.096	94.69
464.316	96.69
464.536	95.69
464.755	85.69
464.975	98.69
465.195	128.69
465.414	120.69
465.634	90.69
465.854	104.69
466.073	98.69
466.293	88.69
466.512	92.69
466.732	78.69
466.951	81.69
467.171	75.69
467.391	85.69
467.61	97.69
467.829	88.69
468.049	82.69
468.268	90.69
468.488	96.69
468.707	81.69
468.927	85.69
469.146	95.69
469.365	78.69
469.585	92.69
469.804	98.69
470.023	100.69
470.243	88.69
470.462	86.69
470.681	92.69
470.901	89.69
471.12	92.69
471.339	92.69
471.558	85.69
471.777	94.69
471.997	96.69
472.216	103.69
472.435	114.69
472.654	93.69
472.873	78.69
473.092	104.69
473.311	80.69
473.53	93.69
473.749	81.69
473.968	92.69
474.187	103.69
474.406	99.69
474.625	96.69
474.844	90.69
475.063	92.69
475.282	89.69
475.501	95.69
475.72	87.69
475.939	82.69
476.158	82.69
476.377	86.69
476.596	89.69
476.814	96.69
477.033	92.69
477.252	87.69
477.471	84.69
477.69	88.69
477.908	89.69
478.127	96.69
478.346	84.69
478.564	80.69
478.783	89.69
479.002	94.69
479.22	87.69
479.439	92.69
479.658	105.69
479.876	79.69
480.095	92.69
480.313	101.69
480.532	91.69
480.751	96.69
480.969	116.69
481.188	133.69
481.406	117.69
481.624	99.69
481.843	97.69
482.061	87.69
482.28	77.69
482.498	86.69
482.717	90.69
482.935	94.69
483.153	91.69
483.372	95.69
483.59	98.69
483.808	80.69
484.027	98.69
484.245	86.69
484.463	89.69
484.681	94.69
484.9	90.69
485.118	106.69
485.336	100.69
485.554	97.69
485.772	95.69
485.99	106.69
486.209	101.69
486.427	102.69
486.645	105.69
486.863	110.69
487.081	103.69
487.299	106.69
487.517	95.69
487.735	100.69
487.953	95.69
488.171	84.69
488.389	95.69
488.607	92.69
488.825	100.69
489.043	81.69
489.261	94.69
489.479	92.69
489.696	102.69
489.914	82.69
490.132	90.69
490.35	87.69
490.568	97.69
490.786	99.69
491.003	92.69
491.221	85.69
491.439	82.69
491.657	80.69
491.874	98.69
492.092	83.69
492.31	73.69
492.527	91.69
492.745	93.69
492.963	96.69
493.18	98.69
493.398	106.69
493.615	100.69
493.833	97.69
494.05	96.69
494.268	80.69
494.485	89.69
494.703	78.69
494.92	87.69
495.138	82.69
495.355	104.69
495.573	85.69
495.79	80.69
496.008	107.69
496.225	87.69
496.442	83.69
496.66	99.69
496.877	87.69
497.094	103.69
497.312	83.69
497.529	82.69
497.746	100.69
497.963	87.69
498.181	72.69
498.398	86.69
498.615	88.69
498.832	101.69
499.049	87.69
499.267	93.69
499.484	97.69
499.701	106.69
499.918	94.69
500.135	104.69
500.352	91.69
500.569	86.69
500.786	96.69
501.003	87.69
501.22	94.69
501.437	101.69
501.654	92.69
501.871	102.69
502.088	88.69
502.305	93.69
502.522	103.69
502.739	81.69
502.956	94.69
503.172	93.69
503.389	92.69
503.606	100.69
503.823	97.69
504.04	100.69
504.256	72.69
504.473	90.69
504.69	103.69
504.907	88.69
505.123	81.69
505.34	101.69
505.557	98.69
505.773	96.69
505.99	85.69
506.207	94.69
506.423	100.69
506.64	89.69
506.856	81.69
507.073	92.69
507.289	88.69
507.506	90.69
507.722	97.69
507.939	94.69
508.155	100.69
508.372	91.69
508.588	92.69
508.805	99.69
509.021	81.69
509.238	83.69
509.454	89.69
509.67	92.69
509.887	102.69
510.103	114.69
510.319	170.69
510.536	464.69
510.752	1405.69
510.968	412.69
511.184	123.69
511.401	105.69
511.617	91.69
511.833	88.69
512.049	98.69
512.265	93.69
512.481	92.69
512.698	77.69
512.914	81.69
513.13	103.69
513.346	90.69
513.562	91.69
513.778	106.69
513.994	89.69
514.21	98.69
514.426	109.69
514.642	114.69
514.858	112.69
515.074	137.69
515.29	280.69
515.506	831.69
515.721	334.69
515.937	122.69
516.153	108.69
