Data from Uncirc_1989_H10_HRD10591_00051.txt Node
Date: Wed Jan 03 11:57:45 EST 2024
User: Yrep
Spectrometer: HR+D1059
Trigger mode: 1
Integration Time (sec): 1.000000E-1
Scans to average: 1
Electric dark correction enabled: true
Nonlinearity correction enabled: false
Boxcar width: 0
XAxis mode: Wavelengths
Number of Pixels in Spectrum: 2048
>>>>>Begin Spectral Data<<<<<
223.165	-11.12
223.4	-11.12
223.635	-11.12
223.869	-17.12
224.104	-27.12
224.338	-10.12
224.573	-11.12
224.808	-7.12
225.042	-14.12
225.277	-7.12
225.511	-12.12
225.746	4.88
225.98	5.88
226.215	14.88
226.449	14.88
226.683	18.88
226.918	24.88
227.152	32.88
227.387	44.88
227.621	41.88
227.856	47.88
228.09	36.88
228.324	52.88
228.559	37.88
228.793	73.88
229.027	71.88
229.262	52.88
229.496	80.88
229.73	71.88
229.964	78.88
230.199	62.88
230.433	56.88
230.667	85.88
230.901	71.88
231.136	69.88
231.37	70.88
231.604	81.88
231.838	66.88
232.072	68.88
232.306	80.88
232.541	93.88
232.775	75.88
233.009	85.88
233.243	75.88
233.477	84.88
233.711	72.88
233.945	84.88
234.179	64.88
234.413	76.88
234.647	72.88
234.881	81.88
235.115	82.88
235.349	91.88
235.583	68.88
235.817	69.88
236.051	76.88
236.285	72.88
236.519	70.88
236.753	69.88
236.987	74.88
237.221	82.88
237.455	86.88
237.689	72.88
237.922	74.88
238.156	69.88
238.39	58.88
238.624	67.88
238.858	75.88
239.091	74.88
239.325	62.88
239.559	79.88
239.793	78.88
240.027	86.88
240.26	63.88
240.494	76.88
240.728	64.88
240.961	75.88
241.195	86.88
241.429	72.88
241.662	79.88
241.896	64.88
242.13	58.88
242.363	68.88
242.597	56.88
242.83	77.88
243.064	67.88
243.298	76.88
243.531	85.88
243.765	78.88
243.998	64.88
244.232	80.88
244.465	82.88
244.699	67.88
244.932	57.88
245.166	70.88
245.399	61.88
245.633	60.88
245.866	80.88
246.099	71.88
246.333	83.88
246.566	79.88
246.8	73.88
247.033	84.88
247.266	76.88
247.5	74.88
247.733	85.88
247.966	88.88
248.2	79.88
248.433	69.88
248.666	69.88
248.899	82.88
249.133	70.88
249.366	90.88
249.599	97.88
249.832	76.88
250.066	82.88
250.299	92.88
250.532	96.88
250.765	77.88
250.998	92.88
251.231	75.88
251.465	71.88
251.698	67.88
251.931	74.88
252.164	71.88
252.397	78.88
252.63	70.88
252.863	86.88
253.096	81.88
253.329	78.88
253.562	75.88
253.795	79.88
254.028	81.88
254.261	79.88
254.494	90.88
254.727	80.88
254.96	75.88
255.193	78.88
255.426	82.88
255.659	75.88
255.892	77.88
256.124	86.88
256.357	90.88
256.59	77.88
256.823	78.88
257.056	88.88
257.289	78.88
257.521	94.88
257.754	83.88
257.987	78.88
258.22	81.88
258.452	97.88
258.685	80.88
258.918	77.88
259.151	92.88
259.383	67.88
259.616	85.88
259.849	82.88
260.081	74.88
260.314	86.88
260.547	76.88
260.779	82.88
261.012	69.88
261.244	78.88
261.477	79.88
261.71	78.88
261.942	94.88
262.175	103.88
262.407	80.88
262.64	78.88
262.872	83.88
263.105	68.88
263.337	72.88
263.57	82.88
263.802	84.88
264.035	92.88
264.267	94.88
264.499	81.88
264.732	75.88
264.964	86.88
265.197	78.88
265.429	82.88
265.661	85.88
265.894	84.88
266.126	94.88
266.358	87.88
266.591	82.88
266.823	79.88
267.055	87.88
267.287	85.88
267.52	78.88
267.752	97.88
267.984	90.88
268.216	77.88
268.448	85.88
268.681	80.88
268.913	82.88
269.145	85.88
269.377	76.88
269.609	75.88
269.841	79.88
270.073	88.88
270.306	85.88
270.538	89.88
270.77	79.88
271.002	72.88
271.234	82.88
271.466	76.88
271.698	96.88
271.93	77.88
272.162	69.88
272.394	76.88
272.626	89.88
272.858	86.88
273.09	83.88
273.322	85.88
273.553	83.88
273.785	72.88
274.017	71.88
274.249	77.88
274.481	83.88
274.713	68.88
274.945	82.88
275.176	67.88
275.408	75.88
275.64	87.88
275.872	84.88
276.104	92.88
276.335	84.88
276.567	87.88
276.799	101.88
277.031	97.88
277.262	85.88
277.494	77.88
277.726	87.88
277.957	91.88
278.189	95.88
278.421	84.88
278.652	104.88
278.884	85.88
279.115	70.88
279.347	70.88
279.579	93.88
279.81	82.88
280.042	90.88
280.273	80.88
280.505	90.88
280.736	91.88
280.968	79.88
281.199	99.88
281.431	88.88
281.662	83.88
281.894	80.88
282.125	93.88
282.356	108.88
282.588	121.88
282.819	108.88
283.051	86.88
283.282	71.88
283.513	90.88
283.745	100.88
283.976	89.88
284.207	81.88
284.439	82.88
284.67	92.88
284.901	78.88
285.132	93.88
285.364	77.88
285.595	66.88
285.826	78.88
286.057	89.88
286.288	71.88
286.52	83.88
286.751	84.88
286.982	80.88
287.213	84.88
287.444	86.88
287.675	82.88
287.906	84.88
288.138	85.88
288.369	85.88
288.6	80.88
288.831	92.88
289.062	86.88
289.293	80.88
289.524	84.88
289.755	71.88
289.986	82.88
290.217	79.88
290.448	84.88
290.679	77.88
290.91	109.88
291.141	98.88
291.371	92.88
291.602	95.88
291.833	88.88
292.064	87.88
292.295	91.88
292.526	89.88
292.757	80.88
292.987	78.88
293.218	77.88
293.449	83.88
293.68	81.88
293.91	79.88
294.141	81.88
294.372	74.88
294.603	81.88
294.833	73.88
295.064	74.88
295.295	90.88
295.525	101.88
295.756	95.88
295.987	87.88
296.217	128.88
296.448	102.88
296.679	107.88
296.909	88.88
297.14	71.88
297.37	92.88
297.601	90.88
297.831	83.88
298.062	71.88
298.292	98.88
298.523	91.88
298.753	95.88
298.984	78.88
299.214	84.88
299.445	102.88
299.675	84.88
299.905	83.88
300.136	88.88
300.366	90.88
300.597	83.88
300.827	103.88
301.057	91.88
301.288	96.88
301.518	92.88
301.748	79.88
301.979	111.88
302.209	93.88
302.439	82.88
302.669	90.88
302.9	82.88
303.13	89.88
303.36	95.88
303.59	101.88
303.82	92.88
304.051	85.88
304.281	91.88
304.511	92.88
304.741	85.88
304.971	85.88
305.201	83.88
305.431	81.88
305.661	88.88
305.891	90.88
306.121	101.88
306.352	99.88
306.582	94.88
306.812	95.88
307.042	87.88
307.272	106.88
307.502	93.88
307.731	102.88
307.961	94.88
308.191	92.88
308.421	104.88
308.651	84.88
308.881	90.88
309.111	96.88
309.341	81.88
309.571	108.88
309.8	101.88
310.03	97.88
310.26	83.88
310.49	93.88
310.72	100.88
310.949	100.88
311.179	85.88
311.409	94.88
311.639	81.88
311.868	86.88
312.098	95.88
312.328	87.88
312.557	93.88
312.787	108.88
313.017	98.88
313.246	94.88
313.476	81.88
313.706	88.88
313.935	93.88
314.165	90.88
314.394	80.88
314.624	90.88
314.853	89.88
315.083	96.88
315.312	91.88
315.542	86.88
315.771	80.88
316.001	80.88
316.23	85.88
316.46	91.88
316.689	111.88
316.919	82.88
317.148	86.88
317.377	99.88
317.607	94.88
317.836	100.88
318.065	98.88
318.295	78.88
318.524	98.88
318.753	93.88
318.983	98.88
319.212	96.88
319.441	98.88
319.67	95.88
319.9	91.88
320.129	87.88
320.358	95.88
320.587	77.88
320.816	95.88
321.046	96.88
321.275	101.88
321.504	86.88
321.733	95.88
321.962	103.88
322.191	94.88
322.42	100.88
322.649	102.88
322.878	96.88
323.108	102.88
323.337	102.88
323.566	127.88
323.795	134.88
324.024	183.88
324.253	342.88
324.482	684.88
324.71	1400.88
324.939	1812.88
325.168	692.88
325.397	218.88
325.626	135.88
325.855	131.88
326.084	122.88
326.313	129.88
326.542	125.88
326.77	200.88
326.999	383.88
327.228	808.88
327.457	1446.88
327.686	1135.88
327.914	306.88
328.143	176.88
328.372	159.88
328.6	131.88
328.829	129.88
329.058	114.88
329.287	115.88
329.515	100.88
329.744	113.88
329.972	114.88
330.201	164.88
330.43	189.88
330.658	130.88
330.887	108.88
331.115	119.88
331.344	98.88
331.572	92.88
331.801	102.88
332.03	92.88
332.258	104.88
332.486	81.88
332.715	95.88
332.943	90.88
333.172	74.88
333.4	91.88
333.629	103.88
333.857	110.88
334.085	127.88
334.314	161.88
334.542	202.88
334.771	197.88
334.999	111.88
335.227	98.88
335.455	98.88
335.684	103.88
335.912	78.88
336.14	100.88
336.369	95.88
336.597	93.88
336.825	94.88
337.053	108.88
337.281	100.88
337.51	84.88
337.738	91.88
337.966	98.88
338.194	96.88
338.422	96.88
338.65	82.88
338.878	92.88
339.106	94.88
339.334	97.88
339.562	93.88
339.79	99.88
340.018	71.88
340.246	78.88
340.474	90.88
340.702	84.88
340.93	91.88
341.158	96.88
341.386	107.88
341.614	97.88
341.842	94.88
342.07	89.88
342.298	86.88
342.526	92.88
342.754	81.88
342.981	98.88
343.209	88.88
343.437	98.88
343.665	89.88
343.893	85.88
344.12	90.88
344.348	79.88
344.576	78.88
344.804	94.88
345.031	83.88
345.259	96.88
345.487	98.88
345.714	84.88
345.942	95.88
346.17	98.88
346.397	87.88
346.625	99.88
346.853	93.88
347.08	103.88
347.308	92.88
347.535	85.88
347.763	102.88
347.99	99.88
348.218	100.88
348.445	99.88
348.673	103.88
348.9	115.88
349.128	80.88
349.355	94.88
349.583	88.88
349.81	94.88
350.037	94.88
350.265	86.88
350.492	91.88
350.72	92.88
350.947	97.88
351.174	92.88
351.402	104.88
351.629	107.88
351.856	97.88
352.083	106.88
352.311	104.88
352.538	95.88
352.765	102.88
352.992	104.88
353.22	106.88
353.447	95.88
353.674	86.88
353.901	96.88
354.128	84.88
354.355	98.88
354.583	93.88
354.81	87.88
355.037	91.88
355.264	92.88
355.491	98.88
355.718	93.88
355.945	84.88
356.172	99.88
356.399	91.88
356.626	93.88
356.853	84.88
357.08	102.88
357.307	99.88
357.534	104.88
357.761	83.88
357.988	85.88
358.215	106.88
358.441	90.88
358.668	100.88
358.895	92.88
359.122	93.88
359.349	98.88
359.576	90.88
359.802	101.88
360.029	101.88
360.256	95.88
360.483	99.88
360.709	97.88
360.936	93.88
361.163	101.88
361.39	98.88
361.616	91.88
361.843	92.88
362.07	88.88
362.296	89.88
362.523	86.88
362.749	89.88
362.976	80.88
363.203	108.88
363.429	85.88
363.656	91.88
363.882	96.88
364.109	95.88
364.335	86.88
364.562	93.88
364.788	88.88
365.015	100.88
365.241	109.88
365.468	106.88
365.694	107.88
365.92	92.88
366.147	83.88
366.373	94.88
366.599	80.88
366.826	82.88
367.052	86.88
367.278	91.88
367.505	86.88
367.731	87.88
367.957	89.88
368.184	87.88
368.41	104.88
368.636	116.88
368.862	110.88
369.089	96.88
369.315	87.88
369.541	87.88
369.767	84.88
369.993	98.88
370.219	87.88
370.445	80.88
370.672	75.88
370.898	96.88
371.124	84.88
371.35	91.88
371.576	86.88
371.802	86.88
372.028	87.88
372.254	81.88
372.48	77.88
372.706	80.88
372.932	74.88
373.158	87.88
373.384	95.88
373.61	108.88
373.835	86.88
374.061	90.88
374.287	90.88
374.513	91.88
374.739	97.88
374.965	93.88
375.191	76.88
375.416	101.88
375.642	87.88
375.868	89.88
376.094	92.88
376.319	70.88
376.545	80.88
376.771	78.88
376.997	93.88
377.222	111.88
377.448	76.88
377.674	95.88
377.899	87.88
378.125	88.88
378.35	91.88
378.576	85.88
378.802	98.88
379.027	80.88
379.253	78.88
379.478	87.88
379.704	85.88
379.929	85.88
380.155	103.88
380.38	83.88
380.606	103.88
380.831	90.88
381.057	99.88
381.282	80.88
381.507	86.88
381.733	107.88
381.958	95.88
382.184	91.88
382.409	104.88
382.634	96.88
382.86	104.88
383.085	94.88
383.31	101.88
383.535	102.88
383.761	96.88
383.986	99.88
384.211	96.88
384.436	108.88
384.662	87.88
384.887	106.88
385.112	93.88
385.337	99.88
385.562	100.88
385.787	87.88
386.013	99.88
386.238	103.88
386.463	98.88
386.688	109.88
386.913	111.88
387.138	95.88
387.363	99.88
387.588	82.88
387.813	112.88
388.038	107.88
388.263	99.88
388.488	98.88
388.713	91.88
388.938	99.88
389.163	100.88
389.387	91.88
389.612	89.88
389.837	75.88
390.062	80.88
390.287	87.88
390.512	92.88
390.736	78.88
390.961	98.88
391.186	94.88
391.411	79.88
391.636	93.88
391.86	78.88
392.085	84.88
392.31	79.88
392.534	91.88
392.759	76.88
392.984	84.88
393.208	74.88
393.433	106.88
393.658	83.88
393.882	78.88
394.107	92.88
394.331	87.88
394.556	79.88
394.78	95.88
395.005	82.88
395.229	79.88
395.454	77.88
395.678	76.88
395.903	78.88
396.127	91.88
396.352	88.88
396.576	88.88
396.801	82.88
397.025	100.88
397.249	85.88
397.474	78.88
397.698	85.88
397.922	76.88
398.147	91.88
398.371	87.88
398.595	84.88
398.82	89.88
399.044	79.88
399.268	82.88
399.492	87.88
399.717	88.88
399.941	81.88
400.165	93.88
400.389	86.88
400.613	89.88
400.837	75.88
401.062	93.88
401.286	65.88
401.51	96.88
401.734	69.88
401.958	79.88
402.182	106.88
402.406	149.88
402.63	99.88
402.854	86.88
403.078	83.88
403.302	74.88
403.526	81.88
403.75	89.88
403.974	85.88
404.198	92.88
404.422	88.88
404.645	75.88
404.869	83.88
405.093	100.88
405.317	83.88
405.541	105.88
405.765	93.88
405.988	104.88
406.212	165.88
406.436	203.88
406.66	129.88
406.883	82.88
407.107	98.88
407.331	96.88
407.555	90.88
407.778	84.88
408.002	93.88
408.226	79.88
408.449	88.88
408.673	78.88
408.896	83.88
409.12	85.88
409.344	85.88
409.567	91.88
409.791	76.88
410.014	88.88
410.238	102.88
410.461	100.88
410.685	86.88
410.908	96.88
411.132	87.88
411.355	99.88
411.578	98.88
411.802	90.88
412.025	84.88
412.249	86.88
412.472	113.88
412.695	100.88
412.919	96.88
413.142	87.88
413.365	86.88
413.589	91.88
413.812	81.88
414.035	95.88
414.258	85.88
414.482	83.88
414.705	81.88
414.928	94.88
415.151	85.88
415.374	72.88
415.597	84.88
415.821	86.88
416.044	87.88
416.267	90.88
416.49	87.88
416.713	82.88
416.936	87.88
417.159	79.88
417.382	97.88
417.605	87.88
417.828	93.88
418.051	95.88
418.274	96.88
418.497	91.88
418.72	83.88
418.943	79.88
419.166	91.88
419.389	84.88
419.611	92.88
419.834	83.88
420.057	76.88
420.28	84.88
420.503	74.88
420.726	103.88
420.948	84.88
421.171	80.88
421.394	100.88
421.617	71.88
421.839	82.88
422.062	78.88
422.285	85.88
422.507	86.88
422.73	87.88
422.953	76.88
423.175	84.88
423.398	76.88
423.621	79.88
423.843	76.88
424.066	80.88
424.288	94.88
424.511	95.88
424.733	89.88
424.956	98.88
425.178	88.88
425.401	99.88
425.623	95.88
425.846	75.88
426.068	100.88
426.291	101.88
426.513	90.88
426.735	90.88
426.958	103.88
427.18	88.88
427.402	126.88
427.625	146.88
427.847	131.88
428.069	115.88
428.292	93.88
428.514	89.88
428.736	94.88
428.958	92.88
429.181	76.88
429.403	80.88
429.625	71.88
429.847	100.88
430.069	90.88
430.292	89.88
430.514	78.88
430.736	75.88
430.958	75.88
431.18	76.88
431.402	84.88
431.624	76.88
431.846	92.88
432.068	103.88
432.29	78.88
432.512	76.88
432.734	96.88
432.956	76.88
433.178	110.88
433.4	101.88
433.622	82.88
433.844	94.88
434.066	70.88
434.287	85.88
434.509	70.88
434.731	88.88
434.953	90.88
435.175	70.88
435.397	81.88
435.618	86.88
435.84	82.88
436.062	116.88
436.284	116.88
436.505	91.88
436.727	100.88
436.949	81.88
437.17	83.88
437.392	80.88
437.614	97.88
437.835	109.88
438.057	94.88
438.278	90.88
438.5	85.88
438.721	90.88
438.943	91.88
439.165	69.88
439.386	85.88
439.608	93.88
439.829	96.88
440.05	111.88
440.272	102.88
440.493	87.88
440.715	88.88
440.936	83.88
441.158	90.88
441.379	88.88
441.6	84.88
441.822	82.88
442.043	97.88
442.264	86.88
442.486	77.88
442.707	76.88
442.928	95.88
443.149	114.88
443.371	116.88
443.592	97.88
443.813	90.88
444.034	87.88
444.255	96.88
444.476	97.88
444.698	82.88
444.919	79.88
445.14	135.88
445.361	119.88
445.582	91.88
445.803	114.88
446.024	107.88
446.245	112.88
446.466	89.88
446.687	86.88
446.908	100.88
447.129	88.88
447.35	89.88
447.571	99.88
447.792	92.88
448.013	88.88
448.234	95.88
448.455	99.88
448.675	109.88
448.896	108.88
449.117	96.88
449.338	87.88
449.559	109.88
449.779	119.88
450	93.88
450.221	89.88
450.442	82.88
450.662	79.88
450.883	96.88
451.104	91.88
451.324	79.88
451.545	77.88
451.766	78.88
451.986	86.88
452.207	97.88
452.428	101.88
452.648	99.88
452.869	129.88
453.089	97.88
453.31	114.88
453.53	93.88
453.751	88.88
453.971	92.88
454.192	97.88
454.412	85.88
454.633	91.88
454.853	98.88
455.073	67.88
455.294	92.88
455.514	107.88
455.734	88.88
455.955	72.88
456.175	82.88
456.395	82.88
456.616	84.88
456.836	85.88
457.056	85.88
457.276	101.88
457.497	75.88
457.717	101.88
457.937	86.88
458.157	74.88
458.377	96.88
458.598	113.88
458.818	128.88
459.038	133.88
459.258	86.88
459.478	91.88
459.698	78.88
459.918	99.88
460.138	75.88
460.358	76.88
460.578	81.88
460.798	78.88
461.018	82.88
461.238	68.88
461.458	77.88
461.678	94.88
461.898	78.88
462.118	91.88
462.338	81.88
462.558	79.88
462.777	85.88
462.997	83.88
463.217	86.88
463.437	75.88
463.657	88.88
463.876	85.88
464.096	91.88
464.316	79.88
464.536	86.88
464.755	94.88
464.975	108.88
465.195	143.88
465.414	143.88
465.634	98.88
465.854	86.88
466.073	73.88
466.293	83.88
466.512	94.88
466.732	86.88
466.951	95.88
467.171	86.88
467.391	99.88
467.61	91.88
467.829	89.88
468.049	125.88
468.268	147.88
468.488	94.88
468.707	76.88
468.927	83.88
469.146	83.88
469.365	92.88
469.585	88.88
469.804	74.88
470.023	90.88
470.243	95.88
470.462	84.88
470.681	97.88
470.901	82.88
471.12	97.88
471.339	98.88
471.558	81.88
471.777	91.88
471.997	99.88
472.216	163.88
472.435	271.88
472.654	102.88
472.873	85.88
473.092	81.88
473.311	76.88
473.53	94.88
473.749	73.88
473.968	93.88
474.187	90.88
474.406	94.88
474.625	91.88
474.844	90.88
475.063	87.88
475.282	76.88
475.501	82.88
475.72	83.88
475.939	95.88
476.158	83.88
476.377	74.88
476.596	94.88
476.814	87.88
477.033	69.88
477.252	90.88
477.471	89.88
477.69	92.88
477.908	81.88
478.127	77.88
478.346	89.88
478.564	79.88
478.783	80.88
479.002	81.88
479.22	96.88
479.439	94.88
479.658	93.88
479.876	86.88
480.095	82.88
480.313	83.88
480.532	108.88
480.751	99.88
480.969	184.88
481.188	448.88
481.406	279.88
481.624	109.88
481.843	94.88
482.061	86.88
482.28	84.88
482.498	82.88
482.717	87.88
482.935	90.88
483.153	84.88
483.372	104.88
483.59	76.88
483.808	93.88
484.027	98.88
484.245	93.88
484.463	88.88
484.681	94.88
484.9	83.88
485.118	101.88
485.336	80.88
485.554	94.88
485.772	96.88
485.99	86.88
486.209	110.88
486.427	81.88
486.645	98.88
486.863	95.88
487.081	90.88
487.299	86.88
487.517	92.88
487.735	94.88
487.953	86.88
488.171	84.88
488.389	90.88
488.607	88.88
488.825	78.88
489.043	80.88
489.261	93.88
489.479	68.88
489.696	96.88
489.914	82.88
490.132	84.88
490.35	85.88
490.568	82.88
490.786	92.88
491.003	87.88
491.221	80.88
491.439	87.88
491.657	94.88
491.874	78.88
492.092	79.88
492.31	91.88
492.527	70.88
492.745	96.88
492.963	80.88
493.18	66.88
493.398	86.88
493.615	76.88
493.833	83.88
494.05	84.88
494.268	76.88
494.485	81.88
494.703	78.88
494.92	82.88
495.138	85.88
495.355	99.88
495.573	95.88
495.79	102.88
496.008	86.88
496.225	86.88
496.442	81.88
496.66	88.88
496.877	88.88
497.094	83.88
497.312	94.88
497.529	96.88
497.746	88.88
497.963	82.88
498.181	94.88
498.398	99.88
498.615	103.88
498.832	111.88
499.049	82.88
499.267	77.88
499.484	85.88
499.701	88.88
499.918	84.88
500.135	94.88
500.352	92.88
500.569	86.88
500.786	83.88
501.003	96.88
501.22	76.88
501.437	104.88
501.654	95.88
501.871	99.88
502.088	94.88
502.305	92.88
502.522	78.88
502.739	81.88
502.956	88.88
503.172	79.88
503.389	97.88
503.606	112.88
503.823	90.88
504.04	92.88
504.256	81.88
504.473	88.88
504.69	89.88
504.907	102.88
505.123	90.88
505.34	89.88
505.557	82.88
505.773	84.88
505.99	81.88
506.207	82.88
506.423	71.88
506.64	94.88
506.856	96.88
507.073	93.88
507.289	76.88
507.506	94.88
507.722	106.88
507.939	96.88
508.155	96.88
508.372	80.88
508.588	83.88
508.805	91.88
509.021	103.88
509.238	84.88
509.454	84.88
509.67	90.88
509.887	105.88
510.103	101.88
510.319	186.88
510.536	630.88
510.752	1914.88
510.968	528.88
511.184	133.88
511.401	102.88
511.617	99.88
511.833	95.88
512.049	91.88
512.265	98.88
512.481	81.88
512.698	87.88
512.914	88.88
513.13	85.88
513.346	84.88
513.562	88.88
513.778	89.88
513.994	93.88
514.21	100.88
514.426	112.88
514.642	118.88
514.858	107.88
515.074	148.88
515.29	375.88
515.506	1188.88
515.721	426.88
515.937	142.88
516.153	89.88
516.369	99.88
516.585	90.88
516.801	88.88
