Data from Uncirc_1989_H10_HRD10591_00025.txt Node
Date: Wed Jan 03 11:57:40 EST 2024
User: Yrep
Spectrometer: HR+D1059
Trigger mode: 1
Integration Time (sec): 1.000000E-1
Scans to average: 1
Electric dark correction enabled: true
Nonlinearity correction enabled: false
Boxcar width: 0
XAxis mode: Wavelengths
Number of Pixels in Spectrum: 2048
>>>>>Begin Spectral Data<<<<<
223.165	-30.31
223.4	-30.31
223.635	-30.31
223.869	-9.31
224.104	-20.31
224.338	-9.31
224.573	-25.31
224.808	-14.31
225.042	-4.31
225.277	-3.31
225.511	-9.31
225.746	0.69
225.98	19.69
226.215	10.69
226.449	19.69
226.683	24.69
226.918	26.69
227.152	23.69
227.387	40.69
227.621	44.69
227.856	24.69
228.09	50.69
228.324	50.69
228.559	56.69
228.793	57.69
229.027	55.69
229.262	62.69
229.496	70.69
229.73	74.69
229.964	90.69
230.199	85.69
230.433	58.69
230.667	85.69
230.901	69.69
231.136	71.69
231.37	68.69
231.604	73.69
231.838	78.69
232.072	92.69
232.306	85.69
232.541	71.69
232.775	74.69
233.009	72.69
233.243	87.69
233.477	88.69
233.711	77.69
233.945	67.69
234.179	78.69
234.413	91.69
234.647	79.69
234.881	74.69
235.115	75.69
235.349	74.69
235.583	71.69
235.817	87.69
236.051	62.69
236.285	77.69
236.519	75.69
236.753	88.69
236.987	70.69
237.221	80.69
237.455	77.69
237.689	78.69
237.922	75.69
238.156	83.69
238.39	64.69
238.624	68.69
238.858	74.69
239.091	87.69
239.325	82.69
239.559	74.69
239.793	83.69
240.027	82.69
240.26	70.69
240.494	82.69
240.728	80.69
240.961	83.69
241.195	75.69
241.429	77.69
241.662	69.69
241.896	70.69
242.13	70.69
242.363	80.69
242.597	79.69
242.83	80.69
243.064	89.69
243.298	92.69
243.531	74.69
243.765	63.69
243.998	77.69
244.232	76.69
244.465	80.69
244.699	68.69
244.932	59.69
245.166	65.69
245.399	65.69
245.633	78.69
245.866	68.69
246.099	70.69
246.333	67.69
246.566	66.69
246.8	75.69
247.033	86.69
247.266	84.69
247.5	75.69
247.733	78.69
247.966	86.69
248.2	71.69
248.433	69.69
248.666	84.69
248.899	79.69
249.133	80.69
249.366	101.69
249.599	82.69
249.832	84.69
250.066	77.69
250.299	69.69
250.532	92.69
250.765	84.69
250.998	70.69
251.231	63.69
251.465	77.69
251.698	78.69
251.931	72.69
252.164	86.69
252.397	74.69
252.63	72.69
252.863	83.69
253.096	84.69
253.329	90.69
253.562	79.69
253.795	79.69
254.028	79.69
254.261	78.69
254.494	88.69
254.727	78.69
254.96	87.69
255.193	82.69
255.426	90.69
255.659	58.69
255.892	85.69
256.124	92.69
256.357	74.69
256.59	78.69
256.823	79.69
257.056	98.69
257.289	68.69
257.521	63.69
257.754	63.69
257.987	71.69
258.22	74.69
258.452	78.69
258.685	78.69
258.918	69.69
259.151	64.69
259.383	87.69
259.616	81.69
259.849	71.69
260.081	87.69
260.314	101.69
260.547	81.69
260.779	86.69
261.012	77.69
261.244	76.69
261.477	82.69
261.71	81.69
261.942	103.69
262.175	87.69
262.407	79.69
262.64	90.69
262.872	74.69
263.105	83.69
263.337	92.69
263.57	80.69
263.802	86.69
264.035	81.69
264.267	88.69
264.499	62.69
264.732	76.69
264.964	82.69
265.197	84.69
265.429	68.69
265.661	92.69
265.894	87.69
266.126	101.69
266.358	87.69
266.591	90.69
266.823	82.69
267.055	82.69
267.287	90.69
267.52	82.69
267.752	91.69
267.984	88.69
268.216	91.69
268.448	79.69
268.681	86.69
268.913	75.69
269.145	75.69
269.377	93.69
269.609	72.69
269.841	87.69
270.073	84.69
270.306	69.69
270.538	82.69
270.77	77.69
271.002	84.69
271.234	75.69
271.466	81.69
271.698	80.69
271.93	83.69
272.162	75.69
272.394	86.69
272.626	74.69
272.858	80.69
273.09	83.69
273.322	74.69
273.553	91.69
273.785	96.69
274.017	85.69
274.249	88.69
274.481	92.69
274.713	72.69
274.945	81.69
275.176	79.69
275.408	86.69
275.64	80.69
275.872	107.69
276.104	93.69
276.335	89.69
276.567	99.69
276.799	90.69
277.031	95.69
277.262	87.69
277.494	91.69
277.726	95.69
277.957	86.69
278.189	91.69
278.421	81.69
278.652	90.69
278.884	77.69
279.115	76.69
279.347	88.69
279.579	83.69
279.81	77.69
280.042	83.69
280.273	93.69
280.505	76.69
280.736	92.69
280.968	76.69
281.199	92.69
281.431	90.69
281.662	90.69
281.894	90.69
282.125	83.69
282.356	107.69
282.588	110.69
282.819	92.69
283.051	76.69
283.282	83.69
283.513	94.69
283.745	89.69
283.976	89.69
284.207	95.69
284.439	88.69
284.67	85.69
284.901	81.69
285.132	93.69
285.364	100.69
285.595	81.69
285.826	87.69
286.057	84.69
286.288	83.69
286.52	83.69
286.751	85.69
286.982	87.69
287.213	81.69
287.444	76.69
287.675	79.69
287.906	90.69
288.138	85.69
288.369	90.69
288.6	79.69
288.831	87.69
289.062	80.69
289.293	79.69
289.524	92.69
289.755	87.69
289.986	84.69
290.217	81.69
290.448	80.69
290.679	86.69
290.91	88.69
291.141	74.69
291.371	75.69
291.602	97.69
291.833	86.69
292.064	95.69
292.295	83.69
292.526	87.69
292.757	88.69
292.987	83.69
293.218	82.69
293.449	78.69
293.68	83.69
293.91	92.69
294.141	89.69
294.372	96.69
294.603	102.69
294.833	84.69
295.064	90.69
295.295	87.69
295.525	94.69
295.756	70.69
295.987	102.69
296.217	113.69
296.448	112.69
296.679	85.69
296.909	77.69
297.14	95.69
297.37	85.69
297.601	80.69
297.831	85.69
298.062	101.69
298.292	84.69
298.523	88.69
298.753	80.69
298.984	87.69
299.214	84.69
299.445	93.69
299.675	86.69
299.905	98.69
300.136	93.69
300.366	82.69
300.597	82.69
300.827	88.69
301.057	97.69
301.288	92.69
301.518	79.69
301.748	95.69
301.979	95.69
302.209	88.69
302.439	91.69
302.669	93.69
302.9	81.69
303.13	84.69
303.36	86.69
303.59	91.69
303.82	82.69
304.051	82.69
304.281	94.69
304.511	83.69
304.741	100.69
304.971	87.69
305.201	75.69
305.431	102.69
305.661	95.69
305.891	90.69
306.121	92.69
306.352	81.69
306.582	104.69
306.812	95.69
307.042	79.69
307.272	86.69
307.502	94.69
307.731	92.69
307.961	85.69
308.191	96.69
308.421	92.69
308.651	92.69
308.881	88.69
309.111	88.69
309.341	92.69
309.571	90.69
309.8	95.69
310.03	88.69
310.26	93.69
310.49	88.69
310.72	95.69
310.949	91.69
311.179	81.69
311.409	79.69
311.639	95.69
311.868	94.69
312.098	75.69
312.328	71.69
312.557	114.69
312.787	106.69
313.017	87.69
313.246	84.69
313.476	85.69
313.706	95.69
313.935	97.69
314.165	86.69
314.394	93.69
314.624	76.69
314.853	93.69
315.083	86.69
315.312	88.69
315.542	81.69
315.771	71.69
316.001	84.69
316.23	81.69
316.46	81.69
316.689	82.69
316.919	95.69
317.148	81.69
317.377	95.69
317.607	81.69
317.836	95.69
318.065	87.69
318.295	92.69
318.524	94.69
318.753	86.69
318.983	92.69
319.212	98.69
319.441	92.69
319.67	112.69
319.9	89.69
320.129	85.69
320.358	88.69
320.587	93.69
320.816	86.69
321.046	87.69
321.275	100.69
321.504	84.69
321.733	90.69
321.962	87.69
322.191	103.69
322.42	91.69
322.649	92.69
322.878	102.69
323.108	88.69
323.337	101.69
323.566	114.69
323.795	131.69
324.024	174.69
324.253	300.69
324.482	615.69
324.71	1302.69
324.939	1706.69
325.168	626.69
325.397	212.69
325.626	120.69
325.855	111.69
326.084	111.69
326.313	117.69
326.542	138.69
326.77	196.69
326.999	387.69
327.228	736.69
327.457	1342.69
327.686	1062.69
327.914	317.69
328.143	167.69
328.372	138.69
328.6	126.69
328.829	91.69
329.058	105.69
329.287	111.69
329.515	103.69
329.744	108.69
329.972	113.69
330.201	128.69
330.43	157.69
330.658	131.69
330.887	119.69
331.115	96.69
331.344	93.69
331.572	96.69
331.801	88.69
332.03	95.69
332.258	96.69
332.486	82.69
332.715	99.69
332.943	93.69
333.172	88.69
333.4	97.69
333.629	96.69
333.857	104.69
334.085	110.69
334.314	127.69
334.542	166.69
334.771	171.69
334.999	94.69
335.227	94.69
335.455	89.69
335.684	88.69
335.912	94.69
336.14	94.69
336.369	93.69
336.597	75.69
336.825	85.69
337.053	86.69
337.281	91.69
337.51	87.69
337.738	78.69
337.966	104.69
338.194	92.69
338.422	79.69
338.65	86.69
338.878	79.69
339.106	79.69
339.334	72.69
339.562	94.69
339.79	88.69
340.018	88.69
340.246	92.69
340.474	97.69
340.702	96.69
340.93	91.69
341.158	85.69
341.386	89.69
341.614	79.69
341.842	87.69
342.07	88.69
342.298	90.69
342.526	85.69
342.754	95.69
342.981	87.69
343.209	94.69
343.437	99.69
343.665	93.69
343.893	85.69
344.12	86.69
344.348	91.69
344.576	101.69
344.804	99.69
345.031	100.69
345.259	86.69
345.487	85.69
345.714	91.69
345.942	96.69
346.17	96.69
346.397	85.69
346.625	92.69
346.853	95.69
347.08	96.69
347.308	92.69
347.535	74.69
347.763	83.69
347.99	89.69
348.218	84.69
348.445	90.69
348.673	99.69
348.9	103.69
349.128	93.69
349.355	85.69
349.583	95.69
349.81	87.69
350.037	77.69
350.265	94.69
350.492	80.69
350.72	98.69
350.947	97.69
351.174	98.69
351.402	101.69
351.629	93.69
351.856	96.69
352.083	106.69
352.311	93.69
352.538	105.69
352.765	104.69
352.992	115.69
353.22	98.69
353.447	98.69
353.674	95.69
353.901	104.69
354.128	99.69
354.355	95.69
354.583	89.69
354.81	108.69
355.037	91.69
355.264	89.69
355.491	94.69
355.718	95.69
355.945	94.69
356.172	89.69
356.399	99.69
356.626	104.69
356.853	84.69
357.08	111.69
357.307	88.69
357.534	109.69
357.761	102.69
357.988	90.69
358.215	92.69
358.441	93.69
358.668	86.69
358.895	85.69
359.122	95.69
359.349	94.69
359.576	90.69
359.802	79.69
360.029	87.69
360.256	104.69
360.483	89.69
360.709	80.69
360.936	83.69
361.163	91.69
361.39	96.69
361.616	84.69
361.843	89.69
362.07	92.69
362.296	80.69
362.523	90.69
362.749	86.69
362.976	88.69
363.203	84.69
363.429	96.69
363.656	100.69
363.882	89.69
364.109	86.69
364.335	99.69
364.562	83.69
364.788	88.69
365.015	83.69
365.241	97.69
365.468	92.69
365.694	84.69
365.92	80.69
366.147	90.69
366.373	84.69
366.599	95.69
366.826	88.69
367.052	96.69
367.278	74.69
367.505	97.69
367.731	87.69
367.957	66.69
368.184	82.69
368.41	99.69
368.636	113.69
368.862	115.69
369.089	96.69
369.315	92.69
369.541	90.69
369.767	95.69
369.993	85.69
370.219	100.69
370.445	85.69
370.672	79.69
370.898	81.69
371.124	84.69
371.35	94.69
371.576	92.69
371.802	84.69
372.028	86.69
372.254	103.69
372.48	95.69
372.706	76.69
372.932	84.69
373.158	90.69
373.384	90.69
373.61	82.69
373.835	86.69
374.061	85.69
374.287	85.69
374.513	80.69
374.739	89.69
374.965	77.69
375.191	88.69
375.416	86.69
375.642	98.69
375.868	83.69
376.094	93.69
376.319	91.69
376.545	72.69
376.771	90.69
376.997	82.69
377.222	83.69
377.448	92.69
377.674	83.69
377.899	104.69
378.125	88.69
378.35	99.69
378.576	97.69
378.802	99.69
379.027	78.69
379.253	82.69
379.478	99.69
379.704	79.69
379.929	98.69
380.155	95.69
380.38	99.69
380.606	100.69
380.831	83.69
381.057	94.69
381.282	90.69
381.507	93.69
381.733	88.69
381.958	90.69
382.184	91.69
382.409	101.69
382.634	102.69
382.86	96.69
383.085	101.69
383.31	111.69
383.535	104.69
383.761	103.69
383.986	109.69
384.211	102.69
384.436	109.69
384.662	92.69
384.887	98.69
385.112	83.69
385.337	103.69
385.562	97.69
385.787	100.69
386.013	90.69
386.238	95.69
386.463	103.69
386.688	105.69
386.913	98.69
387.138	99.69
387.363	98.69
387.588	92.69
387.813	94.69
388.038	103.69
388.263	109.69
388.488	107.69
388.713	101.69
388.938	96.69
389.163	115.69
389.387	87.69
389.612	86.69
389.837	94.69
390.062	94.69
390.287	101.69
390.512	90.69
390.736	94.69
390.961	82.69
391.186	84.69
391.411	99.69
391.636	108.69
391.86	72.69
392.085	71.69
392.31	83.69
392.534	85.69
392.759	90.69
392.984	109.69
393.208	93.69
393.433	126.69
393.658	116.69
393.882	86.69
394.107	89.69
394.331	76.69
394.556	90.69
394.78	91.69
395.005	92.69
395.229	79.69
395.454	82.69
395.678	75.69
395.903	90.69
396.127	76.69
396.352	98.69
396.576	100.69
396.801	101.69
397.025	102.69
397.249	105.69
397.474	88.69
397.698	78.69
397.922	87.69
398.147	85.69
398.371	97.69
398.595	98.69
398.82	86.69
399.044	92.69
399.268	76.69
399.492	82.69
399.717	83.69
399.941	101.69
400.165	87.69
400.389	93.69
400.613	73.69
400.837	72.69
401.062	104.69
401.286	82.69
401.51	94.69
401.734	80.69
401.958	91.69
402.182	117.69
402.406	139.69
402.63	91.69
402.854	88.69
403.078	99.69
403.302	102.69
403.526	79.69
403.75	99.69
403.974	90.69
404.198	89.69
404.422	97.69
404.645	93.69
404.869	96.69
405.093	102.69
405.317	96.69
405.541	79.69
405.765	90.69
405.988	112.69
406.212	164.69
406.436	177.69
406.66	134.69
406.883	88.69
407.107	90.69
407.331	90.69
407.555	84.69
407.778	87.69
408.002	84.69
408.226	78.69
408.449	96.69
408.673	71.69
408.896	76.69
409.12	92.69
409.344	87.69
409.567	82.69
409.791	95.69
410.014	91.69
410.238	86.69
410.461	86.69
410.685	87.69
410.908	94.69
411.132	104.69
411.355	91.69
411.578	84.69
411.802	86.69
412.025	86.69
412.249	89.69
412.472	90.69
412.695	101.69
412.919	83.69
413.142	98.69
413.365	93.69
413.589	80.69
413.812	93.69
414.035	96.69
414.258	92.69
414.482	88.69
414.705	96.69
414.928	91.69
415.151	81.69
415.374	95.69
415.597	94.69
415.821	87.69
416.044	94.69
416.267	85.69
416.49	93.69
416.713	91.69
416.936	86.69
417.159	79.69
417.382	97.69
417.605	94.69
417.828	69.69
418.051	82.69
418.274	90.69
418.497	87.69
418.72	86.69
418.943	83.69
419.166	89.69
419.389	85.69
419.611	80.69
419.834	86.69
420.057	88.69
420.28	75.69
420.503	70.69
420.726	67.69
420.948	92.69
421.171	90.69
421.394	86.69
421.617	85.69
421.839	93.69
422.062	83.69
422.285	84.69
422.507	87.69
422.73	92.69
422.953	87.69
423.175	87.69
423.398	86.69
423.621	99.69
423.843	87.69
424.066	80.69
424.288	86.69
424.511	81.69
424.733	86.69
424.956	104.69
425.178	105.69
425.401	98.69
425.623	96.69
425.846	92.69
426.068	95.69
426.291	80.69
426.513	76.69
426.735	88.69
426.958	84.69
427.18	94.69
427.402	123.69
427.625	130.69
427.847	134.69
428.069	99.69
428.292	79.69
428.514	91.69
428.736	79.69
428.958	74.69
429.181	77.69
429.403	85.69
429.625	96.69
429.847	90.69
430.069	97.69
430.292	94.69
430.514	72.69
430.736	76.69
430.958	88.69
431.18	88.69
431.402	88.69
431.624	76.69
431.846	84.69
432.068	90.69
432.29	77.69
432.512	85.69
432.734	88.69
432.956	82.69
433.178	94.69
433.4	99.69
433.622	92.69
433.844	103.69
434.066	85.69
434.287	82.69
434.509	79.69
434.731	86.69
434.953	96.69
435.175	80.69
435.397	82.69
435.618	82.69
435.84	105.69
436.062	100.69
436.284	109.69
436.505	95.69
436.727	79.69
436.949	86.69
437.17	86.69
437.392	83.69
437.614	87.69
437.835	100.69
438.057	86.69
438.278	103.69
438.5	102.69
438.721	102.69
438.943	95.69
439.165	86.69
439.386	84.69
439.608	92.69
439.829	89.69
440.05	115.69
440.272	120.69
440.493	97.69
440.715	88.69
440.936	83.69
441.158	82.69
441.379	84.69
441.6	82.69
441.822	84.69
442.043	71.69
442.264	92.69
442.486	105.69
442.707	86.69
442.928	100.69
443.149	124.69
443.371	100.69
443.592	109.69
443.813	102.69
444.034	100.69
444.255	93.69
444.476	91.69
444.698	85.69
444.919	85.69
445.14	129.69
445.361	109.69
445.582	97.69
445.803	86.69
446.024	114.69
446.245	111.69
446.466	96.69
446.687	95.69
446.908	95.69
447.129	94.69
447.35	98.69
447.571	86.69
447.792	89.69
448.013	94.69
448.234	85.69
448.455	90.69
448.675	117.69
448.896	92.69
449.117	105.69
449.338	106.69
449.559	102.69
449.779	106.69
450	84.69
450.221	79.69
450.442	98.69
450.662	92.69
450.883	94.69
451.104	101.69
451.324	95.69
451.545	81.69
451.766	78.69
451.986	71.69
452.207	86.69
452.428	92.69
452.648	95.69
452.869	103.69
453.089	109.69
453.31	105.69
453.53	95.69
453.751	88.69
453.971	83.69
454.192	77.69
454.412	90.69
454.633	83.69
454.853	79.69
455.073	80.69
455.294	87.69
455.514	68.69
455.734	72.69
455.955	92.69
456.175	81.69
456.395	89.69
456.616	90.69
456.836	87.69
457.056	85.69
457.276	75.69
457.497	80.69
457.717	90.69
457.937	98.69
458.157	76.69
458.377	87.69
458.598	97.69
458.818	130.69
459.038	124.69
459.258	106.69
459.478	85.69
459.698	95.69
459.918	91.69
460.138	85.69
460.358	87.69
460.578	82.69
460.798	99.69
461.018	87.69
461.238	94.69
461.458	80.69
461.678	90.69
461.898	78.69
462.118	80.69
462.338	78.69
462.558	88.69
462.777	86.69
462.997	84.69
463.217	76.69
463.437	69.69
463.657	77.69
463.876	84.69
464.096	90.69
464.316	86.69
464.536	77.69
464.755	96.69
464.975	103.69
465.195	132.69
465.414	142.69
465.634	96.69
465.854	83.69
466.073	80.69
466.293	84.69
466.512	103.69
466.732	74.69
466.951	81.69
467.171	90.69
467.391	72.69
467.61	86.69
467.829	108.69
468.049	97.69
468.268	114.69
468.488	94.69
468.707	80.69
468.927	91.69
469.146	92.69
469.365	79.69
469.585	90.69
469.804	92.69
470.023	88.69
470.243	90.69
470.462	96.69
470.681	95.69
470.901	92.69
471.12	82.69
471.339	90.69
471.558	99.69
471.777	99.69
471.997	92.69
472.216	133.69
472.435	186.69
472.654	94.69
472.873	78.69
473.092	67.69
473.311	76.69
473.53	96.69
473.749	92.69
473.968	100.69
474.187	106.69
474.406	93.69
474.625	76.69
474.844	90.69
475.063	78.69
475.282	91.69
475.501	92.69
475.72	88.69
475.939	93.69
476.158	98.69
476.377	92.69
476.596	77.69
476.814	99.69
477.033	89.69
477.252	79.69
477.471	86.69
477.69	92.69
477.908	83.69
478.127	95.69
478.346	87.69
478.564	96.69
478.783	86.69
479.002	80.69
479.22	99.69
479.439	96.69
479.658	103.69
479.876	82.69
480.095	103.69
480.313	100.69
480.532	96.69
480.751	98.69
480.969	123.69
481.188	279.69
481.406	193.69
481.624	95.69
481.843	74.69
482.061	92.69
482.28	80.69
482.498	91.69
482.717	84.69
482.935	84.69
483.153	93.69
483.372	97.69
483.59	87.69
483.808	85.69
484.027	100.69
484.245	82.69
484.463	92.69
484.681	91.69
484.9	95.69
485.118	93.69
485.336	93.69
485.554	93.69
485.772	96.69
485.99	100.69
486.209	99.69
486.427	96.69
486.645	88.69
486.863	89.69
487.081	108.69
487.299	94.69
487.517	87.69
487.735	68.69
487.953	86.69
488.171	80.69
488.389	85.69
488.607	90.69
488.825	92.69
489.043	85.69
489.261	94.69
489.479	77.69
489.696	70.69
489.914	89.69
490.132	71.69
490.35	87.69
490.568	87.69
490.786	96.69
491.003	92.69
491.221	87.69
491.439	84.69
491.657	86.69
491.874	93.69
492.092	88.69
492.31	104.69
492.527	100.69
492.745	92.69
492.963	80.69
493.18	92.69
493.398	87.69
493.615	82.69
493.833	90.69
494.05	75.69
494.268	78.69
494.485	83.69
494.703	86.69
494.92	98.69
495.138	93.69
495.355	85.69
495.573	91.69
495.79	96.69
496.008	97.69
496.225	78.69
496.442	96.69
496.66	91.69
496.877	95.69
497.094	97.69
497.312	95.69
497.529	80.69
497.746	87.69
497.963	87.69
498.181	98.69
498.398	100.69
498.615	101.69
498.832	111.69
499.049	96.69
499.267	90.69
499.484	83.69
499.701	103.69
499.918	88.69
500.135	91.69
500.352	92.69
500.569	97.69
500.786	99.69
501.003	103.69
501.22	100.69
501.437	77.69
501.654	83.69
501.871	101.69
502.088	87.69
502.305	94.69
502.522	89.69
502.739	91.69
502.956	88.69
503.172	70.69
503.389	81.69
503.606	93.69
503.823	94.69
504.04	100.69
504.256	96.69
504.473	79.69
504.69	88.69
504.907	85.69
505.123	102.69
505.34	92.69
505.557	95.69
505.773	87.69
505.99	94.69
506.207	90.69
506.423	98.69
506.64	90.69
506.856	88.69
507.073	85.69
507.289	71.69
507.506	90.69
507.722	92.69
507.939	94.69
508.155	99.69
508.372	95.69
508.588	91.69
508.805	88.69
509.021	78.69
509.238	102.69
509.454	91.69
509.67	106.69
509.887	103.69
510.103	110.69
510.319	187.69
510.536	609.69
510.752	1746.69
510.968	506.69
511.184	127.69
511.401	110.69
511.617	90.69
511.833	91.69
512.049	98.69
512.265	97.69
512.481	89.69
512.698	77.69
512.914	96.69
513.13	102.69
513.346	91.69
513.562	90.69
513.778	92.69
513.994	94.69
514.21	97.69
514.426	101.69
514.642	112.69
514.858	111.69
515.074	159.69
515.29	361.69
515.506	1108.69
515.721	402.69
515.937	123.69
516.153	108.69
516.369	99.69
516.585	90.69
516.801	78.69
517.016	78.69
