Data from Uncirc_1989_H10_HRD10591_00063.txt Node
Date: Wed Jan 03 11:57:48 EST 2024
User: Yrep
Spectrometer: HR+D1059
Trigger mode: 1
Integration Time (sec): 1.000000E-1
Scans to average: 1
Electric dark correction enabled: true
Nonlinearity correction enabled: false
Boxcar width: 0
XAxis mode: Wavelengths
Number of Pixels in Spectrum: 2048
>>>>>Begin Spectral Data<<<<<
223.165	-25.25
223.4	-25.25
223.635	-25.25
223.869	-18.25
224.104	-23.25
224.338	-12.25
224.573	-11.25
224.808	-20.25
225.042	-8.25
225.277	-3.25
225.511	0.75
225.746	-5.25
225.98	16.75
226.215	25.75
226.449	8.75
226.683	18.75
226.918	22.75
227.152	33.75
227.387	27.75
227.621	31.75
227.856	56.75
228.09	48.75
228.324	70.75
228.559	55.75
228.793	57.75
229.027	57.75
229.262	66.75
229.496	83.75
229.73	69.75
229.964	81.75
230.199	72.75
230.433	81.75
230.667	72.75
230.901	65.75
231.136	70.75
231.37	84.75
231.604	79.75
231.838	72.75
232.072	74.75
232.306	79.75
232.541	63.75
232.775	98.75
233.009	79.75
233.243	75.75
233.477	90.75
233.711	91.75
233.945	88.75
234.179	80.75
234.413	87.75
234.647	79.75
234.881	78.75
235.115	72.75
235.349	71.75
235.583	87.75
235.817	88.75
236.051	77.75
236.285	64.75
236.519	87.75
236.753	81.75
236.987	83.75
237.221	73.75
237.455	81.75
237.689	79.75
237.922	74.75
238.156	80.75
238.39	57.75
238.624	75.75
238.858	71.75
239.091	68.75
239.325	82.75
239.559	63.75
239.793	69.75
240.027	70.75
240.26	82.75
240.494	88.75
240.728	88.75
240.961	85.75
241.195	65.75
241.429	69.75
241.662	87.75
241.896	83.75
242.13	86.75
242.363	71.75
242.597	77.75
242.83	75.75
243.064	79.75
243.298	78.75
243.531	71.75
243.765	79.75
243.998	77.75
244.232	72.75
244.465	93.75
244.699	86.75
244.932	93.75
245.166	71.75
245.399	73.75
245.633	80.75
245.866	79.75
246.099	80.75
246.333	86.75
246.566	80.75
246.8	90.75
247.033	81.75
247.266	89.75
247.5	73.75
247.733	88.75
247.966	80.75
248.2	79.75
248.433	86.75
248.666	81.75
248.899	93.75
249.133	79.75
249.366	98.75
249.599	75.75
249.832	74.75
250.066	75.75
250.299	79.75
250.532	84.75
250.765	84.75
250.998	83.75
251.231	90.75
251.465	85.75
251.698	77.75
251.931	74.75
252.164	81.75
252.397	85.75
252.63	90.75
252.863	79.75
253.096	74.75
253.329	67.75
253.562	74.75
253.795	91.75
254.028	74.75
254.261	74.75
254.494	85.75
254.727	99.75
254.96	66.75
255.193	74.75
255.426	89.75
255.659	80.75
255.892	88.75
256.124	83.75
256.357	83.75
256.59	81.75
256.823	101.75
257.056	87.75
257.289	79.75
257.521	89.75
257.754	74.75
257.987	81.75
258.22	77.75
258.452	99.75
258.685	83.75
258.918	66.75
259.151	84.75
259.383	93.75
259.616	86.75
259.849	84.75
260.081	92.75
260.314	82.75
260.547	83.75
260.779	80.75
261.012	97.75
261.244	95.75
261.477	93.75
261.71	82.75
261.942	101.75
262.175	99.75
262.407	86.75
262.64	86.75
262.872	89.75
263.105	88.75
263.337	78.75
263.57	86.75
263.802	80.75
264.035	98.75
264.267	95.75
264.499	79.75
264.732	91.75
264.964	90.75
265.197	84.75
265.429	92.75
265.661	95.75
265.894	80.75
266.126	100.75
266.358	81.75
266.591	77.75
266.823	77.75
267.055	83.75
267.287	85.75
267.52	81.75
267.752	72.75
267.984	91.75
268.216	91.75
268.448	75.75
268.681	100.75
268.913	88.75
269.145	86.75
269.377	77.75
269.609	84.75
269.841	78.75
270.073	96.75
270.306	79.75
270.538	83.75
270.77	93.75
271.002	94.75
271.234	96.75
271.466	72.75
271.698	77.75
271.93	72.75
272.162	93.75
272.394	82.75
272.626	90.75
272.858	91.75
273.09	82.75
273.322	79.75
273.553	91.75
273.785	87.75
274.017	93.75
274.249	79.75
274.481	73.75
274.713	87.75
274.945	72.75
275.176	85.75
275.408	83.75
275.64	89.75
275.872	78.75
276.104	86.75
276.335	90.75
276.567	93.75
276.799	96.75
277.031	101.75
277.262	117.75
277.494	87.75
277.726	80.75
277.957	87.75
278.189	99.75
278.421	90.75
278.652	83.75
278.884	87.75
279.115	92.75
279.347	90.75
279.579	85.75
279.81	81.75
280.042	84.75
280.273	98.75
280.505	105.75
280.736	83.75
280.968	71.75
281.199	89.75
281.431	73.75
281.662	96.75
281.894	95.75
282.125	106.75
282.356	106.75
282.588	129.75
282.819	103.75
283.051	97.75
283.282	89.75
283.513	89.75
283.745	83.75
283.976	85.75
284.207	89.75
284.439	90.75
284.67	82.75
284.901	92.75
285.132	82.75
285.364	94.75
285.595	86.75
285.826	89.75
286.057	88.75
286.288	83.75
286.52	82.75
286.751	96.75
286.982	95.75
287.213	85.75
287.444	91.75
287.675	90.75
287.906	96.75
288.138	79.75
288.369	105.75
288.6	93.75
288.831	81.75
289.062	76.75
289.293	92.75
289.524	97.75
289.755	96.75
289.986	98.75
290.217	93.75
290.448	93.75
290.679	86.75
290.91	101.75
291.141	77.75
291.371	100.75
291.602	101.75
291.833	87.75
292.064	95.75
292.295	83.75
292.526	75.75
292.757	94.75
292.987	99.75
293.218	82.75
293.449	107.75
293.68	79.75
293.91	91.75
294.141	91.75
294.372	91.75
294.603	90.75
294.833	83.75
295.064	88.75
295.295	91.75
295.525	87.75
295.756	107.75
295.987	111.75
296.217	130.75
296.448	113.75
296.679	78.75
296.909	85.75
297.14	74.75
297.37	87.75
297.601	85.75
297.831	101.75
298.062	99.75
298.292	74.75
298.523	93.75
298.753	80.75
298.984	77.75
299.214	89.75
299.445	93.75
299.675	90.75
299.905	97.75
300.136	95.75
300.366	73.75
300.597	85.75
300.827	93.75
301.057	99.75
301.288	89.75
301.518	80.75
301.748	81.75
301.979	103.75
302.209	98.75
302.439	102.75
302.669	93.75
302.9	84.75
303.13	81.75
303.36	80.75
303.59	89.75
303.82	102.75
304.051	88.75
304.281	86.75
304.511	83.75
304.741	99.75
304.971	97.75
305.201	107.75
305.431	85.75
305.661	86.75
305.891	95.75
306.121	92.75
306.352	85.75
306.582	107.75
306.812	107.75
307.042	93.75
307.272	111.75
307.502	107.75
307.731	99.75
307.961	94.75
308.191	95.75
308.421	101.75
308.651	76.75
308.881	97.75
309.111	98.75
309.341	102.75
309.571	116.75
309.8	102.75
310.03	97.75
310.26	97.75
310.49	99.75
310.72	105.75
310.949	112.75
311.179	93.75
311.409	93.75
311.639	91.75
311.868	95.75
312.098	89.75
312.328	95.75
312.557	95.75
312.787	106.75
313.017	102.75
313.246	104.75
313.476	99.75
313.706	94.75
313.935	87.75
314.165	95.75
314.394	97.75
314.624	103.75
314.853	96.75
315.083	99.75
315.312	89.75
315.542	92.75
315.771	94.75
316.001	98.75
316.23	103.75
316.46	79.75
316.689	98.75
316.919	99.75
317.148	99.75
317.377	97.75
317.607	85.75
317.836	84.75
318.065	96.75
318.295	107.75
318.524	99.75
318.753	90.75
318.983	97.75
319.212	100.75
319.441	97.75
319.67	108.75
319.9	105.75
320.129	92.75
320.358	98.75
320.587	103.75
320.816	95.75
321.046	95.75
321.275	111.75
321.504	106.75
321.733	101.75
321.962	91.75
322.191	90.75
322.42	90.75
322.649	101.75
322.878	96.75
323.108	105.75
323.337	108.75
323.566	125.75
323.795	128.75
324.024	179.75
324.253	334.75
324.482	689.75
324.71	1361.75
324.939	1791.75
325.168	643.75
325.397	219.75
325.626	120.75
325.855	119.75
326.084	115.75
326.313	118.75
326.542	129.75
326.77	197.75
326.999	388.75
327.228	780.75
327.457	1437.75
327.686	1134.75
327.914	329.75
328.143	192.75
328.372	173.75
328.6	135.75
328.829	109.75
329.058	122.75
329.287	121.75
329.515	104.75
329.744	107.75
329.972	122.75
330.201	162.75
330.43	212.75
330.658	148.75
330.887	134.75
331.115	119.75
331.344	105.75
331.572	105.75
331.801	90.75
332.03	106.75
332.258	95.75
332.486	97.75
332.715	95.75
332.943	93.75
333.172	86.75
333.4	104.75
333.629	107.75
333.857	111.75
334.085	131.75
334.314	177.75
334.542	250.75
334.771	214.75
334.999	113.75
335.227	101.75
335.455	103.75
335.684	84.75
335.912	100.75
336.14	107.75
336.369	101.75
336.597	93.75
336.825	112.75
337.053	102.75
337.281	90.75
337.51	99.75
337.738	90.75
337.966	82.75
338.194	84.75
338.422	98.75
338.65	96.75
338.878	98.75
339.106	103.75
339.334	99.75
339.562	103.75
339.79	94.75
340.018	95.75
340.246	88.75
340.474	98.75
340.702	90.75
340.93	90.75
341.158	96.75
341.386	89.75
341.614	87.75
341.842	114.75
342.07	103.75
342.298	90.75
342.526	80.75
342.754	98.75
342.981	90.75
343.209	104.75
343.437	116.75
343.665	96.75
343.893	100.75
344.12	98.75
344.348	97.75
344.576	101.75
344.804	91.75
345.031	113.75
345.259	90.75
345.487	91.75
345.714	100.75
345.942	94.75
346.17	95.75
346.397	86.75
346.625	85.75
346.853	90.75
347.08	87.75
347.308	100.75
347.535	102.75
347.763	109.75
347.99	104.75
348.218	104.75
348.445	113.75
348.673	97.75
348.9	86.75
349.128	95.75
349.355	104.75
349.583	113.75
349.81	109.75
350.037	98.75
350.265	87.75
350.492	98.75
350.72	91.75
350.947	106.75
351.174	107.75
351.402	92.75
351.629	89.75
351.856	106.75
352.083	104.75
352.311	103.75
352.538	88.75
352.765	98.75
352.992	91.75
353.22	103.75
353.447	102.75
353.674	99.75
353.901	86.75
354.128	104.75
354.355	94.75
354.583	87.75
354.81	95.75
355.037	89.75
355.264	100.75
355.491	97.75
355.718	91.75
355.945	103.75
356.172	81.75
356.399	90.75
356.626	99.75
356.853	111.75
357.08	91.75
357.307	100.75
357.534	91.75
357.761	98.75
357.988	98.75
358.215	97.75
358.441	93.75
358.668	90.75
358.895	98.75
359.122	97.75
359.349	102.75
359.576	91.75
359.802	104.75
360.029	105.75
360.256	86.75
360.483	93.75
360.709	83.75
360.936	95.75
361.163	94.75
361.39	91.75
361.616	105.75
361.843	79.75
362.07	93.75
362.296	83.75
362.523	91.75
362.749	83.75
362.976	82.75
363.203	104.75
363.429	97.75
363.656	84.75
363.882	102.75
364.109	95.75
364.335	101.75
364.562	90.75
364.788	90.75
365.015	93.75
365.241	97.75
365.468	112.75
365.694	107.75
365.92	87.75
366.147	103.75
366.373	95.75
366.599	98.75
366.826	86.75
367.052	99.75
367.278	93.75
367.505	89.75
367.731	99.75
367.957	100.75
368.184	86.75
368.41	98.75
368.636	105.75
368.862	109.75
369.089	101.75
369.315	99.75
369.541	80.75
369.767	101.75
369.993	79.75
370.219	93.75
370.445	83.75
370.672	89.75
370.898	79.75
371.124	82.75
371.35	102.75
371.576	96.75
371.802	85.75
372.028	90.75
372.254	101.75
372.48	95.75
372.706	86.75
372.932	103.75
373.158	96.75
373.384	99.75
373.61	98.75
373.835	103.75
374.061	81.75
374.287	91.75
374.513	95.75
374.739	91.75
374.965	87.75
375.191	87.75
375.416	98.75
375.642	92.75
375.868	102.75
376.094	87.75
376.319	87.75
376.545	86.75
376.771	94.75
376.997	107.75
377.222	88.75
377.448	81.75
377.674	92.75
377.899	97.75
378.125	89.75
378.35	91.75
378.576	86.75
378.802	103.75
379.027	103.75
379.253	100.75
379.478	100.75
379.704	94.75
379.929	97.75
380.155	74.75
380.38	101.75
380.606	104.75
380.831	88.75
381.057	111.75
381.282	89.75
381.507	85.75
381.733	97.75
381.958	94.75
382.184	95.75
382.409	90.75
382.634	111.75
382.86	122.75
383.085	94.75
383.31	96.75
383.535	83.75
383.761	105.75
383.986	97.75
384.211	84.75
384.436	89.75
384.662	88.75
384.887	92.75
385.112	105.75
385.337	100.75
385.562	102.75
385.787	110.75
386.013	116.75
386.238	90.75
386.463	101.75
386.688	99.75
386.913	104.75
387.138	99.75
387.363	107.75
387.588	112.75
387.813	103.75
388.038	101.75
388.263	96.75
388.488	98.75
388.713	104.75
388.938	103.75
389.163	96.75
389.387	96.75
389.612	96.75
389.837	96.75
390.062	92.75
390.287	98.75
390.512	108.75
390.736	101.75
390.961	96.75
391.186	91.75
391.411	99.75
391.636	103.75
391.86	96.75
392.085	78.75
392.31	79.75
392.534	83.75
392.759	86.75
392.984	86.75
393.208	101.75
393.433	101.75
393.658	92.75
393.882	93.75
394.107	88.75
394.331	87.75
394.556	93.75
394.78	96.75
395.005	84.75
395.229	94.75
395.454	97.75
395.678	98.75
395.903	94.75
396.127	89.75
396.352	88.75
396.576	82.75
396.801	85.75
397.025	88.75
397.249	102.75
397.474	111.75
397.698	93.75
397.922	87.75
398.147	80.75
398.371	97.75
398.595	83.75
398.82	76.75
399.044	77.75
399.268	86.75
399.492	93.75
399.717	82.75
399.941	93.75
400.165	99.75
400.389	80.75
400.613	93.75
400.837	103.75
401.062	100.75
401.286	81.75
401.51	91.75
401.734	88.75
401.958	80.75
402.182	133.75
402.406	130.75
402.63	95.75
402.854	91.75
403.078	95.75
403.302	87.75
403.526	94.75
403.75	96.75
403.974	88.75
404.198	97.75
404.422	93.75
404.645	85.75
404.869	77.75
405.093	103.75
405.317	98.75
405.541	95.75
405.765	107.75
405.988	102.75
406.212	151.75
406.436	177.75
406.66	138.75
406.883	98.75
407.107	118.75
407.331	82.75
407.555	99.75
407.778	94.75
408.002	108.75
408.226	109.75
408.449	92.75
408.673	85.75
408.896	85.75
409.12	92.75
409.344	93.75
409.567	92.75
409.791	95.75
410.014	95.75
410.238	86.75
410.461	90.75
410.685	92.75
410.908	96.75
411.132	113.75
411.355	97.75
411.578	93.75
411.802	78.75
412.025	87.75
412.249	100.75
412.472	90.75
412.695	109.75
412.919	100.75
413.142	98.75
413.365	91.75
413.589	94.75
413.812	83.75
414.035	87.75
414.258	90.75
414.482	97.75
414.705	68.75
414.928	86.75
415.151	93.75
415.374	87.75
415.597	95.75
415.821	84.75
416.044	86.75
416.267	111.75
416.49	95.75
416.713	99.75
416.936	91.75
417.159	91.75
417.382	97.75
417.605	81.75
417.828	102.75
418.051	98.75
418.274	97.75
418.497	87.75
418.72	97.75
418.943	96.75
419.166	97.75
419.389	97.75
419.611	79.75
419.834	80.75
420.057	95.75
420.28	82.75
420.503	84.75
420.726	74.75
420.948	86.75
421.171	97.75
421.394	85.75
421.617	87.75
421.839	91.75
422.062	89.75
422.285	89.75
422.507	80.75
422.73	102.75
422.953	96.75
423.175	90.75
423.398	90.75
423.621	91.75
423.843	79.75
424.066	81.75
424.288	86.75
424.511	95.75
424.733	90.75
424.956	86.75
425.178	89.75
425.401	101.75
425.623	96.75
425.846	93.75
426.068	95.75
426.291	75.75
426.513	80.75
426.735	89.75
426.958	93.75
427.18	104.75
427.402	118.75
427.625	146.75
427.847	127.75
428.069	122.75
428.292	97.75
428.514	79.75
428.736	98.75
428.958	89.75
429.181	74.75
429.403	79.75
429.625	91.75
429.847	99.75
430.069	102.75
430.292	85.75
430.514	92.75
430.736	93.75
430.958	81.75
431.18	91.75
431.402	97.75
431.624	102.75
431.846	91.75
432.068	99.75
432.29	79.75
432.512	94.75
432.734	88.75
432.956	96.75
433.178	73.75
433.4	90.75
433.622	99.75
433.844	99.75
434.066	93.75
434.287	107.75
434.509	72.75
434.731	93.75
434.953	86.75
435.175	91.75
435.397	94.75
435.618	95.75
435.84	101.75
436.062	131.75
436.284	103.75
436.505	106.75
436.727	114.75
436.949	96.75
437.17	90.75
437.392	89.75
437.614	106.75
437.835	105.75
438.057	113.75
438.278	104.75
438.5	87.75
438.721	105.75
438.943	112.75
439.165	85.75
439.386	103.75
439.608	93.75
439.829	86.75
440.05	119.75
440.272	114.75
440.493	95.75
440.715	90.75
440.936	93.75
441.158	73.75
441.379	77.75
441.6	83.75
441.822	100.75
442.043	85.75
442.264	97.75
442.486	84.75
442.707	86.75
442.928	109.75
443.149	116.75
443.371	112.75
443.592	96.75
443.813	91.75
444.034	119.75
444.255	83.75
444.476	85.75
444.698	106.75
444.919	99.75
445.14	146.75
445.361	121.75
445.582	109.75
445.803	114.75
446.024	122.75
446.245	114.75
446.466	117.75
446.687	90.75
446.908	89.75
447.129	87.75
447.35	96.75
447.571	92.75
447.792	80.75
448.013	101.75
448.234	98.75
448.455	89.75
448.675	108.75
448.896	90.75
449.117	103.75
449.338	99.75
449.559	112.75
449.779	112.75
450	101.75
450.221	106.75
450.442	89.75
450.662	82.75
450.883	98.75
451.104	102.75
451.324	74.75
451.545	99.75
451.766	86.75
451.986	100.75
452.207	89.75
452.428	104.75
452.648	103.75
452.869	101.75
453.089	90.75
453.31	109.75
453.53	93.75
453.751	83.75
453.971	99.75
454.192	111.75
454.412	101.75
454.633	82.75
454.853	90.75
455.073	81.75
455.294	87.75
455.514	103.75
455.734	88.75
455.955	89.75
456.175	86.75
456.395	94.75
456.616	86.75
456.836	93.75
457.056	93.75
457.276	95.75
457.497	80.75
457.717	89.75
457.937	97.75
458.157	95.75
458.377	78.75
458.598	94.75
458.818	120.75
459.038	132.75
459.258	95.75
459.478	90.75
459.698	86.75
459.918	86.75
460.138	86.75
460.358	93.75
460.578	86.75
460.798	87.75
461.018	86.75
461.238	102.75
461.458	90.75
461.678	89.75
461.898	97.75
462.118	86.75
462.338	84.75
462.558	89.75
462.777	83.75
462.997	74.75
463.217	79.75
463.437	102.75
463.657	105.75
463.876	70.75
464.096	90.75
464.316	80.75
464.536	73.75
464.755	84.75
464.975	96.75
465.195	128.75
465.414	114.75
465.634	91.75
465.854	97.75
466.073	87.75
466.293	95.75
466.512	89.75
466.732	77.75
466.951	105.75
467.171	77.75
467.391	102.75
467.61	105.75
467.829	110.75
468.049	135.75
468.268	149.75
468.488	98.75
468.707	93.75
468.927	79.75
469.146	87.75
469.365	93.75
469.585	89.75
469.804	90.75
470.023	86.75
470.243	85.75
470.462	85.75
470.681	94.75
470.901	87.75
471.12	92.75
471.339	103.75
471.558	91.75
471.777	103.75
471.997	97.75
472.216	189.75
472.435	281.75
472.654	125.75
472.873	93.75
473.092	101.75
473.311	101.75
473.53	73.75
473.749	89.75
473.968	91.75
474.187	98.75
474.406	97.75
474.625	85.75
474.844	83.75
475.063	69.75
475.282	93.75
475.501	83.75
475.72	87.75
475.939	81.75
476.158	69.75
476.377	90.75
476.596	92.75
476.814	93.75
477.033	95.75
477.252	83.75
477.471	100.75
477.69	91.75
477.908	99.75
478.127	77.75
478.346	89.75
478.564	83.75
478.783	93.75
479.002	94.75
479.22	93.75
479.439	89.75
479.658	100.75
479.876	95.75
480.095	96.75
480.313	89.75
480.532	89.75
480.751	117.75
480.969	191.75
481.188	499.75
481.406	289.75
481.624	103.75
481.843	93.75
482.061	96.75
482.28	84.75
482.498	80.75
482.717	90.75
482.935	92.75
483.153	99.75
483.372	89.75
483.59	89.75
483.808	83.75
484.027	74.75
484.245	77.75
484.463	77.75
484.681	92.75
484.9	96.75
485.118	98.75
485.336	109.75
485.554	102.75
485.772	94.75
485.99	106.75
486.209	112.75
486.427	106.75
486.645	108.75
486.863	103.75
487.081	103.75
487.299	98.75
487.517	81.75
487.735	96.75
487.953	74.75
488.171	95.75
488.389	95.75
488.607	101.75
488.825	101.75
489.043	87.75
489.261	73.75
489.479	92.75
489.696	91.75
489.914	92.75
490.132	87.75
490.35	83.75
490.568	98.75
490.786	95.75
491.003	93.75
491.221	97.75
491.439	108.75
491.657	90.75
491.874	104.75
492.092	81.75
492.31	103.75
492.527	77.75
492.745	101.75
492.963	96.75
493.18	93.75
493.398	86.75
493.615	105.75
493.833	86.75
494.05	81.75
494.268	89.75
494.485	81.75
494.703	83.75
494.92	97.75
495.138	87.75
495.355	101.75
495.573	101.75
495.79	86.75
496.008	98.75
496.225	91.75
496.442	88.75
496.66	85.75
496.877	98.75
497.094	86.75
497.312	76.75
497.529	94.75
497.746	90.75
497.963	94.75
498.181	73.75
498.398	96.75
498.615	98.75
498.832	104.75
499.049	97.75
499.267	93.75
499.484	94.75
499.701	86.75
499.918	83.75
500.135	96.75
500.352	103.75
500.569	77.75
500.786	98.75
501.003	95.75
501.22	100.75
501.437	102.75
501.654	83.75
501.871	97.75
502.088	87.75
502.305	93.75
502.522	86.75
502.739	89.75
502.956	90.75
503.172	94.75
503.389	94.75
503.606	101.75
503.823	91.75
504.04	80.75
504.256	88.75
504.473	92.75
504.69	91.75
504.907	100.75
505.123	76.75
505.34	89.75
505.557	91.75
505.773	80.75
505.99	74.75
506.207	82.75
506.423	75.75
506.64	93.75
506.856	90.75
507.073	86.75
507.289	109.75
507.506	98.75
507.722	101.75
507.939	114.75
508.155	98.75
508.372	92.75
508.588	98.75
508.805	90.75
509.021	101.75
509.238	106.75
509.454	105.75
509.67	103.75
509.887	103.75
510.103	121.75
510.319	170.75
510.536	551.75
510.752	1596.75
510.968	456.75
511.184	126.75
511.401	109.75
511.617	101.75
511.833	91.75
512.049	84.75
512.265	97.75
512.481	98.75
512.698	96.75
512.914	90.75
513.13	91.75
513.346	96.75
513.562	99.75
513.778	87.75
513.994	99.75
514.21	98.75
514.426	105.75
514.642	121.75
514.858	115.75
515.074	132.75
515.29	321.75
