Data from Uncirc_1989_H10_HRD10591_00064.txt Node
Date: Wed Jan 03 11:57:48 EST 2024
User: Yrep
Spectrometer: HR+D1059
Trigger mode: 1
Integration Time (sec): 1.000000E-1
Scans to average: 1
Electric dark correction enabled: true
Nonlinearity correction enabled: false
Boxcar width: 0
XAxis mode: Wavelengths
Number of Pixels in Spectrum: 2048
>>>>>Begin Spectral Data<<<<<
223.165	-33.44
223.4	-33.44
223.635	-33.44
223.869	-18.44
224.104	-24.44
224.338	-7.44
224.573	-11.44
224.808	-2.44
225.042	1.56
225.277	-0.44
225.511	-7.44
225.746	-12.44
225.98	-8.44
226.215	9.56
226.449	21.56
226.683	38.56
226.918	29.56
227.152	25.56
227.387	26.56
227.621	51.56
227.856	34.56
228.09	34.56
228.324	61.56
228.559	46.56
228.793	65.56
229.027	73.56
229.262	79.56
229.496	72.56
229.73	62.56
229.964	69.56
230.199	85.56
230.433	76.56
230.667	74.56
230.901	67.56
231.136	76.56
231.37	66.56
231.604	83.56
231.838	77.56
232.072	78.56
232.306	80.56
232.541	84.56
232.775	98.56
233.009	83.56
233.243	93.56
233.477	78.56
233.711	87.56
233.945	84.56
234.179	78.56
234.413	74.56
234.647	84.56
234.881	79.56
235.115	91.56
235.349	90.56
235.583	60.56
235.817	81.56
236.051	76.56
236.285	80.56
236.519	74.56
236.753	76.56
236.987	75.56
237.221	95.56
237.455	83.56
237.689	75.56
237.922	77.56
238.156	78.56
238.39	76.56
238.624	69.56
238.858	66.56
239.091	73.56
239.325	66.56
239.559	83.56
239.793	79.56
240.027	65.56
240.26	65.56
240.494	77.56
240.728	70.56
240.961	75.56
241.195	80.56
241.429	65.56
241.662	73.56
241.896	73.56
242.13	66.56
242.363	87.56
242.597	70.56
242.83	74.56
243.064	85.56
243.298	89.56
243.531	70.56
243.765	86.56
243.998	77.56
244.232	74.56
244.465	81.56
244.699	81.56
244.932	67.56
245.166	77.56
245.399	69.56
245.633	68.56
245.866	68.56
246.099	60.56
246.333	79.56
246.566	66.56
246.8	77.56
247.033	75.56
247.266	78.56
247.5	83.56
247.733	71.56
247.966	84.56
248.2	77.56
248.433	65.56
248.666	85.56
248.899	75.56
249.133	79.56
249.366	99.56
249.599	89.56
249.832	80.56
250.066	78.56
250.299	75.56
250.532	87.56
250.765	74.56
250.998	69.56
251.231	85.56
251.465	74.56
251.698	76.56
251.931	89.56
252.164	61.56
252.397	70.56
252.63	77.56
252.863	68.56
253.096	76.56
253.329	83.56
253.562	82.56
253.795	76.56
254.028	75.56
254.261	86.56
254.494	70.56
254.727	83.56
254.96	86.56
255.193	81.56
255.426	85.56
255.659	77.56
255.892	75.56
256.124	82.56
256.357	75.56
256.59	88.56
256.823	83.56
257.056	84.56
257.289	82.56
257.521	83.56
257.754	66.56
257.987	73.56
258.22	85.56
258.452	66.56
258.685	81.56
258.918	70.56
259.151	74.56
259.383	81.56
259.616	77.56
259.849	67.56
260.081	77.56
260.314	89.56
260.547	81.56
260.779	73.56
261.012	77.56
261.244	76.56
261.477	81.56
261.71	87.56
261.942	102.56
262.175	102.56
262.407	79.56
262.64	76.56
262.872	77.56
263.105	69.56
263.337	79.56
263.57	76.56
263.802	90.56
264.035	77.56
264.267	77.56
264.499	68.56
264.732	80.56
264.964	91.56
265.197	83.56
265.429	83.56
265.661	79.56
265.894	73.56
266.126	99.56
266.358	74.56
266.591	77.56
266.823	86.56
267.055	66.56
267.287	82.56
267.52	61.56
267.752	81.56
267.984	84.56
268.216	76.56
268.448	78.56
268.681	95.56
268.913	88.56
269.145	82.56
269.377	91.56
269.609	77.56
269.841	80.56
270.073	87.56
270.306	82.56
270.538	76.56
270.77	64.56
271.002	97.56
271.234	82.56
271.466	84.56
271.698	95.56
271.93	81.56
272.162	72.56
272.394	92.56
272.626	62.56
272.858	93.56
273.09	78.56
273.322	84.56
273.553	77.56
273.785	81.56
274.017	76.56
274.249	82.56
274.481	86.56
274.713	88.56
274.945	73.56
275.176	69.56
275.408	87.56
275.64	84.56
275.872	83.56
276.104	82.56
276.335	81.56
276.567	94.56
276.799	87.56
277.031	112.56
277.262	85.56
277.494	89.56
277.726	92.56
277.957	84.56
278.189	74.56
278.421	83.56
278.652	70.56
278.884	85.56
279.115	85.56
279.347	87.56
279.579	79.56
279.81	93.56
280.042	87.56
280.273	94.56
280.505	102.56
280.736	81.56
280.968	76.56
281.199	77.56
281.431	93.56
281.662	76.56
281.894	85.56
282.125	103.56
282.356	119.56
282.588	114.56
282.819	108.56
283.051	76.56
283.282	78.56
283.513	107.56
283.745	95.56
283.976	60.56
284.207	84.56
284.439	93.56
284.67	92.56
284.901	90.56
285.132	83.56
285.364	95.56
285.595	83.56
285.826	83.56
286.057	89.56
286.288	99.56
286.52	81.56
286.751	75.56
286.982	93.56
287.213	75.56
287.444	95.56
287.675	82.56
287.906	82.56
288.138	89.56
288.369	106.56
288.6	84.56
288.831	100.56
289.062	98.56
289.293	80.56
289.524	85.56
289.755	80.56
289.986	94.56
290.217	97.56
290.448	91.56
290.679	88.56
290.91	86.56
291.141	77.56
291.371	83.56
291.602	84.56
291.833	83.56
292.064	96.56
292.295	77.56
292.526	81.56
292.757	79.56
292.987	74.56
293.218	77.56
293.449	89.56
293.68	91.56
293.91	83.56
294.141	95.56
294.372	77.56
294.603	81.56
294.833	71.56
295.064	79.56
295.295	85.56
295.525	87.56
295.756	89.56
295.987	112.56
296.217	122.56
296.448	121.56
296.679	101.56
296.909	93.56
297.14	93.56
297.37	95.56
297.601	90.56
297.831	70.56
298.062	92.56
298.292	67.56
298.523	85.56
298.753	87.56
298.984	104.56
299.214	84.56
299.445	84.56
299.675	96.56
299.905	75.56
300.136	83.56
300.366	84.56
300.597	81.56
300.827	84.56
301.057	95.56
301.288	95.56
301.518	89.56
301.748	78.56
301.979	103.56
302.209	77.56
302.439	91.56
302.669	92.56
302.9	93.56
303.13	82.56
303.36	93.56
303.59	84.56
303.82	94.56
304.051	101.56
304.281	100.56
304.511	99.56
304.741	81.56
304.971	82.56
305.201	83.56
305.431	84.56
305.661	76.56
305.891	96.56
306.121	96.56
306.352	100.56
306.582	92.56
306.812	97.56
307.042	95.56
307.272	101.56
307.502	106.56
307.731	110.56
307.961	98.56
308.191	86.56
308.421	89.56
308.651	91.56
308.881	77.56
309.111	97.56
309.341	96.56
309.571	102.56
309.8	99.56
310.03	90.56
310.26	87.56
310.49	81.56
310.72	85.56
310.949	93.56
311.179	85.56
311.409	65.56
311.639	90.56
311.868	87.56
312.098	77.56
312.328	87.56
312.557	83.56
312.787	98.56
313.017	85.56
313.246	94.56
313.476	82.56
313.706	84.56
313.935	87.56
314.165	89.56
314.394	97.56
314.624	98.56
314.853	89.56
315.083	101.56
315.312	84.56
315.542	95.56
315.771	91.56
316.001	84.56
316.23	90.56
316.46	73.56
316.689	87.56
316.919	84.56
317.148	92.56
317.377	83.56
317.607	110.56
317.836	95.56
318.065	83.56
318.295	93.56
318.524	84.56
318.753	87.56
318.983	97.56
319.212	91.56
319.441	102.56
319.67	97.56
319.9	99.56
320.129	98.56
320.358	94.56
320.587	97.56
320.816	86.56
321.046	82.56
321.275	101.56
321.504	85.56
321.733	96.56
321.962	78.56
322.191	102.56
322.42	91.56
322.649	100.56
322.878	95.56
323.108	98.56
323.337	113.56
323.566	110.56
323.795	145.56
324.024	165.56
324.253	310.56
324.482	651.56
324.71	1309.56
324.939	1717.56
325.168	641.56
325.397	209.56
325.626	134.56
325.855	108.56
326.084	112.56
326.313	107.56
326.542	148.56
326.77	195.56
326.999	368.56
327.228	759.56
327.457	1369.56
327.686	1071.56
327.914	333.56
328.143	183.56
328.372	164.56
328.6	125.56
328.829	91.56
329.058	126.56
329.287	121.56
329.515	102.56
329.744	116.56
329.972	112.56
330.201	168.56
330.43	215.56
330.658	151.56
330.887	110.56
331.115	103.56
331.344	77.56
331.572	92.56
331.801	108.56
332.03	95.56
332.258	91.56
332.486	76.56
332.715	81.56
332.943	107.56
333.172	114.56
333.4	90.56
333.629	102.56
333.857	109.56
334.085	126.56
334.314	169.56
334.542	260.56
334.771	247.56
334.999	118.56
335.227	84.56
335.455	77.56
335.684	96.56
335.912	93.56
336.14	102.56
336.369	92.56
336.597	89.56
336.825	97.56
337.053	105.56
337.281	99.56
337.51	81.56
337.738	88.56
337.966	74.56
338.194	89.56
338.422	86.56
338.65	101.56
338.878	88.56
339.106	86.56
339.334	86.56
339.562	84.56
339.79	93.56
340.018	89.56
340.246	83.56
340.474	93.56
340.702	87.56
340.93	83.56
341.158	97.56
341.386	93.56
341.614	104.56
341.842	81.56
342.07	82.56
342.298	75.56
342.526	74.56
342.754	91.56
342.981	89.56
343.209	76.56
343.437	91.56
343.665	89.56
343.893	92.56
344.12	83.56
344.348	100.56
344.576	100.56
344.804	119.56
345.031	83.56
345.259	95.56
345.487	91.56
345.714	76.56
345.942	89.56
346.17	91.56
346.397	95.56
346.625	105.56
346.853	89.56
347.08	78.56
347.308	97.56
347.535	95.56
347.763	94.56
347.99	85.56
348.218	108.56
348.445	101.56
348.673	95.56
348.9	86.56
349.128	77.56
349.355	73.56
349.583	82.56
349.81	79.56
350.037	106.56
350.265	99.56
350.492	89.56
350.72	93.56
350.947	94.56
351.174	86.56
351.402	105.56
351.629	94.56
351.856	79.56
352.083	90.56
352.311	101.56
352.538	82.56
352.765	100.56
352.992	108.56
353.22	112.56
353.447	94.56
353.674	93.56
353.901	90.56
354.128	95.56
354.355	97.56
354.583	96.56
354.81	82.56
355.037	87.56
355.264	89.56
355.491	91.56
355.718	84.56
355.945	96.56
356.172	96.56
356.399	90.56
356.626	100.56
356.853	99.56
357.08	92.56
357.307	77.56
357.534	85.56
357.761	93.56
357.988	85.56
358.215	91.56
358.441	70.56
358.668	92.56
358.895	87.56
359.122	89.56
359.349	94.56
359.576	89.56
359.802	98.56
360.029	100.56
360.256	102.56
360.483	98.56
360.709	93.56
360.936	91.56
361.163	102.56
361.39	95.56
361.616	90.56
361.843	92.56
362.07	90.56
362.296	99.56
362.523	88.56
362.749	101.56
362.976	100.56
363.203	80.56
363.429	91.56
363.656	96.56
363.882	89.56
364.109	85.56
364.335	95.56
364.562	97.56
364.788	92.56
365.015	93.56
365.241	86.56
365.468	103.56
365.694	93.56
365.92	99.56
366.147	80.56
366.373	86.56
366.599	89.56
366.826	97.56
367.052	111.56
367.278	89.56
367.505	71.56
367.731	75.56
367.957	97.56
368.184	98.56
368.41	92.56
368.636	101.56
368.862	110.56
369.089	109.56
369.315	83.56
369.541	88.56
369.767	84.56
369.993	87.56
370.219	88.56
370.445	106.56
370.672	81.56
370.898	83.56
371.124	103.56
371.35	84.56
371.576	87.56
371.802	91.56
372.028	86.56
372.254	96.56
372.48	87.56
372.706	80.56
372.932	89.56
373.158	94.56
373.384	79.56
373.61	87.56
373.835	97.56
374.061	84.56
374.287	82.56
374.513	85.56
374.739	94.56
374.965	86.56
375.191	82.56
375.416	82.56
375.642	98.56
375.868	82.56
376.094	75.56
376.319	93.56
376.545	82.56
376.771	103.56
376.997	82.56
377.222	101.56
377.448	86.56
377.674	83.56
377.899	94.56
378.125	79.56
378.35	86.56
378.576	100.56
378.802	88.56
379.027	78.56
379.253	96.56
379.478	93.56
379.704	97.56
379.929	95.56
380.155	102.56
380.38	94.56
380.606	90.56
380.831	92.56
381.057	85.56
381.282	91.56
381.507	94.56
381.733	90.56
381.958	101.56
382.184	98.56
382.409	87.56
382.634	97.56
382.86	88.56
383.085	105.56
383.31	95.56
383.535	97.56
383.761	87.56
383.986	95.56
384.211	96.56
384.436	89.56
384.662	100.56
384.887	95.56
385.112	89.56
385.337	85.56
385.562	88.56
385.787	102.56
386.013	94.56
386.238	96.56
386.463	95.56
386.688	100.56
386.913	105.56
387.138	95.56
387.363	96.56
387.588	90.56
387.813	106.56
388.038	105.56
388.263	95.56
388.488	110.56
388.713	94.56
388.938	94.56
389.163	83.56
389.387	83.56
389.612	83.56
389.837	94.56
390.062	91.56
390.287	90.56
390.512	96.56
390.736	95.56
390.961	106.56
391.186	99.56
391.411	92.56
391.636	96.56
391.86	75.56
392.085	97.56
392.31	94.56
392.534	93.56
392.759	88.56
392.984	87.56
393.208	82.56
393.433	92.56
393.658	105.56
393.882	94.56
394.107	93.56
394.331	86.56
394.556	93.56
394.78	89.56
395.005	88.56
395.229	78.56
395.454	86.56
395.678	86.56
395.903	75.56
396.127	77.56
396.352	86.56
396.576	82.56
396.801	83.56
397.025	88.56
397.249	87.56
397.474	89.56
397.698	88.56
397.922	82.56
398.147	93.56
398.371	86.56
398.595	86.56
398.82	80.56
399.044	73.56
399.268	76.56
399.492	93.56
399.717	85.56
399.941	81.56
400.165	83.56
400.389	87.56
400.613	82.56
400.837	79.56
401.062	86.56
401.286	86.56
401.51	74.56
401.734	92.56
401.958	95.56
402.182	127.56
402.406	143.56
402.63	109.56
402.854	89.56
403.078	78.56
403.302	76.56
403.526	88.56
403.75	83.56
403.974	91.56
404.198	79.56
404.422	86.56
404.645	77.56
404.869	90.56
405.093	84.56
405.317	102.56
405.541	107.56
405.765	87.56
405.988	104.56
406.212	153.56
406.436	187.56
406.66	124.56
406.883	87.56
407.107	90.56
407.331	85.56
407.555	92.56
407.778	98.56
408.002	88.56
408.226	75.56
408.449	90.56
408.673	81.56
408.896	97.56
409.12	93.56
409.344	85.56
409.567	98.56
409.791	91.56
410.014	93.56
410.238	85.56
410.461	83.56
410.685	78.56
410.908	78.56
411.132	86.56
411.355	98.56
411.578	91.56
411.802	82.56
412.025	89.56
412.249	108.56
412.472	99.56
412.695	88.56
412.919	95.56
413.142	84.56
413.365	97.56
413.589	86.56
413.812	81.56
414.035	99.56
414.258	96.56
414.482	89.56
414.705	91.56
414.928	90.56
415.151	74.56
415.374	84.56
415.597	81.56
415.821	80.56
416.044	63.56
416.267	79.56
416.49	76.56
416.713	70.56
416.936	82.56
417.159	94.56
417.382	71.56
417.605	80.56
417.828	91.56
418.051	86.56
418.274	88.56
418.497	71.56
418.72	91.56
418.943	79.56
419.166	92.56
419.389	85.56
419.611	81.56
419.834	97.56
420.057	96.56
420.28	89.56
420.503	102.56
420.726	86.56
420.948	81.56
421.171	93.56
421.394	89.56
421.617	87.56
421.839	72.56
422.062	88.56
422.285	86.56
422.507	95.56
422.73	91.56
422.953	88.56
423.175	95.56
423.398	80.56
423.621	80.56
423.843	85.56
424.066	75.56
424.288	83.56
424.511	93.56
424.733	97.56
424.956	91.56
425.178	77.56
425.401	96.56
425.623	83.56
425.846	99.56
426.068	84.56
426.291	87.56
426.513	80.56
426.735	99.56
426.958	93.56
427.18	93.56
427.402	121.56
427.625	151.56
427.847	118.56
428.069	123.56
428.292	99.56
428.514	86.56
428.736	84.56
428.958	80.56
429.181	83.56
429.403	76.56
429.625	77.56
429.847	99.56
430.069	92.56
430.292	83.56
430.514	99.56
430.736	94.56
430.958	84.56
431.18	89.56
431.402	75.56
431.624	93.56
431.846	81.56
432.068	98.56
432.29	86.56
432.512	93.56
432.734	83.56
432.956	96.56
433.178	85.56
433.4	85.56
433.622	82.56
433.844	71.56
434.066	95.56
434.287	84.56
434.509	85.56
434.731	73.56
434.953	82.56
435.175	86.56
435.397	85.56
435.618	89.56
435.84	93.56
436.062	101.56
436.284	102.56
436.505	100.56
436.727	90.56
436.949	82.56
437.17	85.56
437.392	95.56
437.614	84.56
437.835	103.56
438.057	96.56
438.278	85.56
438.5	95.56
438.721	107.56
438.943	93.56
439.165	96.56
439.386	89.56
439.608	100.56
439.829	98.56
440.05	102.56
440.272	138.56
440.493	102.56
440.715	89.56
440.936	79.56
441.158	85.56
441.379	84.56
441.6	94.56
441.822	96.56
442.043	90.56
442.264	96.56
442.486	91.56
442.707	90.56
442.928	98.56
443.149	114.56
443.371	106.56
443.592	96.56
443.813	82.56
444.034	102.56
444.255	86.56
444.476	76.56
444.698	96.56
444.919	89.56
445.14	129.56
445.361	124.56
445.582	99.56
445.803	117.56
446.024	106.56
446.245	119.56
446.466	99.56
446.687	99.56
446.908	81.56
447.129	99.56
447.35	86.56
447.571	88.56
447.792	91.56
448.013	102.56
448.234	83.56
448.455	95.56
448.675	100.56
448.896	113.56
449.117	100.56
449.338	92.56
449.559	116.56
449.779	114.56
450	92.56
450.221	97.56
450.442	88.56
450.662	91.56
450.883	91.56
451.104	114.56
451.324	92.56
451.545	89.56
451.766	90.56
451.986	96.56
452.207	100.56
452.428	99.56
452.648	84.56
452.869	95.56
453.089	102.56
453.31	110.56
453.53	96.56
453.751	82.56
453.971	87.56
454.192	101.56
454.412	101.56
454.633	85.56
454.853	87.56
455.073	88.56
455.294	79.56
455.514	96.56
455.734	81.56
455.955	79.56
456.175	77.56
456.395	79.56
456.616	78.56
456.836	76.56
457.056	86.56
457.276	92.56
457.497	80.56
457.717	74.56
457.937	86.56
458.157	82.56
458.377	95.56
458.598	109.56
458.818	145.56
459.038	153.56
459.258	103.56
459.478	73.56
459.698	88.56
459.918	89.56
460.138	92.56
460.358	85.56
460.578	91.56
460.798	91.56
461.018	90.56
461.238	85.56
461.458	77.56
461.678	76.56
461.898	85.56
462.118	90.56
462.338	93.56
462.558	88.56
462.777	92.56
462.997	90.56
463.217	95.56
463.437	85.56
463.657	77.56
463.876	102.56
464.096	94.56
464.316	86.56
464.536	86.56
464.755	90.56
464.975	101.56
465.195	137.56
465.414	126.56
465.634	81.56
465.854	80.56
466.073	79.56
466.293	80.56
466.512	90.56
466.732	89.56
466.951	78.56
467.171	107.56
467.391	83.56
467.61	94.56
467.829	88.56
468.049	123.56
468.268	153.56
468.488	89.56
468.707	92.56
468.927	89.56
469.146	74.56
469.365	91.56
469.585	79.56
469.804	86.56
470.023	96.56
470.243	84.56
470.462	101.56
470.681	99.56
470.901	98.56
471.12	68.56
471.339	99.56
471.558	80.56
471.777	85.56
471.997	107.56
472.216	201.56
472.435	311.56
472.654	123.56
472.873	79.56
473.092	89.56
473.311	77.56
473.53	77.56
473.749	90.56
473.968	94.56
474.187	104.56
474.406	97.56
474.625	86.56
474.844	81.56
475.063	81.56
475.282	92.56
475.501	84.56
475.72	86.56
475.939	90.56
476.158	89.56
476.377	96.56
476.596	85.56
476.814	75.56
477.033	98.56
477.252	82.56
477.471	85.56
477.69	74.56
477.908	107.56
478.127	86.56
478.346	81.56
478.564	85.56
478.783	89.56
479.002	96.56
479.22	83.56
479.439	93.56
479.658	87.56
479.876	79.56
480.095	90.56
480.313	90.56
480.532	99.56
480.751	100.56
480.969	186.56
481.188	548.56
481.406	344.56
481.624	113.56
481.843	84.56
482.061	84.56
482.28	84.56
482.498	89.56
482.717	70.56
482.935	87.56
483.153	70.56
483.372	83.56
483.59	75.56
483.808	97.56
484.027	89.56
484.245	91.56
484.463	90.56
484.681	89.56
484.9	95.56
485.118	87.56
485.336	84.56
485.554	99.56
485.772	94.56
485.99	97.56
486.209	94.56
486.427	102.56
486.645	99.56
486.863	106.56
487.081	109.56
487.299	112.56
487.517	100.56
487.735	87.56
487.953	89.56
488.171	86.56
488.389	82.56
488.607	85.56
488.825	86.56
489.043	95.56
489.261	89.56
489.479	89.56
489.696	86.56
489.914	92.56
490.132	83.56
490.35	65.56
490.568	87.56
490.786	89.56
491.003	91.56
491.221	77.56
491.439	94.56
491.657	96.56
491.874	87.56
492.092	87.56
492.31	85.56
492.527	92.56
492.745	89.56
492.963	90.56
493.18	86.56
493.398	84.56
493.615	66.56
493.833	77.56
494.05	77.56
494.268	76.56
494.485	84.56
494.703	82.56
494.92	86.56
495.138	79.56
495.355	81.56
495.573	91.56
495.79	91.56
496.008	96.56
496.225	95.56
496.442	89.56
496.66	81.56
496.877	91.56
497.094	87.56
497.312	83.56
497.529	101.56
497.746	103.56
497.963	83.56
498.181	85.56
498.398	93.56
498.615	98.56
498.832	80.56
499.049	90.56
499.267	81.56
499.484	94.56
499.701	81.56
499.918	78.56
500.135	80.56
500.352	99.56
500.569	78.56
500.786	89.56
501.003	85.56
501.22	101.56
501.437	91.56
501.654	83.56
501.871	97.56
502.088	83.56
502.305	82.56
502.522	100.56
502.739	85.56
502.956	81.56
503.172	94.56
503.389	89.56
503.606	91.56
503.823	89.56
504.04	87.56
504.256	85.56
504.473	87.56
504.69	96.56
504.907	103.56
505.123	92.56
505.34	93.56
505.557	93.56
505.773	89.56
505.99	71.56
506.207	86.56
506.423	83.56
506.64	77.56
506.856	87.56
507.073	96.56
507.289	89.56
507.506	89.56
507.722	101.56
507.939	100.56
508.155	85.56
508.372	93.56
508.588	90.56
508.805	99.56
509.021	103.56
509.238	103.56
509.454	92.56
509.67	99.56
509.887	102.56
510.103	113.56
510.319	166.56
510.536	601.56
510.752	1793.56
510.968	516.56
511.184	125.56
511.401	88.56
511.617	84.56
511.833	87.56
512.049	96.56
512.265	89.56
512.481	95.56
512.698	88.56
512.914	86.56
513.13	81.56
513.346	88.56
513.562	93.56
513.778	81.56
513.994	95.56
514.21	89.56
514.426	98.56
514.642	123.56
514.858	117.56
515.074	148.56
515.29	354.56
515.506	1147.56
515.721	423.56
515.937	132.56
516.153	111.56
516.369	90.56
516.585	82.56
516.801	97.56
517.016	86.56
