Data from Uncirc_1989_H10_HRD10591_00043.txt Node
Date: Wed Jan 03 11:57:44 EST 2024
User: Yrep
Spectrometer: HR+D1059
Trigger mode: 1
Integration Time (sec): 1.000000E-1
Scans to average: 1
Electric dark correction enabled: true
Nonlinearity correction enabled: false
Boxcar width: 0
XAxis mode: Wavelengths
Number of Pixels in Spectrum: 2048
>>>>>Begin Spectral Data<<<<<
223.165	-19
223.4	-19
223.635	-19
223.869	-11
224.104	-10
224.338	-17
224.573	-20
224.808	-18
225.042	-23
225.277	-8
225.511	6
225.746	2
225.98	4
226.215	10
226.449	23
226.683	29
226.918	23
227.152	29
227.387	35
227.621	43
227.856	41
228.09	59
228.324	55
228.559	60
228.793	48
229.027	59
229.262	60
229.496	78
229.73	81
229.964	78
230.199	83
230.433	84
230.667	90
230.901	84
231.136	88
231.37	78
231.604	87
231.838	85
232.072	75
232.306	75
232.541	91
232.775	79
233.009	86
233.243	94
233.477	84
233.711	79
233.945	78
234.179	91
234.413	73
234.647	94
234.881	83
235.115	69
235.349	81
235.583	79
235.817	74
236.051	77
236.285	69
236.519	77
236.753	78
236.987	84
237.221	92
237.455	69
237.689	70
237.922	87
238.156	81
238.39	92
238.624	83
238.858	86
239.091	86
239.325	73
239.559	88
239.793	87
240.027	86
240.26	81
240.494	74
240.728	77
240.961	63
241.195	71
241.429	101
241.662	78
241.896	78
242.13	78
242.363	72
242.597	90
242.83	81
243.064	86
243.298	83
243.531	75
243.765	89
243.998	92
244.232	86
244.465	85
244.699	87
244.932	76
245.166	79
245.399	88
245.633	78
245.866	75
246.099	76
246.333	87
246.566	81
246.8	84
247.033	79
247.266	73
247.5	83
247.733	76
247.966	87
248.2	82
248.433	74
248.666	87
248.899	87
249.133	90
249.366	99
249.599	97
249.832	85
250.066	88
250.299	84
250.532	89
250.765	84
250.998	87
251.231	85
251.465	93
251.698	78
251.931	88
252.164	82
252.397	91
252.63	72
252.863	89
253.096	88
253.329	77
253.562	69
253.795	87
254.028	93
254.261	105
254.494	83
254.727	93
254.96	91
255.193	81
255.426	83
255.659	71
255.892	87
256.124	100
256.357	83
256.59	85
256.823	88
257.056	88
257.289	95
257.521	83
257.754	86
257.987	86
258.22	87
258.452	85
258.685	86
258.918	84
259.151	86
259.383	86
259.616	92
259.849	82
260.081	73
260.314	91
260.547	82
260.779	89
261.012	102
261.244	102
261.477	95
261.71	98
261.942	107
262.175	108
262.407	94
262.64	85
262.872	91
263.105	105
263.337	95
263.57	88
263.802	81
264.035	91
264.267	78
264.499	99
264.732	86
264.964	71
265.197	94
265.429	80
265.661	89
265.894	86
266.126	77
266.358	80
266.591	73
266.823	95
267.055	85
267.287	86
267.52	73
267.752	91
267.984	93
268.216	83
268.448	96
268.681	92
268.913	86
269.145	99
269.377	93
269.609	88
269.841	87
270.073	97
270.306	91
270.538	89
270.77	84
271.002	87
271.234	82
271.466	86
271.698	92
271.93	94
272.162	81
272.394	76
272.626	98
272.858	93
273.09	84
273.322	73
273.553	70
273.785	83
274.017	91
274.249	87
274.481	88
274.713	77
274.945	95
275.176	82
275.408	88
275.64	101
275.872	90
276.104	95
276.335	91
276.567	98
276.799	113
277.031	111
277.262	99
277.494	102
277.726	98
277.957	96
278.189	97
278.421	95
278.652	92
278.884	103
279.115	102
279.347	103
279.579	83
279.81	104
280.042	77
280.273	108
280.505	95
280.736	91
280.968	104
281.199	94
281.431	85
281.662	96
281.894	86
282.125	106
282.356	105
282.588	133
282.819	111
283.051	102
283.282	92
283.513	102
283.745	83
283.976	105
284.207	86
284.439	93
284.67	89
284.901	90
285.132	89
285.364	107
285.595	100
285.826	83
286.057	99
286.288	90
286.52	101
286.751	92
286.982	84
287.213	91
287.444	85
287.675	90
287.906	97
288.138	88
288.369	89
288.6	106
288.831	87
289.062	81
289.293	98
289.524	82
289.755	101
289.986	92
290.217	94
290.448	94
290.679	102
290.91	99
291.141	103
291.371	92
291.602	98
291.833	110
292.064	88
292.295	87
292.526	91
292.757	98
292.987	90
293.218	101
293.449	85
293.68	91
293.91	105
294.141	89
294.372	83
294.603	94
294.833	103
295.064	87
295.295	84
295.525	96
295.756	87
295.987	113
296.217	141
296.448	132
296.679	95
296.909	88
297.14	93
297.37	103
297.601	92
297.831	89
298.062	94
298.292	99
298.523	79
298.753	97
298.984	88
299.214	91
299.445	87
299.675	94
299.905	99
300.136	104
300.366	91
300.597	91
300.827	104
301.057	93
301.288	111
301.518	102
301.748	97
301.979	101
302.209	108
302.439	90
302.669	85
302.9	85
303.13	85
303.36	97
303.59	93
303.82	111
304.051	101
304.281	103
304.511	99
304.741	92
304.971	95
305.201	86
305.431	90
305.661	92
305.891	88
306.121	99
306.352	95
306.582	98
306.812	77
307.042	87
307.272	99
307.502	100
307.731	85
307.961	98
308.191	96
308.421	105
308.651	77
308.881	106
309.111	95
309.341	108
309.571	108
309.8	95
310.03	106
310.26	88
310.49	96
310.72	92
310.949	108
311.179	95
311.409	93
311.639	96
311.868	105
312.098	99
312.328	92
312.557	103
312.787	106
313.017	93
313.246	98
313.476	90
313.706	78
313.935	97
314.165	94
314.394	114
314.624	106
314.853	91
315.083	92
315.312	102
315.542	103
315.771	89
316.001	97
316.23	91
316.46	100
316.689	83
316.919	97
317.148	106
317.377	101
317.607	107
317.836	103
318.065	99
318.295	97
318.524	106
318.753	94
318.983	98
319.212	93
319.441	93
319.67	93
319.9	105
320.129	101
320.358	101
320.587	75
320.816	82
321.046	89
321.275	113
321.504	99
321.733	101
321.962	101
322.191	105
322.42	100
322.649	101
322.878	98
323.108	112
323.337	122
323.566	130
323.795	142
324.024	194
324.253	345
324.482	708
324.71	1415
324.939	1899
325.168	726
325.397	222
325.626	145
325.855	120
326.084	118
326.313	130
326.542	159
326.77	217
326.999	389
327.228	809
327.457	1486
327.686	1162
327.914	341
328.143	199
328.372	163
328.6	127
328.829	125
329.058	125
329.287	112
329.515	108
329.744	113
329.972	127
330.201	171
330.43	194
330.658	146
330.887	130
331.115	121
331.344	85
331.572	96
331.801	112
332.03	101
332.258	114
332.486	102
332.715	94
332.943	94
333.172	97
333.4	96
333.629	105
333.857	112
334.085	113
334.314	155
334.542	201
334.771	208
334.999	124
335.227	94
335.455	104
335.684	106
335.912	103
336.14	108
336.369	97
336.597	99
336.825	82
337.053	108
337.281	108
337.51	86
337.738	103
337.966	98
338.194	107
338.422	97
338.65	108
338.878	99
339.106	83
339.334	98
339.562	87
339.79	97
340.018	90
340.246	93
340.474	115
340.702	92
340.93	97
341.158	102
341.386	109
341.614	106
341.842	103
342.07	94
342.298	98
342.526	97
342.754	99
342.981	94
343.209	106
343.437	108
343.665	94
343.893	92
344.12	101
344.348	93
344.576	87
344.804	94
345.031	105
345.259	100
345.487	98
345.714	98
345.942	116
346.17	107
346.397	95
346.625	95
346.853	93
347.08	111
347.308	87
347.535	102
347.763	103
347.99	106
348.218	101
348.445	95
348.673	111
348.9	99
349.128	94
349.355	106
349.583	105
349.81	86
350.037	100
350.265	93
350.492	102
350.72	98
350.947	111
351.174	105
351.402	112
351.629	105
351.856	97
352.083	112
352.311	103
352.538	106
352.765	108
352.992	114
353.22	100
353.447	106
353.674	91
353.901	92
354.128	96
354.355	103
354.583	111
354.81	94
355.037	98
355.264	102
355.491	102
355.718	106
355.945	98
356.172	104
356.399	97
356.626	100
356.853	87
357.08	106
357.307	94
357.534	95
357.761	107
357.988	108
358.215	90
358.441	103
358.668	99
358.895	98
359.122	94
359.349	93
359.576	101
359.802	97
360.029	113
360.256	101
360.483	100
360.709	96
360.936	94
361.163	90
361.39	98
361.616	100
361.843	87
362.07	94
362.296	101
362.523	101
362.749	84
362.976	91
363.203	109
363.429	93
363.656	97
363.882	101
364.109	102
364.335	97
364.562	92
364.788	98
365.015	102
365.241	102
365.468	111
365.694	103
365.92	84
366.147	94
366.373	85
366.599	89
366.826	92
367.052	88
367.278	83
367.505	95
367.731	93
367.957	84
368.184	94
368.41	101
368.636	111
368.862	127
369.089	111
369.315	103
369.541	105
369.767	98
369.993	85
370.219	83
370.445	83
370.672	89
370.898	88
371.124	107
371.35	101
371.576	104
371.802	90
372.028	92
372.254	89
372.48	89
372.706	97
372.932	93
373.158	100
373.384	99
373.61	90
373.835	109
374.061	96
374.287	101
374.513	87
374.739	91
374.965	91
375.191	74
375.416	102
375.642	98
375.868	94
376.094	100
376.319	87
376.545	87
376.771	89
376.997	77
377.222	98
377.448	106
377.674	96
377.899	83
378.125	83
378.35	90
378.576	92
378.802	101
379.027	102
379.253	109
379.478	96
379.704	88
379.929	98
380.155	103
380.38	108
380.606	96
380.831	84
381.057	101
381.282	107
381.507	102
381.733	108
381.958	96
382.184	90
382.409	103
382.634	120
382.86	103
383.085	100
383.31	117
383.535	93
383.761	111
383.986	107
384.211	83
384.436	100
384.662	102
384.887	94
385.112	109
385.337	105
385.562	126
385.787	115
386.013	102
386.238	116
386.463	110
386.688	113
386.913	87
387.138	105
387.363	117
387.588	107
387.813	103
388.038	108
388.263	111
388.488	94
388.713	101
388.938	87
389.163	103
389.387	102
389.612	102
389.837	97
390.062	99
390.287	87
390.512	98
390.736	99
390.961	98
391.186	100
391.411	95
391.636	106
391.86	102
392.085	100
392.31	94
392.534	89
392.759	95
392.984	104
393.208	114
393.433	115
393.658	115
393.882	87
394.107	102
394.331	97
394.556	105
394.78	92
395.005	74
395.229	82
395.454	94
395.678	93
395.903	91
396.127	100
396.352	86
396.576	98
396.801	103
397.025	105
397.249	94
397.474	102
397.698	92
397.922	96
398.147	96
398.371	108
398.595	81
398.82	98
399.044	101
399.268	83
399.492	89
399.717	102
399.941	98
400.165	97
400.389	95
400.613	92
400.837	99
401.062	89
401.286	90
401.51	93
401.734	99
401.958	91
402.182	127
402.406	133
402.63	120
402.854	92
403.078	89
403.302	88
403.526	86
403.75	86
403.974	94
404.198	96
404.422	91
404.645	90
404.869	102
405.093	97
405.317	107
405.541	110
405.765	111
405.988	117
406.212	148
406.436	217
406.66	125
406.883	90
407.107	105
407.331	94
407.555	93
407.778	105
408.002	102
408.226	76
408.449	95
408.673	96
408.896	101
409.12	104
409.344	87
409.567	83
409.791	98
410.014	96
410.238	77
410.461	91
410.685	102
410.908	94
411.132	108
411.355	116
411.578	103
411.802	115
412.025	94
412.249	86
412.472	86
412.695	108
412.919	91
413.142	98
413.365	94
413.589	98
413.812	90
414.035	97
414.258	103
414.482	118
414.705	97
414.928	105
415.151	80
415.374	101
415.597	98
415.821	80
416.044	102
416.267	87
416.49	88
416.713	94
416.936	96
417.159	100
417.382	97
417.605	104
417.828	106
418.051	83
418.274	86
418.497	78
418.72	95
418.943	104
419.166	97
419.389	99
419.611	96
419.834	90
420.057	97
420.28	81
420.503	102
420.726	100
420.948	82
421.171	101
421.394	105
421.617	93
421.839	90
422.062	100
422.285	101
422.507	97
422.73	105
422.953	101
423.175	102
423.398	76
423.621	93
423.843	102
424.066	94
424.288	76
424.511	95
424.733	89
424.956	99
425.178	92
425.401	100
425.623	107
425.846	103
426.068	106
426.291	95
426.513	97
426.735	89
426.958	99
427.18	117
427.402	122
427.625	157
427.847	119
428.069	115
428.292	106
428.514	94
428.736	95
428.958	90
429.181	91
429.403	78
429.625	97
429.847	88
430.069	95
430.292	105
430.514	94
430.736	93
430.958	93
431.18	101
431.402	85
431.624	91
431.846	77
432.068	92
432.29	94
432.512	94
432.734	98
432.956	90
433.178	97
433.4	109
433.622	87
433.844	97
434.066	90
434.287	90
434.509	94
434.731	100
434.953	101
435.175	103
435.397	81
435.618	95
435.84	101
436.062	108
436.284	110
436.505	93
436.727	112
436.949	94
437.17	86
437.392	87
437.614	101
437.835	112
438.057	122
438.278	97
438.5	94
438.721	124
438.943	101
439.165	108
439.386	89
439.608	103
439.829	95
440.05	114
440.272	128
440.493	104
440.715	100
440.936	107
441.158	109
441.379	103
441.6	102
441.822	87
442.043	99
442.264	108
442.486	115
442.707	89
442.928	107
443.149	129
443.371	136
443.592	104
443.813	109
444.034	98
444.255	84
444.476	99
444.698	84
444.919	86
445.14	147
445.361	118
445.582	122
445.803	119
446.024	140
446.245	130
446.466	117
446.687	94
446.908	94
447.129	85
447.35	102
447.571	111
447.792	94
448.013	97
448.234	104
448.455	105
448.675	116
448.896	131
449.117	103
449.338	109
449.559	125
449.779	116
450	94
450.221	96
450.442	91
450.662	92
450.883	111
451.104	110
451.324	87
451.545	99
451.766	90
451.986	93
452.207	91
452.428	97
452.648	110
452.869	109
453.089	114
453.31	111
453.53	102
453.751	106
453.971	108
454.192	102
454.412	89
454.633	101
454.853	93
455.073	94
455.294	97
455.514	100
455.734	96
455.955	79
456.175	81
456.395	87
456.616	90
456.836	86
457.056	91
457.276	94
457.497	81
457.717	97
457.937	101
458.157	77
458.377	121
458.598	105
458.818	141
459.038	149
459.258	117
459.478	98
459.698	92
459.918	94
460.138	81
460.358	87
460.578	84
460.798	94
461.018	96
461.238	76
461.458	82
461.678	90
461.898	89
462.118	103
462.338	90
462.558	89
462.777	92
462.997	85
463.217	85
463.437	93
463.657	92
463.876	97
464.096	81
464.316	93
464.536	104
464.755	97
464.975	107
465.195	152
465.414	137
465.634	100
465.854	82
466.073	99
466.293	93
466.512	93
466.732	84
466.951	83
467.171	91
467.391	94
467.61	107
467.829	102
468.049	127
468.268	131
468.488	100
468.707	95
468.927	95
469.146	88
469.365	86
469.585	84
469.804	110
470.023	98
470.243	90
470.462	102
470.681	125
470.901	79
471.12	95
471.339	91
471.558	104
471.777	97
471.997	115
472.216	179
472.435	256
472.654	124
472.873	85
473.092	103
473.311	94
473.53	100
473.749	86
473.968	101
474.187	108
474.406	77
474.625	94
474.844	100
475.063	102
475.282	87
475.501	104
475.72	86
475.939	84
476.158	101
476.377	100
476.596	86
476.814	90
477.033	102
477.252	88
477.471	94
477.69	92
477.908	94
478.127	99
478.346	102
478.564	90
478.783	89
479.002	107
479.22	99
479.439	102
479.658	107
479.876	87
480.095	82
480.313	81
480.532	103
480.751	122
480.969	155
481.188	419
481.406	287
481.624	115
481.843	97
482.061	92
482.28	87
482.498	83
482.717	95
482.935	89
483.153	95
483.372	104
483.59	88
483.808	97
484.027	87
484.245	92
484.463	84
484.681	111
484.9	97
485.118	99
485.336	97
485.554	105
485.772	97
485.99	104
486.209	101
486.427	102
486.645	102
486.863	116
487.081	106
487.299	101
487.517	91
487.735	103
487.953	97
488.171	98
488.389	96
488.607	126
488.825	116
489.043	103
489.261	101
489.479	104
489.696	102
489.914	85
490.132	87
490.35	92
490.568	95
490.786	88
491.003	97
491.221	97
491.439	98
491.657	90
491.874	97
492.092	93
492.31	86
492.527	117
492.745	102
492.963	92
493.18	95
493.398	73
493.615	101
493.833	93
494.05	110
494.268	102
494.485	91
494.703	93
494.92	103
495.138	89
495.355	91
495.573	78
495.79	106
496.008	89
496.225	86
496.442	106
496.66	92
496.877	89
497.094	104
497.312	85
497.529	94
497.746	85
497.963	92
498.181	99
498.398	109
498.615	107
498.832	99
499.049	110
499.267	89
499.484	97
499.701	91
499.918	85
500.135	99
500.352	87
500.569	95
500.786	95
501.003	102
501.22	101
501.437	95
501.654	98
501.871	117
502.088	96
502.305	116
502.522	98
502.739	98
502.956	103
503.172	91
503.389	105
503.606	95
503.823	97
504.04	93
504.256	91
504.473	90
504.69	79
504.907	91
505.123	102
505.34	89
505.557	85
505.773	94
505.99	82
506.207	93
506.423	91
506.64	87
506.856	91
507.073	97
507.289	91
507.506	82
507.722	110
507.939	104
508.155	109
508.372	101
508.588	86
508.805	98
509.021	96
509.238	91
509.454	106
509.67	103
509.887	117
510.103	139
510.319	210
510.536	677
510.752	2102
510.968	596
511.184	138
511.401	107
511.617	95
511.833	105
512.049	108
512.265	93
512.481	89
512.698	108
512.914	97
513.13	92
513.346	89
513.562	103
513.778	105
513.994	103
514.21	85
514.426	104
514.642	135
514.858	123
515.074	163
515.29	423
515.506	1353
515.721	490
515.937	145
516.153	106
516.369	101
516.585	97
516.801	97
517.016	105
517.232	109
517.448	106
517.664	91
517.879	86
518.095	94
518.311	101
518.527	94
518.742	99
518.958	94
519.173	93
519.389	96
519.605	86
519.82	85
520.036	109
520.251	122
520.467	102
520.682	108
520.898	107
521.113	111
521.329	143
521.544	187
521.76	537
521.975	2194
522.19	1307
522.406	281
522.621	122
522.836	117
523.052	90
523.267	103
523.482	95
523.698	99
523.913	127
524.128	98
524.343	93
524.559	98
524.774	91
524.989	100
525.204	111
525.419	97
525.634	94
525.849	86
526.064	99
526.28	93
526.495	86
526.71	98
526.925	99
527.14	112
527.355	75
527.57	93
527.785	87
527.999	92
528.214	86
528.429	93
528.644	103
528.859	97
529.074	117
529.289	111
529.503	173
529.718	111
529.933	96
530.148	99
530.363	92
530.577	94
530.792	88
531.007	100
531.221	101
531.436	87
531.651	94
531.865	91
532.08	81
532.295	99
532.509	93
532.724	97
532.938	84
533.153	107
533.367	98
533.582	99
533.796	101
534.011	95
534.225	82
534.44	102
534.654	106
534.868	103
535.083	106
535.297	100
535.511	99
535.726	107
535.94	97
536.154	90
536.369	96
536.583	81
536.797	82
537.011	102
537.225	95
537.44	79
537.654	96
537.868	101
538.082	90
538.296	101
538.51	85
538.724	90
538.938	92
539.153	96
539.367	119
539.581	92
539.795	81
540.009	87
540.222	105
540.436	104
540.65	84
540.864	94
541.078	95
541.292	105
541.506	86
541.72	98
541.934	81
542.147	90
542.361	100
542.575	97
542.789	95
543.002	102
543.216	111
543.43	104
543.644	85
543.857	104
544.071	106
544.285	90
544.498	93
544.712	92
544.925	94
545.139	95
545.352	98
545.566	104
545.779	106
545.993	96
546.206	94
546.42	100
546.633	95
546.847	97
547.06	99
547.274	95
547.487	109
547.7	89
547.914	87
548.127	85
548.34	83
548.554	81
548.767	95
548.98	106
549.193	97
549.407	103
549.62	87
549.833	101
550.046	93
550.259	99
550.473	96
550.686	99
550.899	97
551.112	101
551.325	93
551.538	102
551.751	93
551.964	111
552.177	97
552.39	77
552.603	108
552.816	104
553.029	91
553.242	94
553.455	105
553.667	104
553.88	106
554.093	103
554.306	82
554.519	87
554.732	105
554.944	92
555.157	97
555.37	85
555.583	96
555.795	99
556.008	92
556.221	98
556.433	96
556.646	102
556.859	98
557.071	99
557.284	97
557.496	91
557.709	108
557.921	94
558.134	108
558.346	102
558.559	95
558.771	89
558.984	88
559.196	89
559.409	87
559.621	97
559.833	98
560.046	98
560.258	95
560.47	101
560.683	104
560.895	102
561.107	94
561.32	90
561.532	98
561.744	90
561.956	99
562.168	92
562.381	89
562.593	93
562.805	112
563.017	100
563.229	77
563.441	99
563.653	85
563.865	87
564.077	97
564.289	83
564.501	92
564.713	91
564.925	92
565.137	94
565.349	108
565.561	83
565.773	94
565.985	93
566.197	102
566.408	101
566.62	93
566.832	94
567.044	95
567.255	90
567.467	97
567.679	84
567.891	91
568.102	101
568.314	95
568.526	93
568.737	98
568.949	96
569.161	92
569.372	101
569.584	100
569.795	99
570.007	126
570.218	249
570.43	122
570.641	92
570.853	95
571.064	85
571.276	93
571.487	77
571.698	77
571.91	97
572.121	93
572.333	85
572.544	76
572.755	87
572.966	89
573.178	102
573.389	101
573.6	91
573.811	89
574.023	88
574.234	94
574.445	95
574.656	102
574.867	100
575.078	94
575.289	101
575.501	100
575.712	105
575.923	97
576.134	95
576.345	92
576.556	98
576.767	101
576.978	91
577.188	104
577.399	86
577.61	100
577.821	119
578.032	110
578.243	265
578.454	699
578.665	213
578.875	111
579.086	89
579.297	81
579.508	95
579.718	103
579.929	91
580.14	83
580.35	107
580.561	91
