Data from Uncirc_1989_H10_HRD10591_00068.txt Node
Date: Wed Jan 03 11:57:49 EST 2024
User: Yrep
Spectrometer: HR+D1059
Trigger mode: 1
Integration Time (sec): 1.000000E-1
Scans to average: 1
Electric dark correction enabled: true
Nonlinearity correction enabled: false
Boxcar width: 0
XAxis mode: Wavelengths
Number of Pixels in Spectrum: 2048
>>>>>Begin Spectral Data<<<<<
223.165	-16.69
223.4	-16.69
223.635	-16.69
223.869	-13.69
224.104	-10.69
224.338	-4.69
224.573	-8.69
224.808	-8.69
225.042	-15.69
225.277	-1.69
225.511	-14.69
225.746	-0.69
225.98	7.31
226.215	4.31
226.449	21.31
226.683	6.31
226.918	24.31
227.152	32.31
227.387	25.31
227.621	37.31
227.856	41.31
228.09	44.31
228.324	48.31
228.559	54.31
228.793	54.31
229.027	53.31
229.262	71.31
229.496	79.31
229.73	87.31
229.964	79.31
230.199	78.31
230.433	63.31
230.667	73.31
230.901	81.31
231.136	79.31
231.37	83.31
231.604	72.31
231.838	81.31
232.072	81.31
232.306	80.31
232.541	71.31
232.775	87.31
233.009	89.31
233.243	86.31
233.477	75.31
233.711	94.31
233.945	92.31
234.179	66.31
234.413	94.31
234.647	72.31
234.881	97.31
235.115	84.31
235.349	67.31
235.583	75.31
235.817	84.31
236.051	85.31
236.285	62.31
236.519	85.31
236.753	69.31
236.987	83.31
237.221	75.31
237.455	80.31
237.689	66.31
237.922	82.31
238.156	92.31
238.39	66.31
238.624	89.31
238.858	93.31
239.091	83.31
239.325	76.31
239.559	78.31
239.793	84.31
240.027	81.31
240.26	69.31
240.494	78.31
240.728	78.31
240.961	80.31
241.195	73.31
241.429	77.31
241.662	73.31
241.896	75.31
242.13	63.31
242.363	74.31
242.597	85.31
242.83	81.31
243.064	82.31
243.298	76.31
243.531	77.31
243.765	77.31
243.998	70.31
244.232	82.31
244.465	95.31
244.699	77.31
244.932	84.31
245.166	70.31
245.399	82.31
245.633	81.31
245.866	84.31
246.099	72.31
246.333	67.31
246.566	81.31
246.8	85.31
247.033	67.31
247.266	88.31
247.5	77.31
247.733	88.31
247.966	75.31
248.2	73.31
248.433	81.31
248.666	68.31
248.899	77.31
249.133	84.31
249.366	94.31
249.599	87.31
249.832	85.31
250.066	84.31
250.299	80.31
250.532	69.31
250.765	67.31
250.998	64.31
251.231	86.31
251.465	84.31
251.698	83.31
251.931	70.31
252.164	90.31
252.397	78.31
252.63	72.31
252.863	87.31
253.096	87.31
253.329	79.31
253.562	93.31
253.795	91.31
254.028	78.31
254.261	77.31
254.494	82.31
254.727	89.31
254.96	72.31
255.193	77.31
255.426	80.31
255.659	81.31
255.892	97.31
256.124	71.31
256.357	95.31
256.59	84.31
256.823	80.31
257.056	81.31
257.289	95.31
257.521	95.31
257.754	85.31
257.987	83.31
258.22	70.31
258.452	87.31
258.685	79.31
258.918	84.31
259.151	82.31
259.383	87.31
259.616	89.31
259.849	84.31
260.081	69.31
260.314	70.31
260.547	78.31
260.779	85.31
261.012	89.31
261.244	93.31
261.477	86.31
261.71	80.31
261.942	109.31
262.175	108.31
262.407	77.31
262.64	83.31
262.872	73.31
263.105	97.31
263.337	70.31
263.57	78.31
263.802	81.31
264.035	86.31
264.267	81.31
264.499	73.31
264.732	76.31
264.964	81.31
265.197	82.31
265.429	66.31
265.661	68.31
265.894	77.31
266.126	73.31
266.358	78.31
266.591	76.31
266.823	89.31
267.055	91.31
267.287	85.31
267.52	82.31
267.752	91.31
267.984	79.31
268.216	72.31
268.448	79.31
268.681	75.31
268.913	87.31
269.145	77.31
269.377	89.31
269.609	88.31
269.841	90.31
270.073	88.31
270.306	70.31
270.538	87.31
270.77	91.31
271.002	87.31
271.234	93.31
271.466	87.31
271.698	72.31
271.93	89.31
272.162	75.31
272.394	89.31
272.626	77.31
272.858	89.31
273.09	95.31
273.322	80.31
273.553	78.31
273.785	92.31
274.017	97.31
274.249	73.31
274.481	82.31
274.713	91.31
274.945	80.31
275.176	83.31
275.408	80.31
275.64	88.31
275.872	97.31
276.104	89.31
276.335	85.31
276.567	84.31
276.799	89.31
277.031	110.31
277.262	92.31
277.494	82.31
277.726	88.31
277.957	85.31
278.189	68.31
278.421	79.31
278.652	85.31
278.884	80.31
279.115	92.31
279.347	78.31
279.579	93.31
279.81	97.31
280.042	73.31
280.273	93.31
280.505	81.31
280.736	80.31
280.968	86.31
281.199	85.31
281.431	81.31
281.662	91.31
281.894	92.31
282.125	95.31
282.356	98.31
282.588	126.31
282.819	111.31
283.051	79.31
283.282	84.31
283.513	89.31
283.745	84.31
283.976	93.31
284.207	83.31
284.439	92.31
284.67	82.31
284.901	95.31
285.132	96.31
285.364	100.31
285.595	83.31
285.826	90.31
286.057	97.31
286.288	89.31
286.52	89.31
286.751	84.31
286.982	90.31
287.213	79.31
287.444	93.31
287.675	98.31
287.906	95.31
288.138	86.31
288.369	88.31
288.6	88.31
288.831	82.31
289.062	83.31
289.293	86.31
289.524	89.31
289.755	96.31
289.986	93.31
290.217	87.31
290.448	83.31
290.679	92.31
290.91	87.31
291.141	90.31
291.371	85.31
291.602	102.31
291.833	84.31
292.064	87.31
292.295	80.31
292.526	89.31
292.757	88.31
292.987	90.31
293.218	68.31
293.449	93.31
293.68	109.31
293.91	94.31
294.141	88.31
294.372	100.31
294.603	80.31
294.833	79.31
295.064	66.31
295.295	90.31
295.525	76.31
295.756	104.31
295.987	111.31
296.217	131.31
296.448	126.31
296.679	106.31
296.909	89.31
297.14	87.31
297.37	101.31
297.601	86.31
297.831	80.31
298.062	104.31
298.292	84.31
298.523	82.31
298.753	92.31
298.984	79.31
299.214	89.31
299.445	101.31
299.675	96.31
299.905	100.31
300.136	93.31
300.366	83.31
300.597	85.31
300.827	85.31
301.057	97.31
301.288	101.31
301.518	93.31
301.748	93.31
301.979	116.31
302.209	90.31
302.439	104.31
302.669	79.31
302.9	75.31
303.13	84.31
303.36	103.31
303.59	96.31
303.82	102.31
304.051	102.31
304.281	84.31
304.511	87.31
304.741	82.31
304.971	92.31
305.201	93.31
305.431	81.31
305.661	104.31
305.891	82.31
306.121	94.31
306.352	95.31
306.582	113.31
306.812	97.31
307.042	96.31
307.272	108.31
307.502	87.31
307.731	91.31
307.961	84.31
308.191	83.31
308.421	103.31
308.651	83.31
308.881	74.31
309.111	91.31
309.341	88.31
309.571	107.31
309.8	96.31
310.03	88.31
310.26	82.31
310.49	97.31
310.72	100.31
310.949	90.31
311.179	86.31
311.409	96.31
311.639	85.31
311.868	104.31
312.098	101.31
312.328	98.31
312.557	98.31
312.787	101.31
313.017	108.31
313.246	99.31
313.476	97.31
313.706	77.31
313.935	87.31
314.165	101.31
314.394	95.31
314.624	103.31
314.853	96.31
315.083	95.31
315.312	107.31
315.542	87.31
315.771	87.31
316.001	85.31
316.23	95.31
316.46	88.31
316.689	90.31
316.919	87.31
317.148	87.31
317.377	92.31
317.607	93.31
317.836	115.31
318.065	79.31
318.295	93.31
318.524	82.31
318.753	94.31
318.983	97.31
319.212	78.31
319.441	88.31
319.67	98.31
319.9	95.31
320.129	103.31
320.358	95.31
320.587	95.31
320.816	84.31
321.046	98.31
321.275	94.31
321.504	111.31
321.733	95.31
321.962	92.31
322.191	98.31
322.42	96.31
322.649	103.31
322.878	111.31
323.108	110.31
323.337	119.31
323.566	120.31
323.795	141.31
324.024	191.31
324.253	351.31
324.482	735.31
324.71	1529.31
324.939	2011.31
325.168	720.31
325.397	222.31
325.626	132.31
325.855	138.31
326.084	134.31
326.313	138.31
326.542	143.31
326.77	198.31
326.999	391.31
327.228	863.31
327.457	1551.31
327.686	1220.31
327.914	347.31
328.143	216.31
328.372	179.31
328.6	140.31
328.829	128.31
329.058	105.31
329.287	126.31
329.515	115.31
329.744	118.31
329.972	155.31
330.201	187.31
330.43	233.31
330.658	161.31
330.887	124.31
331.115	109.31
331.344	92.31
331.572	98.31
331.801	102.31
332.03	97.31
332.258	108.31
332.486	91.31
332.715	95.31
332.943	86.31
333.172	109.31
333.4	89.31
333.629	109.31
333.857	115.31
334.085	135.31
334.314	190.31
334.542	281.31
334.771	285.31
334.999	128.31
335.227	101.31
335.455	99.31
335.684	94.31
335.912	93.31
336.14	97.31
336.369	100.31
336.597	100.31
336.825	105.31
337.053	80.31
337.281	83.31
337.51	88.31
337.738	97.31
337.966	86.31
338.194	91.31
338.422	94.31
338.65	95.31
338.878	93.31
339.106	92.31
339.334	88.31
339.562	82.31
339.79	79.31
340.018	90.31
340.246	84.31
340.474	99.31
340.702	86.31
340.93	99.31
341.158	91.31
341.386	88.31
341.614	97.31
341.842	94.31
342.07	97.31
342.298	106.31
342.526	94.31
342.754	83.31
342.981	89.31
343.209	108.31
343.437	111.31
343.665	90.31
343.893	93.31
344.12	97.31
344.348	99.31
344.576	83.31
344.804	91.31
345.031	98.31
345.259	99.31
345.487	87.31
345.714	84.31
345.942	72.31
346.17	86.31
346.397	87.31
346.625	96.31
346.853	91.31
347.08	81.31
347.308	102.31
347.535	91.31
347.763	86.31
347.99	111.31
348.218	88.31
348.445	87.31
348.673	86.31
348.9	79.31
349.128	97.31
349.355	86.31
349.583	95.31
349.81	90.31
350.037	98.31
350.265	98.31
350.492	104.31
350.72	105.31
350.947	96.31
351.174	103.31
351.402	87.31
351.629	99.31
351.856	107.31
352.083	96.31
352.311	87.31
352.538	93.31
352.765	88.31
352.992	104.31
353.22	103.31
353.447	112.31
353.674	98.31
353.901	94.31
354.128	94.31
354.355	93.31
354.583	88.31
354.81	86.31
355.037	97.31
355.264	94.31
355.491	92.31
355.718	68.31
355.945	102.31
356.172	95.31
356.399	103.31
356.626	89.31
356.853	94.31
357.08	83.31
357.307	100.31
357.534	81.31
357.761	94.31
357.988	98.31
358.215	102.31
358.441	90.31
358.668	91.31
358.895	89.31
359.122	79.31
359.349	73.31
359.576	105.31
359.802	92.31
360.029	105.31
360.256	95.31
360.483	97.31
360.709	95.31
360.936	79.31
361.163	107.31
361.39	100.31
361.616	83.31
361.843	83.31
362.07	100.31
362.296	90.31
362.523	85.31
362.749	96.31
362.976	75.31
363.203	97.31
363.429	89.31
363.656	88.31
363.882	89.31
364.109	90.31
364.335	89.31
364.562	83.31
364.788	93.31
365.015	83.31
365.241	97.31
365.468	105.31
365.694	92.31
365.92	87.31
366.147	108.31
366.373	95.31
366.599	90.31
366.826	95.31
367.052	93.31
367.278	92.31
367.505	97.31
367.731	100.31
367.957	84.31
368.184	74.31
368.41	94.31
368.636	105.31
368.862	119.31
369.089	110.31
369.315	87.31
369.541	79.31
369.767	92.31
369.993	88.31
370.219	79.31
370.445	102.31
370.672	87.31
370.898	80.31
371.124	88.31
371.35	87.31
371.576	88.31
371.802	90.31
372.028	88.31
372.254	96.31
372.48	83.31
372.706	78.31
372.932	92.31
373.158	87.31
373.384	85.31
373.61	92.31
373.835	94.31
374.061	88.31
374.287	94.31
374.513	106.31
374.739	93.31
374.965	92.31
375.191	80.31
375.416	95.31
375.642	82.31
375.868	85.31
376.094	72.31
376.319	89.31
376.545	87.31
376.771	97.31
376.997	93.31
377.222	93.31
377.448	87.31
377.674	87.31
377.899	97.31
378.125	74.31
378.35	100.31
378.576	97.31
378.802	82.31
379.027	86.31
379.253	97.31
379.478	85.31
379.704	89.31
379.929	98.31
380.155	101.31
380.38	105.31
380.606	94.31
380.831	99.31
381.057	86.31
381.282	81.31
381.507	80.31
381.733	90.31
381.958	85.31
382.184	99.31
382.409	98.31
382.634	95.31
382.86	95.31
383.085	94.31
383.31	92.31
383.535	105.31
383.761	95.31
383.986	93.31
384.211	98.31
384.436	81.31
384.662	87.31
384.887	86.31
385.112	89.31
385.337	86.31
385.562	98.31
385.787	101.31
386.013	105.31
386.238	112.31
386.463	82.31
386.688	105.31
386.913	92.31
387.138	100.31
387.363	96.31
387.588	81.31
387.813	95.31
388.038	107.31
388.263	93.31
388.488	91.31
388.713	85.31
388.938	95.31
389.163	102.31
389.387	93.31
389.612	101.31
389.837	101.31
390.062	84.31
390.287	80.31
390.512	95.31
390.736	87.31
390.961	87.31
391.186	94.31
391.411	95.31
391.636	83.31
391.86	82.31
392.085	86.31
392.31	86.31
392.534	81.31
392.759	91.31
392.984	94.31
393.208	92.31
393.433	86.31
393.658	93.31
393.882	86.31
394.107	100.31
394.331	85.31
394.556	79.31
394.78	86.31
395.005	91.31
395.229	74.31
395.454	79.31
395.678	84.31
395.903	85.31
396.127	85.31
396.352	90.31
396.576	91.31
396.801	88.31
397.025	85.31
397.249	89.31
397.474	102.31
397.698	96.31
397.922	81.31
398.147	76.31
398.371	95.31
398.595	76.31
398.82	71.31
399.044	87.31
399.268	92.31
399.492	89.31
399.717	90.31
399.941	85.31
400.165	85.31
400.389	84.31
400.613	71.31
400.837	108.31
401.062	79.31
401.286	87.31
401.51	87.31
401.734	97.31
401.958	104.31
402.182	133.31
402.406	158.31
402.63	109.31
402.854	88.31
403.078	78.31
403.302	95.31
403.526	91.31
403.75	99.31
403.974	89.31
404.198	88.31
404.422	84.31
404.645	83.31
404.869	82.31
405.093	97.31
405.317	105.31
405.541	92.31
405.765	98.31
405.988	100.31
406.212	152.31
406.436	216.31
406.66	119.31
406.883	105.31
407.107	92.31
407.331	97.31
407.555	99.31
407.778	95.31
408.002	87.31
408.226	81.31
408.449	82.31
408.673	81.31
408.896	78.31
409.12	83.31
409.344	103.31
409.567	61.31
409.791	93.31
410.014	101.31
410.238	99.31
410.461	91.31
410.685	98.31
410.908	95.31
411.132	108.31
411.355	101.31
411.578	103.31
411.802	91.31
412.025	89.31
412.249	87.31
412.472	102.31
412.695	100.31
412.919	91.31
413.142	86.31
413.365	84.31
413.589	92.31
413.812	83.31
414.035	85.31
414.258	95.31
414.482	90.31
414.705	80.31
414.928	85.31
415.151	92.31
415.374	82.31
415.597	91.31
415.821	95.31
416.044	81.31
416.267	82.31
416.49	93.31
416.713	81.31
416.936	95.31
417.159	87.31
417.382	84.31
417.605	97.31
417.828	98.31
418.051	89.31
418.274	69.31
418.497	99.31
418.72	94.31
418.943	84.31
419.166	99.31
419.389	101.31
419.611	88.31
419.834	86.31
420.057	91.31
420.28	83.31
420.503	83.31
420.726	85.31
420.948	73.31
421.171	98.31
421.394	86.31
421.617	94.31
421.839	92.31
422.062	109.31
422.285	86.31
422.507	96.31
422.73	102.31
422.953	97.31
423.175	89.31
423.398	86.31
423.621	81.31
423.843	91.31
424.066	86.31
424.288	73.31
424.511	80.31
424.733	96.31
424.956	112.31
425.178	96.31
425.401	85.31
425.623	93.31
425.846	88.31
426.068	91.31
426.291	91.31
426.513	93.31
426.735	84.31
426.958	92.31
427.18	104.31
427.402	123.31
427.625	157.31
427.847	117.31
428.069	137.31
428.292	96.31
428.514	85.31
428.736	96.31
428.958	82.31
429.181	96.31
429.403	79.31
429.625	80.31
429.847	83.31
430.069	89.31
430.292	99.31
430.514	88.31
430.736	81.31
430.958	82.31
431.18	88.31
431.402	86.31
431.624	95.31
431.846	88.31
432.068	82.31
432.29	68.31
432.512	93.31
432.734	84.31
432.956	83.31
433.178	99.31
433.4	101.31
433.622	81.31
433.844	92.31
434.066	91.31
434.287	89.31
434.509	83.31
434.731	87.31
434.953	77.31
435.175	86.31
435.397	88.31
435.618	83.31
435.84	96.31
436.062	102.31
436.284	111.31
436.505	96.31
436.727	95.31
436.949	83.31
437.17	96.31
437.392	76.31
437.614	89.31
437.835	100.31
438.057	109.31
438.278	109.31
438.5	98.31
438.721	113.31
438.943	88.31
439.165	91.31
439.386	93.31
439.608	95.31
439.829	89.31
440.05	134.31
440.272	147.31
440.493	79.31
440.715	77.31
440.936	91.31
441.158	95.31
441.379	82.31
441.6	93.31
441.822	86.31
442.043	84.31
442.264	86.31
442.486	99.31
442.707	95.31
442.928	105.31
443.149	119.31
443.371	109.31
443.592	102.31
443.813	93.31
444.034	96.31
444.255	100.31
444.476	100.31
444.698	77.31
444.919	89.31
445.14	132.31
445.361	124.31
445.582	119.31
445.803	105.31
446.024	111.31
446.245	131.31
446.466	99.31
446.687	88.31
446.908	96.31
447.129	90.31
447.35	81.31
447.571	89.31
447.792	87.31
448.013	86.31
448.234	105.31
448.455	94.31
448.675	99.31
448.896	116.31
449.117	116.31
449.338	103.31
449.559	110.31
449.779	111.31
450	102.31
450.221	97.31
450.442	93.31
450.662	86.31
450.883	105.31
451.104	105.31
451.324	95.31
451.545	91.31
451.766	78.31
451.986	94.31
452.207	98.31
452.428	89.31
452.648	93.31
452.869	123.31
453.089	110.31
453.31	112.31
453.53	75.31
453.751	88.31
453.971	79.31
454.192	102.31
454.412	88.31
454.633	92.31
454.853	70.31
455.073	81.31
455.294	94.31
455.514	93.31
455.734	94.31
455.955	99.31
456.175	77.31
456.395	100.31
456.616	78.31
456.836	89.31
457.056	90.31
457.276	95.31
457.497	79.31
457.717	85.31
457.937	81.31
458.157	104.31
458.377	92.31
458.598	102.31
458.818	147.31
459.038	148.31
459.258	95.31
459.478	86.31
459.698	75.31
459.918	87.31
460.138	86.31
460.358	90.31
460.578	85.31
460.798	81.31
461.018	86.31
461.238	90.31
461.458	85.31
461.678	76.31
461.898	94.31
462.118	94.31
462.338	81.31
462.558	80.31
462.777	85.31
462.997	72.31
463.217	76.31
463.437	76.31
463.657	87.31
463.876	93.31
464.096	85.31
464.316	86.31
464.536	83.31
464.755	82.31
464.975	101.31
465.195	163.31
465.414	151.31
465.634	109.31
465.854	90.31
466.073	91.31
466.293	85.31
466.512	83.31
466.732	83.31
466.951	89.31
467.171	80.31
467.391	98.31
467.61	107.31
467.829	95.31
468.049	145.31
468.268	159.31
468.488	99.31
468.707	80.31
468.927	93.31
469.146	73.31
469.365	92.31
469.585	98.31
469.804	105.31
470.023	88.31
470.243	83.31
470.462	95.31
470.681	99.31
470.901	89.31
471.12	77.31
471.339	92.31
471.558	97.31
471.777	88.31
471.997	115.31
472.216	227.31
472.435	350.31
472.654	146.31
472.873	91.31
473.092	87.31
473.311	93.31
473.53	93.31
473.749	97.31
473.968	86.31
474.187	110.31
474.406	92.31
474.625	100.31
474.844	93.31
475.063	85.31
475.282	88.31
475.501	91.31
475.72	83.31
475.939	79.31
476.158	94.31
476.377	86.31
476.596	87.31
476.814	99.31
477.033	102.31
477.252	99.31
477.471	84.31
477.69	94.31
477.908	93.31
478.127	111.31
478.346	93.31
478.564	75.31
478.783	88.31
479.002	93.31
479.22	95.31
479.439	91.31
479.658	110.31
479.876	99.31
480.095	104.31
480.313	95.31
480.532	95.31
480.751	120.31
480.969	221.31
481.188	591.31
481.406	377.31
481.624	124.31
481.843	96.31
482.061	82.31
482.28	98.31
482.498	84.31
482.717	80.31
482.935	91.31
483.153	93.31
483.372	86.31
483.59	88.31
483.808	88.31
484.027	84.31
484.245	80.31
484.463	77.31
484.681	90.31
484.9	86.31
485.118	96.31
485.336	81.31
485.554	89.31
485.772	91.31
485.99	96.31
486.209	89.31
486.427	106.31
486.645	105.31
486.863	107.31
487.081	102.31
487.299	94.31
487.517	105.31
487.735	94.31
487.953	93.31
488.171	103.31
488.389	88.31
488.607	98.31
488.825	87.31
489.043	88.31
489.261	92.31
489.479	89.31
489.696	91.31
489.914	85.31
490.132	84.31
490.35	92.31
490.568	86.31
490.786	92.31
491.003	80.31
491.221	91.31
491.439	93.31
491.657	91.31
491.874	90.31
492.092	79.31
492.31	102.31
492.527	90.31
492.745	84.31
492.963	94.31
493.18	73.31
493.398	92.31
493.615	87.31
493.833	86.31
494.05	71.31
494.268	78.31
494.485	91.31
494.703	93.31
494.92	80.31
495.138	75.31
495.355	93.31
495.573	82.31
495.79	87.31
496.008	82.31
496.225	91.31
496.442	84.31
496.66	99.31
496.877	84.31
497.094	102.31
497.312	87.31
497.529	110.31
497.746	80.31
497.963	93.31
498.181	94.31
498.398	93.31
498.615	111.31
498.832	102.31
499.049	97.31
499.267	90.31
499.484	93.31
499.701	99.31
499.918	85.31
500.135	88.31
500.352	89.31
500.569	84.31
500.786	87.31
501.003	74.31
501.22	80.31
501.437	81.31
501.654	93.31
501.871	102.31
502.088	85.31
502.305	91.31
502.522	94.31
502.739	90.31
502.956	89.31
503.172	89.31
503.389	109.31
503.606	102.31
503.823	77.31
504.04	88.31
504.256	87.31
504.473	76.31
504.69	72.31
504.907	95.31
505.123	97.31
505.34	86.31
505.557	79.31
505.773	83.31
505.99	87.31
506.207	91.31
506.423	80.31
506.64	93.31
506.856	95.31
507.073	68.31
507.289	87.31
507.506	96.31
507.722	103.31
507.939	104.31
508.155	95.31
508.372	101.31
508.588	95.31
508.805	86.31
509.021	102.31
509.238	104.31
509.454	100.31
509.67	91.31
509.887	104.31
510.103	121.31
510.319	195.31
510.536	663.31
510.752	2056.31
510.968	553.31
511.184	136.31
511.401	111.31
511.617	90.31
511.833	93.31
512.049	84.31
512.265	77.31
512.481	90.31
512.698	88.31
512.914	91.31
513.13	103.31
513.346	90.31
513.562	79.31
513.778	97.31
513.994	100.31
514.21	93.31
514.426	120.31
514.642	111.31
514.858	115.31
515.074	143.31
515.29	413.31
515.506	1300.31
515.721	468.31
515.937	140.31
516.153	101.31
516.369	107.31
