Data from Uncirc_1989_H10_HRD10591_00001.txt Node
Date: Wed Jan 03 11:57:35 EST 2024
User: Yrep
Spectrometer: HR+D1059
Trigger mode: 1
Integration Time (sec): 1.000000E-1
Scans to average: 1
Electric dark correction enabled: true
Nonlinearity correction enabled: false
Boxcar width: 0
XAxis mode: Wavelengths
Number of Pixels in Spectrum: 2048
>>>>>Begin Spectral Data<<<<<
223.165	-6.81
223.4	-6.81
223.635	-6.81
223.869	-19.81
224.104	-21.81
224.338	-10.81
224.573	-16.81
224.808	-8.81
225.042	-5.81
225.277	-10.81
225.511	-4.81
225.746	-7.81
225.98	11.19
226.215	13.19
226.449	23.19
226.683	13.19
226.918	24.19
227.152	29.19
227.387	22.19
227.621	34.19
227.856	37.19
228.09	44.19
228.324	48.19
228.559	51.19
228.793	62.19
229.027	61.19
229.262	56.19
229.496	82.19
229.73	69.19
229.964	66.19
230.199	71.19
230.433	80.19
230.667	82.19
230.901	81.19
231.136	65.19
231.37	64.19
231.604	91.19
231.838	90.19
232.072	79.19
232.306	85.19
232.541	86.19
232.775	92.19
233.009	81.19
233.243	72.19
233.477	93.19
233.711	72.19
233.945	80.19
234.179	72.19
234.413	74.19
234.647	76.19
234.881	74.19
235.115	83.19
235.349	97.19
235.583	75.19
235.817	72.19
236.051	77.19
236.285	78.19
236.519	75.19
236.753	75.19
236.987	80.19
237.221	75.19
237.455	83.19
237.689	58.19
237.922	73.19
238.156	83.19
238.39	72.19
238.624	77.19
238.858	65.19
239.091	64.19
239.325	59.19
239.559	74.19
239.793	76.19
240.027	88.19
240.26	90.19
240.494	69.19
240.728	58.19
240.961	68.19
241.195	80.19
241.429	71.19
241.662	83.19
241.896	60.19
242.13	72.19
242.363	78.19
242.597	79.19
242.83	67.19
243.064	79.19
243.298	74.19
243.531	79.19
243.765	81.19
243.998	75.19
244.232	75.19
244.465	80.19
244.699	77.19
244.932	62.19
245.166	91.19
245.399	78.19
245.633	81.19
245.866	75.19
246.099	83.19
246.333	79.19
246.566	80.19
246.8	69.19
247.033	75.19
247.266	75.19
247.5	80.19
247.733	83.19
247.966	82.19
248.2	82.19
248.433	70.19
248.666	83.19
248.899	75.19
249.133	69.19
249.366	99.19
249.599	101.19
249.832	94.19
250.066	85.19
250.299	95.19
250.532	81.19
250.765	105.19
250.998	72.19
251.231	81.19
251.465	91.19
251.698	83.19
251.931	71.19
252.164	88.19
252.397	71.19
252.63	75.19
252.863	83.19
253.096	81.19
253.329	75.19
253.562	77.19
253.795	77.19
254.028	86.19
254.261	78.19
254.494	85.19
254.727	78.19
254.96	91.19
255.193	85.19
255.426	75.19
255.659	101.19
255.892	69.19
256.124	86.19
256.357	72.19
256.59	85.19
256.823	83.19
257.056	80.19
257.289	84.19
257.521	72.19
257.754	78.19
257.987	82.19
258.22	66.19
258.452	82.19
258.685	77.19
258.918	75.19
259.151	66.19
259.383	80.19
259.616	69.19
259.849	91.19
260.081	79.19
260.314	79.19
260.547	80.19
260.779	90.19
261.012	72.19
261.244	81.19
261.477	91.19
261.71	92.19
261.942	82.19
262.175	101.19
262.407	67.19
262.64	84.19
262.872	79.19
263.105	87.19
263.337	91.19
263.57	96.19
263.802	94.19
264.035	73.19
264.267	82.19
264.499	60.19
264.732	95.19
264.964	79.19
265.197	85.19
265.429	90.19
265.661	83.19
265.894	76.19
266.126	66.19
266.358	100.19
266.591	88.19
266.823	95.19
267.055	70.19
267.287	74.19
267.52	81.19
267.752	82.19
267.984	94.19
268.216	80.19
268.448	82.19
268.681	74.19
268.913	76.19
269.145	81.19
269.377	83.19
269.609	90.19
269.841	91.19
270.073	84.19
270.306	79.19
270.538	88.19
270.77	93.19
271.002	75.19
271.234	84.19
271.466	82.19
271.698	85.19
271.93	89.19
272.162	89.19
272.394	92.19
272.626	99.19
272.858	82.19
273.09	87.19
273.322	64.19
273.553	81.19
273.785	103.19
274.017	91.19
274.249	82.19
274.481	79.19
274.713	82.19
274.945	77.19
275.176	90.19
275.408	83.19
275.64	91.19
275.872	93.19
276.104	87.19
276.335	81.19
276.567	97.19
276.799	100.19
277.031	96.19
277.262	84.19
277.494	82.19
277.726	82.19
277.957	92.19
278.189	79.19
278.421	79.19
278.652	79.19
278.884	102.19
279.115	85.19
279.347	101.19
279.579	83.19
279.81	90.19
280.042	82.19
280.273	77.19
280.505	83.19
280.736	81.19
280.968	89.19
281.199	67.19
281.431	95.19
281.662	90.19
281.894	95.19
282.125	99.19
282.356	106.19
282.588	129.19
282.819	109.19
283.051	92.19
283.282	95.19
283.513	95.19
283.745	90.19
283.976	92.19
284.207	98.19
284.439	83.19
284.67	86.19
284.901	85.19
285.132	92.19
285.364	91.19
285.595	89.19
285.826	85.19
286.057	96.19
286.288	91.19
286.52	91.19
286.751	84.19
286.982	97.19
287.213	104.19
287.444	91.19
287.675	94.19
287.906	78.19
288.138	97.19
288.369	86.19
288.6	85.19
288.831	99.19
289.062	77.19
289.293	95.19
289.524	87.19
289.755	79.19
289.986	80.19
290.217	94.19
290.448	103.19
290.679	81.19
290.91	90.19
291.141	101.19
291.371	79.19
291.602	86.19
291.833	95.19
292.064	88.19
292.295	76.19
292.526	103.19
292.757	77.19
292.987	81.19
293.218	86.19
293.449	99.19
293.68	98.19
293.91	78.19
294.141	93.19
294.372	85.19
294.603	99.19
294.833	87.19
295.064	94.19
295.295	85.19
295.525	101.19
295.756	78.19
295.987	102.19
296.217	103.19
296.448	102.19
296.679	79.19
296.909	72.19
297.14	88.19
297.37	92.19
297.601	86.19
297.831	85.19
298.062	104.19
298.292	99.19
298.523	83.19
298.753	75.19
298.984	88.19
299.214	87.19
299.445	88.19
299.675	82.19
299.905	90.19
300.136	105.19
300.366	111.19
300.597	92.19
300.827	92.19
301.057	80.19
301.288	91.19
301.518	91.19
301.748	88.19
301.979	93.19
302.209	90.19
302.439	81.19
302.669	76.19
302.9	104.19
303.13	86.19
303.36	99.19
303.59	101.19
303.82	98.19
304.051	93.19
304.281	89.19
304.511	100.19
304.741	97.19
304.971	91.19
305.201	89.19
305.431	80.19
305.661	107.19
305.891	79.19
306.121	100.19
306.352	101.19
306.582	97.19
306.812	89.19
307.042	88.19
307.272	92.19
307.502	94.19
307.731	93.19
307.961	84.19
308.191	89.19
308.421	85.19
308.651	105.19
308.881	100.19
309.111	86.19
309.341	91.19
309.571	92.19
309.8	100.19
310.03	88.19
310.26	92.19
310.49	104.19
310.72	91.19
310.949	83.19
311.179	99.19
311.409	97.19
311.639	97.19
311.868	91.19
312.098	101.19
312.328	94.19
312.557	88.19
312.787	97.19
313.017	98.19
313.246	103.19
313.476	100.19
313.706	81.19
313.935	95.19
314.165	106.19
314.394	87.19
314.624	93.19
314.853	89.19
315.083	89.19
315.312	93.19
315.542	90.19
315.771	87.19
316.001	89.19
316.23	98.19
316.46	86.19
316.689	94.19
316.919	85.19
317.148	93.19
317.377	81.19
317.607	80.19
317.836	66.19
318.065	91.19
318.295	88.19
318.524	91.19
318.753	102.19
318.983	85.19
319.212	96.19
319.441	105.19
319.67	105.19
319.9	96.19
320.129	90.19
320.358	100.19
320.587	97.19
320.816	71.19
321.046	87.19
321.275	85.19
321.504	89.19
321.733	84.19
321.962	104.19
322.191	91.19
322.42	106.19
322.649	105.19
322.878	95.19
323.108	100.19
323.337	101.19
323.566	98.19
323.795	128.19
324.024	162.19
324.253	278.19
324.482	566.19
324.71	1133.19
324.939	1515.19
325.168	583.19
325.397	200.19
325.626	135.19
325.855	125.19
326.084	121.19
326.313	121.19
326.542	130.19
326.77	185.19
326.999	339.19
327.228	689.19
327.457	1219.19
327.686	973.19
327.914	288.19
328.143	156.19
328.372	132.19
328.6	108.19
328.829	100.19
329.058	105.19
329.287	107.19
329.515	84.19
329.744	98.19
329.972	93.19
330.201	105.19
330.43	99.19
330.658	109.19
330.887	115.19
331.115	105.19
331.344	97.19
331.572	94.19
331.801	92.19
332.03	88.19
332.258	101.19
332.486	88.19
332.715	99.19
332.943	89.19
333.172	97.19
333.4	90.19
333.629	102.19
333.857	95.19
334.085	101.19
334.314	109.19
334.542	109.19
334.771	89.19
334.999	96.19
335.227	88.19
335.455	89.19
335.684	80.19
335.912	96.19
336.14	89.19
336.369	79.19
336.597	98.19
336.825	97.19
337.053	103.19
337.281	90.19
337.51	72.19
337.738	82.19
337.966	88.19
338.194	97.19
338.422	95.19
338.65	81.19
338.878	71.19
339.106	80.19
339.334	93.19
339.562	86.19
339.79	95.19
340.018	71.19
340.246	87.19
340.474	93.19
340.702	83.19
340.93	89.19
341.158	92.19
341.386	94.19
341.614	72.19
341.842	97.19
342.07	103.19
342.298	95.19
342.526	103.19
342.754	85.19
342.981	76.19
343.209	91.19
343.437	98.19
343.665	101.19
343.893	84.19
344.12	97.19
344.348	91.19
344.576	100.19
344.804	88.19
345.031	86.19
345.259	88.19
345.487	95.19
345.714	94.19
345.942	86.19
346.17	98.19
346.397	104.19
346.625	100.19
346.853	86.19
347.08	88.19
347.308	91.19
347.535	97.19
347.763	92.19
347.99	101.19
348.218	98.19
348.445	95.19
348.673	94.19
348.9	106.19
349.128	94.19
349.355	91.19
349.583	89.19
349.81	93.19
350.037	91.19
350.265	93.19
350.492	113.19
350.72	85.19
350.947	99.19
351.174	86.19
351.402	87.19
351.629	87.19
351.856	95.19
352.083	84.19
352.311	101.19
352.538	108.19
352.765	96.19
352.992	105.19
353.22	113.19
353.447	99.19
353.674	101.19
353.901	85.19
354.128	85.19
354.355	94.19
354.583	114.19
354.81	99.19
355.037	106.19
355.264	94.19
355.491	96.19
355.718	90.19
355.945	99.19
356.172	103.19
356.399	85.19
356.626	90.19
356.853	83.19
357.08	87.19
357.307	100.19
357.534	86.19
357.761	96.19
357.988	103.19
358.215	94.19
358.441	90.19
358.668	101.19
358.895	95.19
359.122	84.19
359.349	74.19
359.576	95.19
359.802	102.19
360.029	96.19
360.256	88.19
360.483	94.19
360.709	89.19
360.936	87.19
361.163	89.19
361.39	93.19
361.616	89.19
361.843	87.19
362.07	98.19
362.296	86.19
362.523	84.19
362.749	81.19
362.976	91.19
363.203	99.19
363.429	85.19
363.656	89.19
363.882	84.19
364.109	75.19
364.335	96.19
364.562	85.19
364.788	82.19
365.015	63.19
365.241	92.19
365.468	107.19
365.694	93.19
365.92	96.19
366.147	89.19
366.373	94.19
366.599	95.19
366.826	96.19
367.052	88.19
367.278	80.19
367.505	91.19
367.731	88.19
367.957	97.19
368.184	91.19
368.41	91.19
368.636	96.19
368.862	100.19
369.089	91.19
369.315	81.19
369.541	90.19
369.767	88.19
369.993	76.19
370.219	97.19
370.445	91.19
370.672	87.19
370.898	80.19
371.124	96.19
371.35	83.19
371.576	85.19
371.802	85.19
372.028	101.19
372.254	102.19
372.48	76.19
372.706	79.19
372.932	96.19
373.158	80.19
373.384	87.19
373.61	83.19
373.835	90.19
374.061	86.19
374.287	99.19
374.513	100.19
374.739	64.19
374.965	86.19
375.191	97.19
375.416	92.19
375.642	83.19
375.868	95.19
376.094	93.19
376.319	87.19
376.545	93.19
376.771	98.19
376.997	99.19
377.222	77.19
377.448	88.19
377.674	92.19
377.899	99.19
378.125	81.19
378.35	83.19
378.576	85.19
378.802	83.19
379.027	89.19
379.253	88.19
379.478	101.19
379.704	84.19
379.929	101.19
380.155	101.19
380.38	98.19
380.606	90.19
380.831	103.19
381.057	103.19
381.282	91.19
381.507	94.19
381.733	89.19
381.958	97.19
382.184	113.19
382.409	95.19
382.634	125.19
382.86	88.19
383.085	91.19
383.31	111.19
383.535	102.19
383.761	95.19
383.986	100.19
384.211	92.19
384.436	91.19
384.662	112.19
384.887	114.19
385.112	109.19
385.337	112.19
385.562	107.19
385.787	99.19
386.013	120.19
386.238	118.19
386.463	104.19
386.688	126.19
386.913	87.19
387.138	103.19
387.363	98.19
387.588	121.19
387.813	103.19
388.038	116.19
388.263	116.19
388.488	119.19
388.713	85.19
388.938	99.19
389.163	86.19
389.387	103.19
389.612	95.19
389.837	101.19
390.062	103.19
390.287	102.19
390.512	80.19
390.736	88.19
390.961	90.19
391.186	90.19
391.411	102.19
391.636	87.19
391.86	63.19
392.085	78.19
392.31	96.19
392.534	87.19
392.759	88.19
392.984	87.19
393.208	102.19
393.433	126.19
393.658	113.19
393.882	105.19
394.107	86.19
394.331	90.19
394.556	84.19
394.78	88.19
395.005	89.19
395.229	78.19
395.454	88.19
395.678	95.19
395.903	94.19
396.127	88.19
396.352	84.19
396.576	88.19
396.801	92.19
397.025	104.19
397.249	94.19
397.474	82.19
397.698	87.19
397.922	79.19
398.147	87.19
398.371	78.19
398.595	88.19
398.82	86.19
399.044	88.19
399.268	92.19
399.492	75.19
399.717	102.19
399.941	100.19
400.165	92.19
400.389	90.19
400.613	83.19
400.837	82.19
401.062	80.19
401.286	96.19
401.51	100.19
401.734	93.19
401.958	86.19
402.182	99.19
402.406	116.19
402.63	107.19
402.854	95.19
403.078	101.19
403.302	81.19
403.526	86.19
403.75	77.19
403.974	83.19
404.198	97.19
404.422	104.19
404.645	82.19
404.869	97.19
405.093	97.19
405.317	94.19
405.541	92.19
405.765	97.19
405.988	101.19
406.212	125.19
406.436	138.19
406.66	104.19
406.883	87.19
407.107	88.19
407.331	85.19
407.555	84.19
407.778	86.19
408.002	86.19
408.226	95.19
408.449	91.19
408.673	88.19
408.896	102.19
409.12	84.19
409.344	91.19
409.567	89.19
409.791	96.19
410.014	78.19
410.238	100.19
410.461	99.19
410.685	94.19
410.908	94.19
411.132	95.19
411.355	87.19
411.578	91.19
411.802	78.19
412.025	77.19
412.249	98.19
412.472	84.19
412.695	85.19
412.919	79.19
413.142	93.19
413.365	84.19
413.589	91.19
413.812	82.19
414.035	75.19
414.258	87.19
414.482	87.19
414.705	73.19
414.928	89.19
415.151	87.19
415.374	91.19
415.597	87.19
415.821	96.19
416.044	88.19
416.267	92.19
416.49	104.19
416.713	92.19
416.936	103.19
417.159	77.19
417.382	82.19
417.605	86.19
417.828	91.19
418.051	87.19
418.274	70.19
418.497	87.19
418.72	101.19
418.943	93.19
419.166	93.19
419.389	96.19
419.611	86.19
419.834	86.19
420.057	97.19
420.28	84.19
420.503	80.19
420.726	75.19
420.948	95.19
421.171	85.19
421.394	91.19
421.617	84.19
421.839	84.19
422.062	94.19
422.285	90.19
422.507	92.19
422.73	106.19
422.953	102.19
423.175	89.19
423.398	91.19
423.621	85.19
423.843	87.19
424.066	80.19
424.288	80.19
424.511	71.19
424.733	88.19
424.956	87.19
425.178	96.19
425.401	84.19
425.623	93.19
425.846	90.19
426.068	93.19
426.291	86.19
426.513	77.19
426.735	96.19
426.958	89.19
427.18	93.19
427.402	119.19
427.625	120.19
427.847	102.19
428.069	85.19
428.292	88.19
428.514	76.19
428.736	88.19
428.958	80.19
429.181	87.19
429.403	79.19
429.625	85.19
429.847	88.19
430.069	77.19
430.292	92.19
430.514	70.19
430.736	85.19
430.958	85.19
431.18	91.19
431.402	86.19
431.624	87.19
431.846	96.19
432.068	79.19
432.29	89.19
432.512	81.19
432.734	77.19
432.956	88.19
433.178	94.19
433.4	98.19
433.622	82.19
433.844	79.19
434.066	99.19
434.287	97.19
434.509	85.19
434.731	76.19
434.953	89.19
435.175	84.19
435.397	82.19
435.618	87.19
435.84	97.19
436.062	115.19
436.284	100.19
436.505	91.19
436.727	98.19
436.949	80.19
437.17	81.19
437.392	88.19
437.614	85.19
437.835	85.19
438.057	100.19
438.278	93.19
438.5	69.19
438.721	100.19
438.943	89.19
439.165	101.19
439.386	86.19
439.608	107.19
439.829	86.19
440.05	91.19
440.272	108.19
440.493	90.19
440.715	88.19
440.936	85.19
441.158	84.19
441.379	87.19
441.6	88.19
441.822	87.19
442.043	89.19
442.264	94.19
442.486	107.19
442.707	88.19
442.928	97.19
443.149	105.19
443.371	106.19
443.592	102.19
443.813	98.19
444.034	99.19
444.255	89.19
444.476	94.19
444.698	85.19
444.919	94.19
445.14	129.19
445.361	115.19
445.582	97.19
445.803	115.19
446.024	107.19
446.245	115.19
446.466	110.19
446.687	80.19
446.908	88.19
447.129	96.19
447.35	75.19
447.571	93.19
447.792	99.19
448.013	96.19
448.234	95.19
448.455	110.19
448.675	105.19
448.896	98.19
449.117	93.19
449.338	105.19
449.559	106.19
449.779	121.19
450	86.19
450.221	87.19
450.442	88.19
450.662	91.19
450.883	96.19
451.104	115.19
451.324	96.19
451.545	88.19
451.766	81.19
451.986	79.19
452.207	92.19
452.428	83.19
452.648	80.19
452.869	113.19
453.089	105.19
453.31	98.19
453.53	99.19
453.751	93.19
453.971	91.19
454.192	93.19
454.412	84.19
454.633	83.19
454.853	84.19
455.073	79.19
455.294	82.19
455.514	79.19
455.734	78.19
455.955	88.19
456.175	102.19
456.395	87.19
456.616	84.19
456.836	92.19
457.056	88.19
457.276	70.19
457.497	81.19
457.717	104.19
457.937	90.19
458.157	85.19
458.377	100.19
458.598	97.19
458.818	114.19
459.038	125.19
459.258	107.19
459.478	86.19
459.698	83.19
459.918	74.19
460.138	88.19
460.358	85.19
460.578	86.19
460.798	85.19
461.018	86.19
461.238	75.19
461.458	91.19
461.678	80.19
461.898	81.19
462.118	91.19
462.338	80.19
462.558	89.19
462.777	80.19
462.997	86.19
463.217	80.19
463.437	81.19
463.657	93.19
463.876	79.19
464.096	80.19
464.316	91.19
464.536	103.19
464.755	91.19
464.975	103.19
465.195	120.19
465.414	102.19
465.634	92.19
465.854	92.19
466.073	92.19
466.293	84.19
466.512	98.19
466.732	86.19
466.951	96.19
467.171	77.19
467.391	88.19
467.61	96.19
467.829	91.19
468.049	91.19
468.268	103.19
468.488	80.19
468.707	84.19
468.927	75.19
469.146	85.19
469.365	85.19
469.585	92.19
469.804	84.19
470.023	90.19
470.243	92.19
470.462	70.19
470.681	68.19
470.901	89.19
471.12	79.19
471.339	95.19
471.558	87.19
471.777	85.19
471.997	90.19
472.216	101.19
472.435	106.19
472.654	93.19
472.873	103.19
473.092	85.19
473.311	84.19
473.53	76.19
473.749	99.19
473.968	93.19
474.187	81.19
474.406	92.19
474.625	88.19
474.844	88.19
475.063	93.19
475.282	84.19
475.501	83.19
475.72	88.19
475.939	70.19
476.158	86.19
476.377	101.19
476.596	89.19
476.814	72.19
477.033	89.19
477.252	79.19
477.471	78.19
477.69	87.19
477.908	91.19
478.127	94.19
478.346	91.19
478.564	96.19
478.783	81.19
479.002	89.19
479.22	83.19
479.439	85.19
479.658	92.19
479.876	107.19
480.095	87.19
480.313	69.19
480.532	72.19
480.751	91.19
480.969	102.19
481.188	146.19
481.406	111.19
481.624	81.19
481.843	93.19
482.061	92.19
482.28	93.19
482.498	95.19
482.717	92.19
482.935	100.19
483.153	97.19
483.372	89.19
483.59	95.19
483.808	84.19
484.027	90.19
484.245	91.19
484.463	80.19
484.681	82.19
484.9	101.19
485.118	97.19
485.336	87.19
485.554	97.19
485.772	86.19
485.99	95.19
486.209	110.19
486.427	115.19
486.645	95.19
486.863	114.19
487.081	91.19
487.299	91.19
487.517	111.19
487.735	90.19
487.953	83.19
488.171	87.19
488.389	88.19
488.607	86.19
488.825	85.19
489.043	103.19
489.261	94.19
489.479	78.19
489.696	94.19
489.914	76.19
490.132	87.19
490.35	87.19
490.568	82.19
490.786	91.19
491.003	87.19
491.221	96.19
491.439	75.19
491.657	89.19
491.874	108.19
492.092	87.19
492.31	80.19
492.527	97.19
492.745	104.19
492.963	89.19
493.18	94.19
493.398	92.19
493.615	102.19
493.833	88.19
494.05	88.19
494.268	88.19
494.485	102.19
494.703	80.19
494.92	88.19
495.138	104.19
495.355	87.19
495.573	112.19
495.79	91.19
496.008	107.19
496.225	100.19
496.442	92.19
496.66	99.19
496.877	97.19
497.094	82.19
497.312	92.19
497.529	85.19
497.746	102.19
497.963	77.19
498.181	95.19
498.398	102.19
498.615	96.19
498.832	87.19
499.049	83.19
499.267	92.19
499.484	104.19
499.701	99.19
499.918	102.19
500.135	68.19
500.352	80.19
500.569	75.19
500.786	102.19
501.003	93.19
501.22	86.19
501.437	70.19
501.654	95.19
501.871	107.19
502.088	101.19
502.305	91.19
502.522	94.19
502.739	97.19
502.956	88.19
503.172	89.19
503.389	100.19
503.606	87.19
503.823	90.19
504.04	102.19
504.256	95.19
504.473	83.19
504.69	69.19
504.907	107.19
505.123	97.19
505.34	88.19
505.557	92.19
505.773	101.19
505.99	72.19
506.207	86.19
506.423	97.19
506.64	100.19
506.856	82.19
507.073	99.19
507.289	93.19
507.506	107.19
507.722	104.19
507.939	89.19
508.155	107.19
508.372	92.19
508.588	78.19
508.805	79.19
509.021	79.19
509.238	97.19
509.454	89.19
509.67	86.19
509.887	104.19
510.103	110.19
510.319	157.19
510.536	457.19
510.752	1318.19
510.968	385.19
511.184	128.19
511.401	91.19
511.617	99.19
511.833	92.19
512.049	91.19
512.265	104.19
512.481	90.19
512.698	85.19
512.914	92.19
513.13	83.19
513.346	93.19
513.562	89.19
513.778	84.19
513.994	81.19
514.21	95.19
514.426	104.19
514.642	114.19
514.858	117.19
515.074	142.19
515.29	287.19
515.506	793.19
515.721	319.19
515.937	133.19
516.153	95.19
516.369	86.19
516.585	87.19
