Data from Uncirc_1989_H10_HRD10591_00003.txt Node
Date: Wed Jan 03 11:57:36 EST 2024
User: Yrep
Spectrometer: HR+D1059
Trigger mode: 1
Integration Time (sec): 1.000000E-1
Scans to average: 1
Electric dark correction enabled: true
Nonlinearity correction enabled: false
Boxcar width: 0
XAxis mode: Wavelengths
Number of Pixels in Spectrum: 2048
>>>>>Begin Spectral Data<<<<<
223.165	-30.44
223.4	-30.44
223.635	-30.44
223.869	-22.44
224.104	-19.44
224.338	-18.44
224.573	-14.44
224.808	-12.44
225.042	-17.44
225.277	-2.44
225.511	-3.44
225.746	-8.44
225.98	11.56
226.215	11.56
226.449	17.56
226.683	37.56
226.918	31.56
227.152	39.56
227.387	33.56
227.621	40.56
227.856	53.56
228.09	49.56
228.324	50.56
228.559	59.56
228.793	55.56
229.027	65.56
229.262	81.56
229.496	79.56
229.73	69.56
229.964	72.56
230.199	61.56
230.433	69.56
230.667	73.56
230.901	97.56
231.136	93.56
231.37	79.56
231.604	76.56
231.838	77.56
232.072	77.56
232.306	78.56
232.541	57.56
232.775	81.56
233.009	61.56
233.243	75.56
233.477	87.56
233.711	91.56
233.945	90.56
234.179	68.56
234.413	88.56
234.647	88.56
234.881	77.56
235.115	90.56
235.349	75.56
235.583	73.56
235.817	49.56
236.051	76.56
236.285	77.56
236.519	81.56
236.753	77.56
236.987	86.56
237.221	72.56
237.455	65.56
237.689	80.56
237.922	79.56
238.156	71.56
238.39	79.56
238.624	77.56
238.858	66.56
239.091	85.56
239.325	73.56
239.559	80.56
239.793	74.56
240.027	83.56
240.26	67.56
240.494	80.56
240.728	72.56
240.961	79.56
241.195	91.56
241.429	72.56
241.662	77.56
241.896	88.56
242.13	72.56
242.363	67.56
242.597	78.56
242.83	73.56
243.064	78.56
243.298	73.56
243.531	77.56
243.765	75.56
243.998	90.56
244.232	71.56
244.465	72.56
244.699	91.56
244.932	81.56
245.166	72.56
245.399	91.56
245.633	87.56
245.866	86.56
246.099	81.56
246.333	75.56
246.566	87.56
246.8	77.56
247.033	81.56
247.266	56.56
247.5	79.56
247.733	81.56
247.966	88.56
248.2	78.56
248.433	81.56
248.666	69.56
248.899	79.56
249.133	69.56
249.366	79.56
249.599	100.56
249.832	86.56
250.066	91.56
250.299	76.56
250.532	76.56
250.765	79.56
250.998	80.56
251.231	73.56
251.465	84.56
251.698	65.56
251.931	71.56
252.164	76.56
252.397	83.56
252.63	72.56
252.863	60.56
253.096	77.56
253.329	70.56
253.562	88.56
253.795	79.56
254.028	88.56
254.261	89.56
254.494	79.56
254.727	78.56
254.96	86.56
255.193	73.56
255.426	70.56
255.659	81.56
255.892	82.56
256.124	77.56
256.357	85.56
256.59	84.56
256.823	91.56
257.056	72.56
257.289	95.56
257.521	76.56
257.754	79.56
257.987	84.56
258.22	91.56
258.452	83.56
258.685	65.56
258.918	81.56
259.151	78.56
259.383	70.56
259.616	81.56
259.849	73.56
260.081	79.56
260.314	81.56
260.547	79.56
260.779	80.56
261.012	82.56
261.244	79.56
261.477	86.56
261.71	89.56
261.942	93.56
262.175	105.56
262.407	95.56
262.64	79.56
262.872	73.56
263.105	76.56
263.337	87.56
263.57	91.56
263.802	71.56
264.035	80.56
264.267	72.56
264.499	96.56
264.732	79.56
264.964	82.56
265.197	83.56
265.429	71.56
265.661	82.56
265.894	88.56
266.126	93.56
266.358	72.56
266.591	88.56
266.823	80.56
267.055	55.56
267.287	93.56
267.52	90.56
267.752	93.56
267.984	89.56
268.216	70.56
268.448	80.56
268.681	82.56
268.913	73.56
269.145	93.56
269.377	93.56
269.609	70.56
269.841	77.56
270.073	78.56
270.306	86.56
270.538	91.56
270.77	70.56
271.002	89.56
271.234	81.56
271.466	88.56
271.698	83.56
271.93	78.56
272.162	69.56
272.394	81.56
272.626	76.56
272.858	79.56
273.09	77.56
273.322	83.56
273.553	84.56
273.785	92.56
274.017	85.56
274.249	81.56
274.481	80.56
274.713	83.56
274.945	83.56
275.176	91.56
275.408	82.56
275.64	83.56
275.872	75.56
276.104	99.56
276.335	88.56
276.567	98.56
276.799	83.56
277.031	88.56
277.262	87.56
277.494	86.56
277.726	79.56
277.957	88.56
278.189	98.56
278.421	88.56
278.652	84.56
278.884	76.56
279.115	83.56
279.347	98.56
279.579	78.56
279.81	79.56
280.042	84.56
280.273	101.56
280.505	79.56
280.736	97.56
280.968	78.56
281.199	94.56
281.431	86.56
281.662	80.56
281.894	79.56
282.125	94.56
282.356	85.56
282.588	104.56
282.819	103.56
283.051	103.56
283.282	76.56
283.513	86.56
283.745	69.56
283.976	81.56
284.207	93.56
284.439	79.56
284.67	83.56
284.901	87.56
285.132	83.56
285.364	71.56
285.595	85.56
285.826	72.56
286.057	92.56
286.288	96.56
286.52	75.56
286.751	77.56
286.982	69.56
287.213	81.56
287.444	79.56
287.675	77.56
287.906	84.56
288.138	84.56
288.369	88.56
288.6	96.56
288.831	97.56
289.062	93.56
289.293	96.56
289.524	87.56
289.755	79.56
289.986	100.56
290.217	95.56
290.448	94.56
290.679	89.56
290.91	94.56
291.141	94.56
291.371	86.56
291.602	88.56
291.833	93.56
292.064	92.56
292.295	73.56
292.526	83.56
292.757	84.56
292.987	86.56
293.218	89.56
293.449	80.56
293.68	98.56
293.91	88.56
294.141	81.56
294.372	83.56
294.603	81.56
294.833	90.56
295.064	80.56
295.295	98.56
295.525	87.56
295.756	95.56
295.987	107.56
296.217	103.56
296.448	106.56
296.679	85.56
296.909	82.56
297.14	80.56
297.37	101.56
297.601	88.56
297.831	77.56
298.062	78.56
298.292	77.56
298.523	88.56
298.753	80.56
298.984	89.56
299.214	92.56
299.445	88.56
299.675	83.56
299.905	99.56
300.136	101.56
300.366	75.56
300.597	91.56
300.827	91.56
301.057	102.56
301.288	99.56
301.518	97.56
301.748	68.56
301.979	102.56
302.209	86.56
302.439	94.56
302.669	77.56
302.9	83.56
303.13	87.56
303.36	89.56
303.59	70.56
303.82	95.56
304.051	86.56
304.281	82.56
304.511	82.56
304.741	89.56
304.971	89.56
305.201	102.56
305.431	97.56
305.661	86.56
305.891	92.56
306.121	103.56
306.352	88.56
306.582	98.56
306.812	105.56
307.042	89.56
307.272	80.56
307.502	84.56
307.731	80.56
307.961	80.56
308.191	73.56
308.421	85.56
308.651	87.56
308.881	89.56
309.111	88.56
309.341	82.56
309.571	73.56
309.8	98.56
310.03	95.56
310.26	81.56
310.49	93.56
310.72	94.56
310.949	88.56
311.179	92.56
311.409	89.56
311.639	92.56
311.868	87.56
312.098	91.56
312.328	94.56
312.557	94.56
312.787	87.56
313.017	91.56
313.246	87.56
313.476	98.56
313.706	92.56
313.935	93.56
314.165	99.56
314.394	85.56
314.624	89.56
314.853	94.56
315.083	99.56
315.312	76.56
315.542	93.56
315.771	89.56
316.001	89.56
316.23	67.56
316.46	79.56
316.689	79.56
316.919	91.56
317.148	100.56
317.377	97.56
317.607	92.56
317.836	67.56
318.065	76.56
318.295	84.56
318.524	94.56
318.753	91.56
318.983	87.56
319.212	99.56
319.441	76.56
319.67	86.56
319.9	84.56
320.129	98.56
320.358	91.56
320.587	103.56
320.816	96.56
321.046	87.56
321.275	94.56
321.504	92.56
321.733	87.56
321.962	97.56
322.191	95.56
322.42	102.56
322.649	102.56
322.878	100.56
323.108	94.56
323.337	98.56
323.566	110.56
323.795	121.56
324.024	162.56
324.253	269.56
324.482	551.56
324.71	1158.56
324.939	1468.56
325.168	558.56
325.397	194.56
325.626	131.56
325.855	81.56
326.084	99.56
326.313	119.56
326.542	134.56
326.77	194.56
326.999	352.56
327.228	716.56
327.457	1271.56
327.686	979.56
327.914	264.56
328.143	153.56
328.372	131.56
328.6	100.56
328.829	103.56
329.058	112.56
329.287	114.56
329.515	99.56
329.744	93.56
329.972	100.56
330.201	108.56
330.43	119.56
330.658	110.56
330.887	99.56
331.115	107.56
331.344	92.56
331.572	90.56
331.801	106.56
332.03	91.56
332.258	80.56
332.486	97.56
332.715	78.56
332.943	85.56
333.172	79.56
333.4	84.56
333.629	99.56
333.857	112.56
334.085	98.56
334.314	89.56
334.542	109.56
334.771	92.56
334.999	92.56
335.227	93.56
335.455	95.56
335.684	109.56
335.912	100.56
336.14	92.56
336.369	94.56
336.597	96.56
336.825	85.56
337.053	82.56
337.281	94.56
337.51	92.56
337.738	85.56
337.966	89.56
338.194	89.56
338.422	75.56
338.65	84.56
338.878	93.56
339.106	79.56
339.334	91.56
339.562	91.56
339.79	86.56
340.018	83.56
340.246	90.56
340.474	85.56
340.702	90.56
340.93	87.56
341.158	79.56
341.386	88.56
341.614	95.56
341.842	85.56
342.07	91.56
342.298	90.56
342.526	86.56
342.754	91.56
342.981	91.56
343.209	91.56
343.437	94.56
343.665	79.56
343.893	84.56
344.12	103.56
344.348	92.56
344.576	77.56
344.804	93.56
345.031	82.56
345.259	95.56
345.487	100.56
345.714	88.56
345.942	98.56
346.17	87.56
346.397	91.56
346.625	86.56
346.853	90.56
347.08	90.56
347.308	83.56
347.535	95.56
347.763	88.56
347.99	81.56
348.218	106.56
348.445	99.56
348.673	95.56
348.9	95.56
349.128	87.56
349.355	88.56
349.583	96.56
349.81	99.56
350.037	85.56
350.265	95.56
350.492	97.56
350.72	100.56
350.947	78.56
351.174	112.56
351.402	95.56
351.629	95.56
351.856	105.56
352.083	91.56
352.311	97.56
352.538	92.56
352.765	103.56
352.992	110.56
353.22	108.56
353.447	110.56
353.674	98.56
353.901	97.56
354.128	97.56
354.355	96.56
354.583	96.56
354.81	99.56
355.037	107.56
355.264	88.56
355.491	94.56
355.718	73.56
355.945	86.56
356.172	88.56
356.399	97.56
356.626	100.56
356.853	95.56
357.08	97.56
357.307	99.56
357.534	92.56
357.761	103.56
357.988	88.56
358.215	96.56
358.441	100.56
358.668	81.56
358.895	96.56
359.122	90.56
359.349	75.56
359.576	94.56
359.802	91.56
360.029	109.56
360.256	106.56
360.483	87.56
360.709	84.56
360.936	100.56
361.163	92.56
361.39	92.56
361.616	75.56
361.843	87.56
362.07	89.56
362.296	72.56
362.523	86.56
362.749	82.56
362.976	84.56
363.203	85.56
363.429	91.56
363.656	87.56
363.882	71.56
364.109	94.56
364.335	85.56
364.562	89.56
364.788	101.56
365.015	93.56
365.241	103.56
365.468	90.56
365.694	96.56
365.92	109.56
366.147	95.56
366.373	84.56
366.599	86.56
366.826	97.56
367.052	87.56
367.278	85.56
367.505	83.56
367.731	100.56
367.957	93.56
368.184	88.56
368.41	100.56
368.636	92.56
368.862	100.56
369.089	109.56
369.315	95.56
369.541	97.56
369.767	85.56
369.993	87.56
370.219	93.56
370.445	75.56
370.672	85.56
370.898	87.56
371.124	92.56
371.35	81.56
371.576	92.56
371.802	83.56
372.028	87.56
372.254	77.56
372.48	94.56
372.706	82.56
372.932	79.56
373.158	84.56
373.384	92.56
373.61	93.56
373.835	84.56
374.061	77.56
374.287	79.56
374.513	96.56
374.739	90.56
374.965	79.56
375.191	66.56
375.416	101.56
375.642	75.56
375.868	89.56
376.094	92.56
376.319	99.56
376.545	87.56
376.771	80.56
376.997	100.56
377.222	102.56
377.448	79.56
377.674	91.56
377.899	83.56
378.125	87.56
378.35	76.56
378.576	79.56
378.802	88.56
379.027	94.56
379.253	99.56
379.478	85.56
379.704	90.56
379.929	98.56
380.155	97.56
380.38	108.56
380.606	86.56
380.831	101.56
381.057	99.56
381.282	87.56
381.507	85.56
381.733	91.56
381.958	83.56
382.184	99.56
382.409	84.56
382.634	106.56
382.86	100.56
383.085	83.56
383.31	106.56
383.535	110.56
383.761	86.56
383.986	94.56
384.211	93.56
384.436	89.56
384.662	98.56
384.887	113.56
385.112	108.56
385.337	105.56
385.562	95.56
385.787	97.56
386.013	108.56
386.238	115.56
386.463	94.56
386.688	113.56
386.913	119.56
387.138	105.56
387.363	111.56
387.588	97.56
387.813	98.56
388.038	118.56
388.263	126.56
388.488	107.56
388.713	93.56
388.938	95.56
389.163	97.56
389.387	95.56
389.612	96.56
389.837	84.56
390.062	88.56
390.287	99.56
390.512	91.56
390.736	90.56
390.961	86.56
391.186	99.56
391.411	80.56
391.636	89.56
391.86	85.56
392.085	81.56
392.31	89.56
392.534	98.56
392.759	88.56
392.984	89.56
393.208	105.56
393.433	127.56
393.658	108.56
393.882	87.56
394.107	75.56
394.331	81.56
394.556	112.56
394.78	91.56
395.005	88.56
395.229	84.56
395.454	87.56
395.678	91.56
395.903	84.56
396.127	89.56
396.352	88.56
396.576	79.56
396.801	99.56
397.025	98.56
397.249	88.56
397.474	77.56
397.698	76.56
397.922	80.56
398.147	100.56
398.371	91.56
398.595	79.56
398.82	83.56
399.044	75.56
399.268	90.56
399.492	103.56
399.717	91.56
399.941	82.56
400.165	96.56
400.389	97.56
400.613	86.56
400.837	87.56
401.062	71.56
401.286	91.56
401.51	71.56
401.734	92.56
401.958	90.56
402.182	105.56
402.406	128.56
402.63	102.56
402.854	91.56
403.078	88.56
403.302	100.56
403.526	79.56
403.75	87.56
403.974	89.56
404.198	85.56
404.422	86.56
404.645	89.56
404.869	82.56
405.093	83.56
405.317	93.56
405.541	78.56
405.765	81.56
405.988	103.56
406.212	116.56
406.436	160.56
406.66	116.56
406.883	88.56
407.107	88.56
407.331	82.56
407.555	75.56
407.778	89.56
408.002	87.56
408.226	105.56
408.449	75.56
408.673	71.56
408.896	88.56
409.12	93.56
409.344	79.56
409.567	75.56
409.791	85.56
410.014	104.56
410.238	99.56
410.461	87.56
410.685	100.56
410.908	94.56
411.132	115.56
411.355	101.56
411.578	88.56
411.802	98.56
412.025	91.56
412.249	95.56
412.472	96.56
412.695	98.56
412.919	97.56
413.142	74.56
413.365	89.56
413.589	92.56
413.812	91.56
414.035	89.56
414.258	95.56
414.482	89.56
414.705	96.56
414.928	93.56
415.151	75.56
415.374	98.56
415.597	91.56
415.821	88.56
416.044	96.56
416.267	84.56
416.49	81.56
416.713	93.56
416.936	91.56
417.159	99.56
417.382	85.56
417.605	85.56
417.828	96.56
418.051	80.56
418.274	94.56
418.497	86.56
418.72	85.56
418.943	89.56
419.166	80.56
419.389	64.56
419.611	79.56
419.834	100.56
420.057	95.56
420.28	105.56
420.503	90.56
420.726	82.56
420.948	78.56
421.171	80.56
421.394	100.56
421.617	91.56
421.839	85.56
422.062	96.56
422.285	86.56
422.507	97.56
422.73	89.56
422.953	94.56
423.175	81.56
423.398	85.56
423.621	95.56
423.843	65.56
424.066	82.56
424.288	87.56
424.511	65.56
424.733	86.56
424.956	101.56
425.178	100.56
425.401	96.56
425.623	99.56
425.846	99.56
426.068	86.56
426.291	80.56
426.513	85.56
426.735	93.56
426.958	98.56
427.18	91.56
427.402	103.56
427.625	143.56
427.847	115.56
428.069	103.56
428.292	86.56
428.514	87.56
428.736	74.56
428.958	101.56
429.181	82.56
429.403	86.56
429.625	93.56
429.847	79.56
430.069	84.56
430.292	86.56
430.514	102.56
430.736	82.56
430.958	88.56
431.18	85.56
431.402	87.56
431.624	81.56
431.846	81.56
432.068	87.56
432.29	71.56
432.512	87.56
432.734	69.56
432.956	88.56
433.178	96.56
433.4	93.56
433.622	73.56
433.844	86.56
434.066	96.56
434.287	94.56
434.509	88.56
434.731	84.56
434.953	79.56
435.175	93.56
435.397	100.56
435.618	91.56
435.84	101.56
436.062	105.56
436.284	105.56
436.505	89.56
436.727	97.56
436.949	91.56
437.17	67.56
437.392	81.56
437.614	88.56
437.835	95.56
438.057	88.56
438.278	108.56
438.5	98.56
438.721	99.56
438.943	102.56
439.165	85.56
439.386	89.56
439.608	90.56
439.829	83.56
440.05	107.56
440.272	124.56
440.493	82.56
440.715	72.56
440.936	83.56
441.158	79.56
441.379	99.56
441.6	92.56
441.822	89.56
442.043	78.56
442.264	86.56
442.486	91.56
442.707	87.56
442.928	95.56
443.149	116.56
443.371	113.56
443.592	82.56
443.813	100.56
444.034	108.56
444.255	87.56
444.476	104.56
444.698	87.56
444.919	85.56
445.14	125.56
445.361	122.56
445.582	97.56
445.803	125.56
446.024	110.56
446.245	110.56
446.466	93.56
446.687	87.56
446.908	98.56
447.129	99.56
447.35	98.56
447.571	86.56
447.792	87.56
448.013	99.56
448.234	96.56
448.455	101.56
448.675	104.56
448.896	104.56
449.117	88.56
449.338	89.56
449.559	118.56
449.779	119.56
450	99.56
450.221	75.56
450.442	91.56
450.662	78.56
450.883	95.56
451.104	97.56
451.324	90.56
451.545	93.56
451.766	80.56
451.986	77.56
452.207	88.56
452.428	107.56
452.648	95.56
452.869	90.56
453.089	94.56
453.31	106.56
453.53	87.56
453.751	95.56
453.971	95.56
454.192	100.56
454.412	89.56
454.633	91.56
454.853	77.56
455.073	80.56
455.294	91.56
455.514	82.56
455.734	93.56
455.955	95.56
456.175	83.56
456.395	89.56
456.616	89.56
456.836	97.56
457.056	83.56
457.276	88.56
457.497	93.56
457.717	79.56
457.937	78.56
458.157	77.56
458.377	89.56
458.598	96.56
458.818	103.56
459.038	121.56
459.258	102.56
459.478	87.56
459.698	73.56
459.918	93.56
460.138	80.56
460.358	83.56
460.578	89.56
460.798	94.56
461.018	93.56
461.238	96.56
461.458	77.56
461.678	85.56
461.898	88.56
462.118	97.56
462.338	85.56
462.558	76.56
462.777	68.56
462.997	80.56
463.217	91.56
463.437	86.56
463.657	96.56
463.876	80.56
464.096	95.56
464.316	86.56
464.536	87.56
464.755	94.56
464.975	109.56
465.195	115.56
465.414	122.56
465.634	95.56
465.854	85.56
466.073	94.56
466.293	75.56
466.512	77.56
466.732	93.56
466.951	75.56
467.171	83.56
467.391	112.56
467.61	91.56
467.829	92.56
468.049	88.56
468.268	92.56
468.488	80.56
468.707	89.56
468.927	72.56
469.146	82.56
469.365	89.56
469.585	89.56
469.804	94.56
470.023	88.56
470.243	77.56
470.462	86.56
470.681	90.56
470.901	96.56
471.12	76.56
471.339	84.56
471.558	80.56
471.777	77.56
471.997	87.56
472.216	96.56
472.435	107.56
472.654	89.56
472.873	86.56
473.092	84.56
473.311	91.56
473.53	88.56
473.749	75.56
473.968	84.56
474.187	89.56
474.406	93.56
474.625	95.56
474.844	91.56
475.063	77.56
475.282	87.56
475.501	81.56
475.72	91.56
475.939	84.56
476.158	80.56
476.377	101.56
476.596	100.56
476.814	93.56
477.033	90.56
477.252	103.56
477.471	96.56
477.69	91.56
477.908	91.56
478.127	109.56
478.346	93.56
478.564	94.56
478.783	91.56
479.002	77.56
479.22	84.56
479.439	103.56
479.658	95.56
479.876	86.56
480.095	81.56
480.313	87.56
480.532	90.56
480.751	93.56
480.969	96.56
481.188	124.56
481.406	113.56
481.624	100.56
481.843	98.56
482.061	70.56
482.28	79.56
482.498	79.56
482.717	95.56
482.935	78.56
483.153	92.56
483.372	95.56
483.59	86.56
483.808	97.56
484.027	99.56
484.245	91.56
484.463	94.56
484.681	97.56
484.9	83.56
485.118	112.56
485.336	90.56
485.554	100.56
485.772	109.56
485.99	111.56
486.209	103.56
486.427	104.56
486.645	104.56
486.863	105.56
487.081	108.56
487.299	97.56
487.517	91.56
487.735	107.56
487.953	83.56
488.171	98.56
488.389	87.56
488.607	117.56
488.825	84.56
489.043	66.56
489.261	94.56
489.479	92.56
489.696	91.56
489.914	79.56
490.132	78.56
490.35	96.56
490.568	100.56
490.786	94.56
491.003	87.56
491.221	81.56
491.439	87.56
491.657	88.56
491.874	103.56
492.092	101.56
492.31	83.56
492.527	104.56
492.745	97.56
492.963	95.56
493.18	87.56
493.398	91.56
493.615	99.56
493.833	99.56
494.05	72.56
494.268	81.56
494.485	94.56
494.703	91.56
494.92	87.56
495.138	81.56
495.355	88.56
495.573	93.56
495.79	79.56
496.008	93.56
496.225	95.56
496.442	79.56
496.66	90.56
496.877	87.56
497.094	92.56
497.312	82.56
497.529	87.56
497.746	84.56
497.963	103.56
498.181	84.56
498.398	91.56
498.615	106.56
498.832	101.56
499.049	81.56
499.267	99.56
499.484	97.56
499.701	91.56
499.918	96.56
500.135	99.56
500.352	90.56
500.569	84.56
500.786	91.56
501.003	91.56
501.22	82.56
501.437	87.56
501.654	84.56
501.871	104.56
502.088	90.56
502.305	101.56
502.522	90.56
502.739	90.56
502.956	100.56
503.172	96.56
503.389	88.56
503.606	103.56
503.823	85.56
504.04	93.56
504.256	79.56
504.473	86.56
504.69	94.56
504.907	91.56
505.123	92.56
505.34	81.56
505.557	96.56
505.773	81.56
505.99	77.56
506.207	101.56
506.423	90.56
506.64	92.56
506.856	92.56
507.073	87.56
507.289	80.56
507.506	85.56
507.722	109.56
507.939	118.56
508.155	91.56
508.372	97.56
508.588	91.56
508.805	100.56
509.021	104.56
509.238	88.56
509.454	87.56
509.67	98.56
509.887	91.56
510.103	121.56
510.319	154.56
510.536	495.56
510.752	1381.56
510.968	419.56
511.184	133.56
511.401	107.56
511.617	80.56
511.833	95.56
512.049	80.56
512.265	78.56
512.481	106.56
512.698	82.56
512.914	90.56
513.13	87.56
513.346	77.56
513.562	89.56
513.778	96.56
513.994	96.56
514.21	99.56
514.426	107.56
514.642	117.56
514.858	117.56
515.074	119.56
515.29	304.56
515.506	865.56
515.721	323.56
515.937	118.56
516.153	108.56
516.369	91.56
516.585	96.56
516.801	85.56
517.016	111.56
