Data from Uncirc_1989_H10_HRD10591_00038.txt Node
Date: Wed Jan 03 11:57:43 EST 2024
User: Yrep
Spectrometer: HR+D1059
Trigger mode: 1
Integration Time (sec): 1.000000E-1
Scans to average: 1
Electric dark correction enabled: true
Nonlinearity correction enabled: false
Boxcar width: 0
XAxis mode: Wavelengths
Number of Pixels in Spectrum: 2048
>>>>>Begin Spectral Data<<<<<
223.165	-18.12
223.4	-18.12
223.635	-18.12
223.869	-25.12
224.104	-16.12
224.338	-15.12
224.573	-22.12
224.808	-9.12
225.042	-6.12
225.277	-10.12
225.511	-14.12
225.746	0.88
225.98	13.88
226.215	9.88
226.449	27.88
226.683	25.88
226.918	25.88
227.152	31.88
227.387	32.88
227.621	51.88
227.856	41.88
228.09	44.88
228.324	38.88
228.559	58.88
228.793	63.88
229.027	51.88
229.262	62.88
229.496	79.88
229.73	89.88
229.964	72.88
230.199	60.88
230.433	77.88
230.667	85.88
230.901	77.88
231.136	67.88
231.37	76.88
231.604	85.88
231.838	96.88
232.072	89.88
232.306	77.88
232.541	78.88
232.775	76.88
233.009	73.88
233.243	89.88
233.477	76.88
233.711	76.88
233.945	73.88
234.179	90.88
234.413	84.88
234.647	68.88
234.881	77.88
235.115	90.88
235.349	73.88
235.583	80.88
235.817	73.88
236.051	89.88
236.285	87.88
236.519	70.88
236.753	74.88
236.987	69.88
237.221	85.88
237.455	69.88
237.689	63.88
237.922	60.88
238.156	53.88
238.39	67.88
238.624	79.88
238.858	67.88
239.091	81.88
239.325	70.88
239.559	75.88
239.793	88.88
240.027	73.88
240.26	75.88
240.494	78.88
240.728	77.88
240.961	79.88
241.195	69.88
241.429	81.88
241.662	74.88
241.896	75.88
242.13	77.88
242.363	82.88
242.597	64.88
242.83	70.88
243.064	77.88
243.298	81.88
243.531	61.88
243.765	64.88
243.998	75.88
244.232	75.88
244.465	75.88
244.699	84.88
244.932	70.88
245.166	69.88
245.399	76.88
245.633	84.88
245.866	79.88
246.099	77.88
246.333	83.88
246.566	75.88
246.8	86.88
247.033	73.88
247.266	57.88
247.5	70.88
247.733	83.88
247.966	78.88
248.2	68.88
248.433	70.88
248.666	70.88
248.899	81.88
249.133	80.88
249.366	86.88
249.599	82.88
249.832	88.88
250.066	83.88
250.299	76.88
250.532	91.88
250.765	68.88
250.998	77.88
251.231	85.88
251.465	84.88
251.698	74.88
251.931	75.88
252.164	70.88
252.397	82.88
252.63	64.88
252.863	76.88
253.096	75.88
253.329	85.88
253.562	70.88
253.795	76.88
254.028	96.88
254.261	65.88
254.494	74.88
254.727	87.88
254.96	105.88
255.193	81.88
255.426	79.88
255.659	73.88
255.892	68.88
256.124	76.88
256.357	75.88
256.59	83.88
256.823	85.88
257.056	83.88
257.289	77.88
257.521	101.88
257.754	82.88
257.987	83.88
258.22	78.88
258.452	73.88
258.685	77.88
258.918	85.88
259.151	77.88
259.383	82.88
259.616	86.88
259.849	85.88
260.081	86.88
260.314	87.88
260.547	83.88
260.779	78.88
261.012	83.88
261.244	85.88
261.477	98.88
261.71	81.88
261.942	106.88
262.175	89.88
262.407	77.88
262.64	80.88
262.872	85.88
263.105	69.88
263.337	76.88
263.57	87.88
263.802	82.88
264.035	86.88
264.267	71.88
264.499	80.88
264.732	73.88
264.964	87.88
265.197	85.88
265.429	77.88
265.661	88.88
265.894	83.88
266.126	80.88
266.358	74.88
266.591	82.88
266.823	79.88
267.055	89.88
267.287	80.88
267.52	80.88
267.752	79.88
267.984	87.88
268.216	82.88
268.448	86.88
268.681	62.88
268.913	81.88
269.145	95.88
269.377	73.88
269.609	85.88
269.841	87.88
270.073	87.88
270.306	84.88
270.538	77.88
270.77	85.88
271.002	81.88
271.234	78.88
271.466	97.88
271.698	74.88
271.93	80.88
272.162	83.88
272.394	95.88
272.626	83.88
272.858	70.88
273.09	89.88
273.322	82.88
273.553	96.88
273.785	98.88
274.017	100.88
274.249	85.88
274.481	84.88
274.713	98.88
274.945	96.88
275.176	91.88
275.408	91.88
275.64	77.88
275.872	83.88
276.104	99.88
276.335	83.88
276.567	99.88
276.799	83.88
277.031	102.88
277.262	103.88
277.494	97.88
277.726	66.88
277.957	97.88
278.189	85.88
278.421	84.88
278.652	89.88
278.884	81.88
279.115	90.88
279.347	84.88
279.579	90.88
279.81	81.88
280.042	96.88
280.273	81.88
280.505	86.88
280.736	89.88
280.968	81.88
281.199	80.88
281.431	84.88
281.662	76.88
281.894	80.88
282.125	84.88
282.356	88.88
282.588	125.88
282.819	98.88
283.051	95.88
283.282	93.88
283.513	102.88
283.745	100.88
283.976	96.88
284.207	99.88
284.439	84.88
284.67	91.88
284.901	102.88
285.132	85.88
285.364	76.88
285.595	92.88
285.826	87.88
286.057	91.88
286.288	92.88
286.52	102.88
286.751	85.88
286.982	77.88
287.213	89.88
287.444	93.88
287.675	81.88
287.906	79.88
288.138	95.88
288.369	79.88
288.6	88.88
288.831	67.88
289.062	82.88
289.293	84.88
289.524	95.88
289.755	93.88
289.986	95.88
290.217	79.88
290.448	79.88
290.679	96.88
290.91	79.88
291.141	77.88
291.371	83.88
291.602	82.88
291.833	97.88
292.064	78.88
292.295	79.88
292.526	84.88
292.757	93.88
292.987	89.88
293.218	75.88
293.449	94.88
293.68	100.88
293.91	97.88
294.141	102.88
294.372	91.88
294.603	97.88
294.833	95.88
295.064	78.88
295.295	93.88
295.525	93.88
295.756	100.88
295.987	112.88
296.217	126.88
296.448	104.88
296.679	93.88
296.909	77.88
297.14	93.88
297.37	98.88
297.601	82.88
297.831	83.88
298.062	88.88
298.292	79.88
298.523	78.88
298.753	94.88
298.984	87.88
299.214	77.88
299.445	78.88
299.675	93.88
299.905	89.88
300.136	87.88
300.366	93.88
300.597	75.88
300.827	87.88
301.057	87.88
301.288	100.88
301.518	80.88
301.748	92.88
301.979	104.88
302.209	86.88
302.439	84.88
302.669	91.88
302.9	77.88
303.13	94.88
303.36	91.88
303.59	95.88
303.82	114.88
304.051	91.88
304.281	82.88
304.511	84.88
304.741	76.88
304.971	94.88
305.201	81.88
305.431	88.88
305.661	79.88
305.891	94.88
306.121	88.88
306.352	100.88
306.582	95.88
306.812	76.88
307.042	85.88
307.272	94.88
307.502	87.88
307.731	96.88
307.961	89.88
308.191	107.88
308.421	91.88
308.651	87.88
308.881	84.88
309.111	84.88
309.341	95.88
309.571	86.88
309.8	106.88
310.03	92.88
310.26	91.88
310.49	85.88
310.72	75.88
310.949	92.88
311.179	80.88
311.409	91.88
311.639	85.88
311.868	92.88
312.098	102.88
312.328	89.88
312.557	97.88
312.787	98.88
313.017	71.88
313.246	76.88
313.476	91.88
313.706	85.88
313.935	89.88
314.165	93.88
314.394	109.88
314.624	97.88
314.853	87.88
315.083	95.88
315.312	78.88
315.542	87.88
315.771	77.88
316.001	88.88
316.23	83.88
316.46	89.88
316.689	91.88
316.919	106.88
317.148	86.88
317.377	86.88
317.607	102.88
317.836	82.88
318.065	94.88
318.295	98.88
318.524	89.88
318.753	101.88
318.983	80.88
319.212	105.88
319.441	91.88
319.67	93.88
319.9	97.88
320.129	96.88
320.358	83.88
320.587	80.88
320.816	91.88
321.046	77.88
321.275	102.88
321.504	97.88
321.733	86.88
321.962	98.88
322.191	97.88
322.42	106.88
322.649	91.88
322.878	101.88
323.108	113.88
323.337	106.88
323.566	106.88
323.795	140.88
324.024	185.88
324.253	345.88
324.482	689.88
324.71	1353.88
324.939	1786.88
325.168	665.88
325.397	219.88
325.626	138.88
325.855	123.88
326.084	124.88
326.313	139.88
326.542	139.88
326.77	178.88
326.999	367.88
327.228	768.88
327.457	1432.88
327.686	1113.88
327.914	311.88
328.143	183.88
328.372	159.88
328.6	126.88
328.829	117.88
329.058	121.88
329.287	104.88
329.515	103.88
329.744	107.88
329.972	98.88
330.201	141.88
330.43	174.88
330.658	128.88
330.887	118.88
331.115	115.88
331.344	96.88
331.572	91.88
331.801	102.88
332.03	95.88
332.258	91.88
332.486	79.88
332.715	91.88
332.943	86.88
333.172	93.88
333.4	105.88
333.629	105.88
333.857	104.88
334.085	122.88
334.314	132.88
334.542	190.88
334.771	192.88
334.999	100.88
335.227	91.88
335.455	88.88
335.684	95.88
335.912	103.88
336.14	93.88
336.369	93.88
336.597	97.88
336.825	95.88
337.053	77.88
337.281	90.88
337.51	96.88
337.738	99.88
337.966	87.88
338.194	85.88
338.422	93.88
338.65	104.88
338.878	87.88
339.106	84.88
339.334	78.88
339.562	80.88
339.79	98.88
340.018	84.88
340.246	86.88
340.474	84.88
340.702	93.88
340.93	87.88
341.158	80.88
341.386	84.88
341.614	93.88
341.842	86.88
342.07	99.88
342.298	97.88
342.526	92.88
342.754	86.88
342.981	85.88
343.209	77.88
343.437	117.88
343.665	94.88
343.893	85.88
344.12	87.88
344.348	79.88
344.576	88.88
344.804	89.88
345.031	104.88
345.259	88.88
345.487	84.88
345.714	89.88
345.942	92.88
346.17	81.88
346.397	89.88
346.625	101.88
346.853	81.88
347.08	93.88
347.308	78.88
347.535	75.88
347.763	99.88
347.99	103.88
348.218	102.88
348.445	92.88
348.673	91.88
348.9	103.88
349.128	109.88
349.355	90.88
349.583	75.88
349.81	90.88
350.037	105.88
350.265	89.88
350.492	86.88
350.72	100.88
350.947	86.88
351.174	118.88
351.402	90.88
351.629	108.88
351.856	88.88
352.083	102.88
352.311	96.88
352.538	112.88
352.765	96.88
352.992	99.88
353.22	94.88
353.447	93.88
353.674	89.88
353.901	96.88
354.128	96.88
354.355	94.88
354.583	84.88
354.81	84.88
355.037	89.88
355.264	69.88
355.491	98.88
355.718	79.88
355.945	93.88
356.172	98.88
356.399	92.88
356.626	88.88
356.853	90.88
357.08	90.88
357.307	78.88
357.534	82.88
357.761	86.88
357.988	85.88
358.215	89.88
358.441	87.88
358.668	96.88
358.895	89.88
359.122	82.88
359.349	85.88
359.576	94.88
359.802	98.88
360.029	100.88
360.256	111.88
360.483	112.88
360.709	90.88
360.936	90.88
361.163	69.88
361.39	86.88
361.616	84.88
361.843	74.88
362.07	101.88
362.296	97.88
362.523	87.88
362.749	72.88
362.976	85.88
363.203	81.88
363.429	86.88
363.656	92.88
363.882	77.88
364.109	77.88
364.335	89.88
364.562	86.88
364.788	93.88
365.015	91.88
365.241	83.88
365.468	106.88
365.694	91.88
365.92	89.88
366.147	85.88
366.373	81.88
366.599	74.88
366.826	91.88
367.052	90.88
367.278	79.88
367.505	70.88
367.731	95.88
367.957	91.88
368.184	89.88
368.41	113.88
368.636	101.88
368.862	109.88
369.089	103.88
369.315	84.88
369.541	90.88
369.767	90.88
369.993	76.88
370.219	89.88
370.445	81.88
370.672	86.88
370.898	69.88
371.124	83.88
371.35	93.88
371.576	83.88
371.802	57.88
372.028	79.88
372.254	82.88
372.48	99.88
372.706	88.88
372.932	85.88
373.158	92.88
373.384	87.88
373.61	101.88
373.835	90.88
374.061	94.88
374.287	106.88
374.513	81.88
374.739	90.88
374.965	101.88
375.191	98.88
375.416	76.88
375.642	91.88
375.868	85.88
376.094	83.88
376.319	78.88
376.545	79.88
376.771	93.88
376.997	73.88
377.222	83.88
377.448	89.88
377.674	76.88
377.899	83.88
378.125	81.88
378.35	79.88
378.576	90.88
378.802	87.88
379.027	83.88
379.253	82.88
379.478	91.88
379.704	86.88
379.929	84.88
380.155	84.88
380.38	87.88
380.606	84.88
380.831	109.88
381.057	92.88
381.282	91.88
381.507	97.88
381.733	82.88
381.958	97.88
382.184	105.88
382.409	79.88
382.634	100.88
382.86	88.88
383.085	99.88
383.31	97.88
383.535	89.88
383.761	86.88
383.986	99.88
384.211	100.88
384.436	98.88
384.662	101.88
384.887	90.88
385.112	94.88
385.337	93.88
385.562	104.88
385.787	106.88
386.013	96.88
386.238	98.88
386.463	99.88
386.688	105.88
386.913	102.88
387.138	102.88
387.363	100.88
387.588	99.88
387.813	95.88
388.038	97.88
388.263	101.88
388.488	79.88
388.713	92.88
388.938	92.88
389.163	97.88
389.387	98.88
389.612	84.88
389.837	90.88
390.062	92.88
390.287	86.88
390.512	87.88
390.736	95.88
390.961	86.88
391.186	70.88
391.411	92.88
391.636	74.88
391.86	82.88
392.085	94.88
392.31	85.88
392.534	93.88
392.759	92.88
392.984	90.88
393.208	93.88
393.433	120.88
393.658	110.88
393.882	85.88
394.107	80.88
394.331	93.88
394.556	83.88
394.78	78.88
395.005	88.88
395.229	80.88
395.454	82.88
395.678	85.88
395.903	91.88
396.127	90.88
396.352	89.88
396.576	83.88
396.801	90.88
397.025	93.88
397.249	89.88
397.474	82.88
397.698	82.88
397.922	88.88
398.147	90.88
398.371	87.88
398.595	86.88
398.82	94.88
399.044	75.88
399.268	84.88
399.492	95.88
399.717	82.88
399.941	77.88
400.165	86.88
400.389	93.88
400.613	93.88
400.837	68.88
401.062	85.88
401.286	85.88
401.51	89.88
401.734	82.88
401.958	112.88
402.182	117.88
402.406	147.88
402.63	100.88
402.854	86.88
403.078	83.88
403.302	85.88
403.526	96.88
403.75	76.88
403.974	84.88
404.198	74.88
404.422	81.88
404.645	75.88
404.869	83.88
405.093	96.88
405.317	93.88
405.541	103.88
405.765	95.88
405.988	116.88
406.212	155.88
406.436	203.88
406.66	133.88
406.883	96.88
407.107	91.88
407.331	93.88
407.555	93.88
407.778	84.88
408.002	88.88
408.226	73.88
408.449	92.88
408.673	84.88
408.896	75.88
409.12	84.88
409.344	81.88
409.567	85.88
409.791	87.88
410.014	91.88
410.238	83.88
410.461	96.88
410.685	78.88
410.908	80.88
411.132	97.88
411.355	90.88
411.578	94.88
411.802	92.88
412.025	79.88
412.249	91.88
412.472	82.88
412.695	99.88
412.919	97.88
413.142	98.88
413.365	70.88
413.589	71.88
413.812	92.88
414.035	83.88
414.258	86.88
414.482	95.88
414.705	86.88
414.928	78.88
415.151	87.88
415.374	89.88
415.597	78.88
415.821	67.88
416.044	103.88
416.267	76.88
416.49	84.88
416.713	94.88
416.936	93.88
417.159	89.88
417.382	95.88
417.605	78.88
417.828	96.88
418.051	81.88
418.274	78.88
418.497	78.88
418.72	92.88
418.943	73.88
419.166	92.88
419.389	82.88
419.611	71.88
419.834	94.88
420.057	103.88
420.28	77.88
420.503	87.88
420.726	93.88
420.948	82.88
421.171	91.88
421.394	89.88
421.617	88.88
421.839	79.88
422.062	90.88
422.285	78.88
422.507	91.88
422.73	89.88
422.953	93.88
423.175	81.88
423.398	85.88
423.621	86.88
423.843	75.88
424.066	83.88
424.288	93.88
424.511	83.88
424.733	81.88
424.956	101.88
425.178	79.88
425.401	96.88
425.623	89.88
425.846	93.88
426.068	91.88
426.291	91.88
426.513	91.88
426.735	87.88
426.958	78.88
427.18	103.88
427.402	116.88
427.625	145.88
427.847	115.88
428.069	99.88
428.292	81.88
428.514	86.88
428.736	84.88
428.958	81.88
429.181	87.88
429.403	86.88
429.625	87.88
429.847	96.88
430.069	87.88
430.292	78.88
430.514	79.88
430.736	87.88
430.958	78.88
431.18	85.88
431.402	99.88
431.624	81.88
431.846	76.88
432.068	83.88
432.29	87.88
432.512	74.88
432.734	86.88
432.956	92.88
433.178	97.88
433.4	107.88
433.622	96.88
433.844	97.88
434.066	96.88
434.287	77.88
434.509	81.88
434.731	70.88
434.953	84.88
435.175	81.88
435.397	87.88
435.618	100.88
435.84	101.88
436.062	88.88
436.284	89.88
436.505	80.88
436.727	98.88
436.949	88.88
437.17	84.88
437.392	77.88
437.614	94.88
437.835	85.88
438.057	106.88
438.278	106.88
438.5	95.88
438.721	119.88
438.943	97.88
439.165	83.88
439.386	80.88
439.608	89.88
439.829	102.88
440.05	106.88
440.272	133.88
440.493	98.88
440.715	73.88
440.936	72.88
441.158	86.88
441.379	98.88
441.6	84.88
441.822	89.88
442.043	95.88
442.264	100.88
442.486	100.88
442.707	97.88
442.928	96.88
443.149	131.88
443.371	113.88
443.592	93.88
443.813	107.88
444.034	91.88
444.255	82.88
444.476	77.88
444.698	87.88
444.919	80.88
445.14	151.88
445.361	108.88
445.582	104.88
445.803	109.88
446.024	130.88
446.245	109.88
446.466	106.88
446.687	85.88
446.908	81.88
447.129	81.88
447.35	102.88
447.571	84.88
447.792	97.88
448.013	99.88
448.234	107.88
448.455	93.88
448.675	92.88
448.896	99.88
449.117	101.88
449.338	89.88
449.559	107.88
449.779	110.88
450	109.88
450.221	102.88
450.442	92.88
450.662	79.88
450.883	95.88
451.104	100.88
451.324	102.88
451.545	85.88
451.766	87.88
451.986	93.88
452.207	69.88
452.428	75.88
452.648	100.88
452.869	97.88
453.089	107.88
453.31	104.88
453.53	77.88
453.751	85.88
453.971	93.88
454.192	99.88
454.412	80.88
454.633	86.88
454.853	80.88
455.073	97.88
455.294	96.88
455.514	100.88
455.734	88.88
455.955	76.88
456.175	87.88
456.395	84.88
456.616	97.88
456.836	77.88
457.056	78.88
457.276	97.88
457.497	88.88
457.717	83.88
457.937	77.88
458.157	94.88
458.377	98.88
458.598	91.88
458.818	121.88
459.038	119.88
459.258	122.88
459.478	79.88
459.698	78.88
459.918	78.88
460.138	82.88
460.358	93.88
460.578	98.88
460.798	94.88
461.018	82.88
461.238	87.88
461.458	82.88
461.678	93.88
461.898	89.88
462.118	96.88
462.338	83.88
462.558	82.88
462.777	66.88
462.997	81.88
463.217	90.88
463.437	95.88
463.657	88.88
463.876	87.88
464.096	70.88
464.316	78.88
464.536	91.88
464.755	92.88
464.975	99.88
465.195	134.88
465.414	143.88
465.634	91.88
465.854	98.88
466.073	97.88
466.293	88.88
466.512	89.88
466.732	76.88
466.951	69.88
467.171	101.88
467.391	89.88
467.61	100.88
467.829	91.88
468.049	106.88
468.268	126.88
468.488	94.88
468.707	96.88
468.927	96.88
469.146	89.88
469.365	80.88
469.585	97.88
469.804	76.88
470.023	90.88
470.243	87.88
470.462	83.88
470.681	106.88
470.901	79.88
471.12	77.88
471.339	98.88
471.558	89.88
471.777	94.88
471.997	106.88
472.216	147.88
472.435	239.88
472.654	110.88
472.873	101.88
473.092	76.88
473.311	82.88
473.53	73.88
473.749	75.88
473.968	86.88
474.187	80.88
474.406	89.88
474.625	85.88
474.844	82.88
475.063	81.88
475.282	92.88
475.501	77.88
475.72	87.88
475.939	82.88
476.158	92.88
476.377	80.88
476.596	85.88
476.814	83.88
477.033	95.88
477.252	105.88
477.471	99.88
477.69	82.88
477.908	98.88
478.127	95.88
478.346	94.88
478.564	91.88
478.783	97.88
479.002	86.88
479.22	94.88
479.439	100.88
479.658	91.88
479.876	81.88
480.095	86.88
480.313	92.88
480.532	96.88
480.751	95.88
480.969	164.88
481.188	394.88
481.406	245.88
481.624	109.88
481.843	77.88
482.061	86.88
482.28	81.88
482.498	92.88
482.717	87.88
482.935	83.88
483.153	105.88
483.372	90.88
483.59	93.88
483.808	80.88
484.027	90.88
484.245	83.88
484.463	81.88
484.681	95.88
484.9	89.88
485.118	105.88
485.336	91.88
485.554	96.88
485.772	100.88
485.99	82.88
486.209	93.88
486.427	94.88
486.645	103.88
486.863	102.88
487.081	97.88
487.299	99.88
487.517	83.88
487.735	88.88
487.953	98.88
488.171	83.88
488.389	95.88
488.607	78.88
488.825	98.88
489.043	86.88
489.261	100.88
489.479	83.88
489.696	82.88
489.914	90.88
490.132	89.88
490.35	82.88
490.568	77.88
490.786	85.88
491.003	80.88
491.221	86.88
491.439	94.88
491.657	86.88
491.874	78.88
492.092	94.88
492.31	98.88
492.527	93.88
492.745	78.88
492.963	92.88
493.18	92.88
493.398	89.88
493.615	85.88
493.833	91.88
494.05	72.88
494.268	81.88
494.485	83.88
494.703	98.88
494.92	98.88
495.138	80.88
495.355	89.88
495.573	89.88
495.79	86.88
496.008	101.88
496.225	95.88
496.442	91.88
496.66	98.88
496.877	96.88
497.094	98.88
497.312	78.88
497.529	90.88
497.746	87.88
497.963	81.88
498.181	91.88
498.398	94.88
498.615	99.88
498.832	97.88
499.049	94.88
499.267	85.88
499.484	92.88
499.701	87.88
499.918	93.88
500.135	84.88
500.352	85.88
500.569	86.88
500.786	79.88
501.003	85.88
501.22	87.88
501.437	86.88
501.654	93.88
501.871	104.88
502.088	95.88
502.305	97.88
502.522	82.88
502.739	84.88
502.956	110.88
503.172	91.88
503.389	89.88
503.606	104.88
503.823	82.88
504.04	92.88
504.256	87.88
504.473	84.88
504.69	84.88
504.907	86.88
505.123	85.88
505.34	100.88
505.557	85.88
505.773	94.88
505.99	93.88
506.207	86.88
506.423	104.88
506.64	84.88
506.856	91.88
507.073	92.88
507.289	91.88
507.506	82.88
507.722	102.88
507.939	101.88
508.155	91.88
508.372	101.88
508.588	96.88
508.805	98.88
509.021	94.88
509.238	98.88
509.454	100.88
509.67	101.88
509.887	88.88
510.103	118.88
510.319	188.88
510.536	615.88
510.752	1933.88
510.968	543.88
511.184	129.88
511.401	101.88
511.617	103.88
511.833	90.88
512.049	90.88
512.265	92.88
512.481	93.88
512.698	81.88
512.914	86.88
513.13	92.88
513.346	83.88
513.562	94.88
513.778	106.88
513.994	100.88
514.21	101.88
514.426	109.88
514.642	125.88
514.858	117.88
515.074	143.88
515.29	373.88
515.506	1222.88
515.721	438.88
515.937	136.88
516.153	106.88
516.369	87.88
516.585	90.88
516.801	87.88
