Data from Uncirc_1989_H10_HRD10591_00058.txt Node
Date: Wed Jan 03 11:57:47 EST 2024
User: Yrep
Spectrometer: HR+D1059
Trigger mode: 1
Integration Time (sec): 1.000000E-1
Scans to average: 1
Electric dark correction enabled: true
Nonlinearity correction enabled: false
Boxcar width: 0
XAxis mode: Wavelengths
Number of Pixels in Spectrum: 2048
>>>>>Begin Spectral Data<<<<<
223.165	-15.62
223.4	-15.62
223.635	-15.62
223.869	-28.62
224.104	-14.62
224.338	-16.62
224.573	-11.62
224.808	-14.62
225.042	-10.62
225.277	5.38
225.511	-0.62
225.746	9.38
225.98	1.38
226.215	14.38
226.449	11.38
226.683	18.38
226.918	15.38
227.152	37.38
227.387	32.38
227.621	19.38
227.856	38.38
228.09	43.38
228.324	34.38
228.559	60.38
228.793	62.38
229.027	56.38
229.262	60.38
229.496	75.38
229.73	68.38
229.964	77.38
230.199	83.38
230.433	76.38
230.667	76.38
230.901	87.38
231.136	76.38
231.37	75.38
231.604	87.38
231.838	83.38
232.072	69.38
232.306	77.38
232.541	62.38
232.775	73.38
233.009	68.38
233.243	68.38
233.477	78.38
233.711	81.38
233.945	73.38
234.179	61.38
234.413	72.38
234.647	94.38
234.881	72.38
235.115	76.38
235.349	76.38
235.583	71.38
235.817	80.38
236.051	74.38
236.285	72.38
236.519	75.38
236.753	74.38
236.987	67.38
237.221	62.38
237.455	82.38
237.689	75.38
237.922	75.38
238.156	72.38
238.39	62.38
238.624	56.38
238.858	72.38
239.091	79.38
239.325	70.38
239.559	77.38
239.793	82.38
240.027	75.38
240.26	65.38
240.494	78.38
240.728	83.38
240.961	69.38
241.195	67.38
241.429	64.38
241.662	63.38
241.896	80.38
242.13	73.38
242.363	62.38
242.597	56.38
242.83	72.38
243.064	75.38
243.298	76.38
243.531	65.38
243.765	76.38
243.998	75.38
244.232	77.38
244.465	84.38
244.699	71.38
244.932	83.38
245.166	74.38
245.399	81.38
245.633	73.38
245.866	84.38
246.099	91.38
246.333	72.38
246.566	76.38
246.8	63.38
247.033	64.38
247.266	65.38
247.5	87.38
247.733	82.38
247.966	68.38
248.2	89.38
248.433	87.38
248.666	79.38
248.899	84.38
249.133	82.38
249.366	98.38
249.599	66.38
249.832	80.38
250.066	74.38
250.299	84.38
250.532	66.38
250.765	84.38
250.998	73.38
251.231	78.38
251.465	73.38
251.698	71.38
251.931	88.38
252.164	71.38
252.397	76.38
252.63	74.38
252.863	67.38
253.096	65.38
253.329	92.38
253.562	85.38
253.795	77.38
254.028	67.38
254.261	75.38
254.494	71.38
254.727	89.38
254.96	90.38
255.193	82.38
255.426	74.38
255.659	78.38
255.892	77.38
256.124	75.38
256.357	86.38
256.59	73.38
256.823	76.38
257.056	71.38
257.289	75.38
257.521	90.38
257.754	87.38
257.987	79.38
258.22	82.38
258.452	79.38
258.685	85.38
258.918	92.38
259.151	77.38
259.383	74.38
259.616	72.38
259.849	78.38
260.081	61.38
260.314	75.38
260.547	88.38
260.779	83.38
261.012	77.38
261.244	77.38
261.477	73.38
261.71	83.38
261.942	101.38
262.175	109.38
262.407	79.38
262.64	83.38
262.872	79.38
263.105	75.38
263.337	80.38
263.57	72.38
263.802	84.38
264.035	90.38
264.267	88.38
264.499	74.38
264.732	78.38
264.964	72.38
265.197	75.38
265.429	77.38
265.661	83.38
265.894	80.38
266.126	91.38
266.358	73.38
266.591	95.38
266.823	75.38
267.055	74.38
267.287	84.38
267.52	83.38
267.752	81.38
267.984	73.38
268.216	67.38
268.448	88.38
268.681	87.38
268.913	89.38
269.145	81.38
269.377	77.38
269.609	71.38
269.841	76.38
270.073	74.38
270.306	97.38
270.538	66.38
270.77	65.38
271.002	73.38
271.234	71.38
271.466	80.38
271.698	73.38
271.93	86.38
272.162	86.38
272.394	72.38
272.626	74.38
272.858	80.38
273.09	63.38
273.322	79.38
273.553	73.38
273.785	78.38
274.017	76.38
274.249	68.38
274.481	78.38
274.713	89.38
274.945	75.38
275.176	80.38
275.408	75.38
275.64	77.38
275.872	67.38
276.104	79.38
276.335	81.38
276.567	88.38
276.799	92.38
277.031	93.38
277.262	95.38
277.494	87.38
277.726	91.38
277.957	89.38
278.189	90.38
278.421	97.38
278.652	81.38
278.884	80.38
279.115	67.38
279.347	83.38
279.579	87.38
279.81	85.38
280.042	84.38
280.273	83.38
280.505	68.38
280.736	75.38
280.968	67.38
281.199	85.38
281.431	84.38
281.662	98.38
281.894	68.38
282.125	99.38
282.356	109.38
282.588	128.38
282.819	99.38
283.051	78.38
283.282	71.38
283.513	88.38
283.745	74.38
283.976	81.38
284.207	71.38
284.439	75.38
284.67	81.38
284.901	91.38
285.132	82.38
285.364	87.38
285.595	90.38
285.826	77.38
286.057	90.38
286.288	72.38
286.52	92.38
286.751	92.38
286.982	82.38
287.213	77.38
287.444	80.38
287.675	75.38
287.906	88.38
288.138	84.38
288.369	101.38
288.6	78.38
288.831	72.38
289.062	77.38
289.293	72.38
289.524	77.38
289.755	81.38
289.986	79.38
290.217	93.38
290.448	91.38
290.679	78.38
290.91	67.38
291.141	68.38
291.371	91.38
291.602	89.38
291.833	78.38
292.064	101.38
292.295	79.38
292.526	82.38
292.757	95.38
292.987	80.38
293.218	89.38
293.449	98.38
293.68	84.38
293.91	81.38
294.141	88.38
294.372	87.38
294.603	74.38
294.833	77.38
295.064	80.38
295.295	82.38
295.525	83.38
295.756	110.38
295.987	97.38
296.217	117.38
296.448	119.38
296.679	92.38
296.909	91.38
297.14	94.38
297.37	95.38
297.601	79.38
297.831	79.38
298.062	75.38
298.292	73.38
298.523	89.38
298.753	75.38
298.984	79.38
299.214	87.38
299.445	87.38
299.675	87.38
299.905	71.38
300.136	86.38
300.366	77.38
300.597	89.38
300.827	97.38
301.057	84.38
301.288	102.38
301.518	91.38
301.748	87.38
301.979	97.38
302.209	83.38
302.439	89.38
302.669	100.38
302.9	87.38
303.13	87.38
303.36	89.38
303.59	80.38
303.82	98.38
304.051	87.38
304.281	83.38
304.511	79.38
304.741	79.38
304.971	80.38
305.201	86.38
305.431	95.38
305.661	77.38
305.891	65.38
306.121	88.38
306.352	88.38
306.582	101.38
306.812	84.38
307.042	86.38
307.272	85.38
307.502	90.38
307.731	85.38
307.961	80.38
308.191	90.38
308.421	75.38
308.651	65.38
308.881	91.38
309.111	80.38
309.341	96.38
309.571	94.38
309.8	88.38
310.03	82.38
310.26	88.38
310.49	87.38
310.72	93.38
310.949	94.38
311.179	100.38
311.409	79.38
311.639	96.38
311.868	93.38
312.098	85.38
312.328	87.38
312.557	103.38
312.787	97.38
313.017	86.38
313.246	79.38
313.476	67.38
313.706	81.38
313.935	75.38
314.165	75.38
314.394	82.38
314.624	88.38
314.853	88.38
315.083	89.38
315.312	84.38
315.542	79.38
315.771	73.38
316.001	81.38
316.23	84.38
316.46	77.38
316.689	79.38
316.919	92.38
317.148	80.38
317.377	94.38
317.607	97.38
317.836	91.38
318.065	64.38
318.295	85.38
318.524	83.38
318.753	77.38
318.983	89.38
319.212	95.38
319.441	101.38
319.67	97.38
319.9	84.38
320.129	98.38
320.358	74.38
320.587	88.38
320.816	82.38
321.046	101.38
321.275	90.38
321.504	95.38
321.733	85.38
321.962	83.38
322.191	98.38
322.42	106.38
322.649	97.38
322.878	112.38
323.108	114.38
323.337	108.38
323.566	107.38
323.795	130.38
324.024	145.38
324.253	336.38
324.482	701.38
324.71	1469.38
324.939	1879.38
325.168	677.38
325.397	219.38
325.626	139.38
325.855	114.38
326.084	108.38
326.313	123.38
326.542	126.38
326.77	208.38
326.999	413.38
327.228	809.38
327.457	1479.38
327.686	1197.38
327.914	329.38
328.143	187.38
328.372	162.38
328.6	122.38
328.829	109.38
329.058	122.38
329.287	109.38
329.515	111.38
329.744	97.38
329.972	124.38
330.201	173.38
330.43	196.38
330.658	141.38
330.887	109.38
331.115	100.38
331.344	88.38
331.572	99.38
331.801	99.38
332.03	86.38
332.258	73.38
332.486	96.38
332.715	82.38
332.943	88.38
333.172	100.38
333.4	91.38
333.629	116.38
333.857	117.38
334.085	119.38
334.314	153.38
334.542	223.38
334.771	199.38
334.999	128.38
335.227	94.38
335.455	98.38
335.684	83.38
335.912	92.38
336.14	102.38
336.369	92.38
336.597	99.38
336.825	94.38
337.053	89.38
337.281	77.38
337.51	89.38
337.738	92.38
337.966	82.38
338.194	74.38
338.422	90.38
338.65	97.38
338.878	92.38
339.106	76.38
339.334	84.38
339.562	93.38
339.79	90.38
340.018	85.38
340.246	84.38
340.474	82.38
340.702	89.38
340.93	89.38
341.158	94.38
341.386	90.38
341.614	93.38
341.842	93.38
342.07	97.38
342.298	82.38
342.526	77.38
342.754	75.38
342.981	89.38
343.209	94.38
343.437	85.38
343.665	93.38
343.893	90.38
344.12	86.38
344.348	92.38
344.576	91.38
344.804	79.38
345.031	94.38
345.259	99.38
345.487	84.38
345.714	91.38
345.942	89.38
346.17	85.38
346.397	92.38
346.625	94.38
346.853	88.38
347.08	77.38
347.308	95.38
347.535	97.38
347.763	108.38
347.99	84.38
348.218	89.38
348.445	89.38
348.673	99.38
348.9	77.38
349.128	92.38
349.355	80.38
349.583	85.38
349.81	77.38
350.037	74.38
350.265	100.38
350.492	80.38
350.72	81.38
350.947	87.38
351.174	95.38
351.402	116.38
351.629	83.38
351.856	95.38
352.083	86.38
352.311	94.38
352.538	92.38
352.765	92.38
352.992	93.38
353.22	102.38
353.447	104.38
353.674	86.38
353.901	98.38
354.128	96.38
354.355	89.38
354.583	92.38
354.81	93.38
355.037	68.38
355.264	93.38
355.491	83.38
355.718	83.38
355.945	84.38
356.172	94.38
356.399	83.38
356.626	87.38
356.853	92.38
357.08	81.38
357.307	81.38
357.534	93.38
357.761	83.38
357.988	75.38
358.215	93.38
358.441	82.38
358.668	84.38
358.895	87.38
359.122	74.38
359.349	94.38
359.576	83.38
359.802	92.38
360.029	83.38
360.256	101.38
360.483	76.38
360.709	80.38
360.936	92.38
361.163	84.38
361.39	84.38
361.616	99.38
361.843	89.38
362.07	82.38
362.296	95.38
362.523	86.38
362.749	81.38
362.976	74.38
363.203	99.38
363.429	79.38
363.656	91.38
363.882	79.38
364.109	72.38
364.335	80.38
364.562	88.38
364.788	80.38
365.015	94.38
365.241	84.38
365.468	100.38
365.694	90.38
365.92	97.38
366.147	91.38
366.373	66.38
366.599	84.38
366.826	76.38
367.052	80.38
367.278	77.38
367.505	85.38
367.731	99.38
367.957	81.38
368.184	84.38
368.41	80.38
368.636	103.38
368.862	97.38
369.089	88.38
369.315	89.38
369.541	76.38
369.767	102.38
369.993	92.38
370.219	77.38
370.445	81.38
370.672	90.38
370.898	89.38
371.124	70.38
371.35	90.38
371.576	91.38
371.802	75.38
372.028	89.38
372.254	87.38
372.48	90.38
372.706	97.38
372.932	71.38
373.158	81.38
373.384	94.38
373.61	95.38
373.835	87.38
374.061	87.38
374.287	82.38
374.513	78.38
374.739	84.38
374.965	83.38
375.191	81.38
375.416	92.38
375.642	96.38
375.868	75.38
376.094	94.38
376.319	82.38
376.545	90.38
376.771	91.38
376.997	83.38
377.222	85.38
377.448	84.38
377.674	95.38
377.899	80.38
378.125	95.38
378.35	95.38
378.576	101.38
378.802	97.38
379.027	81.38
379.253	91.38
379.478	87.38
379.704	92.38
379.929	88.38
380.155	100.38
380.38	87.38
380.606	80.38
380.831	91.38
381.057	92.38
381.282	82.38
381.507	81.38
381.733	94.38
381.958	90.38
382.184	89.38
382.409	103.38
382.634	90.38
382.86	89.38
383.085	101.38
383.31	90.38
383.535	85.38
383.761	98.38
383.986	97.38
384.211	100.38
384.436	85.38
384.662	89.38
384.887	102.38
385.112	90.38
385.337	90.38
385.562	84.38
385.787	90.38
386.013	82.38
386.238	98.38
386.463	92.38
386.688	93.38
386.913	96.38
387.138	103.38
387.363	89.38
387.588	103.38
387.813	98.38
388.038	94.38
388.263	101.38
388.488	99.38
388.713	94.38
388.938	90.38
389.163	84.38
389.387	91.38
389.612	79.38
389.837	77.38
390.062	91.38
390.287	96.38
390.512	88.38
390.736	84.38
390.961	81.38
391.186	87.38
391.411	82.38
391.636	95.38
391.86	78.38
392.085	90.38
392.31	71.38
392.534	77.38
392.759	76.38
392.984	72.38
393.208	83.38
393.433	94.38
393.658	89.38
393.882	84.38
394.107	90.38
394.331	87.38
394.556	86.38
394.78	95.38
395.005	82.38
395.229	76.38
395.454	88.38
395.678	66.38
395.903	91.38
396.127	75.38
396.352	76.38
396.576	76.38
396.801	88.38
397.025	96.38
397.249	85.38
397.474	67.38
397.698	65.38
397.922	80.38
398.147	75.38
398.371	88.38
398.595	86.38
398.82	77.38
399.044	68.38
399.268	81.38
399.492	71.38
399.717	88.38
399.941	83.38
400.165	82.38
400.389	84.38
400.613	79.38
400.837	77.38
401.062	59.38
401.286	83.38
401.51	98.38
401.734	88.38
401.958	85.38
402.182	118.38
402.406	155.38
402.63	119.38
402.854	87.38
403.078	78.38
403.302	75.38
403.526	83.38
403.75	87.38
403.974	72.38
404.198	85.38
404.422	89.38
404.645	91.38
404.869	78.38
405.093	103.38
405.317	80.38
405.541	89.38
405.765	94.38
405.988	102.38
406.212	157.38
406.436	205.38
406.66	116.38
406.883	93.38
407.107	81.38
407.331	90.38
407.555	97.38
407.778	79.38
408.002	80.38
408.226	97.38
408.449	78.38
408.673	88.38
408.896	80.38
409.12	91.38
409.344	97.38
409.567	89.38
409.791	87.38
410.014	91.38
410.238	89.38
410.461	93.38
410.685	89.38
410.908	88.38
411.132	97.38
411.355	88.38
411.578	85.38
411.802	84.38
412.025	90.38
412.249	83.38
412.472	77.38
412.695	100.38
412.919	85.38
413.142	88.38
413.365	82.38
413.589	85.38
413.812	80.38
414.035	87.38
414.258	75.38
414.482	90.38
414.705	92.38
414.928	74.38
415.151	92.38
415.374	95.38
415.597	67.38
415.821	80.38
416.044	84.38
416.267	72.38
416.49	81.38
416.713	76.38
416.936	78.38
417.159	84.38
417.382	77.38
417.605	100.38
417.828	96.38
418.051	77.38
418.274	90.38
418.497	91.38
418.72	88.38
418.943	82.38
419.166	77.38
419.389	87.38
419.611	92.38
419.834	87.38
420.057	95.38
420.28	78.38
420.503	77.38
420.726	80.38
420.948	79.38
421.171	68.38
421.394	73.38
421.617	87.38
421.839	79.38
422.062	83.38
422.285	80.38
422.507	97.38
422.73	97.38
422.953	89.38
423.175	90.38
423.398	95.38
423.621	78.38
423.843	81.38
424.066	93.38
424.288	97.38
424.511	77.38
424.733	91.38
424.956	86.38
425.178	89.38
425.401	91.38
425.623	84.38
425.846	84.38
426.068	93.38
426.291	85.38
426.513	73.38
426.735	83.38
426.958	73.38
427.18	96.38
427.402	113.38
427.625	141.38
427.847	115.38
428.069	110.38
428.292	83.38
428.514	85.38
428.736	89.38
428.958	77.38
429.181	83.38
429.403	74.38
429.625	69.38
429.847	87.38
430.069	98.38
430.292	75.38
430.514	75.38
430.736	77.38
430.958	67.38
431.18	65.38
431.402	71.38
431.624	77.38
431.846	91.38
432.068	73.38
432.29	88.38
432.512	83.38
432.734	75.38
432.956	85.38
433.178	88.38
433.4	93.38
433.622	77.38
433.844	91.38
434.066	98.38
434.287	80.38
434.509	83.38
434.731	77.38
434.953	73.38
435.175	91.38
435.397	91.38
435.618	92.38
435.84	95.38
436.062	93.38
436.284	99.38
436.505	96.38
436.727	78.38
436.949	89.38
437.17	75.38
437.392	83.38
437.614	102.38
437.835	91.38
438.057	94.38
438.278	101.38
438.5	98.38
438.721	105.38
438.943	83.38
439.165	83.38
439.386	66.38
439.608	88.38
439.829	88.38
440.05	111.38
440.272	118.38
440.493	90.38
440.715	84.38
440.936	90.38
441.158	96.38
441.379	69.38
441.6	90.38
441.822	101.38
442.043	95.38
442.264	95.38
442.486	95.38
442.707	86.38
442.928	99.38
443.149	111.38
443.371	96.38
443.592	109.38
443.813	98.38
444.034	92.38
444.255	76.38
444.476	81.38
444.698	93.38
444.919	82.38
445.14	128.38
445.361	98.38
445.582	104.38
445.803	121.38
446.024	124.38
446.245	118.38
446.466	106.38
446.687	76.38
446.908	83.38
447.129	86.38
447.35	91.38
447.571	82.38
447.792	90.38
448.013	92.38
448.234	89.38
448.455	76.38
448.675	100.38
448.896	105.38
449.117	87.38
449.338	95.38
449.559	95.38
449.779	106.38
450	88.38
450.221	69.38
450.442	93.38
450.662	66.38
450.883	85.38
451.104	102.38
451.324	91.38
451.545	74.38
451.766	87.38
451.986	84.38
452.207	86.38
452.428	75.38
452.648	88.38
452.869	97.38
453.089	101.38
453.31	102.38
453.53	93.38
453.751	83.38
453.971	88.38
454.192	109.38
454.412	86.38
454.633	86.38
454.853	83.38
455.073	84.38
455.294	74.38
455.514	92.38
455.734	80.38
455.955	85.38
456.175	80.38
456.395	91.38
456.616	83.38
456.836	86.38
457.056	86.38
457.276	80.38
457.497	79.38
457.717	76.38
457.937	90.38
458.157	94.38
458.377	95.38
458.598	103.38
458.818	134.38
459.038	116.38
459.258	96.38
459.478	69.38
459.698	91.38
459.918	81.38
460.138	84.38
460.358	84.38
460.578	86.38
460.798	85.38
461.018	83.38
461.238	96.38
461.458	83.38
461.678	90.38
461.898	88.38
462.118	84.38
462.338	89.38
462.558	75.38
462.777	79.38
462.997	77.38
463.217	88.38
463.437	85.38
463.657	74.38
463.876	73.38
464.096	81.38
464.316	109.38
464.536	96.38
464.755	90.38
464.975	96.38
465.195	140.38
465.414	137.38
465.634	103.38
465.854	83.38
466.073	72.38
466.293	79.38
466.512	92.38
466.732	92.38
466.951	100.38
467.171	85.38
467.391	93.38
467.61	98.38
467.829	79.38
468.049	115.38
468.268	128.38
468.488	67.38
468.707	88.38
468.927	95.38
469.146	99.38
469.365	89.38
469.585	90.38
469.804	79.38
470.023	93.38
470.243	100.38
470.462	105.38
470.681	89.38
470.901	80.38
471.12	67.38
471.339	87.38
471.558	77.38
471.777	83.38
471.997	90.38
472.216	176.38
472.435	273.38
472.654	135.38
472.873	93.38
473.092	91.38
473.311	85.38
473.53	95.38
473.749	80.38
473.968	85.38
474.187	83.38
474.406	87.38
474.625	89.38
474.844	85.38
475.063	77.38
475.282	81.38
475.501	75.38
475.72	86.38
475.939	95.38
476.158	81.38
476.377	80.38
476.596	85.38
476.814	68.38
477.033	100.38
477.252	73.38
477.471	77.38
477.69	82.38
477.908	85.38
478.127	91.38
478.346	80.38
478.564	79.38
478.783	95.38
479.002	87.38
479.22	97.38
479.439	96.38
479.658	96.38
479.876	100.38
480.095	96.38
480.313	105.38
480.532	89.38
480.751	108.38
480.969	183.38
481.188	473.38
481.406	279.38
481.624	104.38
481.843	95.38
482.061	91.38
482.28	99.38
482.498	85.38
482.717	97.38
482.935	90.38
483.153	79.38
483.372	84.38
483.59	81.38
483.808	96.38
484.027	84.38
484.245	90.38
484.463	71.38
484.681	81.38
484.9	97.38
485.118	85.38
485.336	95.38
485.554	85.38
485.772	93.38
485.99	91.38
486.209	88.38
486.427	91.38
486.645	92.38
486.863	114.38
487.081	94.38
487.299	105.38
487.517	89.38
487.735	90.38
487.953	78.38
488.171	92.38
488.389	89.38
488.607	85.38
488.825	85.38
489.043	67.38
489.261	77.38
489.479	77.38
489.696	83.38
489.914	77.38
490.132	96.38
490.35	86.38
490.568	90.38
490.786	94.38
491.003	98.38
491.221	92.38
491.439	81.38
491.657	83.38
491.874	85.38
492.092	82.38
492.31	84.38
492.527	88.38
492.745	79.38
492.963	75.38
493.18	88.38
493.398	95.38
493.615	93.38
493.833	91.38
494.05	94.38
494.268	104.38
494.485	87.38
494.703	77.38
494.92	77.38
495.138	79.38
495.355	103.38
495.573	82.38
495.79	90.38
496.008	90.38
496.225	89.38
496.442	81.38
496.66	89.38
496.877	92.38
497.094	101.38
497.312	94.38
497.529	72.38
497.746	75.38
497.963	100.38
498.181	101.38
498.398	67.38
498.615	99.38
498.832	99.38
499.049	77.38
499.267	83.38
499.484	95.38
499.701	98.38
499.918	85.38
500.135	80.38
500.352	79.38
500.569	83.38
500.786	82.38
501.003	84.38
501.22	75.38
501.437	90.38
501.654	89.38
501.871	86.38
502.088	83.38
502.305	87.38
502.522	91.38
502.739	83.38
502.956	72.38
503.172	102.38
503.389	82.38
503.606	102.38
503.823	100.38
504.04	93.38
504.256	75.38
504.473	82.38
504.69	71.38
504.907	84.38
505.123	89.38
505.34	87.38
505.557	77.38
505.773	72.38
505.99	80.38
506.207	84.38
506.423	78.38
506.64	88.38
506.856	86.38
507.073	91.38
507.289	91.38
507.506	92.38
507.722	85.38
507.939	99.38
508.155	101.38
508.372	98.38
508.588	88.38
508.805	85.38
509.021	97.38
509.238	101.38
509.454	77.38
509.67	101.38
509.887	118.38
510.103	101.38
510.319	189.38
510.536	641.38
510.752	1991.38
510.968	530.38
511.184	135.38
511.401	100.38
511.617	105.38
511.833	94.38
512.049	97.38
512.265	86.38
512.481	93.38
512.698	87.38
512.914	92.38
513.13	93.38
513.346	82.38
513.562	91.38
513.778	95.38
513.994	90.38
514.21	96.38
514.426	111.38
514.642	120.38
514.858	109.38
515.074	151.38
515.29	383.38
515.506	1204.38
515.721	431.38
515.937	131.38
516.153	108.38
516.369	94.38
516.585	83.38
516.801	91.38
517.016	95.38
517.232	94.38
517.448	60.38
517.664	81.38
