Data from Uncirc_1989_H10_HRD10591_00044.txt Node
Date: Wed Jan 03 11:57:44 EST 2024
User: Yrep
Spectrometer: HR+D1059
Trigger mode: 1
Integration Time (sec): 1.000000E-1
Scans to average: 1
Electric dark correction enabled: true
Nonlinearity correction enabled: false
Boxcar width: 0
XAxis mode: Wavelengths
Number of Pixels in Spectrum: 2048
>>>>>Begin Spectral Data<<<<<
223.165	-8.88
223.4	-8.88
223.635	-8.88
223.869	-19.88
224.104	-15.88
224.338	-12.88
224.573	-21.88
224.808	-10.88
225.042	-25.88
225.277	-1.88
225.511	-14.88
225.746	-1.88
225.98	1.12
226.215	16.12
226.449	23.12
226.683	31.12
226.918	38.12
227.152	25.12
227.387	37.12
227.621	33.12
227.856	42.12
228.09	46.12
228.324	57.12
228.559	53.12
228.793	58.12
229.027	52.12
229.262	64.12
229.496	67.12
229.73	72.12
229.964	84.12
230.199	77.12
230.433	70.12
230.667	90.12
230.901	83.12
231.136	85.12
231.37	81.12
231.604	83.12
231.838	87.12
232.072	91.12
232.306	81.12
232.541	84.12
232.775	86.12
233.009	90.12
233.243	78.12
233.477	77.12
233.711	69.12
233.945	89.12
234.179	73.12
234.413	88.12
234.647	68.12
234.881	88.12
235.115	77.12
235.349	70.12
235.583	80.12
235.817	88.12
236.051	90.12
236.285	74.12
236.519	77.12
236.753	99.12
236.987	77.12
237.221	72.12
237.455	83.12
237.689	83.12
237.922	82.12
238.156	81.12
238.39	81.12
238.624	75.12
238.858	86.12
239.091	81.12
239.325	71.12
239.559	87.12
239.793	64.12
240.027	71.12
240.26	83.12
240.494	95.12
240.728	88.12
240.961	83.12
241.195	77.12
241.429	86.12
241.662	79.12
241.896	90.12
242.13	73.12
242.363	73.12
242.597	69.12
242.83	81.12
243.064	73.12
243.298	79.12
243.531	86.12
243.765	81.12
243.998	78.12
244.232	106.12
244.465	90.12
244.699	90.12
244.932	73.12
245.166	89.12
245.399	80.12
245.633	91.12
245.866	95.12
246.099	76.12
246.333	78.12
246.566	86.12
246.8	69.12
247.033	83.12
247.266	78.12
247.5	87.12
247.733	87.12
247.966	87.12
248.2	69.12
248.433	79.12
248.666	79.12
248.899	85.12
249.133	84.12
249.366	107.12
249.599	88.12
249.832	86.12
250.066	84.12
250.299	75.12
250.532	85.12
250.765	79.12
250.998	88.12
251.231	85.12
251.465	91.12
251.698	74.12
251.931	83.12
252.164	106.12
252.397	83.12
252.63	95.12
252.863	75.12
253.096	82.12
253.329	78.12
253.562	73.12
253.795	74.12
254.028	73.12
254.261	66.12
254.494	89.12
254.727	82.12
254.96	89.12
255.193	86.12
255.426	82.12
255.659	86.12
255.892	100.12
256.124	100.12
256.357	87.12
256.59	84.12
256.823	68.12
257.056	88.12
257.289	105.12
257.521	96.12
257.754	81.12
257.987	81.12
258.22	86.12
258.452	95.12
258.685	96.12
258.918	80.12
259.151	85.12
259.383	95.12
259.616	79.12
259.849	88.12
260.081	74.12
260.314	91.12
260.547	90.12
260.779	97.12
261.012	75.12
261.244	77.12
261.477	84.12
261.71	83.12
261.942	105.12
262.175	106.12
262.407	72.12
262.64	88.12
262.872	81.12
263.105	82.12
263.337	62.12
263.57	90.12
263.802	83.12
264.035	83.12
264.267	91.12
264.499	89.12
264.732	68.12
264.964	76.12
265.197	89.12
265.429	84.12
265.661	77.12
265.894	77.12
266.126	82.12
266.358	89.12
266.591	85.12
266.823	88.12
267.055	84.12
267.287	81.12
267.52	70.12
267.752	85.12
267.984	84.12
268.216	79.12
268.448	83.12
268.681	98.12
268.913	95.12
269.145	86.12
269.377	81.12
269.609	87.12
269.841	75.12
270.073	85.12
270.306	95.12
270.538	94.12
270.77	86.12
271.002	78.12
271.234	83.12
271.466	91.12
271.698	87.12
271.93	85.12
272.162	80.12
272.394	89.12
272.626	88.12
272.858	95.12
273.09	76.12
273.322	85.12
273.553	84.12
273.785	93.12
274.017	77.12
274.249	84.12
274.481	98.12
274.713	71.12
274.945	95.12
275.176	86.12
275.408	99.12
275.64	93.12
275.872	88.12
276.104	73.12
276.335	84.12
276.567	104.12
276.799	102.12
277.031	103.12
277.262	106.12
277.494	91.12
277.726	92.12
277.957	79.12
278.189	89.12
278.421	86.12
278.652	97.12
278.884	91.12
279.115	70.12
279.347	93.12
279.579	82.12
279.81	91.12
280.042	97.12
280.273	99.12
280.505	84.12
280.736	89.12
280.968	82.12
281.199	93.12
281.431	75.12
281.662	83.12
281.894	83.12
282.125	107.12
282.356	116.12
282.588	129.12
282.819	105.12
283.051	90.12
283.282	70.12
283.513	99.12
283.745	93.12
283.976	85.12
284.207	96.12
284.439	84.12
284.67	106.12
284.901	94.12
285.132	93.12
285.364	88.12
285.595	102.12
285.826	86.12
286.057	88.12
286.288	69.12
286.52	85.12
286.751	88.12
286.982	90.12
287.213	102.12
287.444	86.12
287.675	91.12
287.906	84.12
288.138	103.12
288.369	97.12
288.6	104.12
288.831	93.12
289.062	99.12
289.293	84.12
289.524	83.12
289.755	86.12
289.986	90.12
290.217	89.12
290.448	97.12
290.679	67.12
290.91	82.12
291.141	89.12
291.371	86.12
291.602	108.12
291.833	89.12
292.064	92.12
292.295	99.12
292.526	95.12
292.757	77.12
292.987	97.12
293.218	90.12
293.449	91.12
293.68	85.12
293.91	87.12
294.141	89.12
294.372	87.12
294.603	82.12
294.833	87.12
295.064	79.12
295.295	92.12
295.525	109.12
295.756	93.12
295.987	129.12
296.217	119.12
296.448	113.12
296.679	96.12
296.909	90.12
297.14	82.12
297.37	88.12
297.601	94.12
297.831	95.12
298.062	90.12
298.292	108.12
298.523	78.12
298.753	91.12
298.984	91.12
299.214	91.12
299.445	93.12
299.675	81.12
299.905	98.12
300.136	81.12
300.366	95.12
300.597	83.12
300.827	104.12
301.057	102.12
301.288	91.12
301.518	88.12
301.748	88.12
301.979	119.12
302.209	95.12
302.439	94.12
302.669	73.12
302.9	84.12
303.13	97.12
303.36	88.12
303.59	90.12
303.82	110.12
304.051	81.12
304.281	86.12
304.511	97.12
304.741	79.12
304.971	87.12
305.201	81.12
305.431	86.12
305.661	87.12
305.891	90.12
306.121	101.12
306.352	92.12
306.582	105.12
306.812	94.12
307.042	75.12
307.272	105.12
307.502	95.12
307.731	108.12
307.961	105.12
308.191	92.12
308.421	70.12
308.651	90.12
308.881	98.12
309.111	110.12
309.341	95.12
309.571	109.12
309.8	103.12
310.03	94.12
310.26	95.12
310.49	93.12
310.72	97.12
310.949	99.12
311.179	94.12
311.409	96.12
311.639	103.12
311.868	102.12
312.098	96.12
312.328	101.12
312.557	102.12
312.787	93.12
313.017	93.12
313.246	97.12
313.476	84.12
313.706	81.12
313.935	92.12
314.165	104.12
314.394	107.12
314.624	101.12
314.853	93.12
315.083	99.12
315.312	85.12
315.542	89.12
315.771	95.12
316.001	101.12
316.23	98.12
316.46	97.12
316.689	91.12
316.919	87.12
317.148	100.12
317.377	100.12
317.607	91.12
317.836	88.12
318.065	89.12
318.295	98.12
318.524	86.12
318.753	89.12
318.983	94.12
319.212	97.12
319.441	117.12
319.67	101.12
319.9	93.12
320.129	96.12
320.358	104.12
320.587	102.12
320.816	83.12
321.046	104.12
321.275	106.12
321.504	94.12
321.733	101.12
321.962	84.12
322.191	102.12
322.42	112.12
322.649	112.12
322.878	112.12
323.108	115.12
323.337	119.12
323.566	126.12
323.795	142.12
324.024	181.12
324.253	346.12
324.482	727.12
324.71	1409.12
324.939	1885.12
325.168	683.12
325.397	231.12
325.626	137.12
325.855	117.12
326.084	97.12
326.313	124.12
326.542	143.12
326.77	215.12
326.999	400.12
327.228	828.12
327.457	1490.12
327.686	1154.12
327.914	326.12
328.143	180.12
328.372	152.12
328.6	131.12
328.829	111.12
329.058	119.12
329.287	123.12
329.515	113.12
329.744	110.12
329.972	123.12
330.201	157.12
330.43	197.12
330.658	134.12
330.887	148.12
331.115	117.12
331.344	106.12
331.572	94.12
331.801	100.12
332.03	102.12
332.258	95.12
332.486	97.12
332.715	96.12
332.943	94.12
333.172	96.12
333.4	104.12
333.629	99.12
333.857	135.12
334.085	121.12
334.314	150.12
334.542	205.12
334.771	197.12
334.999	122.12
335.227	90.12
335.455	106.12
335.684	106.12
335.912	106.12
336.14	97.12
336.369	89.12
336.597	101.12
336.825	92.12
337.053	102.12
337.281	101.12
337.51	103.12
337.738	94.12
337.966	96.12
338.194	75.12
338.422	95.12
338.65	110.12
338.878	73.12
339.106	83.12
339.334	97.12
339.562	73.12
339.79	95.12
340.018	87.12
340.246	94.12
340.474	90.12
340.702	84.12
340.93	100.12
341.158	96.12
341.386	90.12
341.614	101.12
341.842	85.12
342.07	98.12
342.298	95.12
342.526	94.12
342.754	87.12
342.981	81.12
343.209	95.12
343.437	99.12
343.665	99.12
343.893	100.12
344.12	80.12
344.348	93.12
344.576	82.12
344.804	97.12
345.031	96.12
345.259	94.12
345.487	100.12
345.714	104.12
345.942	90.12
346.17	101.12
346.397	97.12
346.625	85.12
346.853	89.12
347.08	92.12
347.308	104.12
347.535	89.12
347.763	103.12
347.99	99.12
348.218	97.12
348.445	97.12
348.673	84.12
348.9	97.12
349.128	87.12
349.355	85.12
349.583	107.12
349.81	109.12
350.037	105.12
350.265	103.12
350.492	96.12
350.72	87.12
350.947	96.12
351.174	89.12
351.402	104.12
351.629	107.12
351.856	100.12
352.083	86.12
352.311	115.12
352.538	106.12
352.765	102.12
352.992	105.12
353.22	100.12
353.447	113.12
353.674	87.12
353.901	97.12
354.128	98.12
354.355	91.12
354.583	90.12
354.81	100.12
355.037	91.12
355.264	102.12
355.491	87.12
355.718	89.12
355.945	96.12
356.172	77.12
356.399	96.12
356.626	91.12
356.853	107.12
357.08	86.12
357.307	89.12
357.534	90.12
357.761	78.12
357.988	95.12
358.215	98.12
358.441	102.12
358.668	102.12
358.895	88.12
359.122	84.12
359.349	81.12
359.576	95.12
359.802	87.12
360.029	116.12
360.256	109.12
360.483	87.12
360.709	81.12
360.936	96.12
361.163	81.12
361.39	93.12
361.616	88.12
361.843	84.12
362.07	100.12
362.296	99.12
362.523	89.12
362.749	97.12
362.976	85.12
363.203	87.12
363.429	99.12
363.656	83.12
363.882	91.12
364.109	99.12
364.335	95.12
364.562	88.12
364.788	95.12
365.015	97.12
365.241	93.12
365.468	93.12
365.694	99.12
365.92	89.12
366.147	75.12
366.373	81.12
366.599	77.12
366.826	86.12
367.052	93.12
367.278	95.12
367.505	99.12
367.731	103.12
367.957	86.12
368.184	100.12
368.41	93.12
368.636	121.12
368.862	118.12
369.089	110.12
369.315	94.12
369.541	96.12
369.767	94.12
369.993	97.12
370.219	88.12
370.445	83.12
370.672	80.12
370.898	86.12
371.124	77.12
371.35	87.12
371.576	82.12
371.802	84.12
372.028	92.12
372.254	81.12
372.48	87.12
372.706	88.12
372.932	83.12
373.158	90.12
373.384	91.12
373.61	79.12
373.835	96.12
374.061	84.12
374.287	82.12
374.513	80.12
374.739	89.12
374.965	101.12
375.191	90.12
375.416	87.12
375.642	78.12
375.868	103.12
376.094	94.12
376.319	91.12
376.545	78.12
376.771	90.12
376.997	98.12
377.222	86.12
377.448	95.12
377.674	86.12
377.899	96.12
378.125	91.12
378.35	74.12
378.576	98.12
378.802	97.12
379.027	91.12
379.253	99.12
379.478	96.12
379.704	93.12
379.929	95.12
380.155	104.12
380.38	90.12
380.606	80.12
380.831	107.12
381.057	92.12
381.282	99.12
381.507	90.12
381.733	90.12
381.958	101.12
382.184	111.12
382.409	98.12
382.634	89.12
382.86	99.12
383.085	105.12
383.31	98.12
383.535	90.12
383.761	97.12
383.986	104.12
384.211	98.12
384.436	91.12
384.662	89.12
384.887	102.12
385.112	103.12
385.337	105.12
385.562	98.12
385.787	102.12
386.013	106.12
386.238	106.12
386.463	100.12
386.688	115.12
386.913	108.12
387.138	106.12
387.363	112.12
387.588	101.12
387.813	113.12
388.038	103.12
388.263	124.12
388.488	99.12
388.713	89.12
388.938	93.12
389.163	117.12
389.387	100.12
389.612	91.12
389.837	88.12
390.062	98.12
390.287	71.12
390.512	95.12
390.736	90.12
390.961	96.12
391.186	101.12
391.411	92.12
391.636	97.12
391.86	82.12
392.085	103.12
392.31	77.12
392.534	100.12
392.759	91.12
392.984	73.12
393.208	95.12
393.433	112.12
393.658	103.12
393.882	80.12
394.107	81.12
394.331	77.12
394.556	73.12
394.78	89.12
395.005	95.12
395.229	101.12
395.454	93.12
395.678	81.12
395.903	89.12
396.127	82.12
396.352	91.12
396.576	81.12
396.801	87.12
397.025	110.12
397.249	91.12
397.474	79.12
397.698	95.12
397.922	99.12
398.147	80.12
398.371	86.12
398.595	84.12
398.82	83.12
399.044	87.12
399.268	79.12
399.492	75.12
399.717	87.12
399.941	85.12
400.165	99.12
400.389	89.12
400.613	58.12
400.837	78.12
401.062	65.12
401.286	95.12
401.51	93.12
401.734	86.12
401.958	100.12
402.182	118.12
402.406	141.12
402.63	114.12
402.854	86.12
403.078	93.12
403.302	79.12
403.526	92.12
403.75	89.12
403.974	83.12
404.198	83.12
404.422	82.12
404.645	90.12
404.869	78.12
405.093	97.12
405.317	96.12
405.541	95.12
405.765	93.12
405.988	106.12
406.212	148.12
406.436	207.12
406.66	122.12
406.883	102.12
407.107	97.12
407.331	103.12
407.555	91.12
407.778	94.12
408.002	86.12
408.226	93.12
408.449	71.12
408.673	85.12
408.896	99.12
409.12	107.12
409.344	91.12
409.567	92.12
409.791	89.12
410.014	93.12
410.238	91.12
410.461	96.12
410.685	94.12
410.908	104.12
411.132	105.12
411.355	103.12
411.578	98.12
411.802	93.12
412.025	81.12
412.249	75.12
412.472	87.12
412.695	97.12
412.919	97.12
413.142	89.12
413.365	90.12
413.589	82.12
413.812	89.12
414.035	97.12
414.258	84.12
414.482	93.12
414.705	96.12
414.928	97.12
415.151	83.12
415.374	84.12
415.597	88.12
415.821	107.12
416.044	82.12
416.267	73.12
416.49	83.12
416.713	84.12
416.936	93.12
417.159	96.12
417.382	91.12
417.605	85.12
417.828	79.12
418.051	104.12
418.274	103.12
418.497	93.12
418.72	86.12
418.943	112.12
419.166	97.12
419.389	88.12
419.611	89.12
419.834	81.12
420.057	84.12
420.28	89.12
420.503	84.12
420.726	99.12
420.948	87.12
421.171	86.12
421.394	81.12
421.617	95.12
421.839	93.12
422.062	89.12
422.285	85.12
422.507	98.12
422.73	102.12
422.953	95.12
423.175	90.12
423.398	87.12
423.621	78.12
423.843	90.12
424.066	84.12
424.288	72.12
424.511	83.12
424.733	95.12
424.956	111.12
425.178	106.12
425.401	99.12
425.623	101.12
425.846	87.12
426.068	77.12
426.291	95.12
426.513	79.12
426.735	84.12
426.958	103.12
427.18	97.12
427.402	120.12
427.625	146.12
427.847	126.12
428.069	132.12
428.292	94.12
428.514	81.12
428.736	107.12
428.958	96.12
429.181	100.12
429.403	87.12
429.625	91.12
429.847	91.12
430.069	103.12
430.292	98.12
430.514	82.12
430.736	81.12
430.958	93.12
431.18	92.12
431.402	87.12
431.624	80.12
431.846	90.12
432.068	87.12
432.29	102.12
432.512	96.12
432.734	79.12
432.956	102.12
433.178	93.12
433.4	90.12
433.622	93.12
433.844	88.12
434.066	81.12
434.287	85.12
434.509	104.12
434.731	86.12
434.953	89.12
435.175	89.12
435.397	100.12
435.618	91.12
435.84	112.12
436.062	120.12
436.284	114.12
436.505	88.12
436.727	114.12
436.949	100.12
437.17	93.12
437.392	57.12
437.614	90.12
437.835	95.12
438.057	110.12
438.278	87.12
438.5	95.12
438.721	115.12
438.943	106.12
439.165	93.12
439.386	70.12
439.608	109.12
439.829	99.12
440.05	109.12
440.272	120.12
440.493	90.12
440.715	82.12
440.936	83.12
441.158	97.12
441.379	96.12
441.6	94.12
441.822	93.12
442.043	84.12
442.264	84.12
442.486	94.12
442.707	91.12
442.928	95.12
443.149	128.12
443.371	111.12
443.592	86.12
443.813	107.12
444.034	109.12
444.255	84.12
444.476	88.12
444.698	82.12
444.919	101.12
445.14	144.12
445.361	115.12
445.582	117.12
445.803	118.12
446.024	118.12
446.245	115.12
446.466	105.12
446.687	75.12
446.908	63.12
447.129	77.12
447.35	94.12
447.571	98.12
447.792	94.12
448.013	97.12
448.234	102.12
448.455	119.12
448.675	110.12
448.896	106.12
449.117	113.12
449.338	91.12
449.559	114.12
449.779	112.12
450	95.12
450.221	83.12
450.442	84.12
450.662	91.12
450.883	96.12
451.104	103.12
451.324	102.12
451.545	82.12
451.766	87.12
451.986	77.12
452.207	92.12
452.428	94.12
452.648	96.12
452.869	103.12
453.089	107.12
453.31	114.12
453.53	90.12
453.751	97.12
453.971	89.12
454.192	107.12
454.412	101.12
454.633	84.12
454.853	80.12
455.073	87.12
455.294	91.12
455.514	95.12
455.734	102.12
455.955	95.12
456.175	85.12
456.395	73.12
456.616	93.12
456.836	100.12
457.056	81.12
457.276	83.12
457.497	81.12
457.717	86.12
457.937	83.12
458.157	72.12
458.377	98.12
458.598	97.12
458.818	118.12
459.038	144.12
459.258	113.12
459.478	95.12
459.698	99.12
459.918	95.12
460.138	71.12
460.358	82.12
460.578	88.12
460.798	86.12
461.018	98.12
461.238	80.12
461.458	81.12
461.678	88.12
461.898	70.12
462.118	80.12
462.338	102.12
462.558	89.12
462.777	94.12
462.997	82.12
463.217	97.12
463.437	85.12
463.657	85.12
463.876	92.12
464.096	89.12
464.316	81.12
464.536	83.12
464.755	94.12
464.975	103.12
465.195	143.12
465.414	130.12
465.634	87.12
465.854	79.12
466.073	84.12
466.293	91.12
466.512	83.12
466.732	67.12
466.951	86.12
467.171	95.12
467.391	101.12
467.61	107.12
467.829	105.12
468.049	113.12
468.268	125.12
468.488	86.12
468.707	89.12
468.927	74.12
469.146	81.12
469.365	89.12
469.585	78.12
469.804	85.12
470.023	95.12
470.243	90.12
470.462	94.12
470.681	111.12
470.901	87.12
471.12	91.12
471.339	79.12
471.558	93.12
471.777	100.12
471.997	106.12
472.216	177.12
472.435	243.12
472.654	114.12
472.873	99.12
473.092	69.12
473.311	108.12
473.53	95.12
473.749	82.12
473.968	84.12
474.187	106.12
474.406	95.12
474.625	90.12
474.844	85.12
475.063	93.12
475.282	100.12
475.501	89.12
475.72	95.12
475.939	73.12
476.158	77.12
476.377	100.12
476.596	91.12
476.814	95.12
477.033	94.12
477.252	97.12
477.471	90.12
477.69	77.12
477.908	93.12
478.127	95.12
478.346	99.12
478.564	86.12
478.783	95.12
479.002	88.12
479.22	112.12
479.439	120.12
479.658	102.12
479.876	104.12
480.095	89.12
480.313	91.12
480.532	99.12
480.751	116.12
480.969	168.12
481.188	409.12
481.406	263.12
481.624	101.12
481.843	102.12
482.061	90.12
482.28	91.12
482.498	84.12
482.717	82.12
482.935	87.12
483.153	88.12
483.372	89.12
483.59	90.12
483.808	97.12
484.027	93.12
484.245	88.12
484.463	102.12
484.681	91.12
484.9	101.12
485.118	92.12
485.336	95.12
485.554	103.12
485.772	85.12
485.99	106.12
486.209	108.12
486.427	101.12
486.645	104.12
486.863	113.12
487.081	101.12
487.299	97.12
487.517	106.12
487.735	105.12
487.953	100.12
488.171	94.12
488.389	103.12
488.607	105.12
488.825	79.12
489.043	99.12
489.261	89.12
489.479	79.12
489.696	97.12
489.914	84.12
490.132	83.12
490.35	98.12
490.568	97.12
490.786	83.12
491.003	94.12
491.221	80.12
491.439	98.12
491.657	87.12
491.874	92.12
492.092	107.12
492.31	109.12
492.527	103.12
492.745	85.12
492.963	95.12
493.18	87.12
493.398	93.12
493.615	87.12
493.833	93.12
494.05	94.12
494.268	105.12
494.485	93.12
494.703	70.12
494.92	94.12
495.138	101.12
495.355	74.12
495.573	107.12
495.79	82.12
496.008	94.12
496.225	87.12
496.442	95.12
496.66	97.12
496.877	86.12
497.094	97.12
497.312	83.12
497.529	85.12
497.746	91.12
497.963	87.12
498.181	102.12
498.398	98.12
498.615	105.12
498.832	100.12
499.049	88.12
499.267	80.12
499.484	88.12
499.701	89.12
499.918	84.12
500.135	67.12
500.352	101.12
500.569	98.12
500.786	95.12
501.003	98.12
501.22	82.12
501.437	82.12
501.654	92.12
501.871	99.12
502.088	87.12
502.305	107.12
502.522	96.12
502.739	91.12
502.956	86.12
503.172	85.12
503.389	96.12
503.606	106.12
503.823	88.12
504.04	101.12
504.256	93.12
504.473	74.12
504.69	77.12
504.907	96.12
505.123	86.12
505.34	87.12
505.557	102.12
505.773	88.12
505.99	78.12
506.207	105.12
506.423	77.12
506.64	90.12
506.856	87.12
507.073	91.12
507.289	103.12
507.506	82.12
507.722	104.12
507.939	115.12
508.155	91.12
508.372	92.12
508.588	90.12
508.805	110.12
509.021	100.12
509.238	100.12
509.454	98.12
509.67	106.12
509.887	105.12
510.103	110.12
510.319	189.12
510.536	633.12
510.752	1925.12
510.968	520.12
511.184	138.12
511.401	107.12
511.617	94.12
511.833	89.12
512.049	87.12
512.265	87.12
512.481	79.12
512.698	91.12
512.914	87.12
513.13	85.12
513.346	94.12
513.562	88.12
513.778	95.12
513.994	100.12
514.21	99.12
514.426	107.12
514.642	126.12
514.858	110.12
515.074	155.12
515.29	391.12
