Data from Uncirc_1989_H10_HRD10591_00049.txt Node
Date: Wed Jan 03 11:57:45 EST 2024
User: Yrep
Spectrometer: HR+D1059
Trigger mode: 1
Integration Time (sec): 1.000000E-1
Scans to average: 1
Electric dark correction enabled: true
Nonlinearity correction enabled: false
Boxcar width: 0
XAxis mode: Wavelengths
Number of Pixels in Spectrum: 2048
>>>>>Begin Spectral Data<<<<<
223.165	-24.94
223.4	-24.94
223.635	-24.94
223.869	-19.94
224.104	-19.94
224.338	-9.94
224.573	-11.94
224.808	-2.94
225.042	-4.94
225.277	-2.94
225.511	-2.94
225.746	2.06
225.98	18.06
226.215	18.06
226.449	-2.94
226.683	13.06
226.918	24.06
227.152	28.06
227.387	26.06
227.621	34.06
227.856	49.06
228.09	58.06
228.324	41.06
228.559	63.06
228.793	70.06
229.027	68.06
229.262	68.06
229.496	71.06
229.73	87.06
229.964	66.06
230.199	76.06
230.433	68.06
230.667	74.06
230.901	73.06
231.136	67.06
231.37	77.06
231.604	76.06
231.838	83.06
232.072	74.06
232.306	70.06
232.541	73.06
232.775	81.06
233.009	94.06
233.243	83.06
233.477	85.06
233.711	78.06
233.945	85.06
234.179	65.06
234.413	82.06
234.647	82.06
234.881	89.06
235.115	66.06
235.349	78.06
235.583	69.06
235.817	84.06
236.051	82.06
236.285	87.06
236.519	83.06
236.753	87.06
236.987	85.06
237.221	92.06
237.455	86.06
237.689	68.06
237.922	79.06
238.156	81.06
238.39	68.06
238.624	78.06
238.858	71.06
239.091	66.06
239.325	80.06
239.559	67.06
239.793	81.06
240.027	84.06
240.26	77.06
240.494	72.06
240.728	73.06
240.961	68.06
241.195	67.06
241.429	78.06
241.662	71.06
241.896	82.06
242.13	81.06
242.363	75.06
242.597	68.06
242.83	79.06
243.064	66.06
243.298	73.06
243.531	91.06
243.765	79.06
243.998	86.06
244.232	71.06
244.465	92.06
244.699	71.06
244.932	76.06
245.166	78.06
245.399	72.06
245.633	80.06
245.866	76.06
246.099	72.06
246.333	87.06
246.566	73.06
246.8	74.06
247.033	69.06
247.266	84.06
247.5	78.06
247.733	69.06
247.966	84.06
248.2	84.06
248.433	87.06
248.666	83.06
248.899	88.06
249.133	94.06
249.366	108.06
249.599	104.06
249.832	74.06
250.066	73.06
250.299	81.06
250.532	68.06
250.765	74.06
250.998	83.06
251.231	79.06
251.465	93.06
251.698	73.06
251.931	78.06
252.164	85.06
252.397	82.06
252.63	70.06
252.863	74.06
253.096	73.06
253.329	87.06
253.562	82.06
253.795	82.06
254.028	64.06
254.261	80.06
254.494	86.06
254.727	90.06
254.96	78.06
255.193	88.06
255.426	77.06
255.659	91.06
255.892	68.06
256.124	80.06
256.357	84.06
256.59	92.06
256.823	79.06
257.056	84.06
257.289	85.06
257.521	86.06
257.754	90.06
257.987	88.06
258.22	94.06
258.452	94.06
258.685	83.06
258.918	89.06
259.151	85.06
259.383	86.06
259.616	85.06
259.849	78.06
260.081	82.06
260.314	80.06
260.547	90.06
260.779	83.06
261.012	77.06
261.244	86.06
261.477	88.06
261.71	93.06
261.942	108.06
262.175	110.06
262.407	92.06
262.64	84.06
262.872	85.06
263.105	83.06
263.337	82.06
263.57	87.06
263.802	84.06
264.035	71.06
264.267	74.06
264.499	76.06
264.732	95.06
264.964	86.06
265.197	79.06
265.429	79.06
265.661	81.06
265.894	83.06
266.126	86.06
266.358	74.06
266.591	85.06
266.823	100.06
267.055	80.06
267.287	80.06
267.52	81.06
267.752	109.06
267.984	80.06
268.216	70.06
268.448	88.06
268.681	88.06
268.913	96.06
269.145	83.06
269.377	80.06
269.609	75.06
269.841	84.06
270.073	81.06
270.306	86.06
270.538	84.06
270.77	73.06
271.002	88.06
271.234	69.06
271.466	82.06
271.698	85.06
271.93	72.06
272.162	84.06
272.394	84.06
272.626	79.06
272.858	77.06
273.09	78.06
273.322	87.06
273.553	93.06
273.785	88.06
274.017	89.06
274.249	81.06
274.481	85.06
274.713	92.06
274.945	95.06
275.176	85.06
275.408	90.06
275.64	82.06
275.872	96.06
276.104	88.06
276.335	85.06
276.567	86.06
276.799	105.06
277.031	101.06
277.262	92.06
277.494	88.06
277.726	86.06
277.957	95.06
278.189	76.06
278.421	82.06
278.652	80.06
278.884	87.06
279.115	94.06
279.347	90.06
279.579	96.06
279.81	88.06
280.042	95.06
280.273	84.06
280.505	97.06
280.736	81.06
280.968	96.06
281.199	89.06
281.431	83.06
281.662	90.06
281.894	71.06
282.125	88.06
282.356	103.06
282.588	122.06
282.819	125.06
283.051	91.06
283.282	93.06
283.513	93.06
283.745	83.06
283.976	85.06
284.207	86.06
284.439	83.06
284.67	77.06
284.901	76.06
285.132	73.06
285.364	99.06
285.595	95.06
285.826	92.06
286.057	89.06
286.288	61.06
286.52	88.06
286.751	94.06
286.982	102.06
287.213	85.06
287.444	93.06
287.675	99.06
287.906	93.06
288.138	90.06
288.369	82.06
288.6	93.06
288.831	92.06
289.062	93.06
289.293	83.06
289.524	86.06
289.755	78.06
289.986	88.06
290.217	84.06
290.448	77.06
290.679	92.06
290.91	85.06
291.141	89.06
291.371	93.06
291.602	80.06
291.833	80.06
292.064	76.06
292.295	96.06
292.526	99.06
292.757	82.06
292.987	99.06
293.218	99.06
293.449	97.06
293.68	93.06
293.91	73.06
294.141	80.06
294.372	79.06
294.603	101.06
294.833	97.06
295.064	82.06
295.295	90.06
295.525	89.06
295.756	79.06
295.987	113.06
296.217	110.06
296.448	105.06
296.679	89.06
296.909	76.06
297.14	95.06
297.37	86.06
297.601	79.06
297.831	81.06
298.062	76.06
298.292	88.06
298.523	87.06
298.753	92.06
298.984	84.06
299.214	85.06
299.445	82.06
299.675	93.06
299.905	94.06
300.136	80.06
300.366	70.06
300.597	103.06
300.827	86.06
301.057	105.06
301.288	99.06
301.518	98.06
301.748	89.06
301.979	100.06
302.209	88.06
302.439	81.06
302.669	85.06
302.9	93.06
303.13	77.06
303.36	110.06
303.59	98.06
303.82	88.06
304.051	103.06
304.281	82.06
304.511	81.06
304.741	78.06
304.971	104.06
305.201	91.06
305.431	86.06
305.661	95.06
305.891	94.06
306.121	88.06
306.352	88.06
306.582	93.06
306.812	101.06
307.042	101.06
307.272	84.06
307.502	95.06
307.731	97.06
307.961	85.06
308.191	80.06
308.421	89.06
308.651	89.06
308.881	81.06
309.111	88.06
309.341	110.06
309.571	96.06
309.8	104.06
310.03	92.06
310.26	94.06
310.49	101.06
310.72	96.06
310.949	117.06
311.179	99.06
311.409	90.06
311.639	90.06
311.868	103.06
312.098	88.06
312.328	93.06
312.557	98.06
312.787	90.06
313.017	99.06
313.246	102.06
313.476	88.06
313.706	81.06
313.935	92.06
314.165	99.06
314.394	88.06
314.624	83.06
314.853	106.06
315.083	91.06
315.312	94.06
315.542	85.06
315.771	97.06
316.001	89.06
316.23	97.06
316.46	89.06
316.689	107.06
316.919	77.06
317.148	96.06
317.377	103.06
317.607	100.06
317.836	79.06
318.065	90.06
318.295	92.06
318.524	83.06
318.753	81.06
318.983	99.06
319.212	104.06
319.441	97.06
319.67	109.06
319.9	86.06
320.129	95.06
320.358	100.06
320.587	95.06
320.816	99.06
321.046	104.06
321.275	101.06
321.504	80.06
321.733	94.06
321.962	97.06
322.191	102.06
322.42	90.06
322.649	105.06
322.878	120.06
323.108	111.06
323.337	113.06
323.566	121.06
323.795	124.06
324.024	179.06
324.253	341.06
324.482	718.06
324.71	1458.06
324.939	1915.06
325.168	705.06
325.397	231.06
325.626	142.06
325.855	133.06
326.084	131.06
326.313	135.06
326.542	145.06
326.77	232.06
326.999	414.06
327.228	844.06
327.457	1513.06
327.686	1185.06
327.914	320.06
328.143	200.06
328.372	155.06
328.6	126.06
328.829	118.06
329.058	113.06
329.287	136.06
329.515	106.06
329.744	114.06
329.972	131.06
330.201	162.06
330.43	190.06
330.658	140.06
330.887	130.06
331.115	113.06
331.344	85.06
331.572	105.06
331.801	111.06
332.03	109.06
332.258	105.06
332.486	79.06
332.715	91.06
332.943	95.06
333.172	101.06
333.4	95.06
333.629	106.06
333.857	103.06
334.085	129.06
334.314	163.06
334.542	218.06
334.771	196.06
334.999	124.06
335.227	109.06
335.455	100.06
335.684	93.06
335.912	104.06
336.14	110.06
336.369	94.06
336.597	100.06
336.825	85.06
337.053	95.06
337.281	96.06
337.51	85.06
337.738	100.06
337.966	78.06
338.194	111.06
338.422	100.06
338.65	78.06
338.878	101.06
339.106	101.06
339.334	90.06
339.562	93.06
339.79	114.06
340.018	95.06
340.246	92.06
340.474	104.06
340.702	89.06
340.93	96.06
341.158	96.06
341.386	109.06
341.614	108.06
341.842	104.06
342.07	98.06
342.298	96.06
342.526	87.06
342.754	108.06
342.981	89.06
343.209	94.06
343.437	116.06
343.665	84.06
343.893	86.06
344.12	91.06
344.348	92.06
344.576	97.06
344.804	72.06
345.031	97.06
345.259	98.06
345.487	89.06
345.714	94.06
345.942	94.06
346.17	79.06
346.397	95.06
346.625	90.06
346.853	101.06
347.08	83.06
347.308	82.06
347.535	100.06
347.763	101.06
347.99	93.06
348.218	98.06
348.445	89.06
348.673	88.06
348.9	90.06
349.128	85.06
349.355	96.06
349.583	101.06
349.81	99.06
350.037	105.06
350.265	104.06
350.492	85.06
350.72	94.06
350.947	98.06
351.174	113.06
351.402	119.06
351.629	100.06
351.856	106.06
352.083	104.06
352.311	108.06
352.538	105.06
352.765	106.06
352.992	108.06
353.22	99.06
353.447	93.06
353.674	98.06
353.901	90.06
354.128	86.06
354.355	90.06
354.583	98.06
354.81	106.06
355.037	114.06
355.264	99.06
355.491	96.06
355.718	96.06
355.945	112.06
356.172	102.06
356.399	98.06
356.626	90.06
356.853	108.06
357.08	97.06
357.307	79.06
357.534	96.06
357.761	92.06
357.988	89.06
358.215	87.06
358.441	116.06
358.668	88.06
358.895	71.06
359.122	78.06
359.349	92.06
359.576	90.06
359.802	106.06
360.029	106.06
360.256	102.06
360.483	80.06
360.709	83.06
360.936	98.06
361.163	88.06
361.39	112.06
361.616	86.06
361.843	93.06
362.07	83.06
362.296	90.06
362.523	94.06
362.749	85.06
362.976	87.06
363.203	79.06
363.429	93.06
363.656	89.06
363.882	99.06
364.109	80.06
364.335	76.06
364.562	104.06
364.788	87.06
365.015	98.06
365.241	98.06
365.468	111.06
365.694	101.06
365.92	98.06
366.147	93.06
366.373	93.06
366.599	80.06
366.826	96.06
367.052	88.06
367.278	91.06
367.505	103.06
367.731	108.06
367.957	92.06
368.184	96.06
368.41	94.06
368.636	103.06
368.862	109.06
369.089	105.06
369.315	110.06
369.541	106.06
369.767	86.06
369.993	106.06
370.219	90.06
370.445	85.06
370.672	88.06
370.898	96.06
371.124	95.06
371.35	84.06
371.576	91.06
371.802	98.06
372.028	85.06
372.254	98.06
372.48	92.06
372.706	86.06
372.932	96.06
373.158	93.06
373.384	101.06
373.61	81.06
373.835	96.06
374.061	89.06
374.287	78.06
374.513	89.06
374.739	88.06
374.965	98.06
375.191	93.06
375.416	89.06
375.642	90.06
375.868	113.06
376.094	90.06
376.319	89.06
376.545	91.06
376.771	100.06
376.997	79.06
377.222	81.06
377.448	100.06
377.674	93.06
377.899	71.06
378.125	84.06
378.35	82.06
378.576	93.06
378.802	89.06
379.027	107.06
379.253	93.06
379.478	85.06
379.704	97.06
379.929	85.06
380.155	105.06
380.38	93.06
380.606	84.06
380.831	73.06
381.057	110.06
381.282	100.06
381.507	87.06
381.733	98.06
381.958	98.06
382.184	84.06
382.409	85.06
382.634	98.06
382.86	95.06
383.085	95.06
383.31	97.06
383.535	92.06
383.761	109.06
383.986	107.06
384.211	104.06
384.436	90.06
384.662	93.06
384.887	96.06
385.112	102.06
385.337	110.06
385.562	104.06
385.787	95.06
386.013	119.06
386.238	97.06
386.463	102.06
386.688	91.06
386.913	92.06
387.138	109.06
387.363	101.06
387.588	94.06
387.813	106.06
388.038	101.06
388.263	94.06
388.488	108.06
388.713	93.06
388.938	85.06
389.163	76.06
389.387	106.06
389.612	89.06
389.837	87.06
390.062	100.06
390.287	86.06
390.512	88.06
390.736	87.06
390.961	84.06
391.186	106.06
391.411	100.06
391.636	92.06
391.86	93.06
392.085	82.06
392.31	84.06
392.534	97.06
392.759	79.06
392.984	102.06
393.208	102.06
393.433	109.06
393.658	98.06
393.882	99.06
394.107	88.06
394.331	94.06
394.556	80.06
394.78	72.06
395.005	78.06
395.229	100.06
395.454	89.06
395.678	77.06
395.903	82.06
396.127	98.06
396.352	97.06
396.576	77.06
396.801	101.06
397.025	90.06
397.249	84.06
397.474	92.06
397.698	89.06
397.922	81.06
398.147	80.06
398.371	97.06
398.595	86.06
398.82	89.06
399.044	82.06
399.268	94.06
399.492	86.06
399.717	96.06
399.941	87.06
400.165	99.06
400.389	88.06
400.613	107.06
400.837	80.06
401.062	80.06
401.286	81.06
401.51	89.06
401.734	87.06
401.958	111.06
402.182	121.06
402.406	150.06
402.63	115.06
402.854	96.06
403.078	99.06
403.302	93.06
403.526	95.06
403.75	79.06
403.974	100.06
404.198	89.06
404.422	93.06
404.645	87.06
404.869	100.06
405.093	96.06
405.317	94.06
405.541	90.06
405.765	87.06
405.988	92.06
406.212	156.06
406.436	193.06
406.66	138.06
406.883	98.06
407.107	86.06
407.331	98.06
407.555	99.06
407.778	101.06
408.002	76.06
408.226	86.06
408.449	81.06
408.673	90.06
408.896	84.06
409.12	110.06
409.344	90.06
409.567	96.06
409.791	100.06
410.014	87.06
410.238	98.06
410.461	103.06
410.685	93.06
410.908	94.06
411.132	104.06
411.355	92.06
411.578	83.06
411.802	101.06
412.025	89.06
412.249	91.06
412.472	90.06
412.695	99.06
412.919	105.06
413.142	93.06
413.365	71.06
413.589	72.06
413.812	81.06
414.035	104.06
414.258	96.06
414.482	90.06
414.705	91.06
414.928	74.06
415.151	104.06
415.374	100.06
415.597	97.06
415.821	90.06
416.044	77.06
416.267	89.06
416.49	84.06
416.713	84.06
416.936	98.06
417.159	92.06
417.382	99.06
417.605	89.06
417.828	101.06
418.051	81.06
418.274	73.06
418.497	95.06
418.72	94.06
418.943	92.06
419.166	81.06
419.389	79.06
419.611	91.06
419.834	99.06
420.057	94.06
420.28	84.06
420.503	93.06
420.726	87.06
420.948	85.06
421.171	95.06
421.394	90.06
421.617	94.06
421.839	78.06
422.062	86.06
422.285	84.06
422.507	99.06
422.73	106.06
422.953	95.06
423.175	98.06
423.398	88.06
423.621	87.06
423.843	92.06
424.066	86.06
424.288	92.06
424.511	99.06
424.733	89.06
424.956	97.06
425.178	88.06
425.401	88.06
425.623	86.06
425.846	90.06
426.068	92.06
426.291	104.06
426.513	97.06
426.735	90.06
426.958	110.06
427.18	108.06
427.402	110.06
427.625	150.06
427.847	122.06
428.069	106.06
428.292	97.06
428.514	92.06
428.736	88.06
428.958	92.06
429.181	78.06
429.403	81.06
429.625	61.06
429.847	88.06
430.069	93.06
430.292	78.06
430.514	78.06
430.736	79.06
430.958	83.06
431.18	78.06
431.402	86.06
431.624	73.06
431.846	78.06
432.068	86.06
432.29	72.06
432.512	102.06
432.734	96.06
432.956	88.06
433.178	99.06
433.4	99.06
433.622	105.06
433.844	91.06
434.066	76.06
434.287	84.06
434.509	88.06
434.731	89.06
434.953	93.06
435.175	80.06
435.397	89.06
435.618	90.06
435.84	107.06
436.062	106.06
436.284	122.06
436.505	87.06
436.727	88.06
436.949	75.06
437.17	81.06
437.392	78.06
437.614	96.06
437.835	105.06
438.057	114.06
438.278	95.06
438.5	100.06
438.721	116.06
438.943	96.06
439.165	83.06
439.386	96.06
439.608	92.06
439.829	87.06
440.05	113.06
440.272	136.06
440.493	94.06
440.715	84.06
440.936	89.06
441.158	88.06
441.379	90.06
441.6	87.06
441.822	92.06
442.043	95.06
442.264	102.06
442.486	102.06
442.707	92.06
442.928	102.06
443.149	123.06
443.371	118.06
443.592	96.06
443.813	100.06
444.034	108.06
444.255	105.06
444.476	67.06
444.698	80.06
444.919	83.06
445.14	135.06
445.361	111.06
445.582	104.06
445.803	123.06
446.024	104.06
446.245	116.06
446.466	119.06
446.687	89.06
446.908	89.06
447.129	85.06
447.35	84.06
447.571	95.06
447.792	92.06
448.013	99.06
448.234	104.06
448.455	90.06
448.675	103.06
448.896	98.06
449.117	97.06
449.338	98.06
449.559	117.06
449.779	119.06
450	100.06
450.221	99.06
450.442	89.06
450.662	95.06
450.883	113.06
451.104	106.06
451.324	104.06
451.545	104.06
451.766	101.06
451.986	90.06
452.207	87.06
452.428	97.06
452.648	101.06
452.869	90.06
453.089	86.06
453.31	105.06
453.53	94.06
453.751	82.06
453.971	100.06
454.192	106.06
454.412	97.06
454.633	90.06
454.853	90.06
455.073	80.06
455.294	93.06
455.514	93.06
455.734	78.06
455.955	82.06
456.175	93.06
456.395	88.06
456.616	80.06
456.836	95.06
457.056	77.06
457.276	74.06
457.497	91.06
457.717	95.06
457.937	73.06
458.157	87.06
458.377	81.06
458.598	95.06
458.818	132.06
459.038	133.06
459.258	100.06
459.478	93.06
459.698	86.06
459.918	83.06
460.138	93.06
460.358	72.06
460.578	74.06
460.798	95.06
461.018	94.06
461.238	96.06
461.458	83.06
461.678	82.06
461.898	86.06
462.118	86.06
462.338	81.06
462.558	87.06
462.777	87.06
462.997	80.06
463.217	88.06
463.437	86.06
463.657	86.06
463.876	85.06
464.096	78.06
464.316	103.06
464.536	106.06
464.755	98.06
464.975	113.06
465.195	139.06
465.414	124.06
465.634	97.06
465.854	76.06
466.073	89.06
466.293	84.06
466.512	77.06
466.732	83.06
466.951	98.06
467.171	84.06
467.391	84.06
467.61	101.06
467.829	98.06
468.049	113.06
468.268	130.06
468.488	89.06
468.707	86.06
468.927	100.06
469.146	97.06
469.365	90.06
469.585	84.06
469.804	94.06
470.023	88.06
470.243	105.06
470.462	87.06
470.681	100.06
470.901	95.06
471.12	85.06
471.339	105.06
471.558	80.06
471.777	82.06
471.997	86.06
472.216	184.06
472.435	274.06
472.654	126.06
472.873	103.06
473.092	97.06
473.311	89.06
473.53	80.06
473.749	94.06
473.968	88.06
474.187	97.06
474.406	84.06
474.625	92.06
474.844	83.06
475.063	79.06
475.282	77.06
475.501	81.06
475.72	88.06
475.939	84.06
476.158	103.06
476.377	80.06
476.596	94.06
476.814	79.06
477.033	79.06
477.252	98.06
477.471	102.06
477.69	93.06
477.908	82.06
478.127	93.06
478.346	81.06
478.564	102.06
478.783	90.06
479.002	86.06
479.22	80.06
479.439	98.06
479.658	114.06
479.876	89.06
480.095	86.06
480.313	94.06
480.532	94.06
480.751	104.06
480.969	175.06
481.188	441.06
481.406	272.06
481.624	114.06
481.843	92.06
482.061	89.06
482.28	102.06
482.498	68.06
482.717	74.06
482.935	91.06
483.153	72.06
483.372	93.06
483.59	84.06
483.808	77.06
484.027	90.06
484.245	83.06
484.463	101.06
484.681	92.06
484.9	93.06
485.118	88.06
485.336	94.06
485.554	98.06
485.772	97.06
485.99	102.06
486.209	106.06
486.427	100.06
486.645	109.06
486.863	98.06
487.081	92.06
487.299	94.06
487.517	98.06
487.735	84.06
487.953	82.06
488.171	91.06
488.389	74.06
488.607	79.06
488.825	92.06
489.043	85.06
489.261	71.06
489.479	93.06
489.696	88.06
489.914	70.06
490.132	97.06
490.35	94.06
490.568	89.06
490.786	93.06
491.003	102.06
491.221	84.06
491.439	94.06
491.657	80.06
491.874	96.06
492.092	87.06
492.31	91.06
492.527	70.06
492.745	82.06
492.963	86.06
493.18	92.06
493.398	89.06
493.615	94.06
493.833	90.06
494.05	98.06
494.268	89.06
494.485	77.06
494.703	90.06
494.92	96.06
495.138	66.06
495.355	88.06
495.573	106.06
495.79	92.06
496.008	97.06
496.225	83.06
496.442	83.06
496.66	99.06
496.877	85.06
497.094	89.06
497.312	98.06
497.529	96.06
497.746	89.06
497.963	88.06
498.181	91.06
498.398	97.06
498.615	82.06
498.832	93.06
499.049	61.06
499.267	84.06
499.484	102.06
499.701	101.06
499.918	91.06
500.135	87.06
500.352	86.06
500.569	90.06
500.786	97.06
501.003	93.06
501.22	93.06
501.437	101.06
501.654	102.06
501.871	93.06
502.088	93.06
502.305	96.06
502.522	87.06
502.739	96.06
502.956	83.06
503.172	86.06
503.389	101.06
503.606	110.06
503.823	104.06
504.04	94.06
504.256	84.06
504.473	90.06
504.69	94.06
504.907	96.06
505.123	100.06
505.34	93.06
505.557	85.06
505.773	84.06
505.99	86.06
506.207	99.06
506.423	86.06
506.64	101.06
506.856	78.06
507.073	90.06
507.289	119.06
507.506	86.06
507.722	112.06
507.939	104.06
508.155	88.06
508.372	97.06
508.588	88.06
508.805	86.06
509.021	95.06
509.238	89.06
509.454	96.06
509.67	85.06
509.887	97.06
510.103	128.06
510.319	188.06
510.536	627.06
510.752	1898.06
510.968	522.06
511.184	145.06
511.401	103.06
511.617	115.06
511.833	105.06
512.049	93.06
512.265	76.06
512.481	80.06
512.698	87.06
512.914	81.06
513.13	111.06
513.346	85.06
513.562	84.06
513.778	87.06
513.994	97.06
514.21	94.06
514.426	99.06
514.642	125.06
514.858	115.06
515.074	158.06
515.29	382.06
515.506	1192.06
515.721	432.06
