Data from Uncirc_1989_H10_HRD10591_00071.txt Node
Date: Wed Jan 03 11:57:49 EST 2024
User: Yrep
Spectrometer: HR+D1059
Trigger mode: 1
Integration Time (sec): 1.000000E-1
Scans to average: 1
Electric dark correction enabled: true
Nonlinearity correction enabled: false
Boxcar width: 0
XAxis mode: Wavelengths
Number of Pixels in Spectrum: 2048
>>>>>Begin Spectral Data<<<<<
223.165	-5.19
223.4	-5.19
223.635	-5.19
223.869	-14.19
224.104	-17.19
224.338	-2.19
224.573	-11.19
224.808	-21.19
225.042	0.81
225.277	-20.19
225.511	-7.19
225.746	6.81
225.98	14.81
226.215	1.81
226.449	17.81
226.683	4.81
226.918	19.81
227.152	31.81
227.387	42.81
227.621	46.81
227.856	44.81
228.09	43.81
228.324	56.81
228.559	36.81
228.793	58.81
229.027	46.81
229.262	64.81
229.496	64.81
229.73	68.81
229.964	72.81
230.199	87.81
230.433	65.81
230.667	76.81
230.901	70.81
231.136	82.81
231.37	77.81
231.604	59.81
231.838	81.81
232.072	84.81
232.306	80.81
232.541	74.81
232.775	80.81
233.009	95.81
233.243	85.81
233.477	82.81
233.711	80.81
233.945	94.81
234.179	90.81
234.413	78.81
234.647	76.81
234.881	71.81
235.115	62.81
235.349	81.81
235.583	69.81
235.817	81.81
236.051	89.81
236.285	83.81
236.519	92.81
236.753	76.81
236.987	84.81
237.221	88.81
237.455	84.81
237.689	75.81
237.922	82.81
238.156	73.81
238.39	73.81
238.624	68.81
238.858	84.81
239.091	74.81
239.325	90.81
239.559	89.81
239.793	73.81
240.027	87.81
240.26	82.81
240.494	68.81
240.728	82.81
240.961	79.81
241.195	72.81
241.429	70.81
241.662	78.81
241.896	62.81
242.13	70.81
242.363	77.81
242.597	71.81
242.83	69.81
243.064	80.81
243.298	72.81
243.531	82.81
243.765	67.81
243.998	66.81
244.232	80.81
244.465	79.81
244.699	96.81
244.932	82.81
245.166	79.81
245.399	74.81
245.633	58.81
245.866	71.81
246.099	68.81
246.333	74.81
246.566	76.81
246.8	78.81
247.033	77.81
247.266	77.81
247.5	87.81
247.733	82.81
247.966	67.81
248.2	86.81
248.433	66.81
248.666	71.81
248.899	73.81
249.133	80.81
249.366	94.81
249.599	97.81
249.832	88.81
250.066	81.81
250.299	70.81
250.532	88.81
250.765	80.81
250.998	87.81
251.231	76.81
251.465	92.81
251.698	90.81
251.931	79.81
252.164	80.81
252.397	77.81
252.63	65.81
252.863	75.81
253.096	72.81
253.329	78.81
253.562	66.81
253.795	81.81
254.028	89.81
254.261	88.81
254.494	97.81
254.727	86.81
254.96	74.81
255.193	75.81
255.426	68.81
255.659	73.81
255.892	91.81
256.124	82.81
256.357	92.81
256.59	74.81
256.823	88.81
257.056	76.81
257.289	73.81
257.521	76.81
257.754	96.81
257.987	87.81
258.22	70.81
258.452	78.81
258.685	79.81
258.918	77.81
259.151	84.81
259.383	84.81
259.616	87.81
259.849	80.81
260.081	79.81
260.314	86.81
260.547	75.81
260.779	78.81
261.012	87.81
261.244	78.81
261.477	86.81
261.71	81.81
261.942	107.81
262.175	116.81
262.407	82.81
262.64	82.81
262.872	68.81
263.105	88.81
263.337	93.81
263.57	90.81
263.802	91.81
264.035	82.81
264.267	73.81
264.499	81.81
264.732	85.81
264.964	94.81
265.197	80.81
265.429	82.81
265.661	69.81
265.894	67.81
266.126	87.81
266.358	89.81
266.591	77.81
266.823	71.81
267.055	83.81
267.287	76.81
267.52	75.81
267.752	79.81
267.984	94.81
268.216	79.81
268.448	92.81
268.681	88.81
268.913	73.81
269.145	76.81
269.377	88.81
269.609	90.81
269.841	77.81
270.073	98.81
270.306	93.81
270.538	89.81
270.77	77.81
271.002	81.81
271.234	89.81
271.466	92.81
271.698	80.81
271.93	85.81
272.162	86.81
272.394	83.81
272.626	97.81
272.858	85.81
273.09	81.81
273.322	89.81
273.553	86.81
273.785	86.81
274.017	80.81
274.249	78.81
274.481	88.81
274.713	78.81
274.945	94.81
275.176	86.81
275.408	84.81
275.64	106.81
275.872	81.81
276.104	92.81
276.335	90.81
276.567	103.81
276.799	106.81
277.031	101.81
277.262	102.81
277.494	112.81
277.726	104.81
277.957	76.81
278.189	81.81
278.421	84.81
278.652	74.81
278.884	70.81
279.115	87.81
279.347	83.81
279.579	90.81
279.81	84.81
280.042	98.81
280.273	92.81
280.505	87.81
280.736	86.81
280.968	82.81
281.199	86.81
281.431	89.81
281.662	89.81
281.894	98.81
282.125	97.81
282.356	119.81
282.588	131.81
282.819	103.81
283.051	97.81
283.282	76.81
283.513	84.81
283.745	87.81
283.976	97.81
284.207	93.81
284.439	97.81
284.67	84.81
284.901	76.81
285.132	89.81
285.364	90.81
285.595	76.81
285.826	88.81
286.057	100.81
286.288	84.81
286.52	85.81
286.751	64.81
286.982	76.81
287.213	94.81
287.444	85.81
287.675	78.81
287.906	85.81
288.138	88.81
288.369	87.81
288.6	88.81
288.831	104.81
289.062	92.81
289.293	81.81
289.524	81.81
289.755	83.81
289.986	79.81
290.217	76.81
290.448	95.81
290.679	86.81
290.91	87.81
291.141	87.81
291.371	82.81
291.602	96.81
291.833	103.81
292.064	97.81
292.295	93.81
292.526	86.81
292.757	98.81
292.987	97.81
293.218	96.81
293.449	82.81
293.68	92.81
293.91	105.81
294.141	82.81
294.372	97.81
294.603	88.81
294.833	88.81
295.064	88.81
295.295	87.81
295.525	86.81
295.756	89.81
295.987	100.81
296.217	141.81
296.448	108.81
296.679	86.81
296.909	84.81
297.14	83.81
297.37	82.81
297.601	82.81
297.831	100.81
298.062	103.81
298.292	95.81
298.523	86.81
298.753	95.81
298.984	71.81
299.214	85.81
299.445	102.81
299.675	81.81
299.905	92.81
300.136	101.81
300.366	107.81
300.597	89.81
300.827	89.81
301.057	113.81
301.288	97.81
301.518	86.81
301.748	88.81
301.979	95.81
302.209	96.81
302.439	87.81
302.669	74.81
302.9	78.81
303.13	88.81
303.36	111.81
303.59	96.81
303.82	93.81
304.051	87.81
304.281	88.81
304.511	93.81
304.741	88.81
304.971	90.81
305.201	91.81
305.431	87.81
305.661	81.81
305.891	89.81
306.121	104.81
306.352	101.81
306.582	90.81
306.812	94.81
307.042	89.81
307.272	101.81
307.502	102.81
307.731	109.81
307.961	72.81
308.191	79.81
308.421	89.81
308.651	97.81
308.881	96.81
309.111	97.81
309.341	96.81
309.571	95.81
309.8	104.81
310.03	103.81
310.26	92.81
310.49	94.81
310.72	92.81
310.949	102.81
311.179	100.81
311.409	84.81
311.639	95.81
311.868	108.81
312.098	96.81
312.328	103.81
312.557	103.81
312.787	93.81
313.017	89.81
313.246	104.81
313.476	97.81
313.706	91.81
313.935	81.81
314.165	95.81
314.394	90.81
314.624	89.81
314.853	95.81
315.083	81.81
315.312	103.81
315.542	97.81
315.771	84.81
316.001	98.81
316.23	94.81
316.46	87.81
316.689	111.81
316.919	82.81
317.148	90.81
317.377	97.81
317.607	110.81
317.836	83.81
318.065	85.81
318.295	92.81
318.524	81.81
318.753	90.81
318.983	94.81
319.212	102.81
319.441	106.81
319.67	109.81
319.9	97.81
320.129	93.81
320.358	96.81
320.587	87.81
320.816	88.81
321.046	89.81
321.275	100.81
321.504	111.81
321.733	99.81
321.962	88.81
322.191	104.81
322.42	107.81
322.649	106.81
322.878	103.81
323.108	121.81
323.337	121.81
323.566	128.81
323.795	160.81
324.024	201.81
324.253	394.81
324.482	816.81
324.71	1660.81
324.939	2136.81
325.168	782.81
325.397	251.81
325.626	158.81
325.855	132.81
326.084	125.81
326.313	127.81
326.542	159.81
326.77	220.81
326.999	442.81
327.228	895.81
327.457	1685.81
327.686	1273.81
327.914	368.81
328.143	221.81
328.372	174.81
328.6	143.81
328.829	114.81
329.058	127.81
329.287	115.81
329.515	115.81
329.744	110.81
329.972	149.81
330.201	191.81
330.43	223.81
330.658	158.81
330.887	140.81
331.115	120.81
331.344	88.81
331.572	111.81
331.801	110.81
332.03	97.81
332.258	92.81
332.486	82.81
332.715	97.81
332.943	97.81
333.172	90.81
333.4	99.81
333.629	107.81
333.857	118.81
334.085	148.81
334.314	168.81
334.542	273.81
334.771	263.81
334.999	133.81
335.227	106.81
335.455	100.81
335.684	112.81
335.912	84.81
336.14	102.81
336.369	106.81
336.597	97.81
336.825	103.81
337.053	92.81
337.281	95.81
337.51	94.81
337.738	90.81
337.966	88.81
338.194	89.81
338.422	97.81
338.65	88.81
338.878	93.81
339.106	90.81
339.334	82.81
339.562	84.81
339.79	101.81
340.018	94.81
340.246	98.81
340.474	92.81
340.702	90.81
340.93	85.81
341.158	92.81
341.386	106.81
341.614	97.81
341.842	95.81
342.07	101.81
342.298	98.81
342.526	95.81
342.754	89.81
342.981	84.81
343.209	88.81
343.437	109.81
343.665	104.81
343.893	98.81
344.12	92.81
344.348	88.81
344.576	102.81
344.804	102.81
345.031	94.81
345.259	99.81
345.487	105.81
345.714	84.81
345.942	89.81
346.17	91.81
346.397	98.81
346.625	96.81
346.853	101.81
347.08	89.81
347.308	92.81
347.535	86.81
347.763	110.81
347.99	89.81
348.218	105.81
348.445	88.81
348.673	100.81
348.9	98.81
349.128	78.81
349.355	92.81
349.583	104.81
349.81	91.81
350.037	88.81
350.265	96.81
350.492	96.81
350.72	97.81
350.947	110.81
351.174	93.81
351.402	108.81
351.629	93.81
351.856	100.81
352.083	102.81
352.311	89.81
352.538	102.81
352.765	110.81
352.992	96.81
353.22	108.81
353.447	99.81
353.674	93.81
353.901	86.81
354.128	93.81
354.355	102.81
354.583	95.81
354.81	96.81
355.037	98.81
355.264	86.81
355.491	93.81
355.718	88.81
355.945	92.81
356.172	93.81
356.399	97.81
356.626	96.81
356.853	99.81
357.08	102.81
357.307	96.81
357.534	87.81
357.761	86.81
357.988	95.81
358.215	88.81
358.441	102.81
358.668	94.81
358.895	96.81
359.122	103.81
359.349	86.81
359.576	84.81
359.802	95.81
360.029	106.81
360.256	106.81
360.483	105.81
360.709	94.81
360.936	85.81
361.163	94.81
361.39	98.81
361.616	97.81
361.843	101.81
362.07	95.81
362.296	90.81
362.523	86.81
362.749	90.81
362.976	87.81
363.203	110.81
363.429	96.81
363.656	97.81
363.882	96.81
364.109	104.81
364.335	87.81
364.562	83.81
364.788	88.81
365.015	89.81
365.241	100.81
365.468	102.81
365.694	106.81
365.92	87.81
366.147	88.81
366.373	99.81
366.599	89.81
366.826	105.81
367.052	86.81
367.278	97.81
367.505	91.81
367.731	79.81
367.957	97.81
368.184	90.81
368.41	97.81
368.636	97.81
368.862	118.81
369.089	97.81
369.315	96.81
369.541	76.81
369.767	83.81
369.993	93.81
370.219	95.81
370.445	79.81
370.672	78.81
370.898	87.81
371.124	101.81
371.35	91.81
371.576	93.81
371.802	85.81
372.028	89.81
372.254	96.81
372.48	99.81
372.706	101.81
372.932	80.81
373.158	102.81
373.384	82.81
373.61	97.81
373.835	96.81
374.061	104.81
374.287	99.81
374.513	98.81
374.739	78.81
374.965	96.81
375.191	81.81
375.416	88.81
375.642	99.81
375.868	90.81
376.094	100.81
376.319	89.81
376.545	89.81
376.771	90.81
376.997	95.81
377.222	101.81
377.448	92.81
377.674	80.81
377.899	94.81
378.125	81.81
378.35	98.81
378.576	84.81
378.802	98.81
379.027	93.81
379.253	96.81
379.478	99.81
379.704	99.81
379.929	88.81
380.155	91.81
380.38	80.81
380.606	107.81
380.831	99.81
381.057	94.81
381.282	106.81
381.507	82.81
381.733	105.81
381.958	94.81
382.184	81.81
382.409	87.81
382.634	97.81
382.86	94.81
383.085	105.81
383.31	89.81
383.535	99.81
383.761	87.81
383.986	97.81
384.211	90.81
384.436	78.81
384.662	93.81
384.887	96.81
385.112	99.81
385.337	107.81
385.562	86.81
385.787	102.81
386.013	117.81
386.238	104.81
386.463	108.81
386.688	105.81
386.913	78.81
387.138	103.81
387.363	82.81
387.588	110.81
387.813	89.81
388.038	92.81
388.263	104.81
388.488	101.81
388.713	99.81
388.938	87.81
389.163	97.81
389.387	95.81
389.612	105.81
389.837	99.81
390.062	89.81
390.287	78.81
390.512	101.81
390.736	91.81
390.961	85.81
391.186	96.81
391.411	94.81
391.636	91.81
391.86	89.81
392.085	96.81
392.31	81.81
392.534	84.81
392.759	87.81
392.984	97.81
393.208	89.81
393.433	90.81
393.658	95.81
393.882	101.81
394.107	88.81
394.331	90.81
394.556	72.81
394.78	93.81
395.005	98.81
395.229	89.81
395.454	88.81
395.678	89.81
395.903	105.81
396.127	88.81
396.352	94.81
396.576	85.81
396.801	99.81
397.025	91.81
397.249	86.81
397.474	85.81
397.698	79.81
397.922	80.81
398.147	70.81
398.371	96.81
398.595	94.81
398.82	90.81
399.044	84.81
399.268	84.81
399.492	84.81
399.717	100.81
399.941	78.81
400.165	85.81
400.389	86.81
400.613	99.81
400.837	89.81
401.062	85.81
401.286	78.81
401.51	102.81
401.734	94.81
401.958	106.81
402.182	125.81
402.406	173.81
402.63	117.81
402.854	90.81
403.078	86.81
403.302	81.81
403.526	87.81
403.75	93.81
403.974	88.81
404.198	96.81
404.422	98.81
404.645	89.81
404.869	92.81
405.093	72.81
405.317	100.81
405.541	107.81
405.765	101.81
405.988	118.81
406.212	174.81
406.436	219.81
406.66	131.81
406.883	104.81
407.107	95.81
407.331	96.81
407.555	86.81
407.778	91.81
408.002	97.81
408.226	85.81
408.449	97.81
408.673	91.81
408.896	95.81
409.12	100.81
409.344	79.81
409.567	102.81
409.791	94.81
410.014	75.81
410.238	93.81
410.461	91.81
410.685	94.81
410.908	98.81
411.132	92.81
411.355	110.81
411.578	93.81
411.802	91.81
412.025	67.81
412.249	83.81
412.472	97.81
412.695	98.81
412.919	80.81
413.142	96.81
413.365	87.81
413.589	96.81
413.812	93.81
414.035	74.81
414.258	89.81
414.482	94.81
414.705	88.81
414.928	82.81
415.151	92.81
415.374	88.81
415.597	89.81
415.821	88.81
416.044	83.81
416.267	86.81
416.49	80.81
416.713	90.81
416.936	71.81
417.159	87.81
417.382	85.81
417.605	94.81
417.828	104.81
418.051	87.81
418.274	79.81
418.497	87.81
418.72	85.81
418.943	91.81
419.166	82.81
419.389	94.81
419.611	76.81
419.834	83.81
420.057	85.81
420.28	92.81
420.503	85.81
420.726	91.81
420.948	91.81
421.171	84.81
421.394	109.81
421.617	86.81
421.839	80.81
422.062	98.81
422.285	87.81
422.507	89.81
422.73	90.81
422.953	88.81
423.175	94.81
423.398	91.81
423.621	91.81
423.843	81.81
424.066	98.81
424.288	73.81
424.511	89.81
424.733	95.81
424.956	99.81
425.178	107.81
425.401	104.81
425.623	98.81
425.846	89.81
426.068	94.81
426.291	86.81
426.513	87.81
426.735	86.81
426.958	98.81
427.18	103.81
427.402	118.81
427.625	161.81
427.847	146.81
428.069	119.81
428.292	91.81
428.514	71.81
428.736	71.81
428.958	87.81
429.181	76.81
429.403	94.81
429.625	79.81
429.847	88.81
430.069	81.81
430.292	89.81
430.514	85.81
430.736	77.81
430.958	90.81
431.18	79.81
431.402	99.81
431.624	85.81
431.846	77.81
432.068	90.81
432.29	87.81
432.512	82.81
432.734	87.81
432.956	88.81
433.178	91.81
433.4	103.81
433.622	89.81
433.844	87.81
434.066	94.81
434.287	88.81
434.509	80.81
434.731	93.81
434.953	104.81
435.175	86.81
435.397	105.81
435.618	94.81
435.84	85.81
436.062	99.81
436.284	92.81
436.505	108.81
436.727	109.81
436.949	95.81
437.17	84.81
437.392	79.81
437.614	103.81
437.835	105.81
438.057	107.81
438.278	91.81
438.5	105.81
438.721	119.81
438.943	103.81
439.165	94.81
439.386	80.81
439.608	89.81
439.829	98.81
440.05	117.81
440.272	121.81
440.493	95.81
440.715	82.81
440.936	79.81
441.158	88.81
441.379	93.81
441.6	105.81
441.822	86.81
442.043	86.81
442.264	105.81
442.486	97.81
442.707	90.81
442.928	105.81
443.149	110.81
443.371	104.81
443.592	109.81
443.813	98.81
444.034	89.81
444.255	96.81
444.476	84.81
444.698	79.81
444.919	81.81
445.14	125.81
445.361	131.81
445.582	108.81
445.803	137.81
446.024	126.81
446.245	133.81
446.466	95.81
446.687	85.81
446.908	94.81
447.129	96.81
447.35	87.81
447.571	102.81
447.792	62.81
448.013	95.81
448.234	96.81
448.455	86.81
448.675	111.81
448.896	119.81
449.117	88.81
449.338	97.81
449.559	114.81
449.779	124.81
450	101.81
450.221	99.81
450.442	90.81
450.662	97.81
450.883	99.81
451.104	117.81
451.324	110.81
451.545	81.81
451.766	71.81
451.986	92.81
452.207	101.81
452.428	100.81
452.648	104.81
452.869	114.81
453.089	96.81
453.31	104.81
453.53	72.81
453.751	96.81
453.971	98.81
454.192	101.81
454.412	93.81
454.633	88.81
454.853	92.81
455.073	85.81
455.294	85.81
455.514	93.81
455.734	105.81
455.955	99.81
456.175	100.81
456.395	100.81
456.616	80.81
456.836	103.81
457.056	81.81
457.276	82.81
457.497	83.81
457.717	87.81
457.937	86.81
458.157	98.81
458.377	92.81
458.598	105.81
458.818	151.81
459.038	149.81
459.258	106.81
459.478	92.81
459.698	80.81
459.918	93.81
460.138	77.81
460.358	93.81
460.578	90.81
460.798	69.81
461.018	102.81
461.238	83.81
461.458	96.81
461.678	75.81
461.898	98.81
462.118	80.81
462.338	73.81
462.558	71.81
462.777	78.81
462.997	97.81
463.217	104.81
463.437	76.81
463.657	73.81
463.876	92.81
464.096	90.81
464.316	96.81
464.536	93.81
464.755	101.81
464.975	92.81
465.195	165.81
465.414	136.81
465.634	102.81
465.854	83.81
466.073	101.81
466.293	97.81
466.512	70.81
466.732	78.81
466.951	76.81
467.171	101.81
467.391	94.81
467.61	107.81
467.829	105.81
468.049	156.81
468.268	148.81
468.488	102.81
468.707	86.81
468.927	84.81
469.146	85.81
469.365	87.81
469.585	83.81
469.804	83.81
470.023	89.81
470.243	91.81
470.462	94.81
470.681	100.81
470.901	98.81
471.12	93.81
471.339	96.81
471.558	79.81
471.777	81.81
471.997	119.81
472.216	204.81
472.435	356.81
472.654	146.81
472.873	95.81
473.092	85.81
473.311	93.81
473.53	98.81
473.749	79.81
473.968	93.81
474.187	110.81
474.406	99.81
474.625	85.81
474.844	86.81
475.063	73.81
475.282	91.81
475.501	82.81
475.72	88.81
475.939	94.81
476.158	91.81
476.377	79.81
476.596	85.81
476.814	88.81
477.033	102.81
477.252	79.81
477.471	83.81
477.69	97.81
477.908	91.81
478.127	82.81
478.346	86.81
478.564	69.81
478.783	104.81
479.002	92.81
479.22	113.81
479.439	115.81
479.658	103.81
479.876	90.81
480.095	98.81
480.313	96.81
480.532	98.81
480.751	116.81
480.969	210.81
481.188	570.81
481.406	364.81
481.624	118.81
481.843	91.81
482.061	102.81
482.28	82.81
482.498	100.81
482.717	76.81
482.935	75.81
483.153	93.81
483.372	87.81
483.59	89.81
483.808	84.81
484.027	100.81
484.245	94.81
484.463	99.81
484.681	94.81
484.9	91.81
485.118	89.81
485.336	104.81
485.554	113.81
485.772	103.81
485.99	99.81
486.209	111.81
486.427	100.81
486.645	105.81
486.863	120.81
487.081	104.81
487.299	96.81
487.517	99.81
487.735	90.81
487.953	90.81
488.171	107.81
488.389	92.81
488.607	87.81
488.825	73.81
489.043	88.81
489.261	86.81
489.479	89.81
489.696	86.81
489.914	84.81
490.132	90.81
490.35	99.81
490.568	96.81
490.786	109.81
491.003	97.81
491.221	86.81
491.439	81.81
491.657	93.81
491.874	81.81
492.092	75.81
492.31	81.81
492.527	95.81
492.745	90.81
492.963	98.81
493.18	95.81
493.398	61.81
493.615	80.81
493.833	84.81
494.05	96.81
494.268	94.81
494.485	89.81
494.703	91.81
494.92	89.81
495.138	82.81
495.355	80.81
495.573	104.81
495.79	83.81
496.008	93.81
496.225	85.81
496.442	88.81
496.66	92.81
496.877	106.81
497.094	92.81
497.312	96.81
497.529	109.81
497.746	87.81
497.963	89.81
498.181	87.81
498.398	111.81
498.615	120.81
498.832	96.81
499.049	85.81
499.267	76.81
499.484	100.81
499.701	81.81
499.918	84.81
500.135	90.81
500.352	102.81
500.569	86.81
500.786	86.81
501.003	92.81
501.22	72.81
501.437	84.81
501.654	85.81
501.871	120.81
502.088	78.81
502.305	85.81
502.522	86.81
502.739	89.81
502.956	90.81
503.172	93.81
503.389	94.81
503.606	92.81
503.823	98.81
504.04	88.81
504.256	95.81
504.473	97.81
504.69	83.81
504.907	94.81
505.123	82.81
505.34	83.81
505.557	88.81
505.773	87.81
505.99	88.81
506.207	95.81
506.423	79.81
506.64	87.81
506.856	89.81
507.073	88.81
507.289	74.81
507.506	98.81
507.722	113.81
507.939	108.81
508.155	94.81
508.372	76.81
508.588	102.81
508.805	93.81
509.021	82.81
509.238	109.81
509.454	113.81
509.67	104.81
509.887	126.81
510.103	120.81
510.319	198.81
510.536	729.81
510.752	2230.81
510.968	615.81
511.184	146.81
511.401	102.81
511.617	110.81
511.833	93.81
512.049	81.81
512.265	94.81
512.481	87.81
512.698	91.81
512.914	86.81
513.13	93.81
513.346	90.81
513.562	85.81
513.778	98.81
513.994	96.81
514.21	101.81
514.426	125.81
514.642	129.81
514.858	120.81
515.074	155.81
515.29	441.81
515.506	1429.81
515.721	515.81
