Data from Uncirc_1989_H10_HRD10591_00035.txt Node
Date: Wed Jan 03 11:57:42 EST 2024
User: Yrep
Spectrometer: HR+D1059
Trigger mode: 1
Integration Time (sec): 1.000000E-1
Scans to average: 1
Electric dark correction enabled: true
Nonlinearity correction enabled: false
Boxcar width: 0
XAxis mode: Wavelengths
Number of Pixels in Spectrum: 2048
>>>>>Begin Spectral Data<<<<<
223.165	-21.38
223.4	-21.38
223.635	-21.38
223.869	-11.38
224.104	-21.38
224.338	-12.38
224.573	-5.38
224.808	-15.38
225.042	-13.38
225.277	5.62
225.511	9.62
225.746	7.62
225.98	5.62
226.215	2.62
226.449	5.62
226.683	19.62
226.918	30.62
227.152	13.62
227.387	31.62
227.621	54.62
227.856	43.62
228.09	40.62
228.324	40.62
228.559	50.62
228.793	51.62
229.027	57.62
229.262	51.62
229.496	73.62
229.73	91.62
229.964	79.62
230.199	70.62
230.433	70.62
230.667	64.62
230.901	76.62
231.136	83.62
231.37	70.62
231.604	84.62
231.838	68.62
232.072	81.62
232.306	88.62
232.541	101.62
232.775	77.62
233.009	69.62
233.243	71.62
233.477	71.62
233.711	76.62
233.945	78.62
234.179	73.62
234.413	90.62
234.647	91.62
234.881	83.62
235.115	80.62
235.349	77.62
235.583	83.62
235.817	84.62
236.051	80.62
236.285	76.62
236.519	66.62
236.753	92.62
236.987	80.62
237.221	71.62
237.455	80.62
237.689	75.62
237.922	67.62
238.156	85.62
238.39	76.62
238.624	63.62
238.858	64.62
239.091	85.62
239.325	77.62
239.559	80.62
239.793	92.62
240.027	70.62
240.26	78.62
240.494	69.62
240.728	75.62
240.961	77.62
241.195	71.62
241.429	60.62
241.662	84.62
241.896	84.62
242.13	74.62
242.363	84.62
242.597	77.62
242.83	77.62
243.064	74.62
243.298	74.62
243.531	84.62
243.765	73.62
243.998	86.62
244.232	82.62
244.465	84.62
244.699	86.62
244.932	84.62
245.166	84.62
245.399	80.62
245.633	73.62
245.866	84.62
246.099	79.62
246.333	87.62
246.566	86.62
246.8	81.62
247.033	82.62
247.266	70.62
247.5	76.62
247.733	79.62
247.966	85.62
248.2	99.62
248.433	88.62
248.666	71.62
248.899	83.62
249.133	88.62
249.366	84.62
249.599	87.62
249.832	82.62
250.066	88.62
250.299	80.62
250.532	83.62
250.765	71.62
250.998	82.62
251.231	77.62
251.465	78.62
251.698	72.62
251.931	74.62
252.164	66.62
252.397	87.62
252.63	83.62
252.863	77.62
253.096	88.62
253.329	80.62
253.562	86.62
253.795	76.62
254.028	72.62
254.261	76.62
254.494	83.62
254.727	79.62
254.96	89.62
255.193	81.62
255.426	83.62
255.659	90.62
255.892	92.62
256.124	92.62
256.357	87.62
256.59	84.62
256.823	85.62
257.056	78.62
257.289	82.62
257.521	76.62
257.754	83.62
257.987	88.62
258.22	75.62
258.452	71.62
258.685	87.62
258.918	76.62
259.151	85.62
259.383	88.62
259.616	93.62
259.849	76.62
260.081	76.62
260.314	77.62
260.547	78.62
260.779	78.62
261.012	100.62
261.244	97.62
261.477	100.62
261.71	99.62
261.942	108.62
262.175	114.62
262.407	105.62
262.64	80.62
262.872	80.62
263.105	94.62
263.337	93.62
263.57	85.62
263.802	88.62
264.035	91.62
264.267	78.62
264.499	63.62
264.732	84.62
264.964	76.62
265.197	79.62
265.429	80.62
265.661	84.62
265.894	74.62
266.126	81.62
266.358	82.62
266.591	90.62
266.823	82.62
267.055	75.62
267.287	93.62
267.52	85.62
267.752	95.62
267.984	84.62
268.216	83.62
268.448	88.62
268.681	77.62
268.913	81.62
269.145	78.62
269.377	87.62
269.609	81.62
269.841	77.62
270.073	86.62
270.306	81.62
270.538	98.62
270.77	96.62
271.002	89.62
271.234	70.62
271.466	78.62
271.698	83.62
271.93	85.62
272.162	71.62
272.394	70.62
272.626	92.62
272.858	85.62
273.09	86.62
273.322	79.62
273.553	83.62
273.785	76.62
274.017	97.62
274.249	92.62
274.481	76.62
274.713	84.62
274.945	76.62
275.176	82.62
275.408	95.62
275.64	84.62
275.872	88.62
276.104	88.62
276.335	91.62
276.567	91.62
276.799	110.62
277.031	111.62
277.262	85.62
277.494	81.62
277.726	91.62
277.957	80.62
278.189	79.62
278.421	68.62
278.652	96.62
278.884	79.62
279.115	90.62
279.347	89.62
279.579	86.62
279.81	88.62
280.042	79.62
280.273	83.62
280.505	77.62
280.736	79.62
280.968	92.62
281.199	75.62
281.431	87.62
281.662	94.62
281.894	93.62
282.125	93.62
282.356	103.62
282.588	125.62
282.819	100.62
283.051	87.62
283.282	86.62
283.513	85.62
283.745	82.62
283.976	96.62
284.207	95.62
284.439	87.62
284.67	81.62
284.901	67.62
285.132	83.62
285.364	79.62
285.595	95.62
285.826	80.62
286.057	105.62
286.288	81.62
286.52	89.62
286.751	81.62
286.982	87.62
287.213	92.62
287.444	87.62
287.675	83.62
287.906	89.62
288.138	81.62
288.369	97.62
288.6	72.62
288.831	86.62
289.062	95.62
289.293	94.62
289.524	92.62
289.755	79.62
289.986	82.62
290.217	84.62
290.448	84.62
290.679	84.62
290.91	84.62
291.141	94.62
291.371	87.62
291.602	84.62
291.833	87.62
292.064	68.62
292.295	86.62
292.526	79.62
292.757	100.62
292.987	87.62
293.218	91.62
293.449	88.62
293.68	85.62
293.91	78.62
294.141	97.62
294.372	75.62
294.603	85.62
294.833	88.62
295.064	90.62
295.295	93.62
295.525	94.62
295.756	99.62
295.987	98.62
296.217	128.62
296.448	111.62
296.679	91.62
296.909	92.62
297.14	93.62
297.37	92.62
297.601	93.62
297.831	88.62
298.062	89.62
298.292	86.62
298.523	87.62
298.753	86.62
298.984	81.62
299.214	87.62
299.445	78.62
299.675	101.62
299.905	99.62
300.136	87.62
300.366	85.62
300.597	100.62
300.827	99.62
301.057	83.62
301.288	80.62
301.518	100.62
301.748	95.62
301.979	91.62
302.209	84.62
302.439	84.62
302.669	86.62
302.9	79.62
303.13	92.62
303.36	69.62
303.59	99.62
303.82	101.62
304.051	109.62
304.281	83.62
304.511	103.62
304.741	90.62
304.971	72.62
305.201	92.62
305.431	92.62
305.661	85.62
305.891	88.62
306.121	105.62
306.352	79.62
306.582	97.62
306.812	79.62
307.042	92.62
307.272	79.62
307.502	95.62
307.731	87.62
307.961	103.62
308.191	81.62
308.421	89.62
308.651	96.62
308.881	73.62
309.111	95.62
309.341	97.62
309.571	116.62
309.8	96.62
310.03	105.62
310.26	93.62
310.49	94.62
310.72	93.62
310.949	89.62
311.179	106.62
311.409	83.62
311.639	96.62
311.868	98.62
312.098	78.62
312.328	84.62
312.557	107.62
312.787	96.62
313.017	91.62
313.246	86.62
313.476	102.62
313.706	84.62
313.935	99.62
314.165	100.62
314.394	92.62
314.624	97.62
314.853	95.62
315.083	90.62
315.312	86.62
315.542	87.62
315.771	86.62
316.001	91.62
316.23	104.62
316.46	94.62
316.689	82.62
316.919	91.62
317.148	82.62
317.377	82.62
317.607	73.62
317.836	109.62
318.065	107.62
318.295	87.62
318.524	75.62
318.753	96.62
318.983	96.62
319.212	100.62
319.441	101.62
319.67	101.62
319.9	99.62
320.129	83.62
320.358	93.62
320.587	100.62
320.816	95.62
321.046	93.62
321.275	85.62
321.504	88.62
321.733	93.62
321.962	107.62
322.191	101.62
322.42	98.62
322.649	101.62
322.878	97.62
323.108	122.62
323.337	120.62
323.566	108.62
323.795	143.62
324.024	179.62
324.253	331.62
324.482	697.62
324.71	1448.62
324.939	1876.62
325.168	667.62
325.397	225.62
325.626	147.62
325.855	140.62
326.084	120.62
326.313	135.62
326.542	141.62
326.77	214.62
326.999	387.62
327.228	795.62
327.457	1479.62
327.686	1159.62
327.914	333.62
328.143	196.62
328.372	153.62
328.6	130.62
328.829	105.62
329.058	128.62
329.287	110.62
329.515	102.62
329.744	102.62
329.972	112.62
330.201	145.62
330.43	167.62
330.658	137.62
330.887	116.62
331.115	100.62
331.344	94.62
331.572	98.62
331.801	93.62
332.03	86.62
332.258	102.62
332.486	85.62
332.715	96.62
332.943	91.62
333.172	91.62
333.4	77.62
333.629	116.62
333.857	112.62
334.085	111.62
334.314	140.62
334.542	204.62
334.771	183.62
334.999	114.62
335.227	84.62
335.455	88.62
335.684	91.62
335.912	103.62
336.14	98.62
336.369	97.62
336.597	82.62
336.825	99.62
337.053	94.62
337.281	103.62
337.51	85.62
337.738	91.62
337.966	93.62
338.194	95.62
338.422	89.62
338.65	106.62
338.878	89.62
339.106	84.62
339.334	92.62
339.562	78.62
339.79	111.62
340.018	92.62
340.246	101.62
340.474	102.62
340.702	96.62
340.93	100.62
341.158	99.62
341.386	98.62
341.614	86.62
341.842	96.62
342.07	94.62
342.298	83.62
342.526	99.62
342.754	90.62
342.981	93.62
343.209	99.62
343.437	86.62
343.665	85.62
343.893	87.62
344.12	112.62
344.348	86.62
344.576	92.62
344.804	86.62
345.031	88.62
345.259	105.62
345.487	106.62
345.714	89.62
345.942	87.62
346.17	92.62
346.397	66.62
346.625	94.62
346.853	100.62
347.08	97.62
347.308	101.62
347.535	104.62
347.763	96.62
347.99	79.62
348.218	90.62
348.445	109.62
348.673	85.62
348.9	100.62
349.128	94.62
349.355	94.62
349.583	83.62
349.81	83.62
350.037	85.62
350.265	100.62
350.492	99.62
350.72	95.62
350.947	101.62
351.174	112.62
351.402	111.62
351.629	93.62
351.856	93.62
352.083	107.62
352.311	108.62
352.538	112.62
352.765	93.62
352.992	103.62
353.22	116.62
353.447	100.62
353.674	91.62
353.901	82.62
354.128	99.62
354.355	95.62
354.583	99.62
354.81	86.62
355.037	96.62
355.264	89.62
355.491	93.62
355.718	101.62
355.945	91.62
356.172	83.62
356.399	113.62
356.626	97.62
356.853	91.62
357.08	99.62
357.307	91.62
357.534	88.62
357.761	93.62
357.988	91.62
358.215	100.62
358.441	88.62
358.668	94.62
358.895	73.62
359.122	72.62
359.349	86.62
359.576	80.62
359.802	116.62
360.029	99.62
360.256	105.62
360.483	97.62
360.709	99.62
360.936	79.62
361.163	96.62
361.39	92.62
361.616	98.62
361.843	86.62
362.07	97.62
362.296	109.62
362.523	91.62
362.749	96.62
362.976	88.62
363.203	85.62
363.429	85.62
363.656	83.62
363.882	96.62
364.109	84.62
364.335	77.62
364.562	96.62
364.788	85.62
365.015	83.62
365.241	89.62
365.468	105.62
365.694	103.62
365.92	104.62
366.147	85.62
366.373	91.62
366.599	78.62
366.826	89.62
367.052	87.62
367.278	79.62
367.505	90.62
367.731	91.62
367.957	82.62
368.184	96.62
368.41	87.62
368.636	99.62
368.862	119.62
369.089	103.62
369.315	105.62
369.541	81.62
369.767	106.62
369.993	85.62
370.219	89.62
370.445	93.62
370.672	88.62
370.898	85.62
371.124	84.62
371.35	85.62
371.576	83.62
371.802	91.62
372.028	69.62
372.254	98.62
372.48	94.62
372.706	89.62
372.932	87.62
373.158	83.62
373.384	81.62
373.61	88.62
373.835	85.62
374.061	85.62
374.287	96.62
374.513	84.62
374.739	95.62
374.965	87.62
375.191	72.62
375.416	81.62
375.642	88.62
375.868	96.62
376.094	85.62
376.319	100.62
376.545	93.62
376.771	82.62
376.997	88.62
377.222	82.62
377.448	83.62
377.674	85.62
377.899	84.62
378.125	84.62
378.35	94.62
378.576	97.62
378.802	89.62
379.027	99.62
379.253	88.62
379.478	95.62
379.704	101.62
379.929	89.62
380.155	89.62
380.38	93.62
380.606	98.62
380.831	87.62
381.057	100.62
381.282	97.62
381.507	92.62
381.733	88.62
381.958	95.62
382.184	100.62
382.409	94.62
382.634	107.62
382.86	97.62
383.085	88.62
383.31	98.62
383.535	97.62
383.761	107.62
383.986	97.62
384.211	86.62
384.436	88.62
384.662	87.62
384.887	92.62
385.112	101.62
385.337	91.62
385.562	101.62
385.787	87.62
386.013	105.62
386.238	91.62
386.463	110.62
386.688	109.62
386.913	98.62
387.138	79.62
387.363	99.62
387.588	93.62
387.813	111.62
388.038	109.62
388.263	100.62
388.488	100.62
388.713	88.62
388.938	98.62
389.163	104.62
389.387	91.62
389.612	91.62
389.837	85.62
390.062	102.62
390.287	107.62
390.512	83.62
390.736	95.62
390.961	95.62
391.186	96.62
391.411	81.62
391.636	99.62
391.86	96.62
392.085	95.62
392.31	91.62
392.534	78.62
392.759	73.62
392.984	92.62
393.208	97.62
393.433	119.62
393.658	96.62
393.882	98.62
394.107	95.62
394.331	78.62
394.556	93.62
394.78	95.62
395.005	83.62
395.229	87.62
395.454	85.62
395.678	81.62
395.903	91.62
396.127	78.62
396.352	86.62
396.576	97.62
396.801	101.62
397.025	108.62
397.249	96.62
397.474	93.62
397.698	108.62
397.922	79.62
398.147	78.62
398.371	84.62
398.595	84.62
398.82	83.62
399.044	84.62
399.268	87.62
399.492	86.62
399.717	88.62
399.941	93.62
400.165	95.62
400.389	84.62
400.613	93.62
400.837	93.62
401.062	86.62
401.286	81.62
401.51	83.62
401.734	95.62
401.958	109.62
402.182	109.62
402.406	156.62
402.63	102.62
402.854	99.62
403.078	91.62
403.302	93.62
403.526	94.62
403.75	86.62
403.974	92.62
404.198	89.62
404.422	85.62
404.645	81.62
404.869	87.62
405.093	102.62
405.317	79.62
405.541	86.62
405.765	82.62
405.988	129.62
406.212	168.62
406.436	200.62
406.66	130.62
406.883	85.62
407.107	96.62
407.331	96.62
407.555	87.62
407.778	85.62
408.002	100.62
408.226	69.62
408.449	99.62
408.673	93.62
408.896	91.62
409.12	88.62
409.344	83.62
409.567	72.62
409.791	90.62
410.014	85.62
410.238	87.62
410.461	92.62
410.685	96.62
410.908	100.62
411.132	108.62
411.355	92.62
411.578	98.62
411.802	96.62
412.025	89.62
412.249	73.62
412.472	95.62
412.695	91.62
412.919	93.62
413.142	96.62
413.365	93.62
413.589	95.62
413.812	100.62
414.035	92.62
414.258	92.62
414.482	95.62
414.705	89.62
414.928	97.62
415.151	100.62
415.374	110.62
415.597	101.62
415.821	71.62
416.044	99.62
416.267	79.62
416.49	83.62
416.713	87.62
416.936	78.62
417.159	73.62
417.382	91.62
417.605	88.62
417.828	92.62
418.051	85.62
418.274	106.62
418.497	97.62
418.72	79.62
418.943	81.62
419.166	91.62
419.389	77.62
419.611	89.62
419.834	86.62
420.057	86.62
420.28	71.62
420.503	102.62
420.726	93.62
420.948	86.62
421.171	86.62
421.394	88.62
421.617	71.62
421.839	83.62
422.062	84.62
422.285	85.62
422.507	103.62
422.73	97.62
422.953	86.62
423.175	65.62
423.398	83.62
423.621	79.62
423.843	72.62
424.066	87.62
424.288	85.62
424.511	100.62
424.733	77.62
424.956	103.62
425.178	87.62
425.401	99.62
425.623	85.62
425.846	85.62
426.068	98.62
426.291	91.62
426.513	91.62
426.735	88.62
426.958	91.62
427.18	119.62
427.402	125.62
427.625	154.62
427.847	120.62
428.069	109.62
428.292	85.62
428.514	90.62
428.736	82.62
428.958	89.62
429.181	83.62
429.403	91.62
429.625	96.62
429.847	100.62
430.069	88.62
430.292	91.62
430.514	87.62
430.736	95.62
430.958	78.62
431.18	85.62
431.402	82.62
431.624	76.62
431.846	83.62
432.068	81.62
432.29	87.62
432.512	86.62
432.734	93.62
432.956	90.62
433.178	89.62
433.4	88.62
433.622	95.62
433.844	85.62
434.066	92.62
434.287	92.62
434.509	79.62
434.731	85.62
434.953	73.62
435.175	79.62
435.397	93.62
435.618	92.62
435.84	95.62
436.062	105.62
436.284	104.62
436.505	105.62
436.727	99.62
436.949	101.62
437.17	96.62
437.392	91.62
437.614	84.62
437.835	94.62
438.057	104.62
438.278	91.62
438.5	103.62
438.721	119.62
438.943	93.62
439.165	87.62
439.386	95.62
439.608	88.62
439.829	96.62
440.05	106.62
440.272	132.62
440.493	95.62
440.715	86.62
440.936	85.62
441.158	101.62
441.379	100.62
441.6	94.62
441.822	92.62
442.043	86.62
442.264	87.62
442.486	100.62
442.707	87.62
442.928	86.62
443.149	122.62
443.371	120.62
443.592	103.62
443.813	100.62
444.034	90.62
444.255	86.62
444.476	100.62
444.698	83.62
444.919	89.62
445.14	139.62
445.361	123.62
445.582	97.62
445.803	115.62
446.024	114.62
446.245	135.62
446.466	102.62
446.687	88.62
446.908	93.62
447.129	80.62
447.35	85.62
447.571	97.62
447.792	90.62
448.013	97.62
448.234	109.62
448.455	103.62
448.675	95.62
448.896	103.62
449.117	84.62
449.338	88.62
449.559	103.62
449.779	112.62
450	85.62
450.221	86.62
450.442	83.62
450.662	81.62
450.883	103.62
451.104	111.62
451.324	96.62
451.545	88.62
451.766	84.62
451.986	87.62
452.207	83.62
452.428	85.62
452.648	87.62
452.869	106.62
453.089	96.62
453.31	102.62
453.53	80.62
453.751	88.62
453.971	108.62
454.192	89.62
454.412	101.62
454.633	109.62
454.853	88.62
455.073	87.62
455.294	83.62
455.514	96.62
455.734	78.62
455.955	99.62
456.175	96.62
456.395	85.62
456.616	84.62
456.836	94.62
457.056	83.62
457.276	79.62
457.497	94.62
457.717	85.62
457.937	89.62
458.157	99.62
458.377	92.62
458.598	109.62
458.818	139.62
459.038	136.62
459.258	97.62
459.478	94.62
459.698	92.62
459.918	86.62
460.138	81.62
460.358	102.62
460.578	78.62
460.798	86.62
461.018	87.62
461.238	85.62
461.458	88.62
461.678	74.62
461.898	82.62
462.118	83.62
462.338	89.62
462.558	91.62
462.777	82.62
462.997	77.62
463.217	78.62
463.437	78.62
463.657	73.62
463.876	86.62
464.096	90.62
464.316	95.62
464.536	90.62
464.755	92.62
464.975	99.62
465.195	144.62
465.414	135.62
465.634	77.62
465.854	87.62
466.073	81.62
466.293	88.62
466.512	92.62
466.732	103.62
466.951	87.62
467.171	99.62
467.391	92.62
467.61	97.62
467.829	103.62
468.049	114.62
468.268	124.62
468.488	84.62
468.707	85.62
468.927	84.62
469.146	84.62
469.365	87.62
469.585	88.62
469.804	108.62
470.023	88.62
470.243	96.62
470.462	97.62
470.681	110.62
470.901	99.62
471.12	105.62
471.339	82.62
471.558	79.62
471.777	88.62
471.997	115.62
472.216	164.62
472.435	232.62
472.654	109.62
472.873	99.62
473.092	95.62
473.311	93.62
473.53	73.62
473.749	93.62
473.968	88.62
474.187	100.62
474.406	88.62
474.625	87.62
474.844	76.62
475.063	89.62
475.282	97.62
475.501	88.62
475.72	84.62
475.939	93.62
476.158	77.62
476.377	87.62
476.596	77.62
476.814	95.62
477.033	76.62
477.252	84.62
477.471	80.62
477.69	97.62
477.908	73.62
478.127	83.62
478.346	77.62
478.564	86.62
478.783	79.62
479.002	96.62
479.22	69.62
479.439	103.62
479.658	106.62
479.876	102.62
480.095	80.62
480.313	94.62
480.532	95.62
480.751	97.62
480.969	152.62
481.188	355.62
481.406	239.62
481.624	104.62
481.843	93.62
482.061	88.62
482.28	98.62
482.498	82.62
482.717	80.62
482.935	72.62
483.153	76.62
483.372	83.62
483.59	81.62
483.808	84.62
484.027	90.62
484.245	82.62
484.463	79.62
484.681	86.62
484.9	79.62
485.118	102.62
485.336	95.62
485.554	95.62
485.772	76.62
485.99	90.62
486.209	91.62
486.427	86.62
486.645	102.62
486.863	104.62
487.081	108.62
487.299	98.62
487.517	101.62
487.735	98.62
487.953	97.62
488.171	97.62
488.389	104.62
488.607	96.62
488.825	89.62
489.043	95.62
489.261	87.62
489.479	93.62
489.696	71.62
489.914	87.62
490.132	90.62
490.35	93.62
490.568	81.62
490.786	94.62
491.003	104.62
491.221	91.62
491.439	93.62
491.657	103.62
491.874	73.62
492.092	81.62
492.31	90.62
492.527	90.62
492.745	94.62
492.963	72.62
493.18	97.62
493.398	92.62
493.615	91.62
493.833	71.62
494.05	96.62
494.268	88.62
494.485	97.62
494.703	82.62
494.92	85.62
495.138	80.62
495.355	90.62
495.573	98.62
495.79	78.62
496.008	105.62
496.225	101.62
496.442	84.62
496.66	87.62
496.877	92.62
497.094	93.62
497.312	103.62
497.529	76.62
497.746	95.62
497.963	83.62
498.181	91.62
498.398	99.62
498.615	110.62
498.832	110.62
499.049	89.62
499.267	82.62
499.484	89.62
499.701	93.62
499.918	94.62
500.135	80.62
500.352	106.62
500.569	77.62
500.786	101.62
501.003	87.62
501.22	98.62
501.437	96.62
501.654	99.62
501.871	97.62
502.088	106.62
502.305	86.62
502.522	95.62
502.739	101.62
502.956	98.62
503.172	99.62
503.389	97.62
503.606	97.62
503.823	115.62
504.04	93.62
504.256	95.62
504.473	85.62
504.69	88.62
504.907	89.62
505.123	90.62
505.34	77.62
505.557	99.62
505.773	89.62
505.99	97.62
506.207	87.62
506.423	96.62
506.64	95.62
506.856	77.62
507.073	72.62
507.289	89.62
507.506	92.62
507.722	105.62
507.939	120.62
508.155	99.62
508.372	93.62
508.588	83.62
508.805	93.62
509.021	94.62
509.238	95.62
509.454	97.62
509.67	91.62
509.887	86.62
510.103	113.62
510.319	194.62
510.536	656.62
510.752	2012.62
510.968	579.62
511.184	129.62
511.401	105.62
511.617	100.62
511.833	85.62
512.049	100.62
512.265	89.62
512.481	86.62
512.698	84.62
512.914	79.62
513.13	94.62
513.346	88.62
513.562	101.62
513.778	75.62
513.994	103.62
514.21	86.62
514.426	104.62
514.642	119.62
514.858	92.62
515.074	137.62
515.29	392.62
515.506	1282.62
515.721	454.62
515.937	144.62
516.153	97.62
516.369	91.62
