Data from Uncirc_1989_H10_HRD10591_00079.txt Node
Date: Wed Jan 03 11:57:51 EST 2024
User: Yrep
Spectrometer: HR+D1059
Trigger mode: 1
Integration Time (sec): 1.000000E-1
Scans to average: 1
Electric dark correction enabled: true
Nonlinearity correction enabled: false
Boxcar width: 0
XAxis mode: Wavelengths
Number of Pixels in Spectrum: 2048
>>>>>Begin Spectral Data<<<<<
223.165	-18.5
223.4	-18.5
223.635	-18.5
223.869	-26.5
224.104	-19.5
224.338	-12.5
224.573	-12.5
224.808	-18.5
225.042	-19.5
225.277	-7.5
225.511	-8.5
225.746	13.5
225.98	18.5
226.215	15.5
226.449	20.5
226.683	25.5
226.918	17.5
227.152	32.5
227.387	39.5
227.621	37.5
227.856	54.5
228.09	47.5
228.324	47.5
228.559	56.5
228.793	63.5
229.027	62.5
229.262	59.5
229.496	70.5
229.73	75.5
229.964	87.5
230.199	84.5
230.433	85.5
230.667	76.5
230.901	80.5
231.136	84.5
231.37	77.5
231.604	73.5
231.838	88.5
232.072	80.5
232.306	71.5
232.541	64.5
232.775	86.5
233.009	76.5
233.243	78.5
233.477	58.5
233.711	77.5
233.945	79.5
234.179	85.5
234.413	81.5
234.647	66.5
234.881	84.5
235.115	64.5
235.349	80.5
235.583	74.5
235.817	74.5
236.051	71.5
236.285	93.5
236.519	80.5
236.753	72.5
236.987	83.5
237.221	80.5
237.455	90.5
237.689	67.5
237.922	75.5
238.156	76.5
238.39	82.5
238.624	78.5
238.858	81.5
239.091	83.5
239.325	70.5
239.559	71.5
239.793	69.5
240.027	85.5
240.26	76.5
240.494	83.5
240.728	70.5
240.961	79.5
241.195	81.5
241.429	88.5
241.662	79.5
241.896	79.5
242.13	73.5
242.363	77.5
242.597	76.5
242.83	85.5
243.064	90.5
243.298	68.5
243.531	75.5
243.765	73.5
243.998	73.5
244.232	72.5
244.465	83.5
244.699	81.5
244.932	78.5
245.166	73.5
245.399	86.5
245.633	89.5
245.866	81.5
246.099	76.5
246.333	68.5
246.566	87.5
246.8	87.5
247.033	72.5
247.266	91.5
247.5	80.5
247.733	83.5
247.966	86.5
248.2	79.5
248.433	72.5
248.666	69.5
248.899	91.5
249.133	88.5
249.366	95.5
249.599	101.5
249.832	80.5
250.066	88.5
250.299	75.5
250.532	73.5
250.765	87.5
250.998	80.5
251.231	77.5
251.465	72.5
251.698	79.5
251.931	66.5
252.164	81.5
252.397	87.5
252.63	84.5
252.863	84.5
253.096	91.5
253.329	67.5
253.562	79.5
253.795	69.5
254.028	79.5
254.261	85.5
254.494	95.5
254.727	94.5
254.96	85.5
255.193	89.5
255.426	86.5
255.659	70.5
255.892	79.5
256.124	88.5
256.357	79.5
256.59	91.5
256.823	87.5
257.056	86.5
257.289	83.5
257.521	88.5
257.754	85.5
257.987	79.5
258.22	84.5
258.452	78.5
258.685	87.5
258.918	86.5
259.151	72.5
259.383	91.5
259.616	88.5
259.849	72.5
260.081	83.5
260.314	79.5
260.547	75.5
260.779	82.5
261.012	99.5
261.244	77.5
261.477	100.5
261.71	78.5
261.942	95.5
262.175	103.5
262.407	84.5
262.64	72.5
262.872	87.5
263.105	95.5
263.337	77.5
263.57	91.5
263.802	84.5
264.035	71.5
264.267	88.5
264.499	85.5
264.732	77.5
264.964	92.5
265.197	89.5
265.429	79.5
265.661	77.5
265.894	83.5
266.126	77.5
266.358	94.5
266.591	81.5
266.823	97.5
267.055	78.5
267.287	95.5
267.52	105.5
267.752	88.5
267.984	94.5
268.216	86.5
268.448	78.5
268.681	87.5
268.913	77.5
269.145	92.5
269.377	78.5
269.609	88.5
269.841	80.5
270.073	83.5
270.306	83.5
270.538	88.5
270.77	85.5
271.002	71.5
271.234	91.5
271.466	87.5
271.698	81.5
271.93	92.5
272.162	81.5
272.394	84.5
272.626	79.5
272.858	84.5
273.09	109.5
273.322	95.5
273.553	84.5
273.785	95.5
274.017	83.5
274.249	88.5
274.481	80.5
274.713	81.5
274.945	84.5
275.176	79.5
275.408	91.5
275.64	87.5
275.872	76.5
276.104	85.5
276.335	93.5
276.567	79.5
276.799	117.5
277.031	117.5
277.262	103.5
277.494	89.5
277.726	100.5
277.957	83.5
278.189	78.5
278.421	87.5
278.652	102.5
278.884	97.5
279.115	79.5
279.347	97.5
279.579	86.5
279.81	93.5
280.042	97.5
280.273	92.5
280.505	98.5
280.736	81.5
280.968	93.5
281.199	93.5
281.431	103.5
281.662	87.5
281.894	83.5
282.125	97.5
282.356	103.5
282.588	135.5
282.819	109.5
283.051	93.5
283.282	97.5
283.513	100.5
283.745	93.5
283.976	83.5
284.207	96.5
284.439	91.5
284.67	88.5
284.901	97.5
285.132	105.5
285.364	84.5
285.595	87.5
285.826	90.5
286.057	102.5
286.288	89.5
286.52	84.5
286.751	81.5
286.982	91.5
287.213	87.5
287.444	81.5
287.675	88.5
287.906	82.5
288.138	72.5
288.369	94.5
288.6	93.5
288.831	78.5
289.062	91.5
289.293	84.5
289.524	87.5
289.755	87.5
289.986	83.5
290.217	100.5
290.448	82.5
290.679	76.5
290.91	97.5
291.141	82.5
291.371	81.5
291.602	76.5
291.833	94.5
292.064	92.5
292.295	91.5
292.526	89.5
292.757	88.5
292.987	103.5
293.218	79.5
293.449	79.5
293.68	90.5
293.91	97.5
294.141	82.5
294.372	81.5
294.603	77.5
294.833	95.5
295.064	93.5
295.295	91.5
295.525	99.5
295.756	92.5
295.987	104.5
296.217	143.5
296.448	113.5
296.679	86.5
296.909	73.5
297.14	83.5
297.37	87.5
297.601	104.5
297.831	77.5
298.062	102.5
298.292	92.5
298.523	93.5
298.753	95.5
298.984	79.5
299.214	89.5
299.445	91.5
299.675	98.5
299.905	69.5
300.136	110.5
300.366	89.5
300.597	89.5
300.827	91.5
301.057	86.5
301.288	86.5
301.518	105.5
301.748	103.5
301.979	95.5
302.209	75.5
302.439	94.5
302.669	92.5
302.9	102.5
303.13	93.5
303.36	101.5
303.59	90.5
303.82	105.5
304.051	92.5
304.281	95.5
304.511	92.5
304.741	92.5
304.971	96.5
305.201	85.5
305.431	91.5
305.661	88.5
305.891	86.5
306.121	99.5
306.352	95.5
306.582	100.5
306.812	77.5
307.042	102.5
307.272	98.5
307.502	105.5
307.731	100.5
307.961	84.5
308.191	71.5
308.421	103.5
308.651	100.5
308.881	97.5
309.111	97.5
309.341	86.5
309.571	84.5
309.8	85.5
310.03	108.5
310.26	92.5
310.49	96.5
310.72	101.5
310.949	101.5
311.179	107.5
311.409	88.5
311.639	85.5
311.868	96.5
312.098	100.5
312.328	105.5
312.557	96.5
312.787	102.5
313.017	85.5
313.246	92.5
313.476	95.5
313.706	97.5
313.935	84.5
314.165	104.5
314.394	108.5
314.624	97.5
314.853	115.5
315.083	89.5
315.312	86.5
315.542	79.5
315.771	97.5
316.001	87.5
316.23	91.5
316.46	97.5
316.689	95.5
316.919	95.5
317.148	91.5
317.377	90.5
317.607	93.5
317.836	81.5
318.065	79.5
318.295	80.5
318.524	97.5
318.753	91.5
318.983	93.5
319.212	86.5
319.441	99.5
319.67	99.5
319.9	95.5
320.129	88.5
320.358	98.5
320.587	104.5
320.816	91.5
321.046	105.5
321.275	92.5
321.504	89.5
321.733	95.5
321.962	103.5
322.191	101.5
322.42	90.5
322.649	104.5
322.878	113.5
323.108	112.5
323.337	112.5
323.566	120.5
323.795	136.5
324.024	192.5
324.253	337.5
324.482	718.5
324.71	1463.5
324.939	1947.5
325.168	711.5
325.397	235.5
325.626	141.5
325.855	122.5
326.084	127.5
326.313	127.5
326.542	142.5
326.77	205.5
326.999	399.5
327.228	859.5
327.457	1547.5
327.686	1199.5
327.914	339.5
328.143	208.5
328.372	177.5
328.6	136.5
328.829	129.5
329.058	125.5
329.287	124.5
329.515	110.5
329.744	123.5
329.972	137.5
330.201	213.5
330.43	234.5
330.658	177.5
330.887	139.5
331.115	119.5
331.344	96.5
331.572	97.5
331.801	97.5
332.03	95.5
332.258	103.5
332.486	91.5
332.715	85.5
332.943	95.5
333.172	101.5
333.4	90.5
333.629	104.5
333.857	131.5
334.085	131.5
334.314	215.5
334.542	304.5
334.771	289.5
334.999	126.5
335.227	88.5
335.455	82.5
335.684	89.5
335.912	96.5
336.14	97.5
336.369	98.5
336.597	91.5
336.825	100.5
337.053	83.5
337.281	96.5
337.51	91.5
337.738	95.5
337.966	89.5
338.194	84.5
338.422	103.5
338.65	86.5
338.878	89.5
339.106	81.5
339.334	88.5
339.562	69.5
339.79	80.5
340.018	81.5
340.246	97.5
340.474	86.5
340.702	88.5
340.93	80.5
341.158	88.5
341.386	101.5
341.614	105.5
341.842	85.5
342.07	82.5
342.298	95.5
342.526	93.5
342.754	80.5
342.981	80.5
343.209	88.5
343.437	95.5
343.665	83.5
343.893	100.5
344.12	109.5
344.348	91.5
344.576	84.5
344.804	81.5
345.031	91.5
345.259	92.5
345.487	93.5
345.714	87.5
345.942	91.5
346.17	76.5
346.397	95.5
346.625	93.5
346.853	101.5
347.08	93.5
347.308	94.5
347.535	103.5
347.763	93.5
347.99	93.5
348.218	98.5
348.445	100.5
348.673	101.5
348.9	102.5
349.128	72.5
349.355	97.5
349.583	97.5
349.81	92.5
350.037	95.5
350.265	102.5
350.492	90.5
350.72	88.5
350.947	89.5
351.174	102.5
351.402	110.5
351.629	101.5
351.856	93.5
352.083	96.5
352.311	107.5
352.538	96.5
352.765	93.5
352.992	105.5
353.22	114.5
353.447	92.5
353.674	103.5
353.901	98.5
354.128	76.5
354.355	103.5
354.583	91.5
354.81	98.5
355.037	93.5
355.264	87.5
355.491	97.5
355.718	95.5
355.945	104.5
356.172	99.5
356.399	88.5
356.626	96.5
356.853	78.5
357.08	80.5
357.307	90.5
357.534	93.5
357.761	91.5
357.988	98.5
358.215	106.5
358.441	91.5
358.668	103.5
358.895	100.5
359.122	91.5
359.349	90.5
359.576	84.5
359.802	87.5
360.029	103.5
360.256	96.5
360.483	91.5
360.709	93.5
360.936	83.5
361.163	99.5
361.39	97.5
361.616	99.5
361.843	91.5
362.07	96.5
362.296	92.5
362.523	88.5
362.749	83.5
362.976	88.5
363.203	83.5
363.429	91.5
363.656	88.5
363.882	91.5
364.109	81.5
364.335	95.5
364.562	88.5
364.788	94.5
365.015	83.5
365.241	95.5
365.468	99.5
365.694	89.5
365.92	94.5
366.147	79.5
366.373	90.5
366.599	102.5
366.826	105.5
367.052	71.5
367.278	76.5
367.505	82.5
367.731	95.5
367.957	88.5
368.184	94.5
368.41	95.5
368.636	92.5
368.862	116.5
369.089	105.5
369.315	94.5
369.541	77.5
369.767	77.5
369.993	105.5
370.219	100.5
370.445	81.5
370.672	83.5
370.898	77.5
371.124	86.5
371.35	86.5
371.576	86.5
371.802	89.5
372.028	84.5
372.254	90.5
372.48	88.5
372.706	75.5
372.932	83.5
373.158	78.5
373.384	96.5
373.61	97.5
373.835	96.5
374.061	90.5
374.287	97.5
374.513	103.5
374.739	85.5
374.965	100.5
375.191	76.5
375.416	95.5
375.642	95.5
375.868	100.5
376.094	95.5
376.319	85.5
376.545	91.5
376.771	79.5
376.997	85.5
377.222	85.5
377.448	102.5
377.674	79.5
377.899	84.5
378.125	83.5
378.35	91.5
378.576	88.5
378.802	80.5
379.027	87.5
379.253	97.5
379.478	81.5
379.704	80.5
379.929	77.5
380.155	78.5
380.38	87.5
380.606	92.5
380.831	88.5
381.057	85.5
381.282	98.5
381.507	105.5
381.733	100.5
381.958	105.5
382.184	89.5
382.409	80.5
382.634	102.5
382.86	89.5
383.085	92.5
383.31	88.5
383.535	92.5
383.761	95.5
383.986	103.5
384.211	95.5
384.436	107.5
384.662	102.5
384.887	93.5
385.112	103.5
385.337	96.5
385.562	92.5
385.787	93.5
386.013	87.5
386.238	111.5
386.463	101.5
386.688	98.5
386.913	97.5
387.138	98.5
387.363	88.5
387.588	79.5
387.813	87.5
388.038	103.5
388.263	100.5
388.488	88.5
388.713	98.5
388.938	109.5
389.163	99.5
389.387	92.5
389.612	101.5
389.837	96.5
390.062	91.5
390.287	96.5
390.512	73.5
390.736	93.5
390.961	85.5
391.186	80.5
391.411	94.5
391.636	99.5
391.86	87.5
392.085	91.5
392.31	78.5
392.534	91.5
392.759	93.5
392.984	89.5
393.208	81.5
393.433	88.5
393.658	85.5
393.882	86.5
394.107	86.5
394.331	96.5
394.556	83.5
394.78	89.5
395.005	93.5
395.229	76.5
395.454	93.5
395.678	84.5
395.903	88.5
396.127	93.5
396.352	85.5
396.576	59.5
396.801	85.5
397.025	80.5
397.249	91.5
397.474	84.5
397.698	83.5
397.922	90.5
398.147	81.5
398.371	89.5
398.595	94.5
398.82	101.5
399.044	68.5
399.268	80.5
399.492	79.5
399.717	85.5
399.941	91.5
400.165	93.5
400.389	105.5
400.613	80.5
400.837	104.5
401.062	76.5
401.286	92.5
401.51	94.5
401.734	95.5
401.958	77.5
402.182	112.5
402.406	140.5
402.63	124.5
402.854	95.5
403.078	83.5
403.302	78.5
403.526	96.5
403.75	83.5
403.974	90.5
404.198	80.5
404.422	82.5
404.645	81.5
404.869	78.5
405.093	100.5
405.317	105.5
405.541	93.5
405.765	98.5
405.988	105.5
406.212	156.5
406.436	187.5
406.66	119.5
406.883	85.5
407.107	91.5
407.331	102.5
407.555	86.5
407.778	92.5
408.002	87.5
408.226	80.5
408.449	94.5
408.673	94.5
408.896	87.5
409.12	95.5
409.344	91.5
409.567	89.5
409.791	108.5
410.014	75.5
410.238	71.5
410.461	82.5
410.685	87.5
410.908	92.5
411.132	107.5
411.355	87.5
411.578	89.5
411.802	101.5
412.025	89.5
412.249	101.5
412.472	88.5
412.695	104.5
412.919	81.5
413.142	84.5
413.365	85.5
413.589	85.5
413.812	88.5
414.035	97.5
414.258	82.5
414.482	87.5
414.705	88.5
414.928	88.5
415.151	94.5
415.374	99.5
415.597	83.5
415.821	78.5
416.044	79.5
416.267	89.5
416.49	90.5
416.713	75.5
416.936	87.5
417.159	89.5
417.382	91.5
417.605	84.5
417.828	96.5
418.051	89.5
418.274	94.5
418.497	97.5
418.72	95.5
418.943	79.5
419.166	93.5
419.389	86.5
419.611	91.5
419.834	79.5
420.057	87.5
420.28	91.5
420.503	83.5
420.726	92.5
420.948	79.5
421.171	94.5
421.394	102.5
421.617	79.5
421.839	87.5
422.062	82.5
422.285	78.5
422.507	85.5
422.73	82.5
422.953	81.5
423.175	93.5
423.398	78.5
423.621	86.5
423.843	95.5
424.066	85.5
424.288	89.5
424.511	89.5
424.733	84.5
424.956	109.5
425.178	92.5
425.401	104.5
425.623	93.5
425.846	77.5
426.068	78.5
426.291	93.5
426.513	81.5
426.735	94.5
426.958	85.5
427.18	92.5
427.402	99.5
427.625	148.5
427.847	126.5
428.069	113.5
428.292	84.5
428.514	91.5
428.736	70.5
428.958	79.5
429.181	85.5
429.403	87.5
429.625	89.5
429.847	69.5
430.069	90.5
430.292	103.5
430.514	73.5
430.736	85.5
430.958	87.5
431.18	85.5
431.402	78.5
431.624	82.5
431.846	79.5
432.068	77.5
432.29	87.5
432.512	93.5
432.734	78.5
432.956	85.5
433.178	91.5
433.4	95.5
433.622	95.5
433.844	90.5
434.066	81.5
434.287	96.5
434.509	97.5
434.731	88.5
434.953	71.5
435.175	86.5
435.397	80.5
435.618	98.5
435.84	93.5
436.062	111.5
436.284	108.5
436.505	96.5
436.727	110.5
436.949	103.5
437.17	83.5
437.392	84.5
437.614	100.5
437.835	85.5
438.057	92.5
438.278	95.5
438.5	101.5
438.721	101.5
438.943	102.5
439.165	90.5
439.386	88.5
439.608	89.5
439.829	89.5
440.05	113.5
440.272	126.5
440.493	103.5
440.715	86.5
440.936	95.5
441.158	81.5
441.379	81.5
441.6	105.5
441.822	97.5
442.043	98.5
442.264	85.5
442.486	103.5
442.707	109.5
442.928	101.5
443.149	103.5
443.371	105.5
443.592	99.5
443.813	99.5
444.034	85.5
444.255	91.5
444.476	82.5
444.698	95.5
444.919	87.5
445.14	125.5
445.361	109.5
445.582	111.5
445.803	120.5
446.024	128.5
446.245	104.5
446.466	96.5
446.687	104.5
446.908	88.5
447.129	64.5
447.35	92.5
447.571	86.5
447.792	80.5
448.013	96.5
448.234	108.5
448.455	88.5
448.675	101.5
448.896	115.5
449.117	96.5
449.338	86.5
449.559	107.5
449.779	105.5
450	105.5
450.221	88.5
450.442	94.5
450.662	104.5
450.883	104.5
451.104	104.5
451.324	91.5
451.545	77.5
451.766	79.5
451.986	72.5
452.207	91.5
452.428	103.5
452.648	92.5
452.869	98.5
453.089	105.5
453.31	101.5
453.53	93.5
453.751	88.5
453.971	93.5
454.192	102.5
454.412	91.5
454.633	88.5
454.853	99.5
455.073	83.5
455.294	80.5
455.514	84.5
455.734	95.5
455.955	77.5
456.175	91.5
456.395	78.5
456.616	87.5
456.836	81.5
457.056	99.5
457.276	91.5
457.497	88.5
457.717	87.5
457.937	82.5
458.157	87.5
458.377	83.5
458.598	103.5
458.818	127.5
459.038	121.5
459.258	105.5
459.478	88.5
459.698	92.5
459.918	99.5
460.138	91.5
460.358	86.5
460.578	88.5
460.798	84.5
461.018	85.5
461.238	81.5
461.458	90.5
461.678	91.5
461.898	99.5
462.118	76.5
462.338	85.5
462.558	81.5
462.777	69.5
462.997	100.5
463.217	94.5
463.437	89.5
463.657	87.5
463.876	110.5
464.096	77.5
464.316	81.5
464.536	95.5
464.755	88.5
464.975	93.5
465.195	135.5
465.414	119.5
465.634	106.5
465.854	102.5
466.073	85.5
466.293	101.5
466.512	87.5
466.732	79.5
466.951	86.5
467.171	80.5
467.391	81.5
467.61	106.5
467.829	100.5
468.049	134.5
468.268	169.5
468.488	95.5
468.707	88.5
468.927	104.5
469.146	93.5
469.365	82.5
469.585	90.5
469.804	96.5
470.023	102.5
470.243	82.5
470.462	95.5
470.681	97.5
470.901	95.5
471.12	76.5
471.339	99.5
471.558	82.5
471.777	105.5
471.997	103.5
472.216	238.5
472.435	373.5
472.654	149.5
472.873	107.5
473.092	78.5
473.311	95.5
473.53	79.5
473.749	80.5
473.968	110.5
474.187	90.5
474.406	84.5
474.625	103.5
474.844	80.5
475.063	69.5
475.282	81.5
475.501	102.5
475.72	95.5
475.939	85.5
476.158	83.5
476.377	88.5
476.596	95.5
476.814	86.5
477.033	86.5
477.252	84.5
477.471	81.5
477.69	81.5
477.908	97.5
478.127	84.5
478.346	95.5
478.564	96.5
478.783	94.5
479.002	105.5
479.22	101.5
479.439	97.5
479.658	92.5
479.876	84.5
480.095	89.5
480.313	93.5
480.532	98.5
480.751	100.5
480.969	236.5
481.188	660.5
481.406	399.5
481.624	124.5
481.843	94.5
482.061	95.5
482.28	95.5
482.498	85.5
482.717	99.5
482.935	94.5
483.153	82.5
483.372	84.5
483.59	97.5
483.808	94.5
484.027	83.5
484.245	87.5
484.463	86.5
484.681	92.5
484.9	97.5
485.118	98.5
485.336	98.5
485.554	98.5
485.772	100.5
485.99	95.5
486.209	107.5
486.427	103.5
486.645	97.5
486.863	113.5
487.081	100.5
487.299	99.5
487.517	100.5
487.735	93.5
487.953	82.5
488.171	89.5
488.389	65.5
488.607	75.5
488.825	84.5
489.043	70.5
489.261	92.5
489.479	91.5
489.696	94.5
489.914	81.5
490.132	87.5
490.35	77.5
490.568	76.5
490.786	81.5
491.003	74.5
491.221	101.5
491.439	82.5
491.657	93.5
491.874	78.5
492.092	90.5
492.31	90.5
492.527	92.5
492.745	81.5
492.963	91.5
493.18	88.5
493.398	95.5
493.615	82.5
493.833	101.5
494.05	93.5
494.268	99.5
494.485	95.5
494.703	79.5
494.92	92.5
495.138	92.5
495.355	94.5
495.573	86.5
495.79	86.5
496.008	99.5
496.225	97.5
496.442	91.5
496.66	92.5
496.877	86.5
497.094	99.5
497.312	75.5
497.529	83.5
497.746	93.5
497.963	78.5
498.181	103.5
498.398	101.5
498.615	101.5
498.832	93.5
499.049	83.5
499.267	86.5
499.484	85.5
499.701	93.5
499.918	75.5
500.135	71.5
500.352	103.5
500.569	93.5
500.786	96.5
501.003	88.5
501.22	89.5
501.437	76.5
501.654	95.5
501.871	100.5
502.088	116.5
502.305	100.5
502.522	93.5
502.739	85.5
502.956	93.5
503.172	95.5
503.389	96.5
503.606	97.5
503.823	86.5
504.04	87.5
504.256	88.5
504.473	81.5
504.69	96.5
504.907	99.5
505.123	78.5
505.34	88.5
505.557	87.5
505.773	98.5
505.99	100.5
506.207	84.5
506.423	95.5
506.64	95.5
506.856	91.5
507.073	92.5
507.289	86.5
507.506	100.5
507.722	116.5
507.939	99.5
508.155	106.5
508.372	101.5
508.588	74.5
508.805	90.5
509.021	86.5
509.238	96.5
509.454	107.5
509.67	86.5
509.887	106.5
510.103	124.5
510.319	199.5
510.536	621.5
510.752	1805.5
510.968	524.5
511.184	139.5
511.401	104.5
511.617	89.5
511.833	91.5
512.049	85.5
512.265	97.5
512.481	92.5
512.698	88.5
512.914	83.5
513.13	96.5
513.346	88.5
513.562	92.5
513.778	97.5
513.994	112.5
514.21	87.5
514.426	108.5
514.642	121.5
514.858	113.5
515.074	151.5
515.29	382.5
515.506	1187.5
515.721	447.5
515.937	142.5
516.153	115.5
516.369	91.5
516.585	95.5
516.801	89.5
517.016	86.5
517.232	102.5
517.448	87.5
517.664	94.5
517.879	89.5
518.095	82.5
518.311	83.5
518.527	84.5
518.742	109.5
518.958	94.5
519.173	114.5
519.389	97.5
519.605	86.5
519.82	101.5
520.036	97.5
520.251	116.5
520.467	95.5
520.682	102.5
520.898	110.5
521.113	121.5
521.329	120.5
521.544	187.5
521.76	473.5
521.975	1975.5
522.19	1145.5
522.406	265.5
522.621	109.5
522.836	108.5
523.052	86.5
523.267	91.5
523.482	87.5
523.698	98.5
523.913	113.5
524.128	93.5
524.343	99.5
524.559	107.5
524.774	93.5
524.989	91.5
525.204	107.5
525.419	105.5
525.634	94.5
525.849	88.5
526.064	100.5
526.28	93.5
526.495	72.5
526.71	79.5
526.925	88.5
527.14	103.5
527.355	92.5
527.57	91.5
527.785	88.5
527.999	93.5
528.214	79.5
528.429	95.5
528.644	91.5
528.859	102.5
529.074	95.5
529.289	108.5
529.503	152.5
529.718	112.5
529.933	95.5
530.148	87.5
530.363	100.5
530.577	88.5
530.792	94.5
531.007	90.5
531.221	85.5
531.436	94.5
531.651	85.5
531.865	88.5
532.08	84.5
532.295	86.5
532.509	79.5
532.724	95.5
532.938	85.5
533.153	102.5
533.367	103.5
533.582	92.5
533.796	86.5
534.011	101.5
534.225	93.5
534.44	99.5
534.654	97.5
534.868	93.5
535.083	108.5
535.297	93.5
535.511	108.5
