Data from Uncirc_1989_H10_HRD10591_00027.txt Node
Date: Wed Jan 03 11:57:41 EST 2024
User: Yrep
Spectrometer: HR+D1059
Trigger mode: 1
Integration Time (sec): 1.000000E-1
Scans to average: 1
Electric dark correction enabled: true
Nonlinearity correction enabled: false
Boxcar width: 0
XAxis mode: Wavelengths
Number of Pixels in Spectrum: 2048
>>>>>Begin Spectral Data<<<<<
223.165	-13
223.4	-13
223.635	-13
223.869	-12
224.104	-19
224.338	-21
224.573	-23
224.808	-21
225.042	-8
225.277	-6
225.511	0
225.746	-3
225.98	14
226.215	14
226.449	21
226.683	15
226.918	31
227.152	31
227.387	29
227.621	56
227.856	41
228.09	45
228.324	52
228.559	60
228.793	50
229.027	72
229.262	69
229.496	74
229.73	80
229.964	82
230.199	68
230.433	68
230.667	92
230.901	78
231.136	69
231.37	82
231.604	81
231.838	75
232.072	96
232.306	70
232.541	91
232.775	88
233.009	73
233.243	86
233.477	80
233.711	78
233.945	87
234.179	88
234.413	79
234.647	77
234.881	84
235.115	72
235.349	66
235.583	89
235.817	83
236.051	79
236.285	73
236.519	76
236.753	66
236.987	67
237.221	88
237.455	81
237.689	78
237.922	89
238.156	77
238.39	67
238.624	70
238.858	82
239.091	71
239.325	78
239.559	84
239.793	77
240.027	76
240.26	95
240.494	86
240.728	76
240.961	80
241.195	77
241.429	66
241.662	94
241.896	72
242.13	75
242.363	71
242.597	69
242.83	70
243.064	89
243.298	78
243.531	85
243.765	84
243.998	77
244.232	78
244.465	80
244.699	78
244.932	79
245.166	76
245.399	72
245.633	83
245.866	84
246.099	87
246.333	67
246.566	62
246.8	73
247.033	71
247.266	78
247.5	80
247.733	84
247.966	81
248.2	88
248.433	78
248.666	72
248.899	87
249.133	82
249.366	82
249.599	100
249.832	76
250.066	84
250.299	77
250.532	89
250.765	76
250.998	88
251.231	81
251.465	87
251.698	87
251.931	80
252.164	95
252.397	81
252.63	68
252.863	80
253.096	69
253.329	81
253.562	80
253.795	91
254.028	65
254.261	86
254.494	90
254.727	70
254.96	80
255.193	88
255.426	72
255.659	73
255.892	87
256.124	87
256.357	88
256.59	72
256.823	80
257.056	87
257.289	88
257.521	81
257.754	77
257.987	83
258.22	88
258.452	87
258.685	82
258.918	89
259.151	78
259.383	96
259.616	85
259.849	82
260.081	68
260.314	89
260.547	93
260.779	83
261.012	78
261.244	89
261.477	93
261.71	99
261.942	101
262.175	104
262.407	98
262.64	66
262.872	90
263.105	79
263.337	80
263.57	79
263.802	76
264.035	76
264.267	91
264.499	71
264.732	81
264.964	84
265.197	85
265.429	87
265.661	83
265.894	84
266.126	76
266.358	90
266.591	72
266.823	86
267.055	82
267.287	89
267.52	70
267.752	82
267.984	84
268.216	82
268.448	85
268.681	85
268.913	93
269.145	72
269.377	70
269.609	81
269.841	90
270.073	87
270.306	82
270.538	105
270.77	78
271.002	78
271.234	83
271.466	84
271.698	82
271.93	78
272.162	92
272.394	84
272.626	78
272.858	88
273.09	77
273.322	80
273.553	97
273.785	91
274.017	82
274.249	94
274.481	80
274.713	80
274.945	77
275.176	106
275.408	86
275.64	77
275.872	79
276.104	79
276.335	82
276.567	94
276.799	104
277.031	96
277.262	88
277.494	73
277.726	82
277.957	85
278.189	73
278.421	86
278.652	87
278.884	90
279.115	97
279.347	92
279.579	94
279.81	97
280.042	95
280.273	98
280.505	93
280.736	101
280.968	87
281.199	89
281.431	86
281.662	70
281.894	81
282.125	94
282.356	103
282.588	137
282.819	98
283.051	73
283.282	83
283.513	79
283.745	82
283.976	87
284.207	81
284.439	93
284.67	86
284.901	82
285.132	77
285.364	74
285.595	89
285.826	94
286.057	86
286.288	90
286.52	94
286.751	80
286.982	85
287.213	75
287.444	86
287.675	84
287.906	82
288.138	76
288.369	102
288.6	93
288.831	86
289.062	80
289.293	84
289.524	80
289.755	85
289.986	92
290.217	82
290.448	81
290.679	84
290.91	94
291.141	74
291.371	84
291.602	100
291.833	81
292.064	92
292.295	94
292.526	85
292.757	89
292.987	89
293.218	96
293.449	92
293.68	77
293.91	93
294.141	72
294.372	94
294.603	86
294.833	81
295.064	77
295.295	96
295.525	81
295.756	91
295.987	87
296.217	122
296.448	118
296.679	105
296.909	95
297.14	96
297.37	86
297.601	93
297.831	85
298.062	70
298.292	103
298.523	78
298.753	80
298.984	89
299.214	91
299.445	97
299.675	88
299.905	99
300.136	89
300.366	84
300.597	74
300.827	83
301.057	87
301.288	97
301.518	100
301.748	87
301.979	92
302.209	106
302.439	96
302.669	96
302.9	88
303.13	90
303.36	99
303.59	86
303.82	102
304.051	82
304.281	87
304.511	96
304.741	87
304.971	88
305.201	74
305.431	98
305.661	86
305.891	96
306.121	100
306.352	107
306.582	97
306.812	87
307.042	90
307.272	80
307.502	94
307.731	93
307.961	87
308.191	89
308.421	95
308.651	83
308.881	91
309.111	73
309.341	92
309.571	95
309.8	84
310.03	78
310.26	101
310.49	95
310.72	99
310.949	98
311.179	102
311.409	79
311.639	92
311.868	99
312.098	105
312.328	103
312.557	88
312.787	94
313.017	102
313.246	109
313.476	87
313.706	104
313.935	91
314.165	92
314.394	102
314.624	102
314.853	87
315.083	90
315.312	97
315.542	70
315.771	95
316.001	112
316.23	79
316.46	93
316.689	100
316.919	86
317.148	101
317.377	86
317.607	81
317.836	103
318.065	90
318.295	89
318.524	81
318.753	95
318.983	106
319.212	84
319.441	95
319.67	88
319.9	103
320.129	113
320.358	87
320.587	86
320.816	101
321.046	114
321.275	109
321.504	89
321.733	91
321.962	104
322.191	105
322.42	82
322.649	105
322.878	117
323.108	109
323.337	124
323.566	124
323.795	137
324.024	167
324.253	341
324.482	708
324.71	1482
324.939	1930
325.168	706
325.397	212
325.626	130
325.855	124
326.084	128
326.313	104
326.542	128
326.77	216
326.999	416
327.228	860
327.457	1518
327.686	1170
327.914	331
328.143	190
328.372	132
328.6	113
328.829	116
329.058	124
329.287	115
329.515	110
329.744	103
329.972	109
330.201	127
330.43	148
330.658	116
330.887	125
331.115	120
331.344	100
331.572	104
331.801	95
332.03	96
332.258	96
332.486	101
332.715	93
332.943	92
333.172	104
333.4	106
333.629	106
333.857	98
334.085	114
334.314	126
334.542	154
334.771	148
334.999	118
335.227	98
335.455	97
335.684	104
335.912	98
336.14	96
336.369	97
336.597	87
336.825	89
337.053	95
337.281	97
337.51	93
337.738	94
337.966	80
338.194	94
338.422	87
338.65	102
338.878	112
339.106	86
339.334	73
339.562	82
339.79	94
340.018	76
340.246	93
340.474	99
340.702	97
340.93	103
341.158	96
341.386	93
341.614	102
341.842	86
342.07	98
342.298	100
342.526	82
342.754	96
342.981	108
343.209	86
343.437	104
343.665	95
343.893	90
344.12	97
344.348	83
344.576	65
344.804	89
345.031	93
345.259	97
345.487	95
345.714	108
345.942	76
346.17	103
346.397	96
346.625	90
346.853	103
347.08	88
347.308	88
347.535	85
347.763	112
347.99	84
348.218	112
348.445	106
348.673	89
348.9	93
349.128	99
349.355	85
349.583	89
349.81	91
350.037	96
350.265	85
350.492	92
350.72	91
350.947	94
351.174	96
351.402	98
351.629	93
351.856	113
352.083	109
352.311	101
352.538	102
352.765	111
352.992	104
353.22	112
353.447	109
353.674	106
353.901	100
354.128	100
354.355	92
354.583	96
354.81	101
355.037	103
355.264	88
355.491	82
355.718	85
355.945	93
356.172	107
356.399	85
356.626	91
356.853	97
357.08	82
357.307	91
357.534	92
357.761	87
357.988	93
358.215	101
358.441	94
358.668	97
358.895	84
359.122	84
359.349	81
359.576	92
359.802	90
360.029	108
360.256	115
360.483	88
360.709	100
360.936	96
361.163	89
361.39	91
361.616	92
361.843	85
362.07	97
362.296	101
362.523	84
362.749	81
362.976	87
363.203	82
363.429	88
363.656	96
363.882	81
364.109	83
364.335	87
364.562	92
364.788	80
365.015	105
365.241	85
365.468	95
365.694	92
365.92	97
366.147	73
366.373	95
366.599	72
366.826	91
367.052	84
367.278	83
367.505	90
367.731	84
367.957	95
368.184	78
368.41	87
368.636	102
368.862	105
369.089	109
369.315	95
369.541	78
369.767	93
369.993	85
370.219	100
370.445	85
370.672	88
370.898	89
371.124	104
371.35	92
371.576	84
371.802	109
372.028	81
372.254	92
372.48	84
372.706	81
372.932	86
373.158	93
373.384	99
373.61	101
373.835	79
374.061	92
374.287	100
374.513	97
374.739	102
374.965	79
375.191	88
375.416	87
375.642	91
375.868	99
376.094	94
376.319	84
376.545	90
376.771	95
376.997	82
377.222	89
377.448	100
377.674	90
377.899	85
378.125	97
378.35	89
378.576	83
378.802	85
379.027	89
379.253	89
379.478	97
379.704	98
379.929	88
380.155	86
380.38	89
380.606	78
380.831	103
381.057	102
381.282	102
381.507	84
381.733	80
381.958	96
382.184	95
382.409	103
382.634	97
382.86	105
383.085	101
383.31	102
383.535	101
383.761	94
383.986	94
384.211	85
384.436	104
384.662	97
384.887	108
385.112	116
385.337	117
385.562	107
385.787	102
386.013	101
386.238	98
386.463	93
386.688	118
386.913	95
387.138	100
387.363	98
387.588	108
387.813	108
388.038	105
388.263	106
388.488	112
388.713	92
388.938	97
389.163	92
389.387	90
389.612	98
389.837	92
390.062	87
390.287	107
390.512	88
390.736	86
390.961	72
391.186	95
391.411	98
391.636	89
391.86	89
392.085	93
392.31	88
392.534	72
392.759	99
392.984	95
393.208	105
393.433	136
393.658	127
393.882	82
394.107	89
394.331	88
394.556	82
394.78	88
395.005	93
395.229	88
395.454	86
395.678	103
395.903	84
396.127	97
396.352	89
396.576	84
396.801	99
397.025	113
397.249	94
397.474	85
397.698	77
397.922	86
398.147	80
398.371	96
398.595	93
398.82	80
399.044	94
399.268	89
399.492	87
399.717	111
399.941	97
400.165	88
400.389	95
400.613	102
400.837	87
401.062	86
401.286	89
401.51	97
401.734	86
401.958	97
402.182	119
402.406	144
402.63	119
402.854	84
403.078	90
403.302	88
403.526	85
403.75	97
403.974	90
404.198	97
404.422	77
404.645	85
404.869	89
405.093	94
405.317	93
405.541	102
405.765	105
405.988	113
406.212	158
406.436	184
406.66	124
406.883	111
407.107	77
407.331	89
407.555	97
407.778	95
408.002	92
408.226	91
408.449	92
408.673	85
408.896	102
409.12	92
409.344	92
409.567	81
409.791	82
410.014	97
410.238	92
410.461	90
410.685	82
410.908	91
411.132	83
411.355	92
411.578	78
411.802	85
412.025	70
412.249	97
412.472	106
412.695	107
412.919	96
413.142	89
413.365	89
413.589	94
413.812	86
414.035	88
414.258	84
414.482	94
414.705	96
414.928	87
415.151	82
415.374	103
415.597	97
415.821	90
416.044	85
416.267	61
416.49	100
416.713	86
416.936	113
417.159	94
417.382	98
417.605	93
417.828	93
418.051	99
418.274	87
418.497	79
418.72	88
418.943	99
419.166	79
419.389	90
419.611	93
419.834	80
420.057	77
420.28	85
420.503	94
420.726	88
420.948	87
421.171	91
421.394	82
421.617	72
421.839	82
422.062	85
422.285	86
422.507	90
422.73	115
422.953	92
423.175	95
423.398	94
423.621	90
423.843	96
424.066	86
424.288	78
424.511	81
424.733	93
424.956	102
425.178	94
425.401	96
425.623	96
425.846	85
426.068	87
426.291	84
426.513	93
426.735	91
426.958	95
427.18	96
427.402	123
427.625	156
427.847	135
428.069	106
428.292	92
428.514	83
428.736	80
428.958	77
429.181	94
429.403	92
429.625	86
429.847	105
430.069	92
430.292	93
430.514	102
430.736	89
430.958	84
431.18	83
431.402	89
431.624	101
431.846	80
432.068	79
432.29	85
432.512	80
432.734	94
432.956	88
433.178	92
433.4	90
433.622	96
433.844	87
434.066	84
434.287	95
434.509	80
434.731	78
434.953	89
435.175	87
435.397	76
435.618	88
435.84	111
436.062	120
436.284	114
436.505	105
436.727	86
436.949	97
437.17	84
437.392	78
437.614	82
437.835	112
438.057	114
438.278	106
438.5	94
438.721	105
438.943	101
439.165	95
439.386	87
439.608	96
439.829	107
440.05	110
440.272	121
440.493	96
440.715	81
440.936	78
441.158	97
441.379	74
441.6	87
441.822	92
442.043	101
442.264	102
442.486	97
442.707	93
442.928	92
443.149	103
443.371	109
443.592	93
443.813	102
444.034	84
444.255	92
444.476	86
444.698	93
444.919	80
445.14	135
445.361	124
445.582	105
445.803	119
446.024	128
446.245	125
446.466	110
446.687	80
446.908	99
447.129	90
447.35	90
447.571	95
447.792	83
448.013	92
448.234	98
448.455	88
448.675	109
448.896	104
449.117	106
449.338	101
449.559	107
449.779	121
450	106
450.221	105
450.442	86
450.662	97
450.883	85
451.104	105
451.324	108
451.545	93
451.766	83
451.986	88
452.207	81
452.428	104
452.648	86
452.869	103
453.089	109
453.31	104
453.53	73
453.751	86
453.971	108
454.192	102
454.412	100
454.633	100
454.853	93
455.073	73
455.294	88
455.514	92
455.734	95
455.955	96
456.175	74
456.395	91
456.616	97
456.836	80
457.056	92
457.276	91
457.497	83
457.717	76
457.937	95
458.157	70
458.377	82
458.598	117
458.818	135
459.038	141
459.258	104
459.478	96
459.698	93
459.918	93
460.138	84
460.358	91
460.578	79
460.798	89
461.018	88
461.238	66
461.458	89
461.678	81
461.898	98
462.118	95
462.338	83
462.558	86
462.777	92
462.997	81
463.217	87
463.437	86
463.657	90
463.876	89
464.096	88
464.316	90
464.536	88
464.755	85
464.975	92
465.195	150
465.414	129
465.634	95
465.854	80
466.073	84
466.293	74
466.512	87
466.732	88
466.951	78
467.171	108
467.391	102
467.61	97
467.829	98
468.049	110
468.268	127
468.488	92
468.707	94
468.927	88
469.146	102
469.365	79
469.585	97
469.804	90
470.023	84
470.243	93
470.462	98
470.681	106
470.901	83
471.12	88
471.339	96
471.558	87
471.777	80
471.997	110
472.216	129
472.435	177
472.654	128
472.873	78
473.092	89
473.311	94
473.53	92
473.749	104
473.968	93
474.187	80
474.406	94
474.625	88
474.844	97
475.063	88
475.282	82
475.501	83
475.72	92
475.939	87
476.158	85
476.377	85
476.596	88
476.814	99
477.033	99
477.252	78
477.471	74
477.69	73
477.908	85
478.127	93
478.346	93
478.564	104
478.783	105
479.002	85
479.22	89
479.439	98
479.658	96
479.876	96
480.095	102
480.313	94
480.532	99
480.751	97
480.969	135
481.188	290
481.406	190
481.624	98
481.843	96
482.061	85
482.28	86
482.498	89
482.717	83
482.935	91
483.153	89
483.372	103
483.59	102
483.808	104
484.027	87
484.245	92
484.463	102
484.681	101
484.9	91
485.118	92
485.336	90
485.554	92
485.772	100
485.99	102
486.209	106
486.427	84
486.645	98
486.863	108
487.081	104
487.299	88
487.517	91
487.735	98
487.953	90
488.171	102
488.389	98
488.607	106
488.825	93
489.043	89
489.261	92
489.479	90
489.696	89
489.914	84
490.132	102
490.35	99
490.568	87
490.786	80
491.003	98
491.221	89
491.439	80
491.657	91
491.874	82
492.092	82
492.31	89
492.527	77
492.745	100
492.963	96
493.18	100
493.398	69
493.615	90
493.833	95
494.05	93
494.268	93
494.485	96
494.703	100
494.92	96
495.138	85
495.355	98
495.573	84
495.79	74
496.008	92
496.225	92
496.442	81
496.66	78
496.877	89
497.094	93
497.312	91
497.529	91
497.746	81
497.963	82
498.181	95
498.398	84
498.615	100
498.832	95
499.049	101
499.267	89
499.484	84
499.701	105
499.918	92
500.135	73
500.352	101
500.569	94
500.786	96
501.003	81
501.22	95
501.437	55
501.654	83
501.871	86
502.088	86
502.305	92
502.522	92
502.739	90
502.956	89
503.172	102
503.389	85
503.606	92
503.823	103
504.04	93
504.256	89
504.473	90
504.69	90
504.907	82
505.123	89
505.34	91
505.557	89
505.773	85
505.99	88
506.207	96
506.423	99
506.64	103
506.856	93
507.073	90
507.289	97
507.506	90
507.722	109
507.939	94
508.155	97
508.372	88
508.588	105
508.805	83
509.021	103
509.238	99
509.454	95
509.67	108
509.887	101
510.103	112
510.319	177
510.536	612
510.752	1812
510.968	515
511.184	144
511.401	114
511.617	109
511.833	96
512.049	87
512.265	96
512.481	90
512.698	95
512.914	80
513.13	88
513.346	86
513.562	91
513.778	80
513.994	90
514.21	106
514.426	112
514.642	126
514.858	102
515.074	129
515.29	376
515.506	1129
515.721	420
515.937	123
516.153	101
516.369	85
516.585	84
516.801	88
517.016	88
517.232	87
517.448	100
517.664	98
517.879	88
518.095	80
518.311	95
518.527	106
518.742	83
518.958	94
519.173	87
519.389	95
519.605	78
519.82	84
520.036	96
520.251	97
520.467	112
520.682	102
520.898	105
521.113	117
521.329	123
521.544	182
521.76	487
521.975	1928
522.19	1143
522.406	258
522.621	127
522.836	111
523.052	90
523.267	83
523.482	86
523.698	96
523.913	110
524.128	104
524.343	94
524.559	97
524.774	87
524.989	92
525.204	100
525.419	86
525.634	91
525.849	88
526.064	100
526.28	94
526.495	100
526.71	85
526.925	96
527.14	100
527.355	100
527.57	73
527.785	92
527.999	88
528.214	89
528.429	94
528.644	107
528.859	94
529.074	82
529.289	124
529.503	153
529.718	89
529.933	91
530.148	90
530.363	93
530.577	97
530.792	101
531.007	87
531.221	88
531.436	82
531.651	86
531.865	89
532.08	78
532.295	102
532.509	86
532.724	92
532.938	96
533.153	94
533.367	93
533.582	86
533.796	96
534.011	81
534.225	82
534.44	97
534.654	83
534.868	86
535.083	97
535.297	91
535.511	100
535.726	93
535.94	93
536.154	90
536.369	88
536.583	91
536.797	85
537.011	90
537.225	83
537.44	83
537.654	90
537.868	98
538.082	89
538.296	96
538.51	98
538.724	104
538.938	99
539.153	89
539.367	98
539.581	96
539.795	84
540.009	80
540.222	86
540.436	89
540.65	99
540.864	97
541.078	88
541.292	89
541.506	104
541.72	88
541.934	87
542.147	89
542.361	77
542.575	79
542.789	96
543.002	81
543.216	98
543.43	88
543.644	99
543.857	81
544.071	86
544.285	95
544.498	78
544.712	94
544.925	76
545.139	92
545.352	96
545.566	94
545.779	96
545.993	79
546.206	84
546.42	77
546.633	91
546.847	96
547.06	86
547.274	81
547.487	87
547.7	78
547.914	84
548.127	81
548.34	79
548.554	92
548.767	97
548.98	95
549.193	86
549.407	93
549.62	76
549.833	88
550.046	73
550.259	81
550.473	87
550.686	77
550.899	76
551.112	103
551.325	84
551.538	99
551.751	103
551.964	97
552.177	105
552.39	94
552.603	100
552.816	92
553.029	83
553.242	106
553.455	107
553.667	96
553.88	88
554.093	99
554.306	99
554.519	103
554.732	84
554.944	97
555.157	93
555.37	94
555.583	82
555.795	97
556.008	98
556.221	86
556.433	88
556.646	96
556.859	92
557.071	101
557.284	97
557.496	80
557.709	101
557.921	85
558.134	87
558.346	96
558.559	88
558.771	77
558.984	82
559.196	83
559.409	94
559.621	86
559.833	96
560.046	88
560.258	95
560.47	90
560.683	94
560.895	76
561.107	97
561.32	78
561.532	77
561.744	89
561.956	96
562.168	101
562.381	106
562.593	100
562.805	82
563.017	99
563.229	100
563.441	84
563.653	85
563.865	72
564.077	85
564.289	92
564.501	65
564.713	81
564.925	93
565.137	89
565.349	93
565.561	100
565.773	90
565.985	92
566.197	99
566.408	87
566.62	92
566.832	84
567.044	93
567.255	96
567.467	95
567.679	93
567.891	83
568.102	104
568.314	81
568.526	89
568.737	103
568.949	83
569.161	90
569.372	86
569.584	80
569.795	110
570.007	106
570.218	212
570.43	138
570.641	101
570.853	85
571.064	77
571.276	96
571.487	87
571.698	73
571.91	88
572.121	100
572.333	89
572.544	90
572.755	88
572.966	66
573.178	88
573.389	86
573.6	97
573.811	78
574.023	85
574.234	93
574.445	101
574.656	90
574.867	92
575.078	80
575.289	93
575.501	90
575.712	97
575.923	75
576.134	79
576.345	89
576.556	83
576.767	95
576.978	101
577.188	87
577.399	83
577.61	95
577.821	105
578.032	116
578.243	232
578.454	640
578.665	184
578.875	101
579.086	87
579.297	79
579.508	81
579.718	84
579.929	97
580.14	94
580.35	83
580.561	91
580.772	86
580.982	89
581.193	97
581.403	81
581.614	76
581.825	76
582.035	92
582.246	97
582.456	86
582.667	91
582.877	92
583.087	88
583.298	85
583.508	92
583.719	89
583.929	92
584.139	95
584.35	89
584.56	97
