Data from Uncirc_1989_H10_HRD10591_00083.txt Node
Date: Wed Jan 03 11:57:52 EST 2024
User: Yrep
Spectrometer: HR+D1059
Trigger mode: 1
Integration Time (sec): 1.000000E-1
Scans to average: 1
Electric dark correction enabled: true
Nonlinearity correction enabled: false
Boxcar width: 0
XAxis mode: Wavelengths
Number of Pixels in Spectrum: 2048
>>>>>Begin Spectral Data<<<<<
223.165	-19.25
223.4	-19.25
223.635	-19.25
223.869	-13.25
224.104	-25.25
224.338	-6.25
224.573	-4.25
224.808	-29.25
225.042	-15.25
225.277	0.75
225.511	-1.25
225.746	-1.25
225.98	6.75
226.215	22.75
226.449	16.75
226.683	24.75
226.918	23.75
227.152	19.75
227.387	31.75
227.621	30.75
227.856	31.75
228.09	26.75
228.324	41.75
228.559	53.75
228.793	51.75
229.027	63.75
229.262	58.75
229.496	59.75
229.73	79.75
229.964	76.75
230.199	82.75
230.433	60.75
230.667	76.75
230.901	98.75
231.136	77.75
231.37	86.75
231.604	82.75
231.838	78.75
232.072	76.75
232.306	78.75
232.541	78.75
232.775	77.75
233.009	92.75
233.243	84.75
233.477	74.75
233.711	80.75
233.945	80.75
234.179	84.75
234.413	85.75
234.647	68.75
234.881	87.75
235.115	76.75
235.349	82.75
235.583	80.75
235.817	78.75
236.051	71.75
236.285	80.75
236.519	81.75
236.753	91.75
236.987	74.75
237.221	82.75
237.455	82.75
237.689	69.75
237.922	76.75
238.156	72.75
238.39	82.75
238.624	76.75
238.858	58.75
239.091	76.75
239.325	69.75
239.559	74.75
239.793	67.75
240.027	66.75
240.26	85.75
240.494	83.75
240.728	78.75
240.961	66.75
241.195	76.75
241.429	65.75
241.662	76.75
241.896	78.75
242.13	63.75
242.363	69.75
242.597	70.75
242.83	88.75
243.064	78.75
243.298	66.75
243.531	81.75
243.765	65.75
243.998	82.75
244.232	80.75
244.465	78.75
244.699	61.75
244.932	84.75
245.166	78.75
245.399	71.75
245.633	80.75
245.866	67.75
246.099	64.75
246.333	63.75
246.566	82.75
246.8	77.75
247.033	65.75
247.266	73.75
247.5	68.75
247.733	86.75
247.966	83.75
248.2	84.75
248.433	79.75
248.666	86.75
248.899	62.75
249.133	89.75
249.366	100.75
249.599	89.75
249.832	94.75
250.066	87.75
250.299	86.75
250.532	71.75
250.765	78.75
250.998	84.75
251.231	74.75
251.465	80.75
251.698	85.75
251.931	91.75
252.164	78.75
252.397	83.75
252.63	77.75
252.863	78.75
253.096	75.75
253.329	86.75
253.562	94.75
253.795	69.75
254.028	66.75
254.261	87.75
254.494	88.75
254.727	86.75
254.96	77.75
255.193	74.75
255.426	87.75
255.659	79.75
255.892	98.75
256.124	71.75
256.357	84.75
256.59	78.75
256.823	76.75
257.056	74.75
257.289	85.75
257.521	74.75
257.754	67.75
257.987	76.75
258.22	82.75
258.452	71.75
258.685	77.75
258.918	68.75
259.151	84.75
259.383	92.75
259.616	86.75
259.849	88.75
260.081	82.75
260.314	71.75
260.547	56.75
260.779	79.75
261.012	77.75
261.244	84.75
261.477	85.75
261.71	80.75
261.942	95.75
262.175	100.75
262.407	79.75
262.64	97.75
262.872	87.75
263.105	77.75
263.337	101.75
263.57	72.75
263.802	89.75
264.035	87.75
264.267	92.75
264.499	67.75
264.732	81.75
264.964	70.75
265.197	72.75
265.429	78.75
265.661	78.75
265.894	87.75
266.126	78.75
266.358	78.75
266.591	66.75
266.823	87.75
267.055	74.75
267.287	85.75
267.52	77.75
267.752	90.75
267.984	86.75
268.216	88.75
268.448	86.75
268.681	87.75
268.913	91.75
269.145	86.75
269.377	87.75
269.609	76.75
269.841	84.75
270.073	86.75
270.306	84.75
270.538	87.75
270.77	78.75
271.002	85.75
271.234	80.75
271.466	72.75
271.698	87.75
271.93	95.75
272.162	96.75
272.394	90.75
272.626	95.75
272.858	77.75
273.09	79.75
273.322	85.75
273.553	78.75
273.785	79.75
274.017	85.75
274.249	84.75
274.481	100.75
274.713	91.75
274.945	83.75
275.176	93.75
275.408	98.75
275.64	98.75
275.872	96.75
276.104	86.75
276.335	81.75
276.567	84.75
276.799	86.75
277.031	96.75
277.262	83.75
277.494	91.75
277.726	80.75
277.957	86.75
278.189	92.75
278.421	90.75
278.652	79.75
278.884	75.75
279.115	74.75
279.347	88.75
279.579	103.75
279.81	96.75
280.042	83.75
280.273	95.75
280.505	93.75
280.736	94.75
280.968	76.75
281.199	88.75
281.431	84.75
281.662	90.75
281.894	91.75
282.125	96.75
282.356	106.75
282.588	116.75
282.819	91.75
283.051	77.75
283.282	85.75
283.513	84.75
283.745	87.75
283.976	84.75
284.207	85.75
284.439	80.75
284.67	89.75
284.901	83.75
285.132	86.75
285.364	92.75
285.595	70.75
285.826	84.75
286.057	94.75
286.288	95.75
286.52	88.75
286.751	78.75
286.982	81.75
287.213	78.75
287.444	80.75
287.675	91.75
287.906	102.75
288.138	86.75
288.369	93.75
288.6	76.75
288.831	79.75
289.062	87.75
289.293	99.75
289.524	94.75
289.755	67.75
289.986	79.75
290.217	78.75
290.448	83.75
290.679	70.75
290.91	94.75
291.141	73.75
291.371	92.75
291.602	92.75
291.833	79.75
292.064	103.75
292.295	95.75
292.526	78.75
292.757	77.75
292.987	95.75
293.218	87.75
293.449	97.75
293.68	83.75
293.91	76.75
294.141	100.75
294.372	81.75
294.603	81.75
294.833	91.75
295.064	88.75
295.295	91.75
295.525	94.75
295.756	95.75
295.987	100.75
296.217	124.75
296.448	106.75
296.679	107.75
296.909	78.75
297.14	91.75
297.37	64.75
297.601	91.75
297.831	82.75
298.062	77.75
298.292	83.75
298.523	90.75
298.753	92.75
298.984	80.75
299.214	94.75
299.445	90.75
299.675	93.75
299.905	95.75
300.136	83.75
300.366	78.75
300.597	78.75
300.827	83.75
301.057	87.75
301.288	88.75
301.518	86.75
301.748	79.75
301.979	99.75
302.209	78.75
302.439	84.75
302.669	90.75
302.9	90.75
303.13	84.75
303.36	82.75
303.59	101.75
303.82	85.75
304.051	85.75
304.281	92.75
304.511	110.75
304.741	96.75
304.971	98.75
305.201	82.75
305.431	83.75
305.661	84.75
305.891	78.75
306.121	81.75
306.352	92.75
306.582	95.75
306.812	103.75
307.042	92.75
307.272	99.75
307.502	88.75
307.731	101.75
307.961	102.75
308.191	98.75
308.421	87.75
308.651	78.75
308.881	83.75
309.111	82.75
309.341	90.75
309.571	100.75
309.8	100.75
310.03	80.75
310.26	95.75
310.49	104.75
310.72	87.75
310.949	84.75
311.179	90.75
311.409	81.75
311.639	80.75
311.868	91.75
312.098	92.75
312.328	82.75
312.557	94.75
312.787	115.75
313.017	93.75
313.246	101.75
313.476	86.75
313.706	86.75
313.935	93.75
314.165	90.75
314.394	94.75
314.624	85.75
314.853	96.75
315.083	84.75
315.312	91.75
315.542	91.75
315.771	81.75
316.001	97.75
316.23	103.75
316.46	95.75
316.689	83.75
316.919	68.75
317.148	87.75
317.377	91.75
317.607	105.75
317.836	93.75
318.065	87.75
318.295	91.75
318.524	103.75
318.753	91.75
318.983	92.75
319.212	79.75
319.441	102.75
319.67	93.75
319.9	95.75
320.129	106.75
320.358	102.75
320.587	90.75
320.816	104.75
321.046	95.75
321.275	85.75
321.504	97.75
321.733	96.75
321.962	96.75
322.191	99.75
322.42	103.75
322.649	98.75
322.878	100.75
323.108	102.75
323.337	94.75
323.566	123.75
323.795	140.75
324.024	167.75
324.253	306.75
324.482	663.75
324.71	1326.75
324.939	1735.75
325.168	668.75
325.397	195.75
325.626	147.75
325.855	109.75
326.084	131.75
326.313	125.75
326.542	131.75
326.77	188.75
326.999	366.75
327.228	739.75
327.457	1366.75
327.686	1086.75
327.914	304.75
328.143	197.75
328.372	171.75
328.6	121.75
328.829	108.75
329.058	117.75
329.287	110.75
329.515	109.75
329.744	108.75
329.972	127.75
330.201	176.75
330.43	244.75
330.658	173.75
330.887	133.75
331.115	107.75
331.344	87.75
331.572	103.75
331.801	111.75
332.03	90.75
332.258	73.75
332.486	83.75
332.715	83.75
332.943	103.75
333.172	94.75
333.4	101.75
333.629	118.75
333.857	104.75
334.085	135.75
334.314	189.75
334.542	274.75
334.771	266.75
334.999	128.75
335.227	101.75
335.455	106.75
335.684	86.75
335.912	100.75
336.14	80.75
336.369	76.75
336.597	91.75
336.825	88.75
337.053	98.75
337.281	91.75
337.51	93.75
337.738	101.75
337.966	98.75
338.194	89.75
338.422	91.75
338.65	76.75
338.878	90.75
339.106	87.75
339.334	82.75
339.562	82.75
339.79	108.75
340.018	84.75
340.246	95.75
340.474	89.75
340.702	84.75
340.93	88.75
341.158	83.75
341.386	80.75
341.614	82.75
341.842	92.75
342.07	90.75
342.298	81.75
342.526	94.75
342.754	80.75
342.981	80.75
343.209	89.75
343.437	89.75
343.665	87.75
343.893	85.75
344.12	81.75
344.348	105.75
344.576	86.75
344.804	81.75
345.031	89.75
345.259	90.75
345.487	76.75
345.714	92.75
345.942	98.75
346.17	83.75
346.397	82.75
346.625	99.75
346.853	82.75
347.08	90.75
347.308	104.75
347.535	92.75
347.763	99.75
347.99	82.75
348.218	96.75
348.445	94.75
348.673	104.75
348.9	102.75
349.128	85.75
349.355	88.75
349.583	90.75
349.81	86.75
350.037	102.75
350.265	83.75
350.492	100.75
350.72	91.75
350.947	97.75
351.174	103.75
351.402	86.75
351.629	102.75
351.856	101.75
352.083	91.75
352.311	84.75
352.538	91.75
352.765	109.75
352.992	110.75
353.22	96.75
353.447	102.75
353.674	95.75
353.901	99.75
354.128	75.75
354.355	84.75
354.583	104.75
354.81	98.75
355.037	100.75
355.264	93.75
355.491	87.75
355.718	88.75
355.945	96.75
356.172	87.75
356.399	98.75
356.626	97.75
356.853	98.75
357.08	91.75
357.307	92.75
357.534	84.75
357.761	99.75
357.988	86.75
358.215	93.75
358.441	80.75
358.668	88.75
358.895	98.75
359.122	74.75
359.349	75.75
359.576	87.75
359.802	82.75
360.029	98.75
360.256	101.75
360.483	109.75
360.709	76.75
360.936	106.75
361.163	91.75
361.39	91.75
361.616	93.75
361.843	84.75
362.07	81.75
362.296	85.75
362.523	96.75
362.749	88.75
362.976	88.75
363.203	81.75
363.429	87.75
363.656	94.75
363.882	78.75
364.109	93.75
364.335	92.75
364.562	94.75
364.788	94.75
365.015	94.75
365.241	78.75
365.468	81.75
365.694	98.75
365.92	88.75
366.147	95.75
366.373	86.75
366.599	87.75
366.826	93.75
367.052	87.75
367.278	93.75
367.505	103.75
367.731	78.75
367.957	90.75
368.184	98.75
368.41	95.75
368.636	103.75
368.862	107.75
369.089	90.75
369.315	103.75
369.541	71.75
369.767	94.75
369.993	86.75
370.219	81.75
370.445	86.75
370.672	66.75
370.898	90.75
371.124	71.75
371.35	76.75
371.576	86.75
371.802	92.75
372.028	95.75
372.254	82.75
372.48	75.75
372.706	75.75
372.932	83.75
373.158	79.75
373.384	77.75
373.61	83.75
373.835	94.75
374.061	93.75
374.287	78.75
374.513	86.75
374.739	85.75
374.965	86.75
375.191	85.75
375.416	87.75
375.642	80.75
375.868	95.75
376.094	95.75
376.319	82.75
376.545	86.75
376.771	86.75
376.997	94.75
377.222	89.75
377.448	85.75
377.674	94.75
377.899	94.75
378.125	85.75
378.35	100.75
378.576	102.75
378.802	78.75
379.027	80.75
379.253	90.75
379.478	88.75
379.704	94.75
379.929	88.75
380.155	98.75
380.38	85.75
380.606	85.75
380.831	99.75
381.057	98.75
381.282	90.75
381.507	95.75
381.733	100.75
381.958	95.75
382.184	89.75
382.409	117.75
382.634	99.75
382.86	102.75
383.085	84.75
383.31	99.75
383.535	98.75
383.761	108.75
383.986	91.75
384.211	97.75
384.436	101.75
384.662	93.75
384.887	86.75
385.112	90.75
385.337	92.75
385.562	90.75
385.787	96.75
386.013	96.75
386.238	103.75
386.463	106.75
386.688	93.75
386.913	91.75
387.138	96.75
387.363	81.75
387.588	96.75
387.813	96.75
388.038	102.75
388.263	102.75
388.488	106.75
388.713	108.75
388.938	100.75
389.163	107.75
389.387	107.75
389.612	81.75
389.837	87.75
390.062	90.75
390.287	100.75
390.512	88.75
390.736	91.75
390.961	73.75
391.186	96.75
391.411	99.75
391.636	85.75
391.86	95.75
392.085	80.75
392.31	84.75
392.534	91.75
392.759	96.75
392.984	78.75
393.208	103.75
393.433	93.75
393.658	84.75
393.882	78.75
394.107	89.75
394.331	84.75
394.556	88.75
394.78	68.75
395.005	94.75
395.229	86.75
395.454	88.75
395.678	93.75
395.903	92.75
396.127	78.75
396.352	94.75
396.576	72.75
396.801	95.75
397.025	78.75
397.249	79.75
397.474	83.75
397.698	69.75
397.922	88.75
398.147	94.75
398.371	91.75
398.595	97.75
398.82	79.75
399.044	64.75
399.268	85.75
399.492	96.75
399.717	104.75
399.941	88.75
400.165	86.75
400.389	67.75
400.613	85.75
400.837	90.75
401.062	78.75
401.286	79.75
401.51	83.75
401.734	94.75
401.958	83.75
402.182	113.75
402.406	126.75
402.63	99.75
402.854	83.75
403.078	89.75
403.302	72.75
403.526	76.75
403.75	75.75
403.974	84.75
404.198	88.75
404.422	93.75
404.645	86.75
404.869	83.75
405.093	90.75
405.317	101.75
405.541	114.75
405.765	96.75
405.988	111.75
406.212	134.75
406.436	164.75
406.66	127.75
406.883	96.75
407.107	83.75
407.331	85.75
407.555	85.75
407.778	102.75
408.002	109.75
408.226	83.75
408.449	95.75
408.673	75.75
408.896	91.75
409.12	81.75
409.344	89.75
409.567	85.75
409.791	95.75
410.014	99.75
410.238	96.75
410.461	99.75
410.685	81.75
410.908	93.75
411.132	92.75
411.355	99.75
411.578	87.75
411.802	94.75
412.025	102.75
412.249	91.75
412.472	82.75
412.695	96.75
412.919	78.75
413.142	82.75
413.365	98.75
413.589	86.75
413.812	94.75
414.035	92.75
414.258	87.75
414.482	85.75
414.705	94.75
414.928	88.75
415.151	93.75
415.374	87.75
415.597	97.75
415.821	94.75
416.044	94.75
416.267	104.75
416.49	97.75
416.713	94.75
416.936	88.75
417.159	76.75
417.382	70.75
417.605	80.75
417.828	92.75
418.051	71.75
418.274	85.75
418.497	74.75
418.72	89.75
418.943	96.75
419.166	76.75
419.389	86.75
419.611	78.75
419.834	94.75
420.057	79.75
420.28	86.75
420.503	78.75
420.726	93.75
420.948	73.75
421.171	84.75
421.394	85.75
421.617	92.75
421.839	91.75
422.062	78.75
422.285	100.75
422.507	101.75
422.73	93.75
422.953	83.75
423.175	94.75
423.398	100.75
423.621	74.75
423.843	91.75
424.066	87.75
424.288	76.75
424.511	90.75
424.733	89.75
424.956	91.75
425.178	87.75
425.401	90.75
425.623	85.75
425.846	84.75
426.068	94.75
426.291	95.75
426.513	95.75
426.735	86.75
426.958	94.75
427.18	94.75
427.402	116.75
427.625	133.75
427.847	124.75
428.069	134.75
428.292	97.75
428.514	97.75
428.736	83.75
428.958	70.75
429.181	87.75
429.403	87.75
429.625	78.75
429.847	86.75
430.069	95.75
430.292	74.75
430.514	99.75
430.736	67.75
430.958	97.75
431.18	103.75
431.402	97.75
431.624	79.75
431.846	80.75
432.068	88.75
432.29	87.75
432.512	82.75
432.734	80.75
432.956	78.75
433.178	87.75
433.4	100.75
433.622	98.75
433.844	84.75
434.066	85.75
434.287	91.75
434.509	97.75
434.731	95.75
434.953	86.75
435.175	78.75
435.397	83.75
435.618	72.75
435.84	88.75
436.062	114.75
436.284	88.75
436.505	90.75
436.727	99.75
436.949	97.75
437.17	77.75
437.392	93.75
437.614	95.75
437.835	88.75
438.057	90.75
438.278	101.75
438.5	97.75
438.721	108.75
438.943	84.75
439.165	84.75
439.386	94.75
439.608	99.75
439.829	85.75
440.05	109.75
440.272	114.75
440.493	79.75
440.715	88.75
440.936	98.75
441.158	68.75
441.379	76.75
441.6	99.75
441.822	92.75
442.043	89.75
442.264	94.75
442.486	84.75
442.707	94.75
442.928	103.75
443.149	117.75
443.371	101.75
443.592	88.75
443.813	83.75
444.034	95.75
444.255	94.75
444.476	85.75
444.698	90.75
444.919	87.75
445.14	124.75
445.361	117.75
445.582	89.75
445.803	103.75
446.024	97.75
446.245	106.75
446.466	103.75
446.687	96.75
446.908	95.75
447.129	94.75
447.35	89.75
447.571	99.75
447.792	82.75
448.013	78.75
448.234	101.75
448.455	100.75
448.675	95.75
448.896	107.75
449.117	96.75
449.338	93.75
449.559	114.75
449.779	110.75
450	98.75
450.221	84.75
450.442	89.75
450.662	76.75
450.883	97.75
451.104	98.75
451.324	85.75
451.545	90.75
451.766	95.75
451.986	76.75
452.207	87.75
452.428	91.75
452.648	90.75
452.869	86.75
453.089	104.75
453.31	106.75
453.53	104.75
453.751	96.75
453.971	102.75
454.192	87.75
454.412	95.75
454.633	97.75
454.853	79.75
455.073	96.75
455.294	76.75
455.514	103.75
455.734	91.75
455.955	86.75
456.175	84.75
456.395	81.75
456.616	87.75
456.836	94.75
457.056	95.75
457.276	75.75
457.497	82.75
457.717	84.75
457.937	78.75
458.157	84.75
458.377	84.75
458.598	83.75
458.818	112.75
459.038	124.75
459.258	93.75
459.478	90.75
459.698	91.75
459.918	87.75
460.138	92.75
460.358	96.75
460.578	88.75
460.798	80.75
461.018	86.75
461.238	85.75
461.458	83.75
461.678	82.75
461.898	78.75
462.118	87.75
462.338	76.75
462.558	87.75
462.777	93.75
462.997	93.75
463.217	91.75
463.437	79.75
463.657	74.75
463.876	89.75
464.096	81.75
464.316	94.75
464.536	112.75
464.755	95.75
464.975	95.75
465.195	112.75
465.414	114.75
465.634	84.75
465.854	78.75
466.073	87.75
466.293	85.75
466.512	98.75
466.732	102.75
466.951	76.75
467.171	91.75
467.391	87.75
467.61	105.75
467.829	98.75
468.049	146.75
468.268	162.75
468.488	92.75
468.707	87.75
468.927	84.75
469.146	88.75
469.365	80.75
469.585	79.75
469.804	99.75
470.023	94.75
470.243	89.75
470.462	86.75
470.681	99.75
470.901	84.75
471.12	81.75
471.339	78.75
471.558	81.75
471.777	82.75
471.997	108.75
472.216	202.75
472.435	355.75
472.654	138.75
472.873	88.75
473.092	85.75
473.311	82.75
473.53	88.75
473.749	93.75
473.968	94.75
474.187	103.75
474.406	84.75
474.625	68.75
474.844	102.75
475.063	96.75
475.282	99.75
475.501	82.75
475.72	87.75
475.939	95.75
476.158	85.75
476.377	85.75
476.596	89.75
476.814	78.75
477.033	99.75
477.252	78.75
477.471	77.75
477.69	76.75
477.908	83.75
478.127	92.75
478.346	88.75
478.564	63.75
478.783	88.75
479.002	96.75
479.22	92.75
479.439	93.75
479.658	103.75
479.876	93.75
480.095	101.75
480.313	98.75
480.532	105.75
480.751	109.75
480.969	221.75
481.188	595.75
481.406	357.75
481.624	127.75
481.843	87.75
482.061	72.75
482.28	97.75
482.498	98.75
482.717	79.75
482.935	82.75
483.153	74.75
483.372	87.75
483.59	87.75
483.808	84.75
484.027	84.75
484.245	91.75
484.463	97.75
484.681	84.75
484.9	95.75
485.118	96.75
485.336	84.75
485.554	97.75
485.772	93.75
485.99	95.75
486.209	101.75
486.427	83.75
486.645	86.75
486.863	93.75
487.081	108.75
487.299	106.75
487.517	78.75
487.735	88.75
487.953	89.75
488.171	92.75
488.389	93.75
488.607	96.75
488.825	103.75
489.043	96.75
489.261	94.75
489.479	92.75
489.696	88.75
489.914	91.75
490.132	71.75
490.35	84.75
490.568	87.75
490.786	93.75
491.003	92.75
491.221	88.75
491.439	109.75
491.657	98.75
491.874	86.75
492.092	91.75
492.31	98.75
492.527	91.75
492.745	83.75
492.963	89.75
493.18	88.75
493.398	100.75
493.615	99.75
493.833	81.75
494.05	89.75
494.268	79.75
494.485	94.75
494.703	88.75
494.92	99.75
495.138	87.75
495.355	84.75
495.573	78.75
495.79	76.75
496.008	96.75
496.225	91.75
496.442	83.75
496.66	95.75
496.877	85.75
497.094	88.75
497.312	76.75
497.529	87.75
497.746	92.75
497.963	85.75
498.181	99.75
498.398	72.75
498.615	101.75
498.832	96.75
499.049	96.75
499.267	80.75
499.484	107.75
499.701	77.75
499.918	90.75
500.135	90.75
500.352	81.75
500.569	84.75
500.786	96.75
501.003	92.75
501.22	89.75
501.437	92.75
501.654	90.75
501.871	83.75
502.088	87.75
502.305	82.75
502.522	67.75
502.739	93.75
502.956	99.75
503.172	77.75
503.389	85.75
503.606	89.75
503.823	97.75
504.04	94.75
504.256	87.75
504.473	85.75
504.69	94.75
504.907	95.75
505.123	102.75
505.34	92.75
505.557	101.75
505.773	90.75
505.99	85.75
506.207	79.75
506.423	70.75
506.64	83.75
506.856	74.75
507.073	66.75
507.289	97.75
507.506	90.75
507.722	99.75
507.939	96.75
508.155	92.75
508.372	94.75
508.588	91.75
508.805	88.75
509.021	96.75
509.238	90.75
509.454	95.75
509.67	93.75
509.887	97.75
510.103	121.75
510.319	165.75
510.536	523.75
510.752	1517.75
510.968	451.75
511.184	125.75
511.401	111.75
511.617	84.75
511.833	96.75
512.049	88.75
512.265	82.75
512.481	92.75
512.698	88.75
512.914	81.75
513.13	94.75
513.346	80.75
513.562	88.75
513.778	98.75
513.994	95.75
514.21	88.75
514.426	97.75
514.642	111.75
514.858	105.75
515.074	135.75
515.29	286.75
515.506	948.75
515.721	366.75
515.937	119.75
516.153	95.75
516.369	101.75
516.585	99.75
516.801	89.75
517.016	87.75
