Data from Uncirc_1989_H10_HRD10591_00052.txt Node
Date: Wed Jan 03 11:57:46 EST 2024
User: Yrep
Spectrometer: HR+D1059
Trigger mode: 1
Integration Time (sec): 1.000000E-1
Scans to average: 1
Electric dark correction enabled: true
Nonlinearity correction enabled: false
Boxcar width: 0
XAxis mode: Wavelengths
Number of Pixels in Spectrum: 2048
>>>>>Begin Spectral Data<<<<<
223.165	-24.06
223.4	-24.06
223.635	-24.06
223.869	-25.06
224.104	-17.06
224.338	-3.06
224.573	-27.06
224.808	-2.06
225.042	-7.06
225.277	-20.06
225.511	-6.06
225.746	10.94
225.98	-3.06
226.215	14.94
226.449	20.94
226.683	20.94
226.918	25.94
227.152	40.94
227.387	25.94
227.621	40.94
227.856	49.94
228.09	47.94
228.324	52.94
228.559	63.94
228.793	53.94
229.027	49.94
229.262	57.94
229.496	79.94
229.73	80.94
229.964	71.94
230.199	91.94
230.433	80.94
230.667	81.94
230.901	85.94
231.136	89.94
231.37	82.94
231.604	92.94
231.838	87.94
232.072	87.94
232.306	89.94
232.541	81.94
232.775	86.94
233.009	80.94
233.243	79.94
233.477	94.94
233.711	76.94
233.945	78.94
234.179	71.94
234.413	70.94
234.647	84.94
234.881	82.94
235.115	77.94
235.349	70.94
235.583	74.94
235.817	76.94
236.051	95.94
236.285	82.94
236.519	83.94
236.753	70.94
236.987	89.94
237.221	76.94
237.455	76.94
237.689	83.94
237.922	69.94
238.156	70.94
238.39	74.94
238.624	71.94
238.858	82.94
239.091	86.94
239.325	72.94
239.559	74.94
239.793	68.94
240.027	99.94
240.26	73.94
240.494	76.94
240.728	68.94
240.961	69.94
241.195	88.94
241.429	84.94
241.662	77.94
241.896	74.94
242.13	86.94
242.363	82.94
242.597	57.94
242.83	65.94
243.064	79.94
243.298	80.94
243.531	80.94
243.765	76.94
243.998	65.94
244.232	84.94
244.465	64.94
244.699	69.94
244.932	86.94
245.166	79.94
245.399	75.94
245.633	81.94
245.866	80.94
246.099	81.94
246.333	77.94
246.566	83.94
246.8	96.94
247.033	86.94
247.266	74.94
247.5	82.94
247.733	71.94
247.966	96.94
248.2	92.94
248.433	74.94
248.666	83.94
248.899	68.94
249.133	89.94
249.366	88.94
249.599	111.94
249.832	91.94
250.066	83.94
250.299	73.94
250.532	80.94
250.765	89.94
250.998	73.94
251.231	77.94
251.465	73.94
251.698	80.94
251.931	84.94
252.164	88.94
252.397	84.94
252.63	82.94
252.863	81.94
253.096	74.94
253.329	84.94
253.562	85.94
253.795	84.94
254.028	73.94
254.261	77.94
254.494	108.94
254.727	80.94
254.96	92.94
255.193	87.94
255.426	76.94
255.659	65.94
255.892	84.94
256.124	66.94
256.357	77.94
256.59	90.94
256.823	80.94
257.056	81.94
257.289	80.94
257.521	83.94
257.754	74.94
257.987	84.94
258.22	88.94
258.452	93.94
258.685	82.94
258.918	85.94
259.151	77.94
259.383	78.94
259.616	79.94
259.849	74.94
260.081	84.94
260.314	74.94
260.547	81.94
260.779	82.94
261.012	88.94
261.244	70.94
261.477	90.94
261.71	95.94
261.942	115.94
262.175	106.94
262.407	92.94
262.64	86.94
262.872	85.94
263.105	79.94
263.337	79.94
263.57	80.94
263.802	91.94
264.035	83.94
264.267	81.94
264.499	80.94
264.732	81.94
264.964	78.94
265.197	76.94
265.429	88.94
265.661	84.94
265.894	108.94
266.126	81.94
266.358	98.94
266.591	77.94
266.823	79.94
267.055	98.94
267.287	88.94
267.52	80.94
267.752	84.94
267.984	76.94
268.216	102.94
268.448	104.94
268.681	86.94
268.913	90.94
269.145	87.94
269.377	97.94
269.609	75.94
269.841	79.94
270.073	84.94
270.306	82.94
270.538	83.94
270.77	80.94
271.002	79.94
271.234	76.94
271.466	92.94
271.698	96.94
271.93	92.94
272.162	96.94
272.394	89.94
272.626	81.94
272.858	92.94
273.09	79.94
273.322	83.94
273.553	66.94
273.785	82.94
274.017	71.94
274.249	84.94
274.481	94.94
274.713	87.94
274.945	79.94
275.176	74.94
275.408	90.94
275.64	81.94
275.872	89.94
276.104	81.94
276.335	103.94
276.567	95.94
276.799	110.94
277.031	114.94
277.262	100.94
277.494	83.94
277.726	76.94
277.957	81.94
278.189	66.94
278.421	88.94
278.652	100.94
278.884	90.94
279.115	105.94
279.347	72.94
279.579	72.94
279.81	88.94
280.042	95.94
280.273	97.94
280.505	87.94
280.736	84.94
280.968	71.94
281.199	86.94
281.431	92.94
281.662	88.94
281.894	95.94
282.125	97.94
282.356	119.94
282.588	128.94
282.819	106.94
283.051	88.94
283.282	92.94
283.513	98.94
283.745	96.94
283.976	87.94
284.207	85.94
284.439	85.94
284.67	80.94
284.901	100.94
285.132	88.94
285.364	94.94
285.595	95.94
285.826	78.94
286.057	80.94
286.288	83.94
286.52	69.94
286.751	82.94
286.982	89.94
287.213	72.94
287.444	93.94
287.675	84.94
287.906	84.94
288.138	98.94
288.369	95.94
288.6	83.94
288.831	84.94
289.062	84.94
289.293	100.94
289.524	88.94
289.755	87.94
289.986	97.94
290.217	91.94
290.448	93.94
290.679	99.94
290.91	98.94
291.141	87.94
291.371	84.94
291.602	78.94
291.833	78.94
292.064	89.94
292.295	94.94
292.526	73.94
292.757	89.94
292.987	77.94
293.218	93.94
293.449	78.94
293.68	81.94
293.91	83.94
294.141	85.94
294.372	82.94
294.603	100.94
294.833	92.94
295.064	82.94
295.295	86.94
295.525	96.94
295.756	90.94
295.987	110.94
296.217	105.94
296.448	105.94
296.679	89.94
296.909	108.94
297.14	86.94
297.37	98.94
297.601	94.94
297.831	98.94
298.062	98.94
298.292	94.94
298.523	95.94
298.753	93.94
298.984	95.94
299.214	83.94
299.445	83.94
299.675	85.94
299.905	81.94
300.136	96.94
300.366	102.94
300.597	89.94
300.827	101.94
301.057	100.94
301.288	96.94
301.518	89.94
301.748	83.94
301.979	112.94
302.209	96.94
302.439	91.94
302.669	78.94
302.9	92.94
303.13	94.94
303.36	89.94
303.59	83.94
303.82	110.94
304.051	104.94
304.281	89.94
304.511	101.94
304.741	97.94
304.971	90.94
305.201	94.94
305.431	68.94
305.661	102.94
305.891	92.94
306.121	89.94
306.352	98.94
306.582	113.94
306.812	84.94
307.042	78.94
307.272	102.94
307.502	86.94
307.731	104.94
307.961	92.94
308.191	79.94
308.421	78.94
308.651	92.94
308.881	86.94
309.111	91.94
309.341	90.94
309.571	104.94
309.8	85.94
310.03	110.94
310.26	90.94
310.49	103.94
310.72	88.94
310.949	105.94
311.179	93.94
311.409	96.94
311.639	102.94
311.868	97.94
312.098	94.94
312.328	87.94
312.557	92.94
312.787	87.94
313.017	100.94
313.246	95.94
313.476	82.94
313.706	94.94
313.935	102.94
314.165	89.94
314.394	83.94
314.624	82.94
314.853	101.94
315.083	99.94
315.312	79.94
315.542	89.94
315.771	89.94
316.001	84.94
316.23	92.94
316.46	89.94
316.689	102.94
316.919	100.94
317.148	89.94
317.377	85.94
317.607	105.94
317.836	86.94
318.065	85.94
318.295	96.94
318.524	97.94
318.753	100.94
318.983	95.94
319.212	93.94
319.441	99.94
319.67	92.94
319.9	93.94
320.129	98.94
320.358	96.94
320.587	88.94
320.816	99.94
321.046	105.94
321.275	98.94
321.504	96.94
321.733	90.94
321.962	106.94
322.191	100.94
322.42	91.94
322.649	92.94
322.878	103.94
323.108	97.94
323.337	121.94
323.566	127.94
323.795	129.94
324.024	188.94
324.253	321.94
324.482	666.94
324.71	1430.94
324.939	1840.94
325.168	674.94
325.397	204.94
325.626	136.94
325.855	121.94
326.084	128.94
326.313	124.94
326.542	155.94
326.77	208.94
326.999	382.94
327.228	808.94
327.457	1440.94
327.686	1121.94
327.914	313.94
328.143	174.94
328.372	164.94
328.6	135.94
328.829	99.94
329.058	107.94
329.287	106.94
329.515	114.94
329.744	114.94
329.972	121.94
330.201	170.94
330.43	165.94
330.658	143.94
330.887	133.94
331.115	120.94
331.344	97.94
331.572	104.94
331.801	84.94
332.03	99.94
332.258	94.94
332.486	94.94
332.715	101.94
332.943	103.94
333.172	113.94
333.4	88.94
333.629	108.94
333.857	126.94
334.085	121.94
334.314	170.94
334.542	235.94
334.771	223.94
334.999	124.94
335.227	98.94
335.455	110.94
335.684	109.94
335.912	99.94
336.14	82.94
336.369	94.94
336.597	82.94
336.825	96.94
337.053	104.94
337.281	98.94
337.51	80.94
337.738	99.94
337.966	104.94
338.194	87.94
338.422	90.94
338.65	81.94
338.878	89.94
339.106	83.94
339.334	90.94
339.562	105.94
339.79	88.94
340.018	90.94
340.246	69.94
340.474	82.94
340.702	91.94
340.93	86.94
341.158	79.94
341.386	100.94
341.614	96.94
341.842	87.94
342.07	89.94
342.298	85.94
342.526	88.94
342.754	74.94
342.981	72.94
343.209	71.94
343.437	100.94
343.665	86.94
343.893	98.94
344.12	94.94
344.348	100.94
344.576	80.94
344.804	97.94
345.031	110.94
345.259	98.94
345.487	87.94
345.714	84.94
345.942	93.94
346.17	107.94
346.397	101.94
346.625	90.94
346.853	97.94
347.08	92.94
347.308	81.94
347.535	97.94
347.763	100.94
347.99	108.94
348.218	98.94
348.445	105.94
348.673	92.94
348.9	99.94
349.128	95.94
349.355	88.94
349.583	89.94
349.81	92.94
350.037	89.94
350.265	98.94
350.492	90.94
350.72	91.94
350.947	96.94
351.174	88.94
351.402	106.94
351.629	92.94
351.856	101.94
352.083	94.94
352.311	105.94
352.538	93.94
352.765	104.94
352.992	129.94
353.22	106.94
353.447	98.94
353.674	98.94
353.901	83.94
354.128	94.94
354.355	86.94
354.583	101.94
354.81	97.94
355.037	85.94
355.264	90.94
355.491	78.94
355.718	102.94
355.945	85.94
356.172	94.94
356.399	82.94
356.626	88.94
356.853	94.94
357.08	79.94
357.307	95.94
357.534	88.94
357.761	94.94
357.988	89.94
358.215	92.94
358.441	74.94
358.668	78.94
358.895	90.94
359.122	105.94
359.349	89.94
359.576	73.94
359.802	98.94
360.029	106.94
360.256	109.94
360.483	109.94
360.709	87.94
360.936	88.94
361.163	85.94
361.39	93.94
361.616	95.94
361.843	81.94
362.07	91.94
362.296	95.94
362.523	95.94
362.749	88.94
362.976	88.94
363.203	95.94
363.429	92.94
363.656	87.94
363.882	88.94
364.109	90.94
364.335	88.94
364.562	79.94
364.788	107.94
365.015	112.94
365.241	87.94
365.468	101.94
365.694	116.94
365.92	93.94
366.147	106.94
366.373	98.94
366.599	88.94
366.826	104.94
367.052	82.94
367.278	101.94
367.505	84.94
367.731	92.94
367.957	79.94
368.184	73.94
368.41	92.94
368.636	114.94
368.862	119.94
369.089	105.94
369.315	79.94
369.541	80.94
369.767	90.94
369.993	83.94
370.219	91.94
370.445	88.94
370.672	83.94
370.898	97.94
371.124	89.94
371.35	87.94
371.576	82.94
371.802	102.94
372.028	72.94
372.254	80.94
372.48	86.94
372.706	90.94
372.932	80.94
373.158	95.94
373.384	81.94
373.61	89.94
373.835	96.94
374.061	90.94
374.287	85.94
374.513	99.94
374.739	81.94
374.965	95.94
375.191	94.94
375.416	85.94
375.642	85.94
375.868	102.94
376.094	83.94
376.319	103.94
376.545	92.94
376.771	91.94
376.997	90.94
377.222	99.94
377.448	87.94
377.674	87.94
377.899	97.94
378.125	96.94
378.35	90.94
378.576	96.94
378.802	90.94
379.027	86.94
379.253	87.94
379.478	81.94
379.704	95.94
379.929	103.94
380.155	92.94
380.38	83.94
380.606	102.94
380.831	87.94
381.057	103.94
381.282	89.94
381.507	90.94
381.733	100.94
381.958	100.94
382.184	105.94
382.409	91.94
382.634	86.94
382.86	98.94
383.085	107.94
383.31	104.94
383.535	96.94
383.761	100.94
383.986	105.94
384.211	88.94
384.436	84.94
384.662	93.94
384.887	97.94
385.112	96.94
385.337	98.94
385.562	91.94
385.787	92.94
386.013	105.94
386.238	86.94
386.463	114.94
386.688	100.94
386.913	108.94
387.138	103.94
387.363	117.94
387.588	95.94
387.813	102.94
388.038	94.94
388.263	113.94
388.488	102.94
388.713	78.94
388.938	95.94
389.163	100.94
389.387	91.94
389.612	102.94
389.837	87.94
390.062	88.94
390.287	96.94
390.512	96.94
390.736	99.94
390.961	90.94
391.186	91.94
391.411	94.94
391.636	97.94
391.86	78.94
392.085	95.94
392.31	91.94
392.534	85.94
392.759	92.94
392.984	95.94
393.208	101.94
393.433	100.94
393.658	100.94
393.882	77.94
394.107	82.94
394.331	98.94
394.556	93.94
394.78	87.94
395.005	90.94
395.229	83.94
395.454	94.94
395.678	84.94
395.903	66.94
396.127	98.94
396.352	84.94
396.576	93.94
396.801	84.94
397.025	90.94
397.249	84.94
397.474	90.94
397.698	89.94
397.922	78.94
398.147	101.94
398.371	88.94
398.595	91.94
398.82	92.94
399.044	86.94
399.268	89.94
399.492	77.94
399.717	108.94
399.941	95.94
400.165	84.94
400.389	97.94
400.613	90.94
400.837	94.94
401.062	84.94
401.286	94.94
401.51	94.94
401.734	94.94
401.958	92.94
402.182	109.94
402.406	136.94
402.63	110.94
402.854	96.94
403.078	79.94
403.302	90.94
403.526	68.94
403.75	72.94
403.974	73.94
404.198	97.94
404.422	97.94
404.645	83.94
404.869	82.94
405.093	98.94
405.317	88.94
405.541	88.94
405.765	93.94
405.988	101.94
406.212	156.94
406.436	183.94
406.66	124.94
406.883	93.94
407.107	102.94
407.331	108.94
407.555	100.94
407.778	88.94
408.002	103.94
408.226	80.94
408.449	102.94
408.673	89.94
408.896	85.94
409.12	95.94
409.344	81.94
409.567	89.94
409.791	82.94
410.014	106.94
410.238	87.94
410.461	77.94
410.685	96.94
410.908	90.94
411.132	106.94
411.355	93.94
411.578	92.94
411.802	84.94
412.025	96.94
412.249	96.94
412.472	88.94
412.695	97.94
412.919	96.94
413.142	91.94
413.365	81.94
413.589	92.94
413.812	90.94
414.035	95.94
414.258	90.94
414.482	85.94
414.705	90.94
414.928	80.94
415.151	84.94
415.374	97.94
415.597	82.94
415.821	92.94
416.044	94.94
416.267	100.94
416.49	92.94
416.713	90.94
416.936	83.94
417.159	100.94
417.382	82.94
417.605	81.94
417.828	93.94
418.051	98.94
418.274	96.94
418.497	82.94
418.72	97.94
418.943	83.94
419.166	80.94
419.389	87.94
419.611	94.94
419.834	83.94
420.057	94.94
420.28	97.94
420.503	85.94
420.726	96.94
420.948	85.94
421.171	85.94
421.394	93.94
421.617	92.94
421.839	87.94
422.062	88.94
422.285	95.94
422.507	105.94
422.73	97.94
422.953	95.94
423.175	90.94
423.398	90.94
423.621	86.94
423.843	76.94
424.066	84.94
424.288	98.94
424.511	84.94
424.733	88.94
424.956	104.94
425.178	89.94
425.401	100.94
425.623	103.94
425.846	80.94
426.068	86.94
426.291	95.94
426.513	91.94
426.735	89.94
426.958	90.94
427.18	94.94
427.402	130.94
427.625	127.94
427.847	126.94
428.069	116.94
428.292	83.94
428.514	88.94
428.736	81.94
428.958	83.94
429.181	80.94
429.403	82.94
429.625	92.94
429.847	94.94
430.069	99.94
430.292	95.94
430.514	69.94
430.736	78.94
430.958	84.94
431.18	104.94
431.402	93.94
431.624	88.94
431.846	87.94
432.068	73.94
432.29	76.94
432.512	92.94
432.734	82.94
432.956	95.94
433.178	80.94
433.4	107.94
433.622	97.94
433.844	94.94
434.066	84.94
434.287	100.94
434.509	80.94
434.731	80.94
434.953	103.94
435.175	77.94
435.397	89.94
435.618	86.94
435.84	95.94
436.062	95.94
436.284	108.94
436.505	103.94
436.727	88.94
436.949	96.94
437.17	87.94
437.392	88.94
437.614	100.94
437.835	96.94
438.057	112.94
438.278	90.94
438.5	100.94
438.721	102.94
438.943	101.94
439.165	93.94
439.386	101.94
439.608	85.94
439.829	99.94
440.05	105.94
440.272	114.94
440.493	80.94
440.715	84.94
440.936	95.94
441.158	84.94
441.379	77.94
441.6	102.94
441.822	89.94
442.043	90.94
442.264	98.94
442.486	98.94
442.707	85.94
442.928	96.94
443.149	117.94
443.371	124.94
443.592	96.94
443.813	116.94
444.034	81.94
444.255	99.94
444.476	80.94
444.698	86.94
444.919	85.94
445.14	152.94
445.361	125.94
445.582	104.94
445.803	131.94
446.024	119.94
446.245	126.94
446.466	92.94
446.687	86.94
446.908	89.94
447.129	82.94
447.35	89.94
447.571	103.94
447.792	90.94
448.013	77.94
448.234	96.94
448.455	94.94
448.675	93.94
448.896	95.94
449.117	89.94
449.338	86.94
449.559	114.94
449.779	114.94
450	97.94
450.221	87.94
450.442	84.94
450.662	84.94
450.883	104.94
451.104	95.94
451.324	88.94
451.545	89.94
451.766	87.94
451.986	79.94
452.207	90.94
452.428	95.94
452.648	84.94
452.869	112.94
453.089	117.94
453.31	110.94
453.53	90.94
453.751	82.94
453.971	95.94
454.192	95.94
454.412	87.94
454.633	83.94
454.853	86.94
455.073	93.94
455.294	89.94
455.514	100.94
455.734	88.94
455.955	93.94
456.175	84.94
456.395	93.94
456.616	84.94
456.836	92.94
457.056	93.94
457.276	85.94
457.497	88.94
457.717	91.94
457.937	101.94
458.157	77.94
458.377	90.94
458.598	90.94
458.818	143.94
459.038	132.94
459.258	96.94
459.478	103.94
459.698	96.94
459.918	86.94
460.138	87.94
460.358	92.94
460.578	80.94
460.798	93.94
461.018	92.94
461.238	80.94
461.458	77.94
461.678	93.94
461.898	77.94
462.118	87.94
462.338	94.94
462.558	87.94
462.777	92.94
462.997	85.94
463.217	99.94
463.437	94.94
463.657	86.94
463.876	88.94
464.096	78.94
464.316	90.94
464.536	94.94
464.755	96.94
464.975	104.94
465.195	142.94
465.414	128.94
465.634	92.94
465.854	83.94
466.073	96.94
466.293	86.94
466.512	77.94
466.732	91.94
466.951	80.94
467.171	83.94
467.391	105.94
467.61	99.94
467.829	98.94
468.049	106.94
468.268	138.94
468.488	95.94
468.707	91.94
468.927	99.94
469.146	85.94
469.365	85.94
469.585	85.94
469.804	86.94
470.023	85.94
470.243	109.94
470.462	104.94
470.681	96.94
470.901	79.94
471.12	96.94
471.339	92.94
471.558	92.94
471.777	85.94
471.997	109.94
472.216	169.94
472.435	264.94
472.654	133.94
472.873	91.94
473.092	98.94
473.311	104.94
473.53	88.94
473.749	93.94
473.968	93.94
474.187	106.94
474.406	105.94
474.625	81.94
474.844	104.94
475.063	89.94
475.282	78.94
475.501	93.94
475.72	87.94
475.939	87.94
476.158	93.94
476.377	83.94
476.596	87.94
476.814	90.94
477.033	82.94
477.252	80.94
477.471	85.94
477.69	89.94
477.908	86.94
478.127	88.94
478.346	102.94
478.564	90.94
478.783	95.94
479.002	94.94
479.22	95.94
479.439	107.94
479.658	92.94
479.876	102.94
480.095	118.94
480.313	95.94
480.532	98.94
480.751	99.94
480.969	162.94
481.188	448.94
481.406	268.94
481.624	121.94
481.843	89.94
482.061	71.94
482.28	91.94
482.498	81.94
482.717	94.94
482.935	96.94
483.153	96.94
483.372	79.94
483.59	113.94
483.808	86.94
484.027	97.94
484.245	86.94
484.463	86.94
484.681	89.94
484.9	100.94
485.118	106.94
485.336	97.94
485.554	90.94
485.772	92.94
485.99	102.94
486.209	104.94
486.427	104.94
486.645	96.94
486.863	102.94
487.081	102.94
487.299	99.94
487.517	89.94
487.735	94.94
487.953	88.94
488.171	86.94
488.389	89.94
488.607	106.94
488.825	91.94
489.043	87.94
489.261	69.94
489.479	90.94
489.696	103.94
489.914	89.94
490.132	101.94
490.35	92.94
490.568	104.94
490.786	95.94
491.003	87.94
491.221	78.94
491.439	86.94
491.657	101.94
491.874	97.94
492.092	76.94
492.31	102.94
492.527	98.94
492.745	93.94
492.963	86.94
493.18	90.94
493.398	86.94
493.615	103.94
493.833	93.94
494.05	89.94
494.268	82.94
494.485	93.94
494.703	81.94
494.92	80.94
495.138	84.94
495.355	96.94
495.573	98.94
495.79	94.94
496.008	95.94
496.225	86.94
496.442	84.94
496.66	81.94
496.877	86.94
497.094	85.94
497.312	82.94
497.529	76.94
497.746	99.94
497.963	106.94
498.181	99.94
498.398	100.94
498.615	116.94
498.832	96.94
499.049	101.94
499.267	85.94
499.484	102.94
499.701	86.94
499.918	86.94
500.135	106.94
500.352	90.94
500.569	96.94
500.786	95.94
501.003	94.94
501.22	82.94
501.437	93.94
501.654	116.94
501.871	105.94
502.088	95.94
502.305	85.94
502.522	91.94
502.739	87.94
502.956	92.94
503.172	87.94
503.389	88.94
503.606	104.94
503.823	100.94
504.04	93.94
504.256	98.94
504.473	91.94
504.69	92.94
504.907	91.94
505.123	94.94
505.34	86.94
505.557	93.94
505.773	95.94
505.99	96.94
506.207	105.94
506.423	88.94
506.64	88.94
506.856	90.94
507.073	87.94
507.289	91.94
507.506	102.94
507.722	113.94
507.939	103.94
508.155	84.94
508.372	92.94
508.588	93.94
508.805	100.94
509.021	99.94
509.238	97.94
509.454	94.94
509.67	98.94
509.887	99.94
510.103	131.94
510.319	191.94
510.536	621.94
510.752	1797.94
510.968	512.94
511.184	128.94
511.401	98.94
511.617	89.94
511.833	71.94
512.049	100.94
512.265	101.94
512.481	99.94
512.698	90.94
512.914	92.94
513.13	96.94
513.346	113.94
513.562	93.94
513.778	101.94
513.994	94.94
514.21	114.94
514.426	107.94
514.642	117.94
514.858	123.94
515.074	132.94
515.29	365.94
515.506	1131.94
515.721	415.94
515.937	126.94
