Data from Uncirc_1989_H10_HRD10591_00090.txt Node
Date: Wed Jan 03 11:57:53 EST 2024
User: Yrep
Spectrometer: HR+D1059
Trigger mode: 1
Integration Time (sec): 1.000000E-1
Scans to average: 1
Electric dark correction enabled: true
Nonlinearity correction enabled: false
Boxcar width: 0
XAxis mode: Wavelengths
Number of Pixels in Spectrum: 2048
>>>>>Begin Spectral Data<<<<<
223.165	-32.31
223.4	-32.31
223.635	-32.31
223.869	-19.31
224.104	-13.31
224.338	-2.31
224.573	-20.31
224.808	-10.31
225.042	-1.31
225.277	-4.31
225.511	0.69
225.746	12.69
225.98	12.69
226.215	6.69
226.449	4.69
226.683	28.69
226.918	5.69
227.152	31.69
227.387	30.69
227.621	54.69
227.856	48.69
228.09	39.69
228.324	48.69
228.559	64.69
228.793	72.69
229.027	56.69
229.262	66.69
229.496	67.69
229.73	90.69
229.964	87.69
230.199	75.69
230.433	71.69
230.667	82.69
230.901	71.69
231.136	56.69
231.37	79.69
231.604	81.69
231.838	78.69
232.072	79.69
232.306	79.69
232.541	78.69
232.775	70.69
233.009	81.69
233.243	81.69
233.477	96.69
233.711	81.69
233.945	82.69
234.179	81.69
234.413	68.69
234.647	69.69
234.881	82.69
235.115	71.69
235.349	69.69
235.583	85.69
235.817	77.69
236.051	93.69
236.285	76.69
236.519	73.69
236.753	84.69
236.987	82.69
237.221	77.69
237.455	80.69
237.689	73.69
237.922	79.69
238.156	69.69
238.39	71.69
238.624	66.69
238.858	82.69
239.091	80.69
239.325	78.69
239.559	73.69
239.793	67.69
240.027	80.69
240.26	81.69
240.494	73.69
240.728	78.69
240.961	78.69
241.195	81.69
241.429	64.69
241.662	80.69
241.896	87.69
242.13	88.69
242.363	74.69
242.597	74.69
242.83	88.69
243.064	72.69
243.298	75.69
243.531	72.69
243.765	73.69
243.998	82.69
244.232	91.69
244.465	85.69
244.699	87.69
244.932	66.69
245.166	87.69
245.399	63.69
245.633	79.69
245.866	63.69
246.099	73.69
246.333	90.69
246.566	73.69
246.8	75.69
247.033	93.69
247.266	71.69
247.5	90.69
247.733	81.69
247.966	73.69
248.2	85.69
248.433	71.69
248.666	83.69
248.899	78.69
249.133	80.69
249.366	87.69
249.599	99.69
249.832	84.69
250.066	78.69
250.299	67.69
250.532	75.69
250.765	59.69
250.998	80.69
251.231	90.69
251.465	79.69
251.698	72.69
251.931	83.69
252.164	85.69
252.397	76.69
252.63	76.69
252.863	86.69
253.096	81.69
253.329	78.69
253.562	71.69
253.795	79.69
254.028	70.69
254.261	77.69
254.494	83.69
254.727	87.69
254.96	76.69
255.193	79.69
255.426	81.69
255.659	79.69
255.892	84.69
256.124	93.69
256.357	82.69
256.59	91.69
256.823	83.69
257.056	66.69
257.289	91.69
257.521	87.69
257.754	92.69
257.987	83.69
258.22	87.69
258.452	86.69
258.685	85.69
258.918	82.69
259.151	83.69
259.383	77.69
259.616	71.69
259.849	75.69
260.081	92.69
260.314	83.69
260.547	77.69
260.779	93.69
261.012	99.69
261.244	99.69
261.477	77.69
261.71	81.69
261.942	110.69
262.175	99.69
262.407	97.69
262.64	84.69
262.872	83.69
263.105	80.69
263.337	66.69
263.57	81.69
263.802	91.69
264.035	79.69
264.267	82.69
264.499	80.69
264.732	80.69
264.964	78.69
265.197	89.69
265.429	87.69
265.661	66.69
265.894	70.69
266.126	83.69
266.358	83.69
266.591	83.69
266.823	83.69
267.055	89.69
267.287	80.69
267.52	89.69
267.752	72.69
267.984	92.69
268.216	70.69
268.448	89.69
268.681	79.69
268.913	86.69
269.145	82.69
269.377	97.69
269.609	85.69
269.841	86.69
270.073	84.69
270.306	75.69
270.538	77.69
270.77	82.69
271.002	86.69
271.234	87.69
271.466	96.69
271.698	89.69
271.93	70.69
272.162	99.69
272.394	90.69
272.626	76.69
272.858	93.69
273.09	78.69
273.322	89.69
273.553	97.69
273.785	65.69
274.017	85.69
274.249	92.69
274.481	91.69
274.713	80.69
274.945	83.69
275.176	79.69
275.408	106.69
275.64	106.69
275.872	95.69
276.104	83.69
276.335	101.69
276.567	99.69
276.799	94.69
277.031	111.69
277.262	95.69
277.494	85.69
277.726	72.69
277.957	84.69
278.189	84.69
278.421	80.69
278.652	88.69
278.884	77.69
279.115	80.69
279.347	91.69
279.579	89.69
279.81	95.69
280.042	101.69
280.273	99.69
280.505	83.69
280.736	73.69
280.968	90.69
281.199	82.69
281.431	78.69
281.662	90.69
281.894	85.69
282.125	94.69
282.356	105.69
282.588	130.69
282.819	98.69
283.051	87.69
283.282	79.69
283.513	86.69
283.745	77.69
283.976	83.69
284.207	90.69
284.439	91.69
284.67	92.69
284.901	88.69
285.132	86.69
285.364	95.69
285.595	75.69
285.826	93.69
286.057	92.69
286.288	90.69
286.52	75.69
286.751	77.69
286.982	91.69
287.213	90.69
287.444	88.69
287.675	94.69
287.906	73.69
288.138	91.69
288.369	92.69
288.6	103.69
288.831	86.69
289.062	82.69
289.293	94.69
289.524	83.69
289.755	93.69
289.986	86.69
290.217	73.69
290.448	91.69
290.679	88.69
290.91	104.69
291.141	84.69
291.371	68.69
291.602	76.69
291.833	83.69
292.064	83.69
292.295	95.69
292.526	81.69
292.757	83.69
292.987	84.69
293.218	79.69
293.449	90.69
293.68	79.69
293.91	81.69
294.141	96.69
294.372	88.69
294.603	68.69
294.833	78.69
295.064	109.69
295.295	85.69
295.525	98.69
295.756	80.69
295.987	100.69
296.217	115.69
296.448	117.69
296.679	78.69
296.909	88.69
297.14	82.69
297.37	87.69
297.601	95.69
297.831	87.69
298.062	100.69
298.292	89.69
298.523	83.69
298.753	81.69
298.984	87.69
299.214	86.69
299.445	92.69
299.675	95.69
299.905	82.69
300.136	96.69
300.366	90.69
300.597	96.69
300.827	100.69
301.057	99.69
301.288	82.69
301.518	81.69
301.748	104.69
301.979	98.69
302.209	101.69
302.439	88.69
302.669	103.69
302.9	90.69
303.13	81.69
303.36	95.69
303.59	116.69
303.82	95.69
304.051	83.69
304.281	86.69
304.511	97.69
304.741	77.69
304.971	78.69
305.201	93.69
305.431	99.69
305.661	98.69
305.891	90.69
306.121	91.69
306.352	79.69
306.582	99.69
306.812	102.69
307.042	93.69
307.272	92.69
307.502	108.69
307.731	107.69
307.961	99.69
308.191	102.69
308.421	105.69
308.651	82.69
308.881	85.69
309.111	95.69
309.341	99.69
309.571	92.69
309.8	92.69
310.03	97.69
310.26	87.69
310.49	101.69
310.72	99.69
310.949	91.69
311.179	102.69
311.409	70.69
311.639	86.69
311.868	103.69
312.098	94.69
312.328	85.69
312.557	83.69
312.787	85.69
313.017	93.69
313.246	80.69
313.476	95.69
313.706	92.69
313.935	89.69
314.165	100.69
314.394	87.69
314.624	87.69
314.853	98.69
315.083	97.69
315.312	70.69
315.542	96.69
315.771	99.69
316.001	89.69
316.23	91.69
316.46	104.69
316.689	86.69
316.919	83.69
317.148	95.69
317.377	95.69
317.607	80.69
317.836	99.69
318.065	81.69
318.295	77.69
318.524	88.69
318.753	95.69
318.983	91.69
319.212	97.69
319.441	100.69
319.67	99.69
319.9	99.69
320.129	95.69
320.358	104.69
320.587	99.69
320.816	98.69
321.046	98.69
321.275	100.69
321.504	106.69
321.733	102.69
321.962	104.69
322.191	94.69
322.42	87.69
322.649	95.69
322.878	110.69
323.108	109.69
323.337	119.69
323.566	128.69
323.795	132.69
324.024	182.69
324.253	333.69
324.482	683.69
324.71	1409.69
324.939	1843.69
325.168	681.69
325.397	213.69
325.626	126.69
325.855	119.69
326.084	118.69
326.313	134.69
326.542	119.69
326.77	213.69
326.999	399.69
327.228	800.69
327.457	1505.69
327.686	1188.69
327.914	345.69
328.143	203.69
328.372	190.69
328.6	143.69
328.829	123.69
329.058	106.69
329.287	102.69
329.515	124.69
329.744	110.69
329.972	144.69
330.201	219.69
330.43	260.69
330.658	175.69
330.887	117.69
331.115	105.69
331.344	105.69
331.572	84.69
331.801	86.69
332.03	102.69
332.258	96.69
332.486	98.69
332.715	87.69
332.943	93.69
333.172	96.69
333.4	109.69
333.629	108.69
333.857	111.69
334.085	146.69
334.314	200.69
334.542	336.69
334.771	307.69
334.999	136.69
335.227	104.69
335.455	100.69
335.684	97.69
335.912	98.69
336.14	93.69
336.369	97.69
336.597	103.69
336.825	77.69
337.053	95.69
337.281	94.69
337.51	98.69
337.738	99.69
337.966	96.69
338.194	84.69
338.422	93.69
338.65	95.69
338.878	97.69
339.106	102.69
339.334	107.69
339.562	102.69
339.79	94.69
340.018	96.69
340.246	80.69
340.474	95.69
340.702	91.69
340.93	87.69
341.158	71.69
341.386	88.69
341.614	97.69
341.842	72.69
342.07	83.69
342.298	91.69
342.526	91.69
342.754	90.69
342.981	83.69
343.209	84.69
343.437	87.69
343.665	93.69
343.893	85.69
344.12	101.69
344.348	96.69
344.576	81.69
344.804	98.69
345.031	100.69
345.259	91.69
345.487	95.69
345.714	86.69
345.942	92.69
346.17	100.69
346.397	111.69
346.625	104.69
346.853	83.69
347.08	95.69
347.308	84.69
347.535	99.69
347.763	96.69
347.99	93.69
348.218	82.69
348.445	119.69
348.673	112.69
348.9	101.69
349.128	93.69
349.355	96.69
349.583	93.69
349.81	91.69
350.037	95.69
350.265	94.69
350.492	91.69
350.72	97.69
350.947	103.69
351.174	99.69
351.402	98.69
351.629	87.69
351.856	107.69
352.083	120.69
352.311	103.69
352.538	97.69
352.765	96.69
352.992	96.69
353.22	105.69
353.447	110.69
353.674	101.69
353.901	101.69
354.128	95.69
354.355	84.69
354.583	98.69
354.81	104.69
355.037	98.69
355.264	102.69
355.491	87.69
355.718	87.69
355.945	84.69
356.172	96.69
356.399	93.69
356.626	99.69
356.853	86.69
357.08	91.69
357.307	92.69
357.534	75.69
357.761	87.69
357.988	89.69
358.215	92.69
358.441	94.69
358.668	88.69
358.895	81.69
359.122	84.69
359.349	67.69
359.576	94.69
359.802	99.69
360.029	101.69
360.256	111.69
360.483	91.69
360.709	89.69
360.936	108.69
361.163	96.69
361.39	97.69
361.616	112.69
361.843	83.69
362.07	79.69
362.296	89.69
362.523	100.69
362.749	89.69
362.976	101.69
363.203	87.69
363.429	88.69
363.656	80.69
363.882	90.69
364.109	85.69
364.335	90.69
364.562	95.69
364.788	91.69
365.015	83.69
365.241	92.69
365.468	103.69
365.694	110.69
365.92	83.69
366.147	81.69
366.373	81.69
366.599	94.69
366.826	74.69
367.052	86.69
367.278	88.69
367.505	92.69
367.731	84.69
367.957	86.69
368.184	89.69
368.41	93.69
368.636	103.69
368.862	116.69
369.089	98.69
369.315	97.69
369.541	84.69
369.767	88.69
369.993	94.69
370.219	91.69
370.445	101.69
370.672	93.69
370.898	75.69
371.124	91.69
371.35	93.69
371.576	88.69
371.802	99.69
372.028	75.69
372.254	75.69
372.48	82.69
372.706	86.69
372.932	92.69
373.158	107.69
373.384	84.69
373.61	88.69
373.835	82.69
374.061	92.69
374.287	92.69
374.513	91.69
374.739	87.69
374.965	85.69
375.191	92.69
375.416	101.69
375.642	95.69
375.868	89.69
376.094	84.69
376.319	82.69
376.545	85.69
376.771	88.69
376.997	93.69
377.222	100.69
377.448	85.69
377.674	86.69
377.899	87.69
378.125	88.69
378.35	75.69
378.576	88.69
378.802	83.69
379.027	91.69
379.253	89.69
379.478	91.69
379.704	91.69
379.929	89.69
380.155	89.69
380.38	65.69
380.606	95.69
380.831	80.69
381.057	96.69
381.282	87.69
381.507	88.69
381.733	92.69
381.958	86.69
382.184	94.69
382.409	104.69
382.634	95.69
382.86	95.69
383.085	92.69
383.31	93.69
383.535	99.69
383.761	87.69
383.986	88.69
384.211	87.69
384.436	99.69
384.662	93.69
384.887	95.69
385.112	75.69
385.337	102.69
385.562	104.69
385.787	95.69
386.013	117.69
386.238	99.69
386.463	86.69
386.688	125.69
386.913	107.69
387.138	93.69
387.363	108.69
387.588	108.69
387.813	93.69
388.038	103.69
388.263	104.69
388.488	101.69
388.713	98.69
388.938	89.69
389.163	95.69
389.387	96.69
389.612	76.69
389.837	96.69
390.062	90.69
390.287	94.69
390.512	83.69
390.736	82.69
390.961	108.69
391.186	102.69
391.411	91.69
391.636	88.69
391.86	81.69
392.085	82.69
392.31	83.69
392.534	80.69
392.759	92.69
392.984	89.69
393.208	86.69
393.433	101.69
393.658	92.69
393.882	83.69
394.107	85.69
394.331	102.69
394.556	87.69
394.78	73.69
395.005	75.69
395.229	100.69
395.454	87.69
395.678	89.69
395.903	83.69
396.127	91.69
396.352	86.69
396.576	85.69
396.801	84.69
397.025	89.69
397.249	90.69
397.474	77.69
397.698	94.69
397.922	91.69
398.147	62.69
398.371	86.69
398.595	79.69
398.82	87.69
399.044	88.69
399.268	95.69
399.492	73.69
399.717	84.69
399.941	79.69
400.165	94.69
400.389	89.69
400.613	90.69
400.837	76.69
401.062	93.69
401.286	93.69
401.51	92.69
401.734	64.69
401.958	89.69
402.182	94.69
402.406	136.69
402.63	100.69
402.854	100.69
403.078	99.69
403.302	99.69
403.526	76.69
403.75	81.69
403.974	85.69
404.198	83.69
404.422	88.69
404.645	93.69
404.869	101.69
405.093	87.69
405.317	105.69
405.541	99.69
405.765	87.69
405.988	110.69
406.212	148.69
406.436	193.69
406.66	119.69
406.883	99.69
407.107	98.69
407.331	86.69
407.555	72.69
407.778	73.69
408.002	88.69
408.226	104.69
408.449	92.69
408.673	105.69
408.896	96.69
409.12	102.69
409.344	86.69
409.567	82.69
409.791	91.69
410.014	91.69
410.238	86.69
410.461	85.69
410.685	111.69
410.908	94.69
411.132	85.69
411.355	102.69
411.578	99.69
411.802	77.69
412.025	103.69
412.249	86.69
412.472	100.69
412.695	94.69
412.919	92.69
413.142	73.69
413.365	88.69
413.589	93.69
413.812	88.69
414.035	95.69
414.258	87.69
414.482	84.69
414.705	97.69
414.928	85.69
415.151	96.69
415.374	87.69
415.597	73.69
415.821	71.69
416.044	83.69
416.267	70.69
416.49	97.69
416.713	83.69
416.936	88.69
417.159	90.69
417.382	85.69
417.605	89.69
417.828	99.69
418.051	84.69
418.274	96.69
418.497	81.69
418.72	87.69
418.943	88.69
419.166	86.69
419.389	79.69
419.611	87.69
419.834	82.69
420.057	96.69
420.28	89.69
420.503	85.69
420.726	88.69
420.948	88.69
421.171	87.69
421.394	95.69
421.617	99.69
421.839	90.69
422.062	86.69
422.285	100.69
422.507	89.69
422.73	89.69
422.953	107.69
423.175	95.69
423.398	86.69
423.621	80.69
423.843	82.69
424.066	97.69
424.288	71.69
424.511	81.69
424.733	95.69
424.956	110.69
425.178	102.69
425.401	102.69
425.623	93.69
425.846	94.69
426.068	96.69
426.291	94.69
426.513	88.69
426.735	93.69
426.958	94.69
427.18	94.69
427.402	111.69
427.625	150.69
427.847	125.69
428.069	117.69
428.292	105.69
428.514	110.69
428.736	89.69
428.958	100.69
429.181	86.69
429.403	91.69
429.625	81.69
429.847	75.69
430.069	104.69
430.292	95.69
430.514	85.69
430.736	88.69
430.958	100.69
431.18	87.69
431.402	97.69
431.624	83.69
431.846	84.69
432.068	100.69
432.29	94.69
432.512	85.69
432.734	80.69
432.956	86.69
433.178	99.69
433.4	91.69
433.622	92.69
433.844	86.69
434.066	77.69
434.287	98.69
434.509	81.69
434.731	81.69
434.953	81.69
435.175	97.69
435.397	94.69
435.618	93.69
435.84	108.69
436.062	104.69
436.284	93.69
436.505	91.69
436.727	106.69
436.949	94.69
437.17	80.69
437.392	75.69
437.614	92.69
437.835	91.69
438.057	103.69
438.278	114.69
438.5	108.69
438.721	108.69
438.943	99.69
439.165	95.69
439.386	84.69
439.608	98.69
439.829	91.69
440.05	86.69
440.272	128.69
440.493	97.69
440.715	94.69
440.936	96.69
441.158	88.69
441.379	85.69
441.6	85.69
441.822	94.69
442.043	94.69
442.264	101.69
442.486	103.69
442.707	88.69
442.928	105.69
443.149	116.69
443.371	129.69
443.592	97.69
443.813	91.69
444.034	94.69
444.255	80.69
444.476	84.69
444.698	79.69
444.919	79.69
445.14	128.69
445.361	114.69
445.582	105.69
445.803	129.69
446.024	116.69
446.245	117.69
446.466	106.69
446.687	95.69
446.908	98.69
447.129	86.69
447.35	94.69
447.571	93.69
447.792	87.69
448.013	102.69
448.234	105.69
448.455	112.69
448.675	102.69
448.896	115.69
449.117	95.69
449.338	97.69
449.559	109.69
449.779	105.69
450	101.69
450.221	99.69
450.442	64.69
450.662	93.69
450.883	87.69
451.104	99.69
451.324	88.69
451.545	84.69
451.766	94.69
451.986	87.69
452.207	96.69
452.428	94.69
452.648	96.69
452.869	99.69
453.089	115.69
453.31	109.69
453.53	96.69
453.751	75.69
453.971	99.69
454.192	102.69
454.412	97.69
454.633	83.69
454.853	91.69
455.073	83.69
455.294	80.69
455.514	88.69
455.734	95.69
455.955	82.69
456.175	79.69
456.395	91.69
456.616	79.69
456.836	85.69
457.056	87.69
457.276	91.69
457.497	88.69
457.717	84.69
457.937	104.69
458.157	82.69
458.377	86.69
458.598	91.69
458.818	122.69
459.038	140.69
459.258	111.69
459.478	88.69
459.698	85.69
459.918	88.69
460.138	83.69
460.358	85.69
460.578	80.69
460.798	92.69
461.018	86.69
461.238	76.69
461.458	87.69
461.678	84.69
461.898	93.69
462.118	75.69
462.338	77.69
462.558	73.69
462.777	85.69
462.997	70.69
463.217	89.69
463.437	87.69
463.657	72.69
463.876	70.69
464.096	80.69
464.316	90.69
464.536	91.69
464.755	103.69
464.975	104.69
465.195	133.69
465.414	128.69
465.634	84.69
465.854	89.69
466.073	85.69
466.293	78.69
466.512	76.69
466.732	78.69
466.951	95.69
467.171	84.69
467.391	77.69
467.61	100.69
467.829	99.69
468.049	148.69
468.268	183.69
468.488	105.69
468.707	99.69
468.927	87.69
469.146	77.69
469.365	78.69
469.585	89.69
469.804	101.69
470.023	96.69
470.243	99.69
470.462	99.69
470.681	84.69
470.901	79.69
471.12	83.69
471.339	88.69
471.558	95.69
471.777	104.69
471.997	119.69
472.216	243.69
472.435	395.69
472.654	153.69
472.873	79.69
473.092	95.69
473.311	88.69
473.53	80.69
473.749	89.69
473.968	99.69
474.187	93.69
474.406	86.69
474.625	90.69
474.844	90.69
475.063	85.69
475.282	92.69
475.501	89.69
475.72	105.69
475.939	79.69
476.158	96.69
476.377	87.69
476.596	79.69
476.814	91.69
477.033	104.69
477.252	80.69
477.471	89.69
477.69	69.69
477.908	91.69
478.127	99.69
478.346	80.69
478.564	85.69
478.783	97.69
479.002	88.69
479.22	103.69
479.439	92.69
479.658	91.69
479.876	84.69
480.095	87.69
480.313	81.69
480.532	105.69
480.751	106.69
480.969	241.69
481.188	728.69
481.406	428.69
481.624	121.69
481.843	109.69
482.061	84.69
482.28	80.69
482.498	89.69
482.717	89.69
482.935	78.69
483.153	79.69
483.372	99.69
483.59	104.69
483.808	95.69
484.027	88.69
484.245	93.69
484.463	91.69
484.681	91.69
484.9	101.69
485.118	94.69
485.336	88.69
485.554	96.69
485.772	92.69
485.99	104.69
486.209	99.69
486.427	98.69
486.645	108.69
486.863	96.69
487.081	87.69
487.299	88.69
487.517	94.69
487.735	100.69
487.953	90.69
488.171	92.69
488.389	100.69
488.607	97.69
488.825	89.69
489.043	90.69
489.261	95.69
489.479	94.69
489.696	85.69
489.914	85.69
490.132	75.69
490.35	88.69
490.568	91.69
490.786	88.69
491.003	87.69
491.221	97.69
491.439	97.69
491.657	93.69
491.874	80.69
492.092	78.69
492.31	103.69
492.527	82.69
492.745	103.69
492.963	106.69
493.18	94.69
493.398	98.69
493.615	100.69
493.833	90.69
494.05	86.69
494.268	96.69
494.485	88.69
494.703	79.69
494.92	69.69
495.138	90.69
495.355	102.69
495.573	85.69
495.79	77.69
496.008	105.69
496.225	84.69
496.442	99.69
496.66	85.69
496.877	89.69
497.094	91.69
497.312	82.69
497.529	90.69
497.746	78.69
497.963	87.69
498.181	96.69
498.398	89.69
498.615	103.69
498.832	99.69
499.049	94.69
499.267	91.69
499.484	88.69
499.701	93.69
499.918	90.69
500.135	96.69
500.352	89.69
500.569	89.69
500.786	85.69
501.003	80.69
501.22	102.69
501.437	73.69
501.654	98.69
501.871	120.69
502.088	81.69
502.305	84.69
502.522	88.69
502.739	78.69
502.956	85.69
503.172	93.69
503.389	100.69
503.606	108.69
503.823	91.69
504.04	92.69
504.256	92.69
504.473	86.69
504.69	92.69
504.907	87.69
505.123	75.69
505.34	72.69
505.557	85.69
505.773	83.69
505.99	95.69
506.207	95.69
506.423	93.69
506.64	84.69
506.856	93.69
507.073	86.69
507.289	89.69
507.506	89.69
507.722	109.69
507.939	98.69
508.155	101.69
508.372	89.69
508.588	80.69
508.805	87.69
509.021	97.69
509.238	90.69
509.454	99.69
509.67	93.69
509.887	109.69
510.103	118.69
510.319	194.69
510.536	614.69
510.752	1807.69
510.968	504.69
511.184	135.69
511.401	100.69
511.617	100.69
511.833	87.69
512.049	88.69
512.265	98.69
512.481	91.69
512.698	94.69
512.914	95.69
513.13	88.69
513.346	87.69
513.562	87.69
513.778	84.69
513.994	78.69
514.21	86.69
514.426	113.69
514.642	117.69
514.858	112.69
515.074	139.69
515.29	390.69
515.506	1141.69
515.721	421.69
515.937	135.69
516.153	110.69
516.369	104.69
