Data from Uncirc_1989_H10_HRD10591_00092.txt Node
Date: Wed Jan 03 11:57:54 EST 2024
User: Yrep
Spectrometer: HR+D1059
Trigger mode: 1
Integration Time (sec): 1.000000E-1
Scans to average: 1
Electric dark correction enabled: true
Nonlinearity correction enabled: false
Boxcar width: 0
XAxis mode: Wavelengths
Number of Pixels in Spectrum: 2048
>>>>>Begin Spectral Data<<<<<
223.165	-19.62
223.4	-19.62
223.635	-19.62
223.869	-19.62
224.104	-24.62
224.338	-6.62
224.573	-21.62
224.808	-12.62
225.042	-11.62
225.277	2.38
225.511	5.38
225.746	10.38
225.98	6.38
226.215	16.38
226.449	17.38
226.683	23.38
226.918	2.38
227.152	32.38
227.387	42.38
227.621	37.38
227.856	54.38
228.09	40.38
228.324	48.38
228.559	62.38
228.793	65.38
229.027	86.38
229.262	51.38
229.496	70.38
229.73	81.38
229.964	84.38
230.199	80.38
230.433	77.38
230.667	76.38
230.901	78.38
231.136	77.38
231.37	84.38
231.604	84.38
231.838	80.38
232.072	77.38
232.306	70.38
232.541	73.38
232.775	80.38
233.009	70.38
233.243	68.38
233.477	88.38
233.711	71.38
233.945	84.38
234.179	85.38
234.413	90.38
234.647	89.38
234.881	84.38
235.115	79.38
235.349	73.38
235.583	69.38
235.817	80.38
236.051	71.38
236.285	88.38
236.519	93.38
236.753	71.38
236.987	79.38
237.221	78.38
237.455	86.38
237.689	64.38
237.922	70.38
238.156	79.38
238.39	80.38
238.624	64.38
238.858	78.38
239.091	82.38
239.325	62.38
239.559	80.38
239.793	78.38
240.027	71.38
240.26	90.38
240.494	85.38
240.728	62.38
240.961	65.38
241.195	75.38
241.429	62.38
241.662	92.38
241.896	70.38
242.13	72.38
242.363	69.38
242.597	74.38
242.83	86.38
243.064	78.38
243.298	86.38
243.531	60.38
243.765	85.38
243.998	76.38
244.232	88.38
244.465	93.38
244.699	84.38
244.932	71.38
245.166	74.38
245.399	74.38
245.633	62.38
245.866	69.38
246.099	81.38
246.333	86.38
246.566	83.38
246.8	86.38
247.033	83.38
247.266	79.38
247.5	90.38
247.733	53.38
247.966	76.38
248.2	84.38
248.433	76.38
248.666	77.38
248.899	78.38
249.133	90.38
249.366	80.38
249.599	97.38
249.832	66.38
250.066	78.38
250.299	59.38
250.532	71.38
250.765	68.38
250.998	78.38
251.231	94.38
251.465	81.38
251.698	82.38
251.931	82.38
252.164	95.38
252.397	70.38
252.63	72.38
252.863	80.38
253.096	74.38
253.329	59.38
253.562	85.38
253.795	68.38
254.028	78.38
254.261	76.38
254.494	95.38
254.727	77.38
254.96	89.38
255.193	85.38
255.426	80.38
255.659	84.38
255.892	86.38
256.124	88.38
256.357	79.38
256.59	95.38
256.823	72.38
257.056	92.38
257.289	80.38
257.521	83.38
257.754	66.38
257.987	72.38
258.22	83.38
258.452	76.38
258.685	80.38
258.918	86.38
259.151	85.38
259.383	97.38
259.616	87.38
259.849	79.38
260.081	89.38
260.314	82.38
260.547	73.38
260.779	90.38
261.012	81.38
261.244	72.38
261.477	85.38
261.71	84.38
261.942	99.38
262.175	104.38
262.407	78.38
262.64	84.38
262.872	87.38
263.105	72.38
263.337	79.38
263.57	90.38
263.802	90.38
264.035	95.38
264.267	92.38
264.499	96.38
264.732	84.38
264.964	83.38
265.197	74.38
265.429	75.38
265.661	97.38
265.894	81.38
266.126	69.38
266.358	84.38
266.591	96.38
266.823	72.38
267.055	87.38
267.287	84.38
267.52	90.38
267.752	69.38
267.984	83.38
268.216	81.38
268.448	92.38
268.681	85.38
268.913	81.38
269.145	87.38
269.377	87.38
269.609	82.38
269.841	95.38
270.073	92.38
270.306	87.38
270.538	86.38
270.77	83.38
271.002	84.38
271.234	103.38
271.466	94.38
271.698	84.38
271.93	78.38
272.162	85.38
272.394	76.38
272.626	84.38
272.858	93.38
273.09	85.38
273.322	82.38
273.553	77.38
273.785	80.38
274.017	85.38
274.249	89.38
274.481	92.38
274.713	83.38
274.945	87.38
275.176	81.38
275.408	87.38
275.64	84.38
275.872	94.38
276.104	82.38
276.335	87.38
276.567	88.38
276.799	106.38
277.031	106.38
277.262	99.38
277.494	89.38
277.726	90.38
277.957	87.38
278.189	78.38
278.421	98.38
278.652	95.38
278.884	85.38
279.115	78.38
279.347	93.38
279.579	99.38
279.81	96.38
280.042	87.38
280.273	100.38
280.505	92.38
280.736	77.38
280.968	83.38
281.199	77.38
281.431	95.38
281.662	95.38
281.894	95.38
282.125	88.38
282.356	104.38
282.588	115.38
282.819	106.38
283.051	95.38
283.282	92.38
283.513	96.38
283.745	89.38
283.976	97.38
284.207	87.38
284.439	88.38
284.67	93.38
284.901	89.38
285.132	85.38
285.364	84.38
285.595	104.38
285.826	88.38
286.057	97.38
286.288	97.38
286.52	100.38
286.751	96.38
286.982	94.38
287.213	80.38
287.444	82.38
287.675	83.38
287.906	100.38
288.138	88.38
288.369	94.38
288.6	85.38
288.831	79.38
289.062	78.38
289.293	90.38
289.524	94.38
289.755	88.38
289.986	92.38
290.217	78.38
290.448	90.38
290.679	90.38
290.91	93.38
291.141	87.38
291.371	88.38
291.602	92.38
291.833	86.38
292.064	89.38
292.295	90.38
292.526	80.38
292.757	83.38
292.987	87.38
293.218	86.38
293.449	87.38
293.68	86.38
293.91	94.38
294.141	100.38
294.372	71.38
294.603	80.38
294.833	85.38
295.064	92.38
295.295	96.38
295.525	89.38
295.756	86.38
295.987	110.38
296.217	128.38
296.448	109.38
296.679	88.38
296.909	87.38
297.14	82.38
297.37	93.38
297.601	78.38
297.831	88.38
298.062	82.38
298.292	96.38
298.523	101.38
298.753	76.38
298.984	89.38
299.214	93.38
299.445	90.38
299.675	96.38
299.905	95.38
300.136	91.38
300.366	81.38
300.597	89.38
300.827	95.38
301.057	96.38
301.288	96.38
301.518	111.38
301.748	89.38
301.979	94.38
302.209	82.38
302.439	83.38
302.669	88.38
302.9	96.38
303.13	83.38
303.36	103.38
303.59	102.38
303.82	111.38
304.051	95.38
304.281	100.38
304.511	99.38
304.741	89.38
304.971	83.38
305.201	91.38
305.431	86.38
305.661	77.38
305.891	88.38
306.121	93.38
306.352	104.38
306.582	94.38
306.812	84.38
307.042	94.38
307.272	92.38
307.502	103.38
307.731	104.38
307.961	109.38
308.191	91.38
308.421	101.38
308.651	97.38
308.881	100.38
309.111	86.38
309.341	85.38
309.571	85.38
309.8	84.38
310.03	98.38
310.26	107.38
310.49	87.38
310.72	93.38
310.949	99.38
311.179	88.38
311.409	78.38
311.639	83.38
311.868	88.38
312.098	106.38
312.328	96.38
312.557	96.38
312.787	103.38
313.017	92.38
313.246	92.38
313.476	100.38
313.706	86.38
313.935	93.38
314.165	102.38
314.394	103.38
314.624	106.38
314.853	109.38
315.083	96.38
315.312	82.38
315.542	105.38
315.771	101.38
316.001	89.38
316.23	88.38
316.46	94.38
316.689	74.38
316.919	100.38
317.148	94.38
317.377	97.38
317.607	95.38
317.836	95.38
318.065	98.38
318.295	86.38
318.524	85.38
318.753	83.38
318.983	78.38
319.212	95.38
319.441	108.38
319.67	96.38
319.9	87.38
320.129	94.38
320.358	96.38
320.587	98.38
320.816	88.38
321.046	108.38
321.275	88.38
321.504	92.38
321.733	97.38
321.962	98.38
322.191	95.38
322.42	115.38
322.649	101.38
322.878	96.38
323.108	104.38
323.337	105.38
323.566	115.38
323.795	147.38
324.024	183.38
324.253	348.38
324.482	685.38
324.71	1391.38
324.939	1835.38
325.168	666.38
325.397	210.38
325.626	156.38
325.855	130.38
326.084	116.38
326.313	122.38
326.542	147.38
326.77	198.38
326.999	386.38
327.228	790.38
327.457	1445.38
327.686	1176.38
327.914	320.38
328.143	195.38
328.372	194.38
328.6	132.38
328.829	109.38
329.058	110.38
329.287	130.38
329.515	110.38
329.744	114.38
329.972	126.38
330.201	208.38
330.43	264.38
330.658	144.38
330.887	137.38
331.115	110.38
331.344	94.38
331.572	99.38
331.801	88.38
332.03	98.38
332.258	97.38
332.486	95.38
332.715	82.38
332.943	102.38
333.172	94.38
333.4	85.38
333.629	104.38
333.857	126.38
334.085	155.38
334.314	199.38
334.542	305.38
334.771	302.38
334.999	147.38
335.227	102.38
335.455	103.38
335.684	95.38
335.912	104.38
336.14	110.38
336.369	91.38
336.597	82.38
336.825	84.38
337.053	88.38
337.281	112.38
337.51	103.38
337.738	109.38
337.966	82.38
338.194	96.38
338.422	110.38
338.65	92.38
338.878	80.38
339.106	85.38
339.334	91.38
339.562	87.38
339.79	88.38
340.018	85.38
340.246	93.38
340.474	82.38
340.702	90.38
340.93	80.38
341.158	74.38
341.386	97.38
341.614	92.38
341.842	103.38
342.07	92.38
342.298	98.38
342.526	78.38
342.754	95.38
342.981	83.38
343.209	97.38
343.437	98.38
343.665	92.38
343.893	95.38
344.12	112.38
344.348	93.38
344.576	98.38
344.804	99.38
345.031	99.38
345.259	97.38
345.487	115.38
345.714	88.38
345.942	76.38
346.17	104.38
346.397	96.38
346.625	94.38
346.853	93.38
347.08	81.38
347.308	99.38
347.535	99.38
347.763	83.38
347.99	84.38
348.218	105.38
348.445	97.38
348.673	109.38
348.9	89.38
349.128	104.38
349.355	116.38
349.583	92.38
349.81	99.38
350.037	98.38
350.265	103.38
350.492	94.38
350.72	80.38
350.947	100.38
351.174	106.38
351.402	102.38
351.629	110.38
351.856	91.38
352.083	81.38
352.311	97.38
352.538	101.38
352.765	104.38
352.992	102.38
353.22	111.38
353.447	112.38
353.674	100.38
353.901	101.38
354.128	90.38
354.355	93.38
354.583	101.38
354.81	97.38
355.037	89.38
355.264	96.38
355.491	102.38
355.718	83.38
355.945	95.38
356.172	95.38
356.399	97.38
356.626	94.38
356.853	87.38
357.08	87.38
357.307	97.38
357.534	88.38
357.761	80.38
357.988	95.38
358.215	93.38
358.441	85.38
358.668	94.38
358.895	83.38
359.122	88.38
359.349	102.38
359.576	89.38
359.802	92.38
360.029	112.38
360.256	96.38
360.483	96.38
360.709	96.38
360.936	98.38
361.163	89.38
361.39	82.38
361.616	84.38
361.843	86.38
362.07	112.38
362.296	86.38
362.523	84.38
362.749	95.38
362.976	89.38
363.203	102.38
363.429	91.38
363.656	97.38
363.882	86.38
364.109	102.38
364.335	98.38
364.562	85.38
364.788	88.38
365.015	109.38
365.241	101.38
365.468	109.38
365.694	103.38
365.92	93.38
366.147	101.38
366.373	86.38
366.599	89.38
366.826	101.38
367.052	85.38
367.278	86.38
367.505	88.38
367.731	90.38
367.957	77.38
368.184	95.38
368.41	89.38
368.636	93.38
368.862	102.38
369.089	102.38
369.315	78.38
369.541	96.38
369.767	77.38
369.993	92.38
370.219	96.38
370.445	81.38
370.672	82.38
370.898	97.38
371.124	87.38
371.35	95.38
371.576	71.38
371.802	84.38
372.028	88.38
372.254	73.38
372.48	90.38
372.706	84.38
372.932	97.38
373.158	90.38
373.384	95.38
373.61	80.38
373.835	95.38
374.061	97.38
374.287	88.38
374.513	78.38
374.739	88.38
374.965	78.38
375.191	96.38
375.416	90.38
375.642	95.38
375.868	89.38
376.094	90.38
376.319	82.38
376.545	93.38
376.771	83.38
376.997	88.38
377.222	88.38
377.448	92.38
377.674	86.38
377.899	79.38
378.125	91.38
378.35	88.38
378.576	86.38
378.802	79.38
379.027	88.38
379.253	84.38
379.478	97.38
379.704	100.38
379.929	92.38
380.155	89.38
380.38	106.38
380.606	92.38
380.831	94.38
381.057	96.38
381.282	85.38
381.507	84.38
381.733	110.38
381.958	88.38
382.184	102.38
382.409	94.38
382.634	99.38
382.86	97.38
383.085	97.38
383.31	101.38
383.535	121.38
383.761	100.38
383.986	98.38
384.211	105.38
384.436	96.38
384.662	106.38
384.887	98.38
385.112	99.38
385.337	109.38
385.562	85.38
385.787	91.38
386.013	101.38
386.238	118.38
386.463	105.38
386.688	106.38
386.913	72.38
387.138	92.38
387.363	92.38
387.588	104.38
387.813	114.38
388.038	92.38
388.263	102.38
388.488	90.38
388.713	95.38
388.938	103.38
389.163	113.38
389.387	96.38
389.612	92.38
389.837	93.38
390.062	97.38
390.287	73.38
390.512	96.38
390.736	87.38
390.961	97.38
391.186	98.38
391.411	102.38
391.636	92.38
391.86	78.38
392.085	101.38
392.31	90.38
392.534	84.38
392.759	81.38
392.984	78.38
393.208	82.38
393.433	85.38
393.658	102.38
393.882	81.38
394.107	91.38
394.331	76.38
394.556	86.38
394.78	84.38
395.005	94.38
395.229	77.38
395.454	73.38
395.678	89.38
395.903	90.38
396.127	80.38
396.352	93.38
396.576	87.38
396.801	89.38
397.025	89.38
397.249	89.38
397.474	93.38
397.698	96.38
397.922	77.38
398.147	88.38
398.371	76.38
398.595	92.38
398.82	95.38
399.044	98.38
399.268	89.38
399.492	81.38
399.717	83.38
399.941	79.38
400.165	90.38
400.389	90.38
400.613	77.38
400.837	77.38
401.062	85.38
401.286	90.38
401.51	94.38
401.734	84.38
401.958	98.38
402.182	122.38
402.406	143.38
402.63	94.38
402.854	99.38
403.078	101.38
403.302	88.38
403.526	84.38
403.75	98.38
403.974	87.38
404.198	78.38
404.422	95.38
404.645	91.38
404.869	88.38
405.093	96.38
405.317	90.38
405.541	97.38
405.765	94.38
405.988	101.38
406.212	116.38
406.436	177.38
406.66	129.38
406.883	99.38
407.107	101.38
407.331	95.38
407.555	85.38
407.778	99.38
408.002	98.38
408.226	72.38
408.449	78.38
408.673	101.38
408.896	90.38
409.12	88.38
409.344	88.38
409.567	96.38
409.791	97.38
410.014	88.38
410.238	88.38
410.461	93.38
410.685	93.38
410.908	97.38
411.132	95.38
411.355	95.38
411.578	80.38
411.802	98.38
412.025	84.38
412.249	92.38
412.472	78.38
412.695	114.38
412.919	90.38
413.142	99.38
413.365	95.38
413.589	98.38
413.812	89.38
414.035	97.38
414.258	81.38
414.482	90.38
414.705	82.38
414.928	96.38
415.151	88.38
415.374	96.38
415.597	88.38
415.821	98.38
416.044	90.38
416.267	81.38
416.49	89.38
416.713	92.38
416.936	98.38
417.159	103.38
417.382	84.38
417.605	83.38
417.828	89.38
418.051	77.38
418.274	87.38
418.497	88.38
418.72	79.38
418.943	94.38
419.166	94.38
419.389	80.38
419.611	101.38
419.834	82.38
420.057	95.38
420.28	86.38
420.503	83.38
420.726	77.38
420.948	85.38
421.171	88.38
421.394	88.38
421.617	86.38
421.839	85.38
422.062	87.38
422.285	86.38
422.507	102.38
422.73	105.38
422.953	108.38
423.175	90.38
423.398	84.38
423.621	88.38
423.843	80.38
424.066	80.38
424.288	93.38
424.511	102.38
424.733	93.38
424.956	96.38
425.178	91.38
425.401	87.38
425.623	89.38
425.846	72.38
426.068	78.38
426.291	84.38
426.513	95.38
426.735	95.38
426.958	103.38
427.18	109.38
427.402	118.38
427.625	138.38
427.847	109.38
428.069	151.38
428.292	90.38
428.514	97.38
428.736	93.38
428.958	82.38
429.181	90.38
429.403	85.38
429.625	85.38
429.847	99.38
430.069	88.38
430.292	97.38
430.514	94.38
430.736	76.38
430.958	85.38
431.18	84.38
431.402	81.38
431.624	93.38
431.846	76.38
432.068	89.38
432.29	80.38
432.512	79.38
432.734	96.38
432.956	94.38
433.178	90.38
433.4	102.38
433.622	96.38
433.844	80.38
434.066	102.38
434.287	84.38
434.509	86.38
434.731	87.38
434.953	89.38
435.175	81.38
435.397	86.38
435.618	84.38
435.84	100.38
436.062	131.38
436.284	105.38
436.505	105.38
436.727	103.38
436.949	95.38
437.17	75.38
437.392	74.38
437.614	73.38
437.835	96.38
438.057	102.38
438.278	92.38
438.5	101.38
438.721	94.38
438.943	101.38
439.165	93.38
439.386	80.38
439.608	93.38
439.829	100.38
440.05	115.38
440.272	120.38
440.493	89.38
440.715	88.38
440.936	88.38
441.158	93.38
441.379	83.38
441.6	76.38
441.822	80.38
442.043	91.38
442.264	100.38
442.486	92.38
442.707	84.38
442.928	80.38
443.149	118.38
443.371	112.38
443.592	88.38
443.813	101.38
444.034	92.38
444.255	98.38
444.476	87.38
444.698	95.38
444.919	84.38
445.14	125.38
445.361	128.38
445.582	104.38
445.803	111.38
446.024	111.38
446.245	112.38
446.466	105.38
446.687	92.38
446.908	93.38
447.129	95.38
447.35	95.38
447.571	82.38
447.792	88.38
448.013	83.38
448.234	93.38
448.455	99.38
448.675	112.38
448.896	94.38
449.117	99.38
449.338	96.38
449.559	119.38
449.779	118.38
450	98.38
450.221	90.38
450.442	88.38
450.662	93.38
450.883	103.38
451.104	106.38
451.324	104.38
451.545	81.38
451.766	71.38
451.986	78.38
452.207	82.38
452.428	87.38
452.648	100.38
452.869	99.38
453.089	115.38
453.31	100.38
453.53	86.38
453.751	85.38
453.971	110.38
454.192	104.38
454.412	88.38
454.633	90.38
454.853	78.38
455.073	78.38
455.294	86.38
455.514	100.38
455.734	85.38
455.955	92.38
456.175	94.38
456.395	86.38
456.616	89.38
456.836	93.38
457.056	76.38
457.276	84.38
457.497	85.38
457.717	84.38
457.937	90.38
458.157	98.38
458.377	84.38
458.598	102.38
458.818	119.38
459.038	129.38
459.258	108.38
459.478	71.38
459.698	84.38
459.918	77.38
460.138	67.38
460.358	98.38
460.578	89.38
460.798	92.38
461.018	84.38
461.238	94.38
461.458	101.38
461.678	77.38
461.898	92.38
462.118	102.38
462.338	97.38
462.558	92.38
462.777	78.38
462.997	83.38
463.217	87.38
463.437	85.38
463.657	94.38
463.876	92.38
464.096	86.38
464.316	84.38
464.536	92.38
464.755	95.38
464.975	104.38
465.195	141.38
465.414	122.38
465.634	64.38
465.854	103.38
466.073	89.38
466.293	80.38
466.512	90.38
466.732	99.38
466.951	96.38
467.171	107.38
467.391	100.38
467.61	105.38
467.829	112.38
468.049	144.38
468.268	180.38
468.488	116.38
468.707	88.38
468.927	85.38
469.146	72.38
469.365	84.38
469.585	86.38
469.804	86.38
470.023	98.38
470.243	88.38
470.462	100.38
470.681	95.38
470.901	82.38
471.12	92.38
471.339	104.38
471.558	99.38
471.777	101.38
471.997	111.38
472.216	245.38
472.435	392.38
472.654	146.38
472.873	91.38
473.092	94.38
473.311	84.38
473.53	99.38
473.749	87.38
473.968	87.38
474.187	94.38
474.406	86.38
474.625	82.38
474.844	92.38
475.063	92.38
475.282	94.38
475.501	94.38
475.72	113.38
475.939	76.38
476.158	92.38
476.377	90.38
476.596	90.38
476.814	80.38
477.033	93.38
477.252	82.38
477.471	82.38
477.69	85.38
477.908	90.38
478.127	105.38
478.346	91.38
478.564	92.38
478.783	92.38
479.002	85.38
479.22	83.38
479.439	100.38
479.658	98.38
479.876	102.38
480.095	89.38
480.313	97.38
480.532	102.38
480.751	128.38
480.969	240.38
481.188	679.38
481.406	431.38
481.624	120.38
481.843	86.38
482.061	97.38
482.28	73.38
482.498	103.38
482.717	90.38
482.935	85.38
483.153	96.38
483.372	98.38
483.59	79.38
483.808	89.38
484.027	77.38
484.245	105.38
484.463	90.38
484.681	106.38
484.9	86.38
485.118	95.38
485.336	79.38
485.554	96.38
485.772	93.38
485.99	114.38
486.209	119.38
486.427	101.38
486.645	103.38
486.863	87.38
487.081	99.38
487.299	106.38
487.517	86.38
487.735	94.38
487.953	95.38
488.171	89.38
488.389	94.38
488.607	105.38
488.825	91.38
489.043	89.38
489.261	88.38
489.479	71.38
489.696	85.38
489.914	92.38
490.132	84.38
490.35	94.38
490.568	86.38
490.786	98.38
491.003	90.38
491.221	108.38
491.439	106.38
491.657	103.38
491.874	87.38
492.092	94.38
492.31	102.38
492.527	85.38
492.745	98.38
492.963	95.38
493.18	87.38
493.398	102.38
493.615	84.38
493.833	104.38
494.05	82.38
494.268	82.38
494.485	95.38
494.703	85.38
494.92	99.38
495.138	84.38
495.355	102.38
495.573	99.38
495.79	94.38
496.008	96.38
496.225	100.38
496.442	91.38
496.66	92.38
496.877	109.38
497.094	78.38
497.312	65.38
497.529	90.38
497.746	85.38
497.963	96.38
498.181	98.38
498.398	87.38
498.615	114.38
498.832	109.38
499.049	90.38
499.267	84.38
499.484	96.38
499.701	83.38
499.918	94.38
500.135	89.38
500.352	86.38
500.569	97.38
500.786	92.38
501.003	83.38
501.22	78.38
501.437	103.38
501.654	103.38
501.871	92.38
502.088	88.38
502.305	93.38
502.522	96.38
502.739	82.38
502.956	91.38
503.172	87.38
503.389	105.38
503.606	88.38
503.823	101.38
504.04	86.38
504.256	101.38
504.473	97.38
504.69	84.38
504.907	89.38
505.123	93.38
505.34	82.38
505.557	86.38
505.773	90.38
505.99	92.38
506.207	104.38
506.423	97.38
506.64	77.38
506.856	80.38
507.073	90.38
507.289	83.38
507.506	93.38
507.722	103.38
507.939	91.38
508.155	82.38
508.372	86.38
508.588	98.38
508.805	96.38
509.021	90.38
509.238	103.38
509.454	93.38
509.67	98.38
509.887	102.38
510.103	123.38
510.319	177.38
510.536	573.38
510.752	1636.38
510.968	473.38
511.184	131.38
511.401	112.38
511.617	87.38
511.833	89.38
512.049	79.38
512.265	99.38
512.481	96.38
512.698	90.38
512.914	81.38
513.13	95.38
513.346	95.38
513.562	85.38
513.778	92.38
513.994	90.38
514.21	100.38
514.426	108.38
514.642	125.38
514.858	118.38
515.074	144.38
515.29	345.38
515.506	997.38
515.721	380.38
515.937	132.38
