Data from Uncirc_1989_H10_HRD10591_00008.txt Node
Date: Wed Jan 03 11:57:37 EST 2024
User: Yrep
Spectrometer: HR+D1059
Trigger mode: 1
Integration Time (sec): 1.000000E-1
Scans to average: 1
Electric dark correction enabled: true
Nonlinearity correction enabled: false
Boxcar width: 0
XAxis mode: Wavelengths
Number of Pixels in Spectrum: 2048
>>>>>Begin Spectral Data<<<<<
223.165	-8.31
223.4	-8.31
223.635	-8.31
223.869	-16.31
224.104	-18.31
224.338	-23.31
224.573	-14.31
224.808	-8.31
225.042	-6.31
225.277	-4.31
225.511	6.69
225.746	6.69
225.98	6.69
226.215	11.69
226.449	9.69
226.683	17.69
226.918	24.69
227.152	15.69
227.387	38.69
227.621	36.69
227.856	48.69
228.09	39.69
228.324	47.69
228.559	63.69
228.793	51.69
229.027	56.69
229.262	64.69
229.496	78.69
229.73	70.69
229.964	77.69
230.199	82.69
230.433	82.69
230.667	90.69
230.901	78.69
231.136	93.69
231.37	80.69
231.604	85.69
231.838	85.69
232.072	77.69
232.306	77.69
232.541	90.69
232.775	83.69
233.009	85.69
233.243	69.69
233.477	81.69
233.711	61.69
233.945	80.69
234.179	89.69
234.413	82.69
234.647	83.69
234.881	84.69
235.115	78.69
235.349	85.69
235.583	65.69
235.817	76.69
236.051	86.69
236.285	89.69
236.519	82.69
236.753	87.69
236.987	82.69
237.221	86.69
237.455	79.69
237.689	75.69
237.922	72.69
238.156	71.69
238.39	73.69
238.624	66.69
238.858	71.69
239.091	93.69
239.325	78.69
239.559	69.69
239.793	87.69
240.027	76.69
240.26	74.69
240.494	84.69
240.728	84.69
240.961	62.69
241.195	88.69
241.429	80.69
241.662	85.69
241.896	80.69
242.13	74.69
242.363	79.69
242.597	81.69
242.83	84.69
243.064	63.69
243.298	70.69
243.531	78.69
243.765	76.69
243.998	82.69
244.232	92.69
244.465	88.69
244.699	73.69
244.932	88.69
245.166	56.69
245.399	74.69
245.633	78.69
245.866	72.69
246.099	88.69
246.333	72.69
246.566	74.69
246.8	84.69
247.033	85.69
247.266	71.69
247.5	76.69
247.733	78.69
247.966	80.69
248.2	80.69
248.433	70.69
248.666	86.69
248.899	75.69
249.133	102.69
249.366	87.69
249.599	88.69
249.832	77.69
250.066	87.69
250.299	72.69
250.532	80.69
250.765	80.69
250.998	70.69
251.231	69.69
251.465	85.69
251.698	80.69
251.931	80.69
252.164	93.69
252.397	84.69
252.63	89.69
252.863	77.69
253.096	76.69
253.329	82.69
253.562	69.69
253.795	80.69
254.028	80.69
254.261	73.69
254.494	86.69
254.727	87.69
254.96	84.69
255.193	83.69
255.426	88.69
255.659	68.69
255.892	76.69
256.124	73.69
256.357	80.69
256.59	76.69
256.823	85.69
257.056	74.69
257.289	75.69
257.521	72.69
257.754	72.69
257.987	81.69
258.22	94.69
258.452	84.69
258.685	74.69
258.918	99.69
259.151	94.69
259.383	67.69
259.616	85.69
259.849	84.69
260.081	88.69
260.314	76.69
260.547	83.69
260.779	87.69
261.012	86.69
261.244	94.69
261.477	84.69
261.71	82.69
261.942	93.69
262.175	93.69
262.407	83.69
262.64	94.69
262.872	94.69
263.105	82.69
263.337	78.69
263.57	82.69
263.802	80.69
264.035	85.69
264.267	76.69
264.499	78.69
264.732	93.69
264.964	100.69
265.197	88.69
265.429	88.69
265.661	71.69
265.894	99.69
266.126	91.69
266.358	92.69
266.591	87.69
266.823	94.69
267.055	79.69
267.287	73.69
267.52	82.69
267.752	73.69
267.984	78.69
268.216	99.69
268.448	83.69
268.681	81.69
268.913	94.69
269.145	78.69
269.377	85.69
269.609	88.69
269.841	85.69
270.073	71.69
270.306	82.69
270.538	88.69
270.77	91.69
271.002	80.69
271.234	83.69
271.466	85.69
271.698	83.69
271.93	91.69
272.162	84.69
272.394	89.69
272.626	80.69
272.858	85.69
273.09	88.69
273.322	92.69
273.553	91.69
273.785	102.69
274.017	80.69
274.249	82.69
274.481	85.69
274.713	72.69
274.945	97.69
275.176	88.69
275.408	81.69
275.64	84.69
275.872	99.69
276.104	84.69
276.335	86.69
276.567	107.69
276.799	97.69
277.031	89.69
277.262	90.69
277.494	97.69
277.726	83.69
277.957	81.69
278.189	77.69
278.421	70.69
278.652	82.69
278.884	80.69
279.115	84.69
279.347	94.69
279.579	88.69
279.81	84.69
280.042	92.69
280.273	93.69
280.505	83.69
280.736	102.69
280.968	96.69
281.199	89.69
281.431	95.69
281.662	90.69
281.894	71.69
282.125	96.69
282.356	108.69
282.588	104.69
282.819	101.69
283.051	100.69
283.282	90.69
283.513	93.69
283.745	105.69
283.976	88.69
284.207	87.69
284.439	89.69
284.67	74.69
284.901	86.69
285.132	84.69
285.364	86.69
285.595	85.69
285.826	86.69
286.057	80.69
286.288	100.69
286.52	83.69
286.751	88.69
286.982	79.69
287.213	105.69
287.444	80.69
287.675	77.69
287.906	95.69
288.138	91.69
288.369	100.69
288.6	101.69
288.831	94.69
289.062	87.69
289.293	92.69
289.524	78.69
289.755	97.69
289.986	93.69
290.217	91.69
290.448	87.69
290.679	89.69
290.91	79.69
291.141	100.69
291.371	96.69
291.602	83.69
291.833	87.69
292.064	92.69
292.295	98.69
292.526	77.69
292.757	92.69
292.987	77.69
293.218	76.69
293.449	95.69
293.68	88.69
293.91	83.69
294.141	86.69
294.372	97.69
294.603	95.69
294.833	101.69
295.064	86.69
295.295	83.69
295.525	98.69
295.756	106.69
295.987	96.69
296.217	109.69
296.448	110.69
296.679	93.69
296.909	87.69
297.14	100.69
297.37	82.69
297.601	98.69
297.831	93.69
298.062	104.69
298.292	97.69
298.523	89.69
298.753	100.69
298.984	90.69
299.214	79.69
299.445	90.69
299.675	100.69
299.905	79.69
300.136	100.69
300.366	102.69
300.597	90.69
300.827	86.69
301.057	92.69
301.288	101.69
301.518	100.69
301.748	91.69
301.979	105.69
302.209	96.69
302.439	104.69
302.669	95.69
302.9	97.69
303.13	103.69
303.36	91.69
303.59	109.69
303.82	109.69
304.051	85.69
304.281	83.69
304.511	105.69
304.741	90.69
304.971	86.69
305.201	83.69
305.431	91.69
305.661	90.69
305.891	99.69
306.121	98.69
306.352	99.69
306.582	95.69
306.812	97.69
307.042	95.69
307.272	107.69
307.502	105.69
307.731	106.69
307.961	102.69
308.191	88.69
308.421	86.69
308.651	93.69
308.881	84.69
309.111	81.69
309.341	104.69
309.571	100.69
309.8	88.69
310.03	82.69
310.26	88.69
310.49	111.69
310.72	104.69
310.949	100.69
311.179	97.69
311.409	84.69
311.639	93.69
311.868	77.69
312.098	96.69
312.328	86.69
312.557	104.69
312.787	97.69
313.017	90.69
313.246	87.69
313.476	96.69
313.706	85.69
313.935	81.69
314.165	85.69
314.394	93.69
314.624	91.69
314.853	86.69
315.083	106.69
315.312	99.69
315.542	78.69
315.771	101.69
316.001	94.69
316.23	88.69
316.46	72.69
316.689	73.69
316.919	76.69
317.148	95.69
317.377	110.69
317.607	100.69
317.836	90.69
318.065	87.69
318.295	88.69
318.524	79.69
318.753	102.69
318.983	96.69
319.212	104.69
319.441	101.69
319.67	92.69
319.9	86.69
320.129	102.69
320.358	101.69
320.587	97.69
320.816	94.69
321.046	103.69
321.275	105.69
321.504	95.69
321.733	110.69
321.962	84.69
322.191	96.69
322.42	90.69
322.649	94.69
322.878	105.69
323.108	106.69
323.337	110.69
323.566	123.69
323.795	132.69
324.024	187.69
324.253	320.69
324.482	652.69
324.71	1299.69
324.939	1730.69
325.168	635.69
325.397	208.69
325.626	136.69
325.855	110.69
326.084	113.69
326.313	117.69
326.542	134.69
326.77	179.69
326.999	372.69
327.228	745.69
327.457	1353.69
327.686	1074.69
327.914	311.69
328.143	179.69
328.372	128.69
328.6	108.69
328.829	99.69
329.058	112.69
329.287	112.69
329.515	91.69
329.744	104.69
329.972	100.69
330.201	93.69
330.43	117.69
330.658	106.69
330.887	126.69
331.115	105.69
331.344	94.69
331.572	109.69
331.801	100.69
332.03	86.69
332.258	85.69
332.486	94.69
332.715	105.69
332.943	81.69
333.172	81.69
333.4	98.69
333.629	97.69
333.857	105.69
334.085	112.69
334.314	105.69
334.542	112.69
334.771	114.69
334.999	85.69
335.227	103.69
335.455	78.69
335.684	90.69
335.912	85.69
336.14	98.69
336.369	102.69
336.597	104.69
336.825	98.69
337.053	103.69
337.281	96.69
337.51	92.69
337.738	100.69
337.966	99.69
338.194	93.69
338.422	97.69
338.65	96.69
338.878	97.69
339.106	87.69
339.334	109.69
339.562	97.69
339.79	97.69
340.018	102.69
340.246	86.69
340.474	85.69
340.702	97.69
340.93	95.69
341.158	90.69
341.386	96.69
341.614	90.69
341.842	95.69
342.07	104.69
342.298	86.69
342.526	99.69
342.754	91.69
342.981	84.69
343.209	99.69
343.437	90.69
343.665	87.69
343.893	103.69
344.12	86.69
344.348	98.69
344.576	82.69
344.804	87.69
345.031	105.69
345.259	87.69
345.487	105.69
345.714	108.69
345.942	88.69
346.17	91.69
346.397	97.69
346.625	81.69
346.853	85.69
347.08	82.69
347.308	87.69
347.535	99.69
347.763	103.69
347.99	97.69
348.218	106.69
348.445	89.69
348.673	106.69
348.9	97.69
349.128	96.69
349.355	93.69
349.583	91.69
349.81	102.69
350.037	95.69
350.265	86.69
350.492	84.69
350.72	98.69
350.947	95.69
351.174	103.69
351.402	98.69
351.629	108.69
351.856	97.69
352.083	90.69
352.311	88.69
352.538	89.69
352.765	99.69
352.992	101.69
353.22	111.69
353.447	92.69
353.674	96.69
353.901	110.69
354.128	95.69
354.355	92.69
354.583	104.69
354.81	89.69
355.037	101.69
355.264	101.69
355.491	99.69
355.718	98.69
355.945	98.69
356.172	92.69
356.399	97.69
356.626	95.69
356.853	109.69
357.08	103.69
357.307	96.69
357.534	90.69
357.761	105.69
357.988	108.69
358.215	108.69
358.441	94.69
358.668	98.69
358.895	88.69
359.122	83.69
359.349	105.69
359.576	80.69
359.802	84.69
360.029	96.69
360.256	89.69
360.483	70.69
360.709	94.69
360.936	85.69
361.163	82.69
361.39	90.69
361.616	95.69
361.843	86.69
362.07	97.69
362.296	100.69
362.523	77.69
362.749	97.69
362.976	95.69
363.203	99.69
363.429	91.69
363.656	93.69
363.882	95.69
364.109	79.69
364.335	91.69
364.562	94.69
364.788	91.69
365.015	87.69
365.241	99.69
365.468	104.69
365.694	100.69
365.92	93.69
366.147	93.69
366.373	91.69
366.599	96.69
366.826	99.69
367.052	86.69
367.278	97.69
367.505	100.69
367.731	95.69
367.957	96.69
368.184	91.69
368.41	91.69
368.636	101.69
368.862	107.69
369.089	104.69
369.315	96.69
369.541	87.69
369.767	103.69
369.993	85.69
370.219	88.69
370.445	83.69
370.672	92.69
370.898	88.69
371.124	93.69
371.35	80.69
371.576	83.69
371.802	104.69
372.028	97.69
372.254	80.69
372.48	86.69
372.706	103.69
372.932	85.69
373.158	102.69
373.384	88.69
373.61	101.69
373.835	105.69
374.061	91.69
374.287	89.69
374.513	92.69
374.739	104.69
374.965	99.69
375.191	97.69
375.416	104.69
375.642	99.69
375.868	99.69
376.094	95.69
376.319	80.69
376.545	85.69
376.771	93.69
376.997	92.69
377.222	101.69
377.448	94.69
377.674	99.69
377.899	93.69
378.125	92.69
378.35	92.69
378.576	90.69
378.802	106.69
379.027	97.69
379.253	95.69
379.478	110.69
379.704	97.69
379.929	97.69
380.155	91.69
380.38	91.69
380.606	102.69
380.831	104.69
381.057	88.69
381.282	103.69
381.507	99.69
381.733	102.69
381.958	112.69
382.184	106.69
382.409	105.69
382.634	102.69
382.86	130.69
383.085	89.69
383.31	97.69
383.535	118.69
383.761	105.69
383.986	107.69
384.211	102.69
384.436	91.69
384.662	102.69
384.887	96.69
385.112	111.69
385.337	97.69
385.562	92.69
385.787	110.69
386.013	117.69
386.238	127.69
386.463	114.69
386.688	110.69
386.913	108.69
387.138	102.69
387.363	106.69
387.588	92.69
387.813	96.69
388.038	119.69
388.263	132.69
388.488	104.69
388.713	93.69
388.938	106.69
389.163	113.69
389.387	106.69
389.612	94.69
389.837	89.69
390.062	103.69
390.287	99.69
390.512	78.69
390.736	84.69
390.961	81.69
391.186	102.69
391.411	97.69
391.636	86.69
391.86	102.69
392.085	94.69
392.31	77.69
392.534	97.69
392.759	93.69
392.984	97.69
393.208	94.69
393.433	136.69
393.658	115.69
393.882	72.69
394.107	80.69
394.331	87.69
394.556	104.69
394.78	98.69
395.005	89.69
395.229	78.69
395.454	93.69
395.678	69.69
395.903	77.69
396.127	93.69
396.352	104.69
396.576	93.69
396.801	112.69
397.025	114.69
397.249	91.69
397.474	94.69
397.698	88.69
397.922	70.69
398.147	90.69
398.371	94.69
398.595	80.69
398.82	94.69
399.044	86.69
399.268	86.69
399.492	71.69
399.717	80.69
399.941	88.69
400.165	82.69
400.389	89.69
400.613	86.69
400.837	89.69
401.062	81.69
401.286	99.69
401.51	102.69
401.734	99.69
401.958	94.69
402.182	109.69
402.406	125.69
402.63	106.69
402.854	89.69
403.078	101.69
403.302	92.69
403.526	86.69
403.75	100.69
403.974	82.69
404.198	84.69
404.422	97.69
404.645	86.69
404.869	93.69
405.093	105.69
405.317	93.69
405.541	104.69
405.765	92.69
405.988	109.69
406.212	141.69
406.436	177.69
406.66	127.69
406.883	96.69
407.107	89.69
407.331	101.69
407.555	96.69
407.778	93.69
408.002	82.69
408.226	94.69
408.449	88.69
408.673	76.69
408.896	90.69
409.12	87.69
409.344	89.69
409.567	95.69
409.791	77.69
410.014	84.69
410.238	91.69
410.461	90.69
410.685	101.69
410.908	96.69
411.132	109.69
411.355	103.69
411.578	94.69
411.802	86.69
412.025	84.69
412.249	81.69
412.472	102.69
412.695	88.69
412.919	86.69
413.142	88.69
413.365	86.69
413.589	86.69
413.812	91.69
414.035	96.69
414.258	95.69
414.482	82.69
414.705	91.69
414.928	86.69
415.151	106.69
415.374	95.69
415.597	90.69
415.821	89.69
416.044	96.69
416.267	99.69
416.49	72.69
416.713	90.69
416.936	100.69
417.159	80.69
417.382	83.69
417.605	88.69
417.828	94.69
418.051	82.69
418.274	92.69
418.497	89.69
418.72	80.69
418.943	82.69
419.166	101.69
419.389	103.69
419.611	92.69
419.834	89.69
420.057	92.69
420.28	96.69
420.503	83.69
420.726	81.69
420.948	88.69
421.171	89.69
421.394	79.69
421.617	83.69
421.839	73.69
422.062	92.69
422.285	94.69
422.507	113.69
422.73	97.69
422.953	106.69
423.175	93.69
423.398	97.69
423.621	101.69
423.843	84.69
424.066	91.69
424.288	85.69
424.511	82.69
424.733	93.69
424.956	80.69
425.178	79.69
425.401	98.69
425.623	96.69
425.846	90.69
426.068	89.69
426.291	91.69
426.513	88.69
426.735	90.69
426.958	92.69
427.18	97.69
427.402	122.69
427.625	144.69
427.847	111.69
428.069	92.69
428.292	103.69
428.514	86.69
428.736	88.69
428.958	92.69
429.181	92.69
429.403	75.69
429.625	72.69
429.847	101.69
430.069	95.69
430.292	92.69
430.514	101.69
430.736	87.69
430.958	101.69
431.18	106.69
431.402	94.69
431.624	91.69
431.846	94.69
432.068	84.69
432.29	86.69
432.512	98.69
432.734	93.69
432.956	102.69
433.178	98.69
433.4	100.69
433.622	93.69
433.844	85.69
434.066	89.69
434.287	109.69
434.509	93.69
434.731	90.69
434.953	92.69
435.175	76.69
435.397	97.69
435.618	84.69
435.84	103.69
436.062	101.69
436.284	96.69
436.505	89.69
436.727	112.69
436.949	87.69
437.17	85.69
437.392	81.69
437.614	90.69
437.835	92.69
438.057	103.69
438.278	114.69
438.5	127.69
438.721	106.69
438.943	98.69
439.165	86.69
439.386	98.69
439.608	100.69
439.829	110.69
440.05	110.69
440.272	134.69
440.493	110.69
440.715	86.69
440.936	81.69
441.158	94.69
441.379	93.69
441.6	100.69
441.822	112.69
442.043	107.69
442.264	95.69
442.486	88.69
442.707	76.69
442.928	96.69
443.149	127.69
443.371	110.69
443.592	93.69
443.813	87.69
444.034	104.69
444.255	94.69
444.476	86.69
444.698	86.69
444.919	93.69
445.14	137.69
445.361	116.69
445.582	108.69
445.803	117.69
446.024	105.69
446.245	122.69
446.466	105.69
446.687	88.69
446.908	82.69
447.129	92.69
447.35	88.69
447.571	81.69
447.792	96.69
448.013	95.69
448.234	89.69
448.455	101.69
448.675	105.69
448.896	114.69
449.117	109.69
449.338	99.69
449.559	101.69
449.779	113.69
450	102.69
450.221	77.69
450.442	87.69
450.662	87.69
450.883	90.69
451.104	103.69
451.324	92.69
451.545	82.69
451.766	82.69
451.986	80.69
452.207	99.69
452.428	96.69
452.648	103.69
452.869	95.69
453.089	115.69
453.31	106.69
453.53	81.69
453.751	96.69
453.971	103.69
454.192	94.69
454.412	89.69
454.633	96.69
454.853	92.69
455.073	79.69
455.294	96.69
455.514	93.69
455.734	103.69
455.955	93.69
456.175	104.69
456.395	90.69
456.616	82.69
456.836	83.69
457.056	90.69
457.276	98.69
457.497	80.69
457.717	97.69
457.937	66.69
458.157	84.69
458.377	80.69
458.598	91.69
458.818	120.69
459.038	140.69
459.258	112.69
459.478	90.69
459.698	96.69
459.918	95.69
460.138	79.69
460.358	71.69
460.578	81.69
460.798	90.69
461.018	85.69
461.238	84.69
461.458	70.69
461.678	92.69
461.898	85.69
462.118	81.69
462.338	90.69
462.558	79.69
462.777	80.69
462.997	91.69
463.217	89.69
463.437	81.69
463.657	85.69
463.876	96.69
464.096	78.69
464.316	82.69
464.536	95.69
464.755	94.69
464.975	97.69
465.195	142.69
465.414	127.69
465.634	70.69
465.854	80.69
466.073	84.69
466.293	74.69
466.512	89.69
466.732	89.69
466.951	89.69
467.171	89.69
467.391	94.69
467.61	101.69
467.829	93.69
468.049	68.69
468.268	92.69
468.488	69.69
468.707	90.69
468.927	82.69
469.146	77.69
469.365	90.69
469.585	74.69
469.804	89.69
470.023	89.69
470.243	96.69
470.462	88.69
470.681	115.69
470.901	89.69
471.12	80.69
471.339	105.69
471.558	100.69
471.777	89.69
471.997	80.69
472.216	95.69
472.435	113.69
472.654	86.69
472.873	92.69
473.092	85.69
473.311	92.69
473.53	95.69
473.749	99.69
473.968	102.69
474.187	96.69
474.406	102.69
474.625	92.69
474.844	88.69
475.063	79.69
475.282	84.69
475.501	84.69
475.72	88.69
475.939	88.69
476.158	89.69
476.377	90.69
476.596	90.69
476.814	90.69
477.033	88.69
477.252	102.69
477.471	87.69
477.69	102.69
477.908	89.69
478.127	97.69
478.346	92.69
478.564	72.69
478.783	80.69
479.002	84.69
479.22	102.69
479.439	101.69
479.658	94.69
479.876	93.69
480.095	77.69
480.313	101.69
480.532	77.69
480.751	108.69
480.969	113.69
481.188	159.69
481.406	136.69
481.624	80.69
481.843	102.69
482.061	84.69
482.28	79.69
482.498	88.69
482.717	95.69
482.935	80.69
483.153	88.69
483.372	97.69
483.59	88.69
483.808	88.69
484.027	90.69
484.245	96.69
484.463	104.69
484.681	89.69
484.9	90.69
485.118	99.69
485.336	102.69
485.554	96.69
485.772	105.69
485.99	97.69
486.209	105.69
486.427	112.69
486.645	112.69
486.863	113.69
487.081	92.69
487.299	93.69
487.517	96.69
487.735	110.69
487.953	92.69
488.171	107.69
488.389	92.69
488.607	102.69
488.825	89.69
489.043	103.69
489.261	88.69
489.479	98.69
489.696	92.69
489.914	103.69
490.132	90.69
490.35	108.69
490.568	92.69
490.786	78.69
491.003	96.69
491.221	91.69
491.439	96.69
491.657	95.69
491.874	95.69
492.092	97.69
492.31	93.69
492.527	85.69
492.745	85.69
492.963	93.69
493.18	92.69
493.398	96.69
493.615	91.69
493.833	88.69
494.05	84.69
494.268	86.69
494.485	93.69
494.703	97.69
494.92	94.69
495.138	83.69
495.355	103.69
495.573	102.69
495.79	95.69
496.008	86.69
496.225	91.69
496.442	88.69
496.66	95.69
496.877	93.69
497.094	97.69
497.312	100.69
497.529	95.69
497.746	76.69
497.963	95.69
498.181	92.69
498.398	97.69
498.615	106.69
498.832	97.69
499.049	95.69
499.267	94.69
499.484	85.69
499.701	90.69
499.918	102.69
500.135	80.69
500.352	88.69
500.569	81.69
500.786	86.69
501.003	82.69
501.22	92.69
501.437	89.69
501.654	76.69
501.871	110.69
502.088	82.69
502.305	98.69
502.522	87.69
502.739	87.69
502.956	94.69
503.172	100.69
503.389	89.69
503.606	101.69
503.823	99.69
504.04	87.69
504.256	96.69
504.473	96.69
504.69	101.69
504.907	88.69
505.123	79.69
505.34	81.69
505.557	101.69
505.773	91.69
505.99	87.69
506.207	93.69
506.423	86.69
506.64	100.69
506.856	73.69
507.073	86.69
507.289	92.69
507.506	97.69
507.722	112.69
507.939	104.69
508.155	106.69
508.372	96.69
508.588	87.69
508.805	86.69
509.021	100.69
509.238	106.69
509.454	91.69
509.67	105.69
509.887	104.69
510.103	124.69
510.319	178.69
510.536	542.69
510.752	1625.69
510.968	476.69
511.184	125.69
511.401	98.69
511.617	96.69
511.833	89.69
512.049	91.69
512.265	84.69
512.481	81.69
512.698	93.69
512.914	93.69
513.13	89.69
513.346	90.69
513.562	80.69
513.778	94.69
513.994	95.69
514.21	86.69
514.426	110.69
514.642	114.69
514.858	119.69
515.074	142.69
515.29	337.69
515.506	1031.69
