Data from Uncirc_1989_H10_HRD10591_00077.txt Node
Date: Wed Jan 03 11:57:51 EST 2024
User: Yrep
Spectrometer: HR+D1059
Trigger mode: 1
Integration Time (sec): 1.000000E-1
Scans to average: 1
Electric dark correction enabled: true
Nonlinearity correction enabled: false
Boxcar width: 0
XAxis mode: Wavelengths
Number of Pixels in Spectrum: 2048
>>>>>Begin Spectral Data<<<<<
223.165	-24.94
223.4	-24.94
223.635	-24.94
223.869	-4.94
224.104	-9.94
224.338	-15.94
224.573	-18.94
224.808	-30.94
225.042	-10.94
225.277	2.06
225.511	6.06
225.746	5.06
225.98	24.06
226.215	-9.94
226.449	17.06
226.683	38.06
226.918	16.06
227.152	18.06
227.387	32.06
227.621	40.06
227.856	45.06
228.09	36.06
228.324	53.06
228.559	47.06
228.793	42.06
229.027	54.06
229.262	61.06
229.496	64.06
229.73	81.06
229.964	88.06
230.199	81.06
230.433	70.06
230.667	76.06
230.901	79.06
231.136	94.06
231.37	77.06
231.604	80.06
231.838	64.06
232.072	84.06
232.306	81.06
232.541	77.06
232.775	74.06
233.009	87.06
233.243	77.06
233.477	67.06
233.711	80.06
233.945	72.06
234.179	86.06
234.413	68.06
234.647	84.06
234.881	84.06
235.115	88.06
235.349	76.06
235.583	76.06
235.817	75.06
236.051	95.06
236.285	85.06
236.519	77.06
236.753	79.06
236.987	70.06
237.221	88.06
237.455	82.06
237.689	87.06
237.922	82.06
238.156	83.06
238.39	73.06
238.624	84.06
238.858	78.06
239.091	69.06
239.325	88.06
239.559	84.06
239.793	76.06
240.027	85.06
240.26	87.06
240.494	72.06
240.728	76.06
240.961	75.06
241.195	94.06
241.429	71.06
241.662	71.06
241.896	68.06
242.13	81.06
242.363	90.06
242.597	85.06
242.83	66.06
243.064	80.06
243.298	84.06
243.531	62.06
243.765	62.06
243.998	81.06
244.232	71.06
244.465	68.06
244.699	78.06
244.932	86.06
245.166	80.06
245.399	85.06
245.633	76.06
245.866	76.06
246.099	79.06
246.333	78.06
246.566	74.06
246.8	79.06
247.033	76.06
247.266	73.06
247.5	72.06
247.733	83.06
247.966	80.06
248.2	69.06
248.433	74.06
248.666	98.06
248.899	76.06
249.133	89.06
249.366	102.06
249.599	106.06
249.832	84.06
250.066	83.06
250.299	64.06
250.532	70.06
250.765	80.06
250.998	72.06
251.231	81.06
251.465	80.06
251.698	80.06
251.931	78.06
252.164	69.06
252.397	62.06
252.63	73.06
252.863	69.06
253.096	84.06
253.329	81.06
253.562	86.06
253.795	90.06
254.028	84.06
254.261	82.06
254.494	76.06
254.727	83.06
254.96	77.06
255.193	84.06
255.426	76.06
255.659	75.06
255.892	77.06
256.124	85.06
256.357	86.06
256.59	80.06
256.823	82.06
257.056	74.06
257.289	87.06
257.521	88.06
257.754	93.06
257.987	92.06
258.22	86.06
258.452	77.06
258.685	71.06
258.918	86.06
259.151	82.06
259.383	86.06
259.616	92.06
259.849	84.06
260.081	80.06
260.314	92.06
260.547	78.06
260.779	84.06
261.012	77.06
261.244	88.06
261.477	82.06
261.71	83.06
261.942	103.06
262.175	95.06
262.407	92.06
262.64	81.06
262.872	87.06
263.105	72.06
263.337	116.06
263.57	81.06
263.802	85.06
264.035	87.06
264.267	86.06
264.499	78.06
264.732	87.06
264.964	78.06
265.197	93.06
265.429	88.06
265.661	89.06
265.894	80.06
266.126	81.06
266.358	72.06
266.591	85.06
266.823	87.06
267.055	85.06
267.287	89.06
267.52	75.06
267.752	87.06
267.984	84.06
268.216	80.06
268.448	89.06
268.681	74.06
268.913	92.06
269.145	89.06
269.377	76.06
269.609	83.06
269.841	80.06
270.073	64.06
270.306	89.06
270.538	88.06
270.77	87.06
271.002	67.06
271.234	79.06
271.466	76.06
271.698	78.06
271.93	82.06
272.162	105.06
272.394	81.06
272.626	82.06
272.858	84.06
273.09	73.06
273.322	76.06
273.553	86.06
273.785	83.06
274.017	90.06
274.249	83.06
274.481	77.06
274.713	84.06
274.945	91.06
275.176	77.06
275.408	97.06
275.64	93.06
275.872	93.06
276.104	73.06
276.335	98.06
276.567	98.06
276.799	89.06
277.031	100.06
277.262	73.06
277.494	101.06
277.726	84.06
277.957	76.06
278.189	89.06
278.421	75.06
278.652	81.06
278.884	92.06
279.115	76.06
279.347	77.06
279.579	88.06
279.81	93.06
280.042	102.06
280.273	108.06
280.505	86.06
280.736	73.06
280.968	72.06
281.199	82.06
281.431	81.06
281.662	86.06
281.894	88.06
282.125	90.06
282.356	115.06
282.588	111.06
282.819	102.06
283.051	78.06
283.282	86.06
283.513	79.06
283.745	68.06
283.976	71.06
284.207	84.06
284.439	78.06
284.67	66.06
284.901	71.06
285.132	84.06
285.364	86.06
285.595	80.06
285.826	80.06
286.057	91.06
286.288	99.06
286.52	77.06
286.751	99.06
286.982	78.06
287.213	92.06
287.444	90.06
287.675	78.06
287.906	86.06
288.138	85.06
288.369	73.06
288.6	90.06
288.831	89.06
289.062	73.06
289.293	89.06
289.524	90.06
289.755	69.06
289.986	64.06
290.217	84.06
290.448	77.06
290.679	87.06
290.91	90.06
291.141	86.06
291.371	70.06
291.602	80.06
291.833	91.06
292.064	86.06
292.295	93.06
292.526	79.06
292.757	80.06
292.987	84.06
293.218	90.06
293.449	88.06
293.68	83.06
293.91	89.06
294.141	79.06
294.372	90.06
294.603	83.06
294.833	78.06
295.064	80.06
295.295	92.06
295.525	98.06
295.756	103.06
295.987	102.06
296.217	121.06
296.448	109.06
296.679	90.06
296.909	86.06
297.14	77.06
297.37	92.06
297.601	93.06
297.831	69.06
298.062	79.06
298.292	85.06
298.523	88.06
298.753	82.06
298.984	80.06
299.214	85.06
299.445	88.06
299.675	94.06
299.905	99.06
300.136	89.06
300.366	88.06
300.597	86.06
300.827	95.06
301.057	92.06
301.288	92.06
301.518	77.06
301.748	90.06
301.979	105.06
302.209	93.06
302.439	100.06
302.669	85.06
302.9	97.06
303.13	77.06
303.36	97.06
303.59	90.06
303.82	91.06
304.051	86.06
304.281	95.06
304.511	90.06
304.741	80.06
304.971	89.06
305.201	78.06
305.431	69.06
305.661	72.06
305.891	83.06
306.121	82.06
306.352	92.06
306.582	89.06
306.812	91.06
307.042	103.06
307.272	103.06
307.502	109.06
307.731	96.06
307.961	80.06
308.191	94.06
308.421	92.06
308.651	79.06
308.881	85.06
309.111	93.06
309.341	80.06
309.571	78.06
309.8	98.06
310.03	80.06
310.26	88.06
310.49	91.06
310.72	74.06
310.949	86.06
311.179	95.06
311.409	98.06
311.639	85.06
311.868	86.06
312.098	82.06
312.328	105.06
312.557	104.06
312.787	114.06
313.017	99.06
313.246	85.06
313.476	88.06
313.706	87.06
313.935	97.06
314.165	85.06
314.394	101.06
314.624	109.06
314.853	104.06
315.083	90.06
315.312	102.06
315.542	84.06
315.771	95.06
316.001	90.06
316.23	90.06
316.46	93.06
316.689	84.06
316.919	96.06
317.148	94.06
317.377	97.06
317.607	84.06
317.836	77.06
318.065	93.06
318.295	100.06
318.524	88.06
318.753	97.06
318.983	84.06
319.212	98.06
319.441	104.06
319.67	101.06
319.9	95.06
320.129	84.06
320.358	89.06
320.587	89.06
320.816	90.06
321.046	102.06
321.275	102.06
321.504	95.06
321.733	101.06
321.962	91.06
322.191	101.06
322.42	103.06
322.649	104.06
322.878	100.06
323.108	103.06
323.337	113.06
323.566	140.06
323.795	132.06
324.024	174.06
324.253	333.06
324.482	659.06
324.71	1387.06
324.939	1770.06
325.168	676.06
325.397	211.06
325.626	131.06
325.855	112.06
326.084	124.06
326.313	129.06
326.542	133.06
326.77	207.06
326.999	391.06
327.228	807.06
327.457	1412.06
327.686	1114.06
327.914	312.06
328.143	190.06
328.372	197.06
328.6	135.06
328.829	103.06
329.058	118.06
329.287	110.06
329.515	100.06
329.744	119.06
329.972	124.06
330.201	195.06
330.43	232.06
330.658	148.06
330.887	135.06
331.115	115.06
331.344	100.06
331.572	97.06
331.801	90.06
332.03	102.06
332.258	93.06
332.486	95.06
332.715	100.06
332.943	96.06
333.172	86.06
333.4	93.06
333.629	101.06
333.857	105.06
334.085	142.06
334.314	172.06
334.542	283.06
334.771	248.06
334.999	121.06
335.227	111.06
335.455	90.06
335.684	102.06
335.912	93.06
336.14	105.06
336.369	92.06
336.597	102.06
336.825	93.06
337.053	79.06
337.281	81.06
337.51	97.06
337.738	93.06
337.966	93.06
338.194	101.06
338.422	85.06
338.65	105.06
338.878	88.06
339.106	89.06
339.334	87.06
339.562	95.06
339.79	93.06
340.018	90.06
340.246	81.06
340.474	86.06
340.702	95.06
340.93	91.06
341.158	98.06
341.386	90.06
341.614	98.06
341.842	79.06
342.07	94.06
342.298	90.06
342.526	104.06
342.754	96.06
342.981	79.06
343.209	87.06
343.437	85.06
343.665	93.06
343.893	78.06
344.12	89.06
344.348	88.06
344.576	83.06
344.804	81.06
345.031	65.06
345.259	106.06
345.487	93.06
345.714	77.06
345.942	88.06
346.17	89.06
346.397	91.06
346.625	92.06
346.853	90.06
347.08	83.06
347.308	95.06
347.535	100.06
347.763	98.06
347.99	101.06
348.218	102.06
348.445	97.06
348.673	96.06
348.9	95.06
349.128	81.06
349.355	89.06
349.583	87.06
349.81	104.06
350.037	99.06
350.265	87.06
350.492	101.06
350.72	92.06
350.947	106.06
351.174	101.06
351.402	109.06
351.629	95.06
351.856	100.06
352.083	89.06
352.311	101.06
352.538	109.06
352.765	110.06
352.992	117.06
353.22	95.06
353.447	96.06
353.674	84.06
353.901	91.06
354.128	92.06
354.355	102.06
354.583	101.06
354.81	94.06
355.037	91.06
355.264	86.06
355.491	82.06
355.718	94.06
355.945	84.06
356.172	101.06
356.399	84.06
356.626	93.06
356.853	104.06
357.08	98.06
357.307	80.06
357.534	99.06
357.761	100.06
357.988	95.06
358.215	97.06
358.441	108.06
358.668	94.06
358.895	82.06
359.122	92.06
359.349	84.06
359.576	86.06
359.802	89.06
360.029	110.06
360.256	105.06
360.483	102.06
360.709	81.06
360.936	93.06
361.163	92.06
361.39	83.06
361.616	93.06
361.843	103.06
362.07	96.06
362.296	80.06
362.523	94.06
362.749	89.06
362.976	95.06
363.203	95.06
363.429	86.06
363.656	88.06
363.882	82.06
364.109	84.06
364.335	82.06
364.562	88.06
364.788	99.06
365.015	96.06
365.241	94.06
365.468	99.06
365.694	95.06
365.92	96.06
366.147	71.06
366.373	89.06
366.599	94.06
366.826	87.06
367.052	91.06
367.278	88.06
367.505	96.06
367.731	88.06
367.957	78.06
368.184	94.06
368.41	99.06
368.636	99.06
368.862	112.06
369.089	104.06
369.315	63.06
369.541	86.06
369.767	92.06
369.993	89.06
370.219	86.06
370.445	89.06
370.672	93.06
370.898	92.06
371.124	87.06
371.35	81.06
371.576	96.06
371.802	80.06
372.028	78.06
372.254	79.06
372.48	85.06
372.706	91.06
372.932	80.06
373.158	83.06
373.384	79.06
373.61	90.06
373.835	77.06
374.061	99.06
374.287	81.06
374.513	90.06
374.739	97.06
374.965	77.06
375.191	84.06
375.416	80.06
375.642	80.06
375.868	84.06
376.094	94.06
376.319	86.06
376.545	86.06
376.771	101.06
376.997	105.06
377.222	88.06
377.448	84.06
377.674	86.06
377.899	103.06
378.125	96.06
378.35	90.06
378.576	87.06
378.802	94.06
379.027	84.06
379.253	84.06
379.478	80.06
379.704	94.06
379.929	92.06
380.155	100.06
380.38	95.06
380.606	97.06
380.831	98.06
381.057	90.06
381.282	101.06
381.507	117.06
381.733	102.06
381.958	87.06
382.184	93.06
382.409	94.06
382.634	103.06
382.86	83.06
383.085	88.06
383.31	81.06
383.535	104.06
383.761	90.06
383.986	94.06
384.211	88.06
384.436	89.06
384.662	90.06
384.887	99.06
385.112	87.06
385.337	93.06
385.562	93.06
385.787	86.06
386.013	106.06
386.238	101.06
386.463	104.06
386.688	99.06
386.913	100.06
387.138	94.06
387.363	106.06
387.588	88.06
387.813	88.06
388.038	81.06
388.263	109.06
388.488	101.06
388.713	87.06
388.938	88.06
389.163	94.06
389.387	100.06
389.612	109.06
389.837	105.06
390.062	101.06
390.287	107.06
390.512	94.06
390.736	92.06
390.961	81.06
391.186	107.06
391.411	84.06
391.636	109.06
391.86	87.06
392.085	85.06
392.31	64.06
392.534	98.06
392.759	101.06
392.984	85.06
393.208	85.06
393.433	81.06
393.658	88.06
393.882	87.06
394.107	85.06
394.331	98.06
394.556	73.06
394.78	89.06
395.005	80.06
395.229	89.06
395.454	85.06
395.678	78.06
395.903	94.06
396.127	84.06
396.352	87.06
396.576	78.06
396.801	96.06
397.025	87.06
397.249	93.06
397.474	93.06
397.698	99.06
397.922	85.06
398.147	87.06
398.371	91.06
398.595	89.06
398.82	83.06
399.044	73.06
399.268	78.06
399.492	74.06
399.717	87.06
399.941	98.06
400.165	94.06
400.389	96.06
400.613	97.06
400.837	100.06
401.062	91.06
401.286	85.06
401.51	82.06
401.734	92.06
401.958	81.06
402.182	122.06
402.406	123.06
402.63	94.06
402.854	88.06
403.078	87.06
403.302	80.06
403.526	85.06
403.75	84.06
403.974	104.06
404.198	77.06
404.422	76.06
404.645	76.06
404.869	92.06
405.093	95.06
405.317	110.06
405.541	96.06
405.765	98.06
405.988	117.06
406.212	148.06
406.436	185.06
406.66	106.06
406.883	108.06
407.107	92.06
407.331	98.06
407.555	102.06
407.778	92.06
408.002	79.06
408.226	84.06
408.449	86.06
408.673	81.06
408.896	100.06
409.12	80.06
409.344	98.06
409.567	95.06
409.791	90.06
410.014	103.06
410.238	99.06
410.461	94.06
410.685	92.06
410.908	95.06
411.132	99.06
411.355	101.06
411.578	83.06
411.802	80.06
412.025	106.06
412.249	99.06
412.472	99.06
412.695	109.06
412.919	101.06
413.142	94.06
413.365	88.06
413.589	87.06
413.812	87.06
414.035	86.06
414.258	93.06
414.482	103.06
414.705	94.06
414.928	88.06
415.151	96.06
415.374	97.06
415.597	72.06
415.821	84.06
416.044	96.06
416.267	88.06
416.49	93.06
416.713	91.06
416.936	82.06
417.159	83.06
417.382	89.06
417.605	99.06
417.828	90.06
418.051	81.06
418.274	86.06
418.497	78.06
418.72	77.06
418.943	86.06
419.166	103.06
419.389	93.06
419.611	103.06
419.834	83.06
420.057	95.06
420.28	79.06
420.503	86.06
420.726	76.06
420.948	89.06
421.171	97.06
421.394	96.06
421.617	93.06
421.839	88.06
422.062	83.06
422.285	82.06
422.507	89.06
422.73	98.06
422.953	94.06
423.175	89.06
423.398	91.06
423.621	106.06
423.843	106.06
424.066	85.06
424.288	87.06
424.511	84.06
424.733	85.06
424.956	93.06
425.178	94.06
425.401	101.06
425.623	97.06
425.846	88.06
426.068	101.06
426.291	77.06
426.513	92.06
426.735	97.06
426.958	91.06
427.18	100.06
427.402	130.06
427.625	169.06
427.847	121.06
428.069	137.06
428.292	84.06
428.514	82.06
428.736	82.06
428.958	78.06
429.181	100.06
429.403	80.06
429.625	87.06
429.847	102.06
430.069	89.06
430.292	87.06
430.514	104.06
430.736	97.06
430.958	88.06
431.18	90.06
431.402	91.06
431.624	91.06
431.846	81.06
432.068	98.06
432.29	87.06
432.512	90.06
432.734	80.06
432.956	95.06
433.178	96.06
433.4	97.06
433.622	92.06
433.844	76.06
434.066	106.06
434.287	94.06
434.509	86.06
434.731	87.06
434.953	89.06
435.175	91.06
435.397	93.06
435.618	84.06
435.84	93.06
436.062	101.06
436.284	97.06
436.505	100.06
436.727	96.06
436.949	98.06
437.17	100.06
437.392	82.06
437.614	91.06
437.835	98.06
438.057	101.06
438.278	91.06
438.5	99.06
438.721	118.06
438.943	78.06
439.165	87.06
439.386	90.06
439.608	102.06
439.829	90.06
440.05	105.06
440.272	128.06
440.493	89.06
440.715	117.06
440.936	90.06
441.158	85.06
441.379	92.06
441.6	95.06
441.822	91.06
442.043	91.06
442.264	102.06
442.486	94.06
442.707	97.06
442.928	92.06
443.149	109.06
443.371	104.06
443.592	102.06
443.813	90.06
444.034	96.06
444.255	83.06
444.476	88.06
444.698	74.06
444.919	84.06
445.14	142.06
445.361	125.06
445.582	105.06
445.803	105.06
446.024	118.06
446.245	124.06
446.466	95.06
446.687	90.06
446.908	87.06
447.129	84.06
447.35	85.06
447.571	83.06
447.792	87.06
448.013	88.06
448.234	101.06
448.455	95.06
448.675	100.06
448.896	109.06
449.117	101.06
449.338	100.06
449.559	111.06
449.779	108.06
450	90.06
450.221	98.06
450.442	96.06
450.662	100.06
450.883	102.06
451.104	110.06
451.324	103.06
451.545	80.06
451.766	88.06
451.986	107.06
452.207	102.06
452.428	104.06
452.648	86.06
452.869	112.06
453.089	107.06
453.31	106.06
453.53	106.06
453.751	85.06
453.971	100.06
454.192	94.06
454.412	93.06
454.633	105.06
454.853	83.06
455.073	84.06
455.294	97.06
455.514	89.06
455.734	95.06
455.955	86.06
456.175	85.06
456.395	78.06
456.616	83.06
456.836	91.06
457.056	79.06
457.276	82.06
457.497	71.06
457.717	77.06
457.937	89.06
458.157	85.06
458.377	94.06
458.598	94.06
458.818	117.06
459.038	132.06
459.258	101.06
459.478	87.06
459.698	92.06
459.918	82.06
460.138	93.06
460.358	84.06
460.578	102.06
460.798	79.06
461.018	76.06
461.238	72.06
461.458	84.06
461.678	90.06
461.898	84.06
462.118	92.06
462.338	101.06
462.558	89.06
462.777	84.06
462.997	93.06
463.217	84.06
463.437	76.06
463.657	85.06
463.876	92.06
464.096	96.06
464.316	93.06
464.536	90.06
464.755	90.06
464.975	88.06
465.195	136.06
465.414	115.06
465.634	90.06
465.854	88.06
466.073	101.06
466.293	84.06
466.512	87.06
466.732	90.06
466.951	95.06
467.171	88.06
467.391	93.06
467.61	102.06
467.829	101.06
468.049	129.06
468.268	142.06
468.488	99.06
468.707	86.06
468.927	92.06
469.146	87.06
469.365	76.06
469.585	89.06
469.804	86.06
470.023	106.06
470.243	93.06
470.462	100.06
470.681	109.06
470.901	84.06
471.12	77.06
471.339	92.06
471.558	86.06
471.777	95.06
471.997	116.06
472.216	210.06
472.435	331.06
472.654	132.06
472.873	94.06
473.092	103.06
473.311	102.06
473.53	97.06
473.749	84.06
473.968	78.06
474.187	88.06
474.406	89.06
474.625	88.06
474.844	87.06
475.063	80.06
475.282	88.06
475.501	91.06
475.72	102.06
475.939	91.06
476.158	97.06
476.377	90.06
476.596	83.06
476.814	101.06
477.033	99.06
477.252	84.06
477.471	77.06
477.69	86.06
477.908	89.06
478.127	95.06
478.346	90.06
478.564	78.06
478.783	95.06
479.002	85.06
479.22	112.06
479.439	98.06
479.658	114.06
479.876	86.06
480.095	93.06
480.313	94.06
480.532	97.06
480.751	113.06
480.969	220.06
481.188	567.06
481.406	332.06
481.624	106.06
481.843	103.06
482.061	99.06
482.28	85.06
482.498	81.06
482.717	87.06
482.935	108.06
483.153	92.06
483.372	89.06
483.59	94.06
483.808	93.06
484.027	95.06
484.245	90.06
484.463	93.06
484.681	81.06
484.9	89.06
485.118	82.06
485.336	97.06
485.554	104.06
485.772	92.06
485.99	108.06
486.209	101.06
486.427	105.06
486.645	114.06
486.863	109.06
487.081	86.06
487.299	102.06
487.517	103.06
487.735	89.06
487.953	94.06
488.171	98.06
488.389	97.06
488.607	76.06
488.825	82.06
489.043	88.06
489.261	94.06
489.479	89.06
489.696	78.06
489.914	83.06
490.132	87.06
490.35	101.06
490.568	90.06
490.786	84.06
491.003	84.06
491.221	93.06
491.439	98.06
491.657	93.06
491.874	88.06
492.092	88.06
492.31	93.06
492.527	90.06
492.745	92.06
492.963	88.06
493.18	93.06
493.398	99.06
493.615	99.06
493.833	97.06
494.05	90.06
494.268	96.06
494.485	95.06
494.703	88.06
494.92	86.06
495.138	81.06
495.355	112.06
495.573	94.06
495.79	84.06
496.008	80.06
496.225	91.06
496.442	89.06
496.66	112.06
496.877	103.06
497.094	87.06
497.312	90.06
497.529	89.06
497.746	97.06
497.963	85.06
498.181	98.06
498.398	90.06
498.615	113.06
498.832	102.06
499.049	82.06
499.267	97.06
499.484	85.06
499.701	71.06
499.918	84.06
500.135	94.06
500.352	89.06
500.569	96.06
500.786	110.06
501.003	88.06
501.22	78.06
501.437	82.06
501.654	90.06
501.871	96.06
502.088	84.06
502.305	93.06
502.522	91.06
502.739	93.06
502.956	93.06
503.172	73.06
503.389	93.06
503.606	77.06
503.823	103.06
504.04	95.06
504.256	96.06
504.473	105.06
504.69	84.06
504.907	94.06
505.123	91.06
505.34	92.06
505.557	89.06
505.773	96.06
505.99	95.06
506.207	81.06
506.423	79.06
506.64	96.06
506.856	99.06
507.073	81.06
507.289	80.06
507.506	98.06
507.722	100.06
507.939	97.06
508.155	92.06
508.372	84.06
508.588	93.06
508.805	101.06
509.021	101.06
509.238	108.06
509.454	84.06
509.67	94.06
509.887	119.06
510.103	136.06
510.319	178.06
510.536	558.06
510.752	1614.06
510.968	458.06
511.184	140.06
511.401	99.06
511.617	80.06
511.833	94.06
512.049	82.06
512.265	82.06
512.481	98.06
512.698	97.06
512.914	87.06
513.13	87.06
513.346	100.06
513.562	76.06
513.778	100.06
513.994	90.06
514.21	110.06
514.426	124.06
514.642	113.06
514.858	110.06
515.074	144.06
515.29	324.06
515.506	1020.06
515.721	386.06
515.937	128.06
