Data from Uncirc_1989_H10_HRD10591_00081.txt Node
Date: Wed Jan 03 11:57:51 EST 2024
User: Yrep
Spectrometer: HR+D1059
Trigger mode: 1
Integration Time (sec): 1.000000E-1
Scans to average: 1
Electric dark correction enabled: true
Nonlinearity correction enabled: false
Boxcar width: 0
XAxis mode: Wavelengths
Number of Pixels in Spectrum: 2048
>>>>>Begin Spectral Data<<<<<
223.165	-28.38
223.4	-28.38
223.635	-28.38
223.869	-17.38
224.104	-16.38
224.338	-22.38
224.573	-25.38
224.808	-14.38
225.042	-3.38
225.277	-13.38
225.511	-5.38
225.746	13.62
225.98	8.62
226.215	10.62
226.449	11.62
226.683	22.62
226.918	41.62
227.152	37.62
227.387	25.62
227.621	38.62
227.856	32.62
228.09	39.62
228.324	54.62
228.559	43.62
228.793	70.62
229.027	63.62
229.262	79.62
229.496	72.62
229.73	81.62
229.964	69.62
230.199	93.62
230.433	83.62
230.667	79.62
230.901	81.62
231.136	79.62
231.37	70.62
231.604	85.62
231.838	85.62
232.072	81.62
232.306	88.62
232.541	90.62
232.775	78.62
233.009	88.62
233.243	78.62
233.477	93.62
233.711	87.62
233.945	78.62
234.179	86.62
234.413	84.62
234.647	95.62
234.881	77.62
235.115	79.62
235.349	90.62
235.583	88.62
235.817	73.62
236.051	65.62
236.285	84.62
236.519	89.62
236.753	77.62
236.987	72.62
237.221	82.62
237.455	67.62
237.689	72.62
237.922	77.62
238.156	59.62
238.39	76.62
238.624	69.62
238.858	74.62
239.091	80.62
239.325	83.62
239.559	76.62
239.793	83.62
240.027	87.62
240.26	70.62
240.494	80.62
240.728	81.62
240.961	82.62
241.195	69.62
241.429	75.62
241.662	88.62
241.896	67.62
242.13	81.62
242.363	76.62
242.597	65.62
242.83	68.62
243.064	89.62
243.298	73.62
243.531	79.62
243.765	86.62
243.998	83.62
244.232	80.62
244.465	94.62
244.699	83.62
244.932	74.62
245.166	66.62
245.399	69.62
245.633	85.62
245.866	81.62
246.099	83.62
246.333	72.62
246.566	70.62
246.8	85.62
247.033	96.62
247.266	82.62
247.5	74.62
247.733	79.62
247.966	74.62
248.2	81.62
248.433	63.62
248.666	79.62
248.899	65.62
249.133	89.62
249.366	92.62
249.599	97.62
249.832	81.62
250.066	86.62
250.299	93.62
250.532	74.62
250.765	81.62
250.998	82.62
251.231	77.62
251.465	77.62
251.698	84.62
251.931	81.62
252.164	82.62
252.397	95.62
252.63	75.62
252.863	89.62
253.096	85.62
253.329	91.62
253.562	72.62
253.795	74.62
254.028	92.62
254.261	93.62
254.494	90.62
254.727	88.62
254.96	89.62
255.193	84.62
255.426	81.62
255.659	82.62
255.892	95.62
256.124	105.62
256.357	78.62
256.59	74.62
256.823	70.62
257.056	83.62
257.289	77.62
257.521	90.62
257.754	94.62
257.987	84.62
258.22	89.62
258.452	84.62
258.685	73.62
258.918	70.62
259.151	91.62
259.383	81.62
259.616	79.62
259.849	82.62
260.081	87.62
260.314	75.62
260.547	79.62
260.779	83.62
261.012	86.62
261.244	90.62
261.477	85.62
261.71	93.62
261.942	95.62
262.175	103.62
262.407	93.62
262.64	90.62
262.872	90.62
263.105	95.62
263.337	87.62
263.57	82.62
263.802	97.62
264.035	86.62
264.267	89.62
264.499	85.62
264.732	83.62
264.964	87.62
265.197	83.62
265.429	86.62
265.661	95.62
265.894	85.62
266.126	77.62
266.358	84.62
266.591	93.62
266.823	75.62
267.055	68.62
267.287	53.62
267.52	81.62
267.752	94.62
267.984	82.62
268.216	87.62
268.448	81.62
268.681	68.62
268.913	77.62
269.145	96.62
269.377	81.62
269.609	82.62
269.841	91.62
270.073	83.62
270.306	88.62
270.538	83.62
270.77	79.62
271.002	94.62
271.234	77.62
271.466	90.62
271.698	77.62
271.93	89.62
272.162	95.62
272.394	81.62
272.626	73.62
272.858	83.62
273.09	70.62
273.322	70.62
273.553	84.62
273.785	87.62
274.017	88.62
274.249	87.62
274.481	81.62
274.713	95.62
274.945	97.62
275.176	92.62
275.408	78.62
275.64	79.62
275.872	94.62
276.104	92.62
276.335	82.62
276.567	106.62
276.799	106.62
277.031	101.62
277.262	90.62
277.494	95.62
277.726	91.62
277.957	83.62
278.189	88.62
278.421	88.62
278.652	86.62
278.884	87.62
279.115	87.62
279.347	84.62
279.579	83.62
279.81	74.62
280.042	85.62
280.273	104.62
280.505	78.62
280.736	86.62
280.968	90.62
281.199	96.62
281.431	79.62
281.662	99.62
281.894	92.62
282.125	101.62
282.356	107.62
282.588	131.62
282.819	110.62
283.051	86.62
283.282	90.62
283.513	94.62
283.745	83.62
283.976	83.62
284.207	87.62
284.439	85.62
284.67	99.62
284.901	85.62
285.132	83.62
285.364	91.62
285.595	89.62
285.826	89.62
286.057	84.62
286.288	85.62
286.52	101.62
286.751	78.62
286.982	105.62
287.213	77.62
287.444	88.62
287.675	108.62
287.906	95.62
288.138	99.62
288.369	94.62
288.6	100.62
288.831	98.62
289.062	95.62
289.293	72.62
289.524	79.62
289.755	90.62
289.986	86.62
290.217	80.62
290.448	75.62
290.679	90.62
290.91	89.62
291.141	93.62
291.371	86.62
291.602	97.62
291.833	90.62
292.064	96.62
292.295	100.62
292.526	101.62
292.757	94.62
292.987	87.62
293.218	93.62
293.449	82.62
293.68	94.62
293.91	77.62
294.141	99.62
294.372	94.62
294.603	80.62
294.833	90.62
295.064	102.62
295.295	98.62
295.525	84.62
295.756	104.62
295.987	108.62
296.217	119.62
296.448	119.62
296.679	103.62
296.909	93.62
297.14	99.62
297.37	88.62
297.601	111.62
297.831	96.62
298.062	96.62
298.292	80.62
298.523	94.62
298.753	71.62
298.984	105.62
299.214	81.62
299.445	104.62
299.675	95.62
299.905	109.62
300.136	93.62
300.366	78.62
300.597	95.62
300.827	85.62
301.057	100.62
301.288	95.62
301.518	94.62
301.748	109.62
301.979	111.62
302.209	96.62
302.439	78.62
302.669	86.62
302.9	90.62
303.13	87.62
303.36	80.62
303.59	99.62
303.82	106.62
304.051	88.62
304.281	95.62
304.511	79.62
304.741	89.62
304.971	90.62
305.201	85.62
305.431	87.62
305.661	78.62
305.891	86.62
306.121	82.62
306.352	102.62
306.582	83.62
306.812	83.62
307.042	83.62
307.272	98.62
307.502	101.62
307.731	95.62
307.961	95.62
308.191	95.62
308.421	82.62
308.651	99.62
308.881	107.62
309.111	91.62
309.341	101.62
309.571	85.62
309.8	90.62
310.03	100.62
310.26	96.62
310.49	89.62
310.72	97.62
310.949	114.62
311.179	104.62
311.409	90.62
311.639	90.62
311.868	100.62
312.098	91.62
312.328	96.62
312.557	111.62
312.787	106.62
313.017	77.62
313.246	83.62
313.476	91.62
313.706	95.62
313.935	101.62
314.165	89.62
314.394	99.62
314.624	97.62
314.853	95.62
315.083	88.62
315.312	95.62
315.542	87.62
315.771	98.62
316.001	92.62
316.23	90.62
316.46	89.62
316.689	93.62
316.919	93.62
317.148	95.62
317.377	79.62
317.607	93.62
317.836	99.62
318.065	94.62
318.295	98.62
318.524	99.62
318.753	88.62
318.983	94.62
319.212	109.62
319.441	90.62
319.67	98.62
319.9	100.62
320.129	98.62
320.358	81.62
320.587	96.62
320.816	90.62
321.046	96.62
321.275	87.62
321.504	100.62
321.733	92.62
321.962	96.62
322.191	97.62
322.42	107.62
322.649	102.62
322.878	111.62
323.108	112.62
323.337	110.62
323.566	126.62
323.795	134.62
324.024	165.62
324.253	328.62
324.482	690.62
324.71	1392.62
324.939	1777.62
325.168	679.62
325.397	223.62
325.626	135.62
325.855	120.62
326.084	107.62
326.313	127.62
326.542	143.62
326.77	209.62
326.999	386.62
327.228	770.62
327.457	1417.62
327.686	1143.62
327.914	325.62
328.143	199.62
328.372	177.62
328.6	131.62
328.829	111.62
329.058	113.62
329.287	116.62
329.515	114.62
329.744	86.62
329.972	141.62
330.201	185.62
330.43	253.62
330.658	163.62
330.887	126.62
331.115	104.62
331.344	93.62
331.572	100.62
331.801	98.62
332.03	82.62
332.258	104.62
332.486	96.62
332.715	91.62
332.943	109.62
333.172	103.62
333.4	95.62
333.629	107.62
333.857	114.62
334.085	136.62
334.314	207.62
334.542	293.62
334.771	280.62
334.999	141.62
335.227	94.62
335.455	103.62
335.684	85.62
335.912	101.62
336.14	95.62
336.369	100.62
336.597	102.62
336.825	89.62
337.053	94.62
337.281	89.62
337.51	88.62
337.738	85.62
337.966	93.62
338.194	106.62
338.422	95.62
338.65	85.62
338.878	87.62
339.106	79.62
339.334	94.62
339.562	88.62
339.79	89.62
340.018	98.62
340.246	96.62
340.474	102.62
340.702	97.62
340.93	92.62
341.158	100.62
341.386	91.62
341.614	87.62
341.842	84.62
342.07	101.62
342.298	105.62
342.526	99.62
342.754	84.62
342.981	87.62
343.209	82.62
343.437	102.62
343.665	84.62
343.893	91.62
344.12	70.62
344.348	80.62
344.576	88.62
344.804	95.62
345.031	93.62
345.259	102.62
345.487	110.62
345.714	84.62
345.942	103.62
346.17	75.62
346.397	99.62
346.625	83.62
346.853	91.62
347.08	91.62
347.308	89.62
347.535	112.62
347.763	92.62
347.99	113.62
348.218	101.62
348.445	99.62
348.673	93.62
348.9	83.62
349.128	97.62
349.355	101.62
349.583	94.62
349.81	79.62
350.037	89.62
350.265	108.62
350.492	90.62
350.72	90.62
350.947	110.62
351.174	91.62
351.402	103.62
351.629	95.62
351.856	96.62
352.083	97.62
352.311	102.62
352.538	106.62
352.765	102.62
352.992	118.62
353.22	94.62
353.447	104.62
353.674	87.62
353.901	91.62
354.128	87.62
354.355	104.62
354.583	85.62
354.81	103.62
355.037	98.62
355.264	97.62
355.491	88.62
355.718	103.62
355.945	88.62
356.172	100.62
356.399	93.62
356.626	86.62
356.853	94.62
357.08	104.62
357.307	104.62
357.534	89.62
357.761	92.62
357.988	98.62
358.215	87.62
358.441	91.62
358.668	92.62
358.895	99.62
359.122	98.62
359.349	79.62
359.576	91.62
359.802	77.62
360.029	91.62
360.256	102.62
360.483	97.62
360.709	93.62
360.936	102.62
361.163	91.62
361.39	98.62
361.616	94.62
361.843	97.62
362.07	90.62
362.296	70.62
362.523	103.62
362.749	97.62
362.976	104.62
363.203	106.62
363.429	88.62
363.656	95.62
363.882	87.62
364.109	93.62
364.335	87.62
364.562	88.62
364.788	88.62
365.015	95.62
365.241	78.62
365.468	93.62
365.694	96.62
365.92	87.62
366.147	86.62
366.373	77.62
366.599	93.62
366.826	91.62
367.052	91.62
367.278	79.62
367.505	88.62
367.731	86.62
367.957	83.62
368.184	104.62
368.41	100.62
368.636	101.62
368.862	120.62
369.089	106.62
369.315	101.62
369.541	87.62
369.767	73.62
369.993	92.62
370.219	74.62
370.445	87.62
370.672	84.62
370.898	82.62
371.124	92.62
371.35	85.62
371.576	81.62
371.802	90.62
372.028	102.62
372.254	83.62
372.48	97.62
372.706	95.62
372.932	96.62
373.158	94.62
373.384	98.62
373.61	87.62
373.835	86.62
374.061	89.62
374.287	83.62
374.513	103.62
374.739	103.62
374.965	93.62
375.191	89.62
375.416	85.62
375.642	98.62
375.868	89.62
376.094	112.62
376.319	82.62
376.545	87.62
376.771	79.62
376.997	84.62
377.222	78.62
377.448	93.62
377.674	98.62
377.899	105.62
378.125	93.62
378.35	84.62
378.576	85.62
378.802	97.62
379.027	93.62
379.253	92.62
379.478	98.62
379.704	94.62
379.929	75.62
380.155	91.62
380.38	80.62
380.606	96.62
380.831	104.62
381.057	95.62
381.282	83.62
381.507	87.62
381.733	106.62
381.958	91.62
382.184	95.62
382.409	106.62
382.634	100.62
382.86	96.62
383.085	104.62
383.31	102.62
383.535	84.62
383.761	95.62
383.986	105.62
384.211	87.62
384.436	103.62
384.662	107.62
384.887	99.62
385.112	106.62
385.337	88.62
385.562	97.62
385.787	103.62
386.013	107.62
386.238	99.62
386.463	115.62
386.688	101.62
386.913	101.62
387.138	93.62
387.363	88.62
387.588	95.62
387.813	97.62
388.038	95.62
388.263	112.62
388.488	100.62
388.713	98.62
388.938	90.62
389.163	85.62
389.387	99.62
389.612	93.62
389.837	91.62
390.062	78.62
390.287	81.62
390.512	99.62
390.736	103.62
390.961	103.62
391.186	93.62
391.411	104.62
391.636	86.62
391.86	86.62
392.085	73.62
392.31	84.62
392.534	92.62
392.759	95.62
392.984	75.62
393.208	95.62
393.433	91.62
393.658	98.62
393.882	91.62
394.107	89.62
394.331	93.62
394.556	74.62
394.78	94.62
395.005	98.62
395.229	71.62
395.454	96.62
395.678	88.62
395.903	89.62
396.127	85.62
396.352	75.62
396.576	85.62
396.801	93.62
397.025	89.62
397.249	98.62
397.474	87.62
397.698	84.62
397.922	90.62
398.147	93.62
398.371	94.62
398.595	90.62
398.82	81.62
399.044	86.62
399.268	99.62
399.492	75.62
399.717	105.62
399.941	95.62
400.165	80.62
400.389	98.62
400.613	84.62
400.837	67.62
401.062	89.62
401.286	83.62
401.51	102.62
401.734	89.62
401.958	94.62
402.182	104.62
402.406	138.62
402.63	93.62
402.854	93.62
403.078	100.62
403.302	86.62
403.526	94.62
403.75	99.62
403.974	88.62
404.198	79.62
404.422	89.62
404.645	90.62
404.869	87.62
405.093	103.62
405.317	102.62
405.541	99.62
405.765	96.62
405.988	111.62
406.212	156.62
406.436	182.62
406.66	125.62
406.883	86.62
407.107	94.62
407.331	94.62
407.555	94.62
407.778	95.62
408.002	100.62
408.226	88.62
408.449	97.62
408.673	88.62
408.896	81.62
409.12	105.62
409.344	99.62
409.567	85.62
409.791	102.62
410.014	85.62
410.238	77.62
410.461	97.62
410.685	101.62
410.908	100.62
411.132	95.62
411.355	84.62
411.578	87.62
411.802	79.62
412.025	96.62
412.249	94.62
412.472	85.62
412.695	100.62
412.919	91.62
413.142	102.62
413.365	88.62
413.589	96.62
413.812	81.62
414.035	91.62
414.258	85.62
414.482	94.62
414.705	97.62
414.928	74.62
415.151	74.62
415.374	100.62
415.597	87.62
415.821	90.62
416.044	89.62
416.267	86.62
416.49	94.62
416.713	88.62
416.936	91.62
417.159	87.62
417.382	102.62
417.605	91.62
417.828	104.62
418.051	103.62
418.274	92.62
418.497	93.62
418.72	93.62
418.943	82.62
419.166	79.62
419.389	103.62
419.611	101.62
419.834	94.62
420.057	96.62
420.28	83.62
420.503	73.62
420.726	89.62
420.948	80.62
421.171	87.62
421.394	95.62
421.617	103.62
421.839	90.62
422.062	91.62
422.285	101.62
422.507	85.62
422.73	96.62
422.953	88.62
423.175	98.62
423.398	85.62
423.621	95.62
423.843	94.62
424.066	90.62
424.288	79.62
424.511	89.62
424.733	88.62
424.956	105.62
425.178	90.62
425.401	95.62
425.623	91.62
425.846	86.62
426.068	93.62
426.291	98.62
426.513	81.62
426.735	94.62
426.958	109.62
427.18	85.62
427.402	128.62
427.625	158.62
427.847	127.62
428.069	120.62
428.292	93.62
428.514	100.62
428.736	89.62
428.958	79.62
429.181	85.62
429.403	91.62
429.625	84.62
429.847	74.62
430.069	91.62
430.292	85.62
430.514	89.62
430.736	83.62
430.958	87.62
431.18	90.62
431.402	97.62
431.624	85.62
431.846	85.62
432.068	93.62
432.29	98.62
432.512	87.62
432.734	81.62
432.956	84.62
433.178	92.62
433.4	110.62
433.622	93.62
433.844	83.62
434.066	93.62
434.287	78.62
434.509	92.62
434.731	105.62
434.953	101.62
435.175	86.62
435.397	89.62
435.618	89.62
435.84	101.62
436.062	107.62
436.284	82.62
436.505	83.62
436.727	98.62
436.949	85.62
437.17	79.62
437.392	73.62
437.614	91.62
437.835	105.62
438.057	113.62
438.278	97.62
438.5	109.62
438.721	105.62
438.943	88.62
439.165	80.62
439.386	86.62
439.608	77.62
439.829	99.62
440.05	106.62
440.272	129.62
440.493	87.62
440.715	87.62
440.936	101.62
441.158	79.62
441.379	96.62
441.6	98.62
441.822	94.62
442.043	104.62
442.264	98.62
442.486	104.62
442.707	95.62
442.928	93.62
443.149	110.62
443.371	120.62
443.592	85.62
443.813	90.62
444.034	103.62
444.255	86.62
444.476	96.62
444.698	80.62
444.919	88.62
445.14	135.62
445.361	117.62
445.582	100.62
445.803	118.62
446.024	116.62
446.245	122.62
446.466	113.62
446.687	89.62
446.908	70.62
447.129	93.62
447.35	86.62
447.571	102.62
447.792	105.62
448.013	95.62
448.234	101.62
448.455	100.62
448.675	91.62
448.896	101.62
449.117	85.62
449.338	99.62
449.559	113.62
449.779	109.62
450	95.62
450.221	86.62
450.442	93.62
450.662	83.62
450.883	110.62
451.104	96.62
451.324	103.62
451.545	84.62
451.766	85.62
451.986	97.62
452.207	94.62
452.428	89.62
452.648	93.62
452.869	107.62
453.089	105.62
453.31	113.62
453.53	90.62
453.751	79.62
453.971	91.62
454.192	97.62
454.412	87.62
454.633	101.62
454.853	84.62
455.073	77.62
455.294	91.62
455.514	99.62
455.734	95.62
455.955	91.62
456.175	97.62
456.395	93.62
456.616	68.62
456.836	78.62
457.056	83.62
457.276	86.62
457.497	81.62
457.717	87.62
457.937	93.62
458.157	94.62
458.377	87.62
458.598	104.62
458.818	133.62
459.038	129.62
459.258	110.62
459.478	81.62
459.698	89.62
459.918	78.62
460.138	91.62
460.358	83.62
460.578	99.62
460.798	86.62
461.018	91.62
461.238	93.62
461.458	85.62
461.678	79.62
461.898	88.62
462.118	89.62
462.338	82.62
462.558	83.62
462.777	82.62
462.997	94.62
463.217	87.62
463.437	68.62
463.657	86.62
463.876	95.62
464.096	73.62
464.316	84.62
464.536	105.62
464.755	80.62
464.975	94.62
465.195	125.62
465.414	129.62
465.634	105.62
465.854	92.62
466.073	85.62
466.293	104.62
466.512	99.62
466.732	84.62
466.951	77.62
467.171	91.62
467.391	91.62
467.61	87.62
467.829	107.62
468.049	140.62
468.268	179.62
468.488	99.62
468.707	90.62
468.927	86.62
469.146	100.62
469.365	91.62
469.585	80.62
469.804	98.62
470.023	90.62
470.243	90.62
470.462	89.62
470.681	102.62
470.901	88.62
471.12	86.62
471.339	86.62
471.558	104.62
471.777	104.62
471.997	111.62
472.216	217.62
472.435	373.62
472.654	168.62
472.873	89.62
473.092	88.62
473.311	75.62
473.53	90.62
473.749	103.62
473.968	103.62
474.187	101.62
474.406	89.62
474.625	96.62
474.844	82.62
475.063	93.62
475.282	95.62
475.501	87.62
475.72	86.62
475.939	90.62
476.158	87.62
476.377	96.62
476.596	78.62
476.814	98.62
477.033	88.62
477.252	98.62
477.471	101.62
477.69	104.62
477.908	84.62
478.127	98.62
478.346	87.62
478.564	91.62
478.783	90.62
479.002	81.62
479.22	92.62
479.439	96.62
479.658	99.62
479.876	106.62
480.095	90.62
480.313	93.62
480.532	100.62
480.751	117.62
480.969	224.62
481.188	635.62
481.406	366.62
481.624	133.62
481.843	113.62
482.061	89.62
482.28	106.62
482.498	90.62
482.717	74.62
482.935	86.62
483.153	85.62
483.372	82.62
483.59	102.62
483.808	88.62
484.027	92.62
484.245	94.62
484.463	81.62
484.681	90.62
484.9	92.62
485.118	98.62
485.336	100.62
485.554	91.62
485.772	99.62
485.99	94.62
486.209	97.62
486.427	102.62
486.645	90.62
486.863	113.62
487.081	99.62
487.299	97.62
487.517	102.62
487.735	103.62
487.953	86.62
488.171	95.62
488.389	105.62
488.607	82.62
488.825	96.62
489.043	90.62
489.261	93.62
489.479	93.62
489.696	92.62
489.914	79.62
490.132	86.62
490.35	82.62
490.568	116.62
490.786	94.62
491.003	102.62
491.221	92.62
491.439	93.62
491.657	103.62
491.874	100.62
492.092	82.62
492.31	102.62
492.527	90.62
492.745	100.62
492.963	86.62
493.18	103.62
493.398	105.62
493.615	105.62
493.833	102.62
494.05	85.62
494.268	87.62
494.485	90.62
494.703	75.62
494.92	79.62
495.138	89.62
495.355	95.62
495.573	89.62
495.79	83.62
496.008	109.62
496.225	92.62
496.442	75.62
496.66	87.62
496.877	80.62
497.094	87.62
497.312	89.62
497.529	93.62
497.746	80.62
497.963	85.62
498.181	103.62
498.398	92.62
498.615	102.62
498.832	116.62
499.049	103.62
499.267	101.62
499.484	85.62
499.701	80.62
499.918	99.62
500.135	107.62
500.352	89.62
500.569	96.62
500.786	87.62
501.003	92.62
501.22	102.62
501.437	99.62
501.654	95.62
501.871	102.62
502.088	83.62
502.305	95.62
502.522	99.62
502.739	85.62
502.956	81.62
503.172	94.62
503.389	97.62
503.606	100.62
503.823	88.62
504.04	87.62
504.256	101.62
504.473	93.62
504.69	90.62
504.907	88.62
505.123	95.62
505.34	85.62
505.557	81.62
505.773	80.62
505.99	92.62
506.207	94.62
506.423	99.62
506.64	99.62
506.856	98.62
507.073	88.62
507.289	96.62
507.506	88.62
507.722	123.62
507.939	115.62
508.155	95.62
508.372	90.62
508.588	100.62
508.805	108.62
509.021	87.62
509.238	99.62
509.454	100.62
509.67	91.62
509.887	113.62
510.103	125.62
510.319	180.62
510.536	569.62
510.752	1605.62
510.968	478.62
511.184	135.62
511.401	95.62
511.617	99.62
511.833	87.62
512.049	86.62
512.265	81.62
512.481	87.62
512.698	93.62
512.914	95.62
513.13	85.62
513.346	104.62
513.562	85.62
513.778	110.62
513.994	97.62
514.21	103.62
514.426	122.62
514.642	126.62
514.858	115.62
515.074	132.62
515.29	346.62
515.506	1027.62
