Data from Uncirc_1989_H10_HRD10591_00060.txt Node
Date: Wed Jan 03 11:57:47 EST 2024
User: Yrep
Spectrometer: HR+D1059
Trigger mode: 1
Integration Time (sec): 1.000000E-1
Scans to average: 1
Electric dark correction enabled: true
Nonlinearity correction enabled: false
Boxcar width: 0
XAxis mode: Wavelengths
Number of Pixels in Spectrum: 2048
>>>>>Begin Spectral Data<<<<<
223.165	-27.75
223.4	-27.75
223.635	-27.75
223.869	-32.75
224.104	-15.75
224.338	-22.75
224.573	-5.75
224.808	-10.75
225.042	1.25
225.277	-1.75
225.511	7.25
225.746	17.25
225.98	-0.75
226.215	15.25
226.449	21.25
226.683	21.25
226.918	20.25
227.152	14.25
227.387	31.25
227.621	40.25
227.856	37.25
228.09	51.25
228.324	59.25
228.559	54.25
228.793	61.25
229.027	64.25
229.262	68.25
229.496	77.25
229.73	79.25
229.964	69.25
230.199	74.25
230.433	77.25
230.667	79.25
230.901	82.25
231.136	77.25
231.37	88.25
231.604	92.25
231.838	85.25
232.072	83.25
232.306	79.25
232.541	91.25
232.775	75.25
233.009	88.25
233.243	61.25
233.477	81.25
233.711	96.25
233.945	84.25
234.179	93.25
234.413	79.25
234.647	75.25
234.881	84.25
235.115	73.25
235.349	77.25
235.583	92.25
235.817	72.25
236.051	80.25
236.285	78.25
236.519	85.25
236.753	86.25
236.987	75.25
237.221	89.25
237.455	76.25
237.689	72.25
237.922	63.25
238.156	74.25
238.39	79.25
238.624	72.25
238.858	90.25
239.091	77.25
239.325	85.25
239.559	94.25
239.793	82.25
240.027	80.25
240.26	80.25
240.494	76.25
240.728	72.25
240.961	81.25
241.195	73.25
241.429	79.25
241.662	75.25
241.896	72.25
242.13	70.25
242.363	83.25
242.597	83.25
242.83	79.25
243.064	69.25
243.298	63.25
243.531	79.25
243.765	93.25
243.998	94.25
244.232	79.25
244.465	80.25
244.699	76.25
244.932	80.25
245.166	88.25
245.399	72.25
245.633	62.25
245.866	63.25
246.099	76.25
246.333	87.25
246.566	68.25
246.8	83.25
247.033	87.25
247.266	71.25
247.5	81.25
247.733	89.25
247.966	91.25
248.2	85.25
248.433	86.25
248.666	86.25
248.899	92.25
249.133	86.25
249.366	96.25
249.599	83.25
249.832	79.25
250.066	84.25
250.299	88.25
250.532	88.25
250.765	71.25
250.998	68.25
251.231	88.25
251.465	65.25
251.698	65.25
251.931	68.25
252.164	72.25
252.397	89.25
252.63	84.25
252.863	70.25
253.096	81.25
253.329	81.25
253.562	80.25
253.795	83.25
254.028	79.25
254.261	84.25
254.494	87.25
254.727	88.25
254.96	82.25
255.193	91.25
255.426	81.25
255.659	89.25
255.892	87.25
256.124	77.25
256.357	92.25
256.59	91.25
256.823	76.25
257.056	80.25
257.289	77.25
257.521	77.25
257.754	76.25
257.987	77.25
258.22	84.25
258.452	89.25
258.685	79.25
258.918	79.25
259.151	79.25
259.383	79.25
259.616	94.25
259.849	62.25
260.081	93.25
260.314	81.25
260.547	100.25
260.779	83.25
261.012	74.25
261.244	80.25
261.477	98.25
261.71	83.25
261.942	102.25
262.175	108.25
262.407	105.25
262.64	94.25
262.872	77.25
263.105	85.25
263.337	71.25
263.57	79.25
263.802	86.25
264.035	93.25
264.267	86.25
264.499	65.25
264.732	80.25
264.964	88.25
265.197	85.25
265.429	105.25
265.661	79.25
265.894	90.25
266.126	93.25
266.358	93.25
266.591	90.25
266.823	95.25
267.055	97.25
267.287	88.25
267.52	88.25
267.752	88.25
267.984	67.25
268.216	86.25
268.448	91.25
268.681	85.25
268.913	95.25
269.145	93.25
269.377	87.25
269.609	90.25
269.841	87.25
270.073	82.25
270.306	80.25
270.538	72.25
270.77	69.25
271.002	86.25
271.234	99.25
271.466	86.25
271.698	94.25
271.93	83.25
272.162	79.25
272.394	88.25
272.626	76.25
272.858	83.25
273.09	93.25
273.322	91.25
273.553	89.25
273.785	95.25
274.017	72.25
274.249	63.25
274.481	86.25
274.713	87.25
274.945	89.25
275.176	73.25
275.408	99.25
275.64	80.25
275.872	85.25
276.104	87.25
276.335	99.25
276.567	80.25
276.799	96.25
277.031	91.25
277.262	99.25
277.494	93.25
277.726	83.25
277.957	83.25
278.189	80.25
278.421	79.25
278.652	75.25
278.884	79.25
279.115	83.25
279.347	88.25
279.579	82.25
279.81	93.25
280.042	90.25
280.273	92.25
280.505	90.25
280.736	76.25
280.968	95.25
281.199	97.25
281.431	87.25
281.662	91.25
281.894	81.25
282.125	103.25
282.356	118.25
282.588	122.25
282.819	117.25
283.051	95.25
283.282	94.25
283.513	90.25
283.745	85.25
283.976	94.25
284.207	88.25
284.439	81.25
284.67	86.25
284.901	98.25
285.132	93.25
285.364	96.25
285.595	83.25
285.826	79.25
286.057	87.25
286.288	70.25
286.52	89.25
286.751	78.25
286.982	77.25
287.213	88.25
287.444	95.25
287.675	93.25
287.906	83.25
288.138	88.25
288.369	81.25
288.6	95.25
288.831	69.25
289.062	83.25
289.293	92.25
289.524	104.25
289.755	84.25
289.986	90.25
290.217	81.25
290.448	87.25
290.679	94.25
290.91	97.25
291.141	87.25
291.371	80.25
291.602	65.25
291.833	79.25
292.064	96.25
292.295	86.25
292.526	80.25
292.757	79.25
292.987	92.25
293.218	90.25
293.449	94.25
293.68	98.25
293.91	77.25
294.141	95.25
294.372	92.25
294.603	96.25
294.833	81.25
295.064	95.25
295.295	92.25
295.525	99.25
295.756	99.25
295.987	118.25
296.217	119.25
296.448	134.25
296.679	90.25
296.909	91.25
297.14	85.25
297.37	97.25
297.601	83.25
297.831	81.25
298.062	106.25
298.292	83.25
298.523	81.25
298.753	91.25
298.984	99.25
299.214	90.25
299.445	85.25
299.675	91.25
299.905	97.25
300.136	81.25
300.366	66.25
300.597	78.25
300.827	81.25
301.057	87.25
301.288	99.25
301.518	86.25
301.748	105.25
301.979	99.25
302.209	92.25
302.439	93.25
302.669	94.25
302.9	79.25
303.13	100.25
303.36	95.25
303.59	104.25
303.82	102.25
304.051	92.25
304.281	82.25
304.511	87.25
304.741	81.25
304.971	83.25
305.201	84.25
305.431	97.25
305.661	102.25
305.891	97.25
306.121	92.25
306.352	103.25
306.582	90.25
306.812	81.25
307.042	91.25
307.272	97.25
307.502	101.25
307.731	93.25
307.961	87.25
308.191	104.25
308.421	87.25
308.651	93.25
308.881	92.25
309.111	88.25
309.341	100.25
309.571	89.25
309.8	110.25
310.03	100.25
310.26	99.25
310.49	100.25
310.72	92.25
310.949	104.25
311.179	95.25
311.409	78.25
311.639	105.25
311.868	95.25
312.098	89.25
312.328	101.25
312.557	93.25
312.787	97.25
313.017	80.25
313.246	88.25
313.476	90.25
313.706	86.25
313.935	100.25
314.165	83.25
314.394	97.25
314.624	100.25
314.853	107.25
315.083	113.25
315.312	96.25
315.542	95.25
315.771	108.25
316.001	103.25
316.23	82.25
316.46	84.25
316.689	94.25
316.919	87.25
317.148	89.25
317.377	86.25
317.607	88.25
317.836	97.25
318.065	76.25
318.295	96.25
318.524	98.25
318.753	97.25
318.983	100.25
319.212	104.25
319.441	103.25
319.67	87.25
319.9	89.25
320.129	92.25
320.358	104.25
320.587	91.25
320.816	99.25
321.046	89.25
321.275	99.25
321.504	98.25
321.733	88.25
321.962	96.25
322.191	104.25
322.42	83.25
322.649	105.25
322.878	111.25
323.108	104.25
323.337	115.25
323.566	128.25
323.795	133.25
324.024	193.25
324.253	345.25
324.482	752.25
324.71	1530.25
324.939	2048.25
325.168	746.25
325.397	229.25
325.626	135.25
325.855	137.25
326.084	109.25
326.313	113.25
326.542	142.25
326.77	231.25
326.999	399.25
327.228	864.25
327.457	1534.25
327.686	1248.25
327.914	359.25
328.143	205.25
328.372	189.25
328.6	141.25
328.829	100.25
329.058	128.25
329.287	121.25
329.515	112.25
329.744	115.25
329.972	137.25
330.201	183.25
330.43	207.25
330.658	172.25
330.887	132.25
331.115	121.25
331.344	104.25
331.572	95.25
331.801	104.25
332.03	97.25
332.258	95.25
332.486	95.25
332.715	76.25
332.943	83.25
333.172	102.25
333.4	102.25
333.629	95.25
333.857	129.25
334.085	124.25
334.314	187.25
334.542	261.25
334.771	256.25
334.999	125.25
335.227	90.25
335.455	95.25
335.684	115.25
335.912	97.25
336.14	95.25
336.369	95.25
336.597	97.25
336.825	102.25
337.053	83.25
337.281	87.25
337.51	82.25
337.738	88.25
337.966	91.25
338.194	86.25
338.422	90.25
338.65	92.25
338.878	80.25
339.106	97.25
339.334	78.25
339.562	97.25
339.79	90.25
340.018	95.25
340.246	97.25
340.474	79.25
340.702	79.25
340.93	89.25
341.158	93.25
341.386	95.25
341.614	96.25
341.842	99.25
342.07	83.25
342.298	98.25
342.526	101.25
342.754	91.25
342.981	79.25
343.209	97.25
343.437	97.25
343.665	85.25
343.893	95.25
344.12	102.25
344.348	105.25
344.576	106.25
344.804	87.25
345.031	97.25
345.259	99.25
345.487	95.25
345.714	88.25
345.942	102.25
346.17	84.25
346.397	100.25
346.625	95.25
346.853	85.25
347.08	97.25
347.308	99.25
347.535	82.25
347.763	99.25
347.99	94.25
348.218	83.25
348.445	98.25
348.673	86.25
348.9	100.25
349.128	96.25
349.355	70.25
349.583	84.25
349.81	83.25
350.037	96.25
350.265	96.25
350.492	91.25
350.72	84.25
350.947	87.25
351.174	103.25
351.402	107.25
351.629	104.25
351.856	102.25
352.083	107.25
352.311	114.25
352.538	108.25
352.765	108.25
352.992	112.25
353.22	116.25
353.447	95.25
353.674	96.25
353.901	98.25
354.128	94.25
354.355	80.25
354.583	93.25
354.81	99.25
355.037	82.25
355.264	93.25
355.491	91.25
355.718	86.25
355.945	92.25
356.172	92.25
356.399	103.25
356.626	99.25
356.853	95.25
357.08	73.25
357.307	85.25
357.534	93.25
357.761	98.25
357.988	82.25
358.215	90.25
358.441	96.25
358.668	79.25
358.895	90.25
359.122	84.25
359.349	85.25
359.576	87.25
359.802	106.25
360.029	110.25
360.256	108.25
360.483	92.25
360.709	88.25
360.936	88.25
361.163	87.25
361.39	82.25
361.616	79.25
361.843	96.25
362.07	89.25
362.296	89.25
362.523	87.25
362.749	89.25
362.976	85.25
363.203	89.25
363.429	89.25
363.656	84.25
363.882	81.25
364.109	94.25
364.335	85.25
364.562	79.25
364.788	78.25
365.015	88.25
365.241	100.25
365.468	98.25
365.694	104.25
365.92	95.25
366.147	93.25
366.373	77.25
366.599	82.25
366.826	78.25
367.052	95.25
367.278	86.25
367.505	92.25
367.731	88.25
367.957	97.25
368.184	73.25
368.41	96.25
368.636	123.25
368.862	106.25
369.089	116.25
369.315	76.25
369.541	97.25
369.767	93.25
369.993	82.25
370.219	80.25
370.445	89.25
370.672	86.25
370.898	95.25
371.124	89.25
371.35	95.25
371.576	93.25
371.802	89.25
372.028	86.25
372.254	84.25
372.48	99.25
372.706	86.25
372.932	83.25
373.158	92.25
373.384	89.25
373.61	77.25
373.835	70.25
374.061	101.25
374.287	82.25
374.513	84.25
374.739	76.25
374.965	82.25
375.191	85.25
375.416	80.25
375.642	84.25
375.868	97.25
376.094	84.25
376.319	94.25
376.545	83.25
376.771	85.25
376.997	88.25
377.222	101.25
377.448	91.25
377.674	96.25
377.899	88.25
378.125	86.25
378.35	80.25
378.576	68.25
378.802	83.25
379.027	77.25
379.253	82.25
379.478	96.25
379.704	91.25
379.929	94.25
380.155	94.25
380.38	94.25
380.606	92.25
380.831	89.25
381.057	88.25
381.282	87.25
381.507	102.25
381.733	99.25
381.958	100.25
382.184	89.25
382.409	90.25
382.634	97.25
382.86	95.25
383.085	93.25
383.31	100.25
383.535	87.25
383.761	86.25
383.986	96.25
384.211	94.25
384.436	93.25
384.662	93.25
384.887	91.25
385.112	97.25
385.337	96.25
385.562	107.25
385.787	97.25
386.013	104.25
386.238	105.25
386.463	106.25
386.688	105.25
386.913	96.25
387.138	123.25
387.363	91.25
387.588	85.25
387.813	97.25
388.038	92.25
388.263	92.25
388.488	87.25
388.713	92.25
388.938	89.25
389.163	90.25
389.387	97.25
389.612	87.25
389.837	98.25
390.062	93.25
390.287	91.25
390.512	87.25
390.736	91.25
390.961	80.25
391.186	103.25
391.411	102.25
391.636	80.25
391.86	81.25
392.085	99.25
392.31	78.25
392.534	92.25
392.759	91.25
392.984	84.25
393.208	97.25
393.433	111.25
393.658	96.25
393.882	86.25
394.107	78.25
394.331	93.25
394.556	94.25
394.78	91.25
395.005	97.25
395.229	88.25
395.454	88.25
395.678	88.25
395.903	95.25
396.127	91.25
396.352	87.25
396.576	85.25
396.801	97.25
397.025	88.25
397.249	95.25
397.474	77.25
397.698	77.25
397.922	83.25
398.147	83.25
398.371	89.25
398.595	97.25
398.82	91.25
399.044	91.25
399.268	79.25
399.492	78.25
399.717	82.25
399.941	87.25
400.165	80.25
400.389	80.25
400.613	84.25
400.837	91.25
401.062	79.25
401.286	97.25
401.51	79.25
401.734	92.25
401.958	98.25
402.182	123.25
402.406	136.25
402.63	103.25
402.854	92.25
403.078	84.25
403.302	82.25
403.526	91.25
403.75	93.25
403.974	85.25
404.198	92.25
404.422	77.25
404.645	87.25
404.869	103.25
405.093	93.25
405.317	86.25
405.541	94.25
405.765	87.25
405.988	104.25
406.212	167.25
406.436	204.25
406.66	136.25
406.883	102.25
407.107	86.25
407.331	95.25
407.555	96.25
407.778	89.25
408.002	88.25
408.226	89.25
408.449	86.25
408.673	97.25
408.896	87.25
409.12	82.25
409.344	94.25
409.567	99.25
409.791	93.25
410.014	85.25
410.238	89.25
410.461	86.25
410.685	79.25
410.908	86.25
411.132	90.25
411.355	96.25
411.578	96.25
411.802	79.25
412.025	86.25
412.249	85.25
412.472	89.25
412.695	96.25
412.919	76.25
413.142	88.25
413.365	90.25
413.589	89.25
413.812	97.25
414.035	90.25
414.258	81.25
414.482	71.25
414.705	81.25
414.928	99.25
415.151	80.25
415.374	94.25
415.597	88.25
415.821	97.25
416.044	79.25
416.267	89.25
416.49	97.25
416.713	82.25
416.936	89.25
417.159	88.25
417.382	65.25
417.605	95.25
417.828	94.25
418.051	91.25
418.274	68.25
418.497	62.25
418.72	84.25
418.943	88.25
419.166	89.25
419.389	92.25
419.611	97.25
419.834	86.25
420.057	75.25
420.28	91.25
420.503	87.25
420.726	80.25
420.948	93.25
421.171	89.25
421.394	98.25
421.617	89.25
421.839	88.25
422.062	86.25
422.285	86.25
422.507	89.25
422.73	94.25
422.953	85.25
423.175	83.25
423.398	95.25
423.621	86.25
423.843	85.25
424.066	82.25
424.288	82.25
424.511	93.25
424.733	87.25
424.956	109.25
425.178	98.25
425.401	97.25
425.623	85.25
425.846	99.25
426.068	90.25
426.291	95.25
426.513	98.25
426.735	86.25
426.958	93.25
427.18	111.25
427.402	117.25
427.625	159.25
427.847	122.25
428.069	111.25
428.292	92.25
428.514	95.25
428.736	88.25
428.958	90.25
429.181	90.25
429.403	91.25
429.625	96.25
429.847	85.25
430.069	81.25
430.292	86.25
430.514	81.25
430.736	94.25
430.958	91.25
431.18	87.25
431.402	93.25
431.624	72.25
431.846	79.25
432.068	85.25
432.29	77.25
432.512	84.25
432.734	90.25
432.956	78.25
433.178	95.25
433.4	97.25
433.622	90.25
433.844	79.25
434.066	83.25
434.287	79.25
434.509	89.25
434.731	97.25
434.953	86.25
435.175	89.25
435.397	93.25
435.618	86.25
435.84	84.25
436.062	124.25
436.284	119.25
436.505	101.25
436.727	101.25
436.949	88.25
437.17	86.25
437.392	80.25
437.614	99.25
437.835	96.25
438.057	98.25
438.278	92.25
438.5	86.25
438.721	108.25
438.943	97.25
439.165	93.25
439.386	89.25
439.608	87.25
439.829	89.25
440.05	124.25
440.272	133.25
440.493	92.25
440.715	90.25
440.936	84.25
441.158	80.25
441.379	87.25
441.6	88.25
441.822	98.25
442.043	85.25
442.264	92.25
442.486	98.25
442.707	96.25
442.928	105.25
443.149	127.25
443.371	111.25
443.592	99.25
443.813	98.25
444.034	91.25
444.255	93.25
444.476	75.25
444.698	97.25
444.919	87.25
445.14	136.25
445.361	132.25
445.582	117.25
445.803	135.25
446.024	124.25
446.245	125.25
446.466	113.25
446.687	107.25
446.908	89.25
447.129	91.25
447.35	77.25
447.571	78.25
447.792	87.25
448.013	101.25
448.234	96.25
448.455	98.25
448.675	113.25
448.896	117.25
449.117	87.25
449.338	108.25
449.559	112.25
449.779	112.25
450	100.25
450.221	85.25
450.442	98.25
450.662	82.25
450.883	116.25
451.104	100.25
451.324	94.25
451.545	99.25
451.766	79.25
451.986	91.25
452.207	95.25
452.428	90.25
452.648	96.25
452.869	91.25
453.089	100.25
453.31	113.25
453.53	97.25
453.751	81.25
453.971	103.25
454.192	106.25
454.412	88.25
454.633	88.25
454.853	107.25
455.073	86.25
455.294	88.25
455.514	105.25
455.734	76.25
455.955	80.25
456.175	94.25
456.395	86.25
456.616	77.25
456.836	90.25
457.056	89.25
457.276	86.25
457.497	91.25
457.717	92.25
457.937	87.25
458.157	89.25
458.377	89.25
458.598	102.25
458.818	141.25
459.038	144.25
459.258	94.25
459.478	98.25
459.698	86.25
459.918	78.25
460.138	97.25
460.358	80.25
460.578	98.25
460.798	95.25
461.018	79.25
461.238	84.25
461.458	88.25
461.678	94.25
461.898	78.25
462.118	79.25
462.338	92.25
462.558	82.25
462.777	89.25
462.997	91.25
463.217	83.25
463.437	93.25
463.657	89.25
463.876	91.25
464.096	92.25
464.316	89.25
464.536	78.25
464.755	98.25
464.975	103.25
465.195	146.25
465.414	136.25
465.634	107.25
465.854	88.25
466.073	92.25
466.293	80.25
466.512	81.25
466.732	92.25
466.951	82.25
467.171	93.25
467.391	105.25
467.61	98.25
467.829	93.25
468.049	149.25
468.268	147.25
468.488	91.25
468.707	83.25
468.927	87.25
469.146	91.25
469.365	91.25
469.585	97.25
469.804	107.25
470.023	104.25
470.243	85.25
470.462	103.25
470.681	113.25
470.901	86.25
471.12	84.25
471.339	93.25
471.558	95.25
471.777	98.25
471.997	112.25
472.216	182.25
472.435	321.25
472.654	111.25
472.873	101.25
473.092	73.25
473.311	83.25
473.53	91.25
473.749	76.25
473.968	89.25
474.187	99.25
474.406	89.25
474.625	90.25
474.844	76.25
475.063	91.25
475.282	77.25
475.501	85.25
475.72	83.25
475.939	73.25
476.158	82.25
476.377	98.25
476.596	91.25
476.814	87.25
477.033	83.25
477.252	91.25
477.471	82.25
477.69	85.25
477.908	73.25
478.127	102.25
478.346	83.25
478.564	90.25
478.783	99.25
479.002	84.25
479.22	97.25
479.439	93.25
479.658	102.25
479.876	92.25
480.095	91.25
480.313	84.25
480.532	86.25
480.751	125.25
480.969	205.25
481.188	537.25
481.406	322.25
481.624	111.25
481.843	99.25
482.061	92.25
482.28	85.25
482.498	96.25
482.717	83.25
482.935	83.25
483.153	84.25
483.372	93.25
483.59	83.25
483.808	80.25
484.027	97.25
484.245	82.25
484.463	80.25
484.681	95.25
484.9	83.25
485.118	101.25
485.336	99.25
485.554	95.25
485.772	86.25
485.99	96.25
486.209	113.25
486.427	83.25
486.645	107.25
486.863	114.25
487.081	93.25
487.299	87.25
487.517	99.25
487.735	88.25
487.953	89.25
488.171	93.25
488.389	86.25
488.607	97.25
488.825	99.25
489.043	99.25
489.261	91.25
489.479	91.25
489.696	68.25
489.914	94.25
490.132	86.25
490.35	88.25
490.568	97.25
490.786	96.25
491.003	94.25
491.221	71.25
491.439	94.25
491.657	77.25
491.874	96.25
492.092	82.25
492.31	81.25
492.527	88.25
492.745	100.25
492.963	86.25
493.18	100.25
493.398	93.25
493.615	93.25
493.833	100.25
494.05	95.25
494.268	94.25
494.485	83.25
494.703	89.25
494.92	97.25
495.138	73.25
495.355	89.25
495.573	96.25
495.79	86.25
496.008	103.25
496.225	97.25
496.442	88.25
496.66	97.25
496.877	83.25
497.094	81.25
497.312	82.25
497.529	81.25
497.746	99.25
497.963	88.25
498.181	70.25
498.398	91.25
498.615	101.25
498.832	115.25
499.049	96.25
499.267	97.25
499.484	93.25
499.701	91.25
499.918	100.25
500.135	92.25
500.352	79.25
500.569	90.25
500.786	91.25
501.003	107.25
501.22	100.25
501.437	95.25
501.654	89.25
501.871	108.25
502.088	77.25
502.305	93.25
502.522	90.25
502.739	90.25
502.956	96.25
503.172	95.25
503.389	89.25
503.606	94.25
503.823	95.25
504.04	102.25
504.256	89.25
504.473	93.25
504.69	86.25
504.907	84.25
505.123	75.25
505.34	85.25
505.557	90.25
505.773	97.25
505.99	81.25
506.207	93.25
506.423	95.25
506.64	91.25
506.856	89.25
507.073	92.25
507.289	104.25
507.506	96.25
507.722	114.25
507.939	98.25
508.155	86.25
508.372	87.25
508.588	91.25
508.805	81.25
509.021	91.25
509.238	88.25
509.454	78.25
509.67	109.25
509.887	114.25
510.103	124.25
510.319	213.25
510.536	675.25
510.752	2078.25
510.968	552.25
511.184	146.25
511.401	124.25
511.617	93.25
511.833	90.25
512.049	79.25
512.265	93.25
512.481	76.25
512.698	97.25
512.914	90.25
513.13	100.25
513.346	112.25
513.562	96.25
513.778	102.25
513.994	94.25
514.21	97.25
514.426	105.25
514.642	130.25
514.858	134.25
515.074	149.25
515.29	407.25
515.506	1345.25
515.721	502.25
515.937	158.25
516.153	102.25
516.369	110.25
516.585	96.25
