Data from Uncirc_1989_H10_HRD10591_00045.txt Node
Date: Wed Jan 03 11:57:44 EST 2024
User: Yrep
Spectrometer: HR+D1059
Trigger mode: 1
Integration Time (sec): 1.000000E-1
Scans to average: 1
Electric dark correction enabled: true
Nonlinearity correction enabled: false
Boxcar width: 0
XAxis mode: Wavelengths
Number of Pixels in Spectrum: 2048
>>>>>Begin Spectral Data<<<<<
223.165	-22.38
223.4	-22.38
223.635	-22.38
223.869	-29.38
224.104	-31.38
224.338	-4.38
224.573	-16.38
224.808	-9.38
225.042	-8.38
225.277	-6.38
225.511	8.62
225.746	-2.38
225.98	-2.38
226.215	20.62
226.449	20.62
226.683	19.62
226.918	30.62
227.152	32.62
227.387	39.62
227.621	22.62
227.856	39.62
228.09	50.62
228.324	46.62
228.559	51.62
228.793	68.62
229.027	75.62
229.262	69.62
229.496	88.62
229.73	76.62
229.964	88.62
230.199	87.62
230.433	64.62
230.667	84.62
230.901	71.62
231.136	83.62
231.37	89.62
231.604	89.62
231.838	87.62
232.072	81.62
232.306	79.62
232.541	73.62
232.775	67.62
233.009	77.62
233.243	90.62
233.477	86.62
233.711	81.62
233.945	82.62
234.179	87.62
234.413	80.62
234.647	69.62
234.881	82.62
235.115	72.62
235.349	73.62
235.583	92.62
235.817	76.62
236.051	105.62
236.285	88.62
236.519	68.62
236.753	58.62
236.987	75.62
237.221	80.62
237.455	83.62
237.689	87.62
237.922	90.62
238.156	68.62
238.39	71.62
238.624	72.62
238.858	80.62
239.091	82.62
239.325	88.62
239.559	79.62
239.793	76.62
240.027	77.62
240.26	58.62
240.494	82.62
240.728	68.62
240.961	84.62
241.195	106.62
241.429	71.62
241.662	91.62
241.896	76.62
242.13	86.62
242.363	55.62
242.597	69.62
242.83	83.62
243.064	76.62
243.298	71.62
243.531	73.62
243.765	81.62
243.998	83.62
244.232	74.62
244.465	88.62
244.699	80.62
244.932	62.62
245.166	71.62
245.399	79.62
245.633	68.62
245.866	71.62
246.099	79.62
246.333	78.62
246.566	80.62
246.8	84.62
247.033	80.62
247.266	76.62
247.5	73.62
247.733	90.62
247.966	87.62
248.2	89.62
248.433	93.62
248.666	80.62
248.899	85.62
249.133	78.62
249.366	94.62
249.599	82.62
249.832	92.62
250.066	110.62
250.299	93.62
250.532	84.62
250.765	74.62
250.998	78.62
251.231	76.62
251.465	67.62
251.698	80.62
251.931	86.62
252.164	83.62
252.397	88.62
252.63	72.62
252.863	70.62
253.096	68.62
253.329	76.62
253.562	85.62
253.795	78.62
254.028	71.62
254.261	96.62
254.494	77.62
254.727	91.62
254.96	81.62
255.193	98.62
255.426	69.62
255.659	71.62
255.892	79.62
256.124	78.62
256.357	68.62
256.59	81.62
256.823	86.62
257.056	92.62
257.289	84.62
257.521	80.62
257.754	80.62
257.987	76.62
258.22	92.62
258.452	69.62
258.685	90.62
258.918	88.62
259.151	84.62
259.383	77.62
259.616	77.62
259.849	69.62
260.081	82.62
260.314	78.62
260.547	84.62
260.779	92.62
261.012	92.62
261.244	93.62
261.477	99.62
261.71	99.62
261.942	102.62
262.175	110.62
262.407	97.62
262.64	102.62
262.872	81.62
263.105	77.62
263.337	103.62
263.57	76.62
263.802	90.62
264.035	86.62
264.267	84.62
264.499	94.62
264.732	84.62
264.964	97.62
265.197	80.62
265.429	78.62
265.661	87.62
265.894	87.62
266.126	93.62
266.358	96.62
266.591	87.62
266.823	87.62
267.055	95.62
267.287	82.62
267.52	71.62
267.752	81.62
267.984	99.62
268.216	86.62
268.448	77.62
268.681	88.62
268.913	82.62
269.145	88.62
269.377	94.62
269.609	69.62
269.841	90.62
270.073	68.62
270.306	98.62
270.538	92.62
270.77	78.62
271.002	81.62
271.234	101.62
271.466	71.62
271.698	100.62
271.93	92.62
272.162	87.62
272.394	98.62
272.626	81.62
272.858	87.62
273.09	75.62
273.322	89.62
273.553	86.62
273.785	76.62
274.017	86.62
274.249	92.62
274.481	100.62
274.713	91.62
274.945	81.62
275.176	69.62
275.408	97.62
275.64	73.62
275.872	85.62
276.104	100.62
276.335	94.62
276.567	89.62
276.799	101.62
277.031	86.62
277.262	96.62
277.494	90.62
277.726	88.62
277.957	72.62
278.189	80.62
278.421	95.62
278.652	85.62
278.884	79.62
279.115	81.62
279.347	91.62
279.579	92.62
279.81	85.62
280.042	85.62
280.273	93.62
280.505	85.62
280.736	89.62
280.968	81.62
281.199	69.62
281.431	74.62
281.662	79.62
281.894	86.62
282.125	94.62
282.356	108.62
282.588	127.62
282.819	109.62
283.051	90.62
283.282	98.62
283.513	97.62
283.745	86.62
283.976	96.62
284.207	96.62
284.439	81.62
284.67	87.62
284.901	90.62
285.132	97.62
285.364	68.62
285.595	79.62
285.826	83.62
286.057	86.62
286.288	100.62
286.52	83.62
286.751	83.62
286.982	94.62
287.213	89.62
287.444	82.62
287.675	89.62
287.906	82.62
288.138	81.62
288.369	84.62
288.6	100.62
288.831	91.62
289.062	78.62
289.293	91.62
289.524	84.62
289.755	88.62
289.986	80.62
290.217	84.62
290.448	94.62
290.679	88.62
290.91	94.62
291.141	102.62
291.371	97.62
291.602	74.62
291.833	92.62
292.064	88.62
292.295	99.62
292.526	87.62
292.757	96.62
292.987	96.62
293.218	87.62
293.449	92.62
293.68	87.62
293.91	85.62
294.141	96.62
294.372	86.62
294.603	84.62
294.833	79.62
295.064	88.62
295.295	87.62
295.525	86.62
295.756	90.62
295.987	97.62
296.217	129.62
296.448	108.62
296.679	82.62
296.909	96.62
297.14	85.62
297.37	100.62
297.601	97.62
297.831	83.62
298.062	101.62
298.292	91.62
298.523	93.62
298.753	89.62
298.984	90.62
299.214	95.62
299.445	98.62
299.675	77.62
299.905	76.62
300.136	99.62
300.366	88.62
300.597	87.62
300.827	106.62
301.057	97.62
301.288	96.62
301.518	86.62
301.748	89.62
301.979	117.62
302.209	97.62
302.439	86.62
302.669	92.62
302.9	91.62
303.13	98.62
303.36	103.62
303.59	91.62
303.82	113.62
304.051	81.62
304.281	95.62
304.511	94.62
304.741	84.62
304.971	96.62
305.201	82.62
305.431	85.62
305.661	101.62
305.891	104.62
306.121	98.62
306.352	98.62
306.582	93.62
306.812	91.62
307.042	94.62
307.272	97.62
307.502	108.62
307.731	90.62
307.961	111.62
308.191	94.62
308.421	96.62
308.651	92.62
308.881	97.62
309.111	89.62
309.341	86.62
309.571	96.62
309.8	95.62
310.03	95.62
310.26	93.62
310.49	96.62
310.72	78.62
310.949	89.62
311.179	120.62
311.409	96.62
311.639	88.62
311.868	96.62
312.098	90.62
312.328	84.62
312.557	98.62
312.787	90.62
313.017	82.62
313.246	99.62
313.476	90.62
313.706	79.62
313.935	83.62
314.165	85.62
314.394	96.62
314.624	95.62
314.853	79.62
315.083	97.62
315.312	95.62
315.542	103.62
315.771	82.62
316.001	98.62
316.23	80.62
316.46	97.62
316.689	102.62
316.919	99.62
317.148	104.62
317.377	92.62
317.607	88.62
317.836	88.62
318.065	92.62
318.295	91.62
318.524	98.62
318.753	93.62
318.983	90.62
319.212	87.62
319.441	90.62
319.67	108.62
319.9	84.62
320.129	97.62
320.358	89.62
320.587	99.62
320.816	106.62
321.046	93.62
321.275	92.62
321.504	97.62
321.733	84.62
321.962	97.62
322.191	92.62
322.42	91.62
322.649	104.62
322.878	98.62
323.108	120.62
323.337	113.62
323.566	125.62
323.795	137.62
324.024	201.62
324.253	319.62
324.482	713.62
324.71	1442.62
324.939	1896.62
325.168	683.62
325.397	200.62
325.626	129.62
325.855	118.62
326.084	100.62
326.313	126.62
326.542	134.62
326.77	210.62
326.999	380.62
327.228	834.62
327.457	1509.62
327.686	1184.62
327.914	321.62
328.143	183.62
328.372	148.62
328.6	144.62
328.829	126.62
329.058	117.62
329.287	114.62
329.515	102.62
329.744	105.62
329.972	121.62
330.201	157.62
330.43	200.62
330.658	144.62
330.887	133.62
331.115	112.62
331.344	111.62
331.572	103.62
331.801	95.62
332.03	106.62
332.258	89.62
332.486	80.62
332.715	69.62
332.943	97.62
333.172	99.62
333.4	100.62
333.629	107.62
333.857	113.62
334.085	132.62
334.314	131.62
334.542	198.62
334.771	195.62
334.999	116.62
335.227	94.62
335.455	91.62
335.684	80.62
335.912	87.62
336.14	87.62
336.369	85.62
336.597	104.62
336.825	91.62
337.053	94.62
337.281	96.62
337.51	88.62
337.738	101.62
337.966	98.62
338.194	85.62
338.422	95.62
338.65	90.62
338.878	102.62
339.106	104.62
339.334	90.62
339.562	93.62
339.79	83.62
340.018	89.62
340.246	83.62
340.474	84.62
340.702	81.62
340.93	95.62
341.158	96.62
341.386	89.62
341.614	76.62
341.842	92.62
342.07	94.62
342.298	92.62
342.526	77.62
342.754	84.62
342.981	97.62
343.209	83.62
343.437	89.62
343.665	68.62
343.893	107.62
344.12	105.62
344.348	89.62
344.576	88.62
344.804	72.62
345.031	100.62
345.259	98.62
345.487	80.62
345.714	84.62
345.942	92.62
346.17	102.62
346.397	90.62
346.625	89.62
346.853	86.62
347.08	91.62
347.308	90.62
347.535	106.62
347.763	104.62
347.99	103.62
348.218	84.62
348.445	99.62
348.673	99.62
348.9	109.62
349.128	86.62
349.355	96.62
349.583	99.62
349.81	95.62
350.037	90.62
350.265	97.62
350.492	84.62
350.72	93.62
350.947	89.62
351.174	105.62
351.402	98.62
351.629	94.62
351.856	101.62
352.083	98.62
352.311	92.62
352.538	97.62
352.765	106.62
352.992	100.62
353.22	118.62
353.447	116.62
353.674	87.62
353.901	107.62
354.128	96.62
354.355	84.62
354.583	93.62
354.81	109.62
355.037	86.62
355.264	102.62
355.491	98.62
355.718	97.62
355.945	102.62
356.172	101.62
356.399	87.62
356.626	96.62
356.853	94.62
357.08	100.62
357.307	98.62
357.534	85.62
357.761	106.62
357.988	90.62
358.215	87.62
358.441	86.62
358.668	85.62
358.895	87.62
359.122	85.62
359.349	84.62
359.576	103.62
359.802	99.62
360.029	109.62
360.256	102.62
360.483	94.62
360.709	73.62
360.936	88.62
361.163	96.62
361.39	108.62
361.616	93.62
361.843	73.62
362.07	86.62
362.296	92.62
362.523	73.62
362.749	99.62
362.976	84.62
363.203	106.62
363.429	88.62
363.656	97.62
363.882	87.62
364.109	84.62
364.335	89.62
364.562	102.62
364.788	83.62
365.015	99.62
365.241	100.62
365.468	106.62
365.694	103.62
365.92	81.62
366.147	72.62
366.373	90.62
366.599	81.62
366.826	96.62
367.052	84.62
367.278	93.62
367.505	86.62
367.731	85.62
367.957	82.62
368.184	80.62
368.41	95.62
368.636	105.62
368.862	117.62
369.089	115.62
369.315	91.62
369.541	97.62
369.767	82.62
369.993	85.62
370.219	91.62
370.445	81.62
370.672	85.62
370.898	78.62
371.124	88.62
371.35	96.62
371.576	103.62
371.802	100.62
372.028	101.62
372.254	93.62
372.48	93.62
372.706	80.62
372.932	72.62
373.158	67.62
373.384	96.62
373.61	97.62
373.835	86.62
374.061	72.62
374.287	81.62
374.513	81.62
374.739	102.62
374.965	94.62
375.191	101.62
375.416	92.62
375.642	105.62
375.868	101.62
376.094	82.62
376.319	73.62
376.545	91.62
376.771	83.62
376.997	81.62
377.222	100.62
377.448	105.62
377.674	80.62
377.899	84.62
378.125	97.62
378.35	82.62
378.576	97.62
378.802	91.62
379.027	100.62
379.253	86.62
379.478	87.62
379.704	86.62
379.929	85.62
380.155	84.62
380.38	84.62
380.606	100.62
380.831	99.62
381.057	104.62
381.282	81.62
381.507	94.62
381.733	86.62
381.958	78.62
382.184	76.62
382.409	94.62
382.634	88.62
382.86	96.62
383.085	90.62
383.31	114.62
383.535	82.62
383.761	90.62
383.986	77.62
384.211	97.62
384.436	80.62
384.662	96.62
384.887	101.62
385.112	103.62
385.337	85.62
385.562	98.62
385.787	110.62
386.013	89.62
386.238	108.62
386.463	95.62
386.688	98.62
386.913	98.62
387.138	89.62
387.363	97.62
387.588	100.62
387.813	100.62
388.038	70.62
388.263	101.62
388.488	106.62
388.713	100.62
388.938	84.62
389.163	88.62
389.387	87.62
389.612	86.62
389.837	94.62
390.062	91.62
390.287	101.62
390.512	99.62
390.736	78.62
390.961	80.62
391.186	104.62
391.411	101.62
391.636	89.62
391.86	83.62
392.085	82.62
392.31	92.62
392.534	70.62
392.759	80.62
392.984	88.62
393.208	99.62
393.433	116.62
393.658	113.62
393.882	87.62
394.107	84.62
394.331	99.62
394.556	84.62
394.78	80.62
395.005	93.62
395.229	107.62
395.454	82.62
395.678	67.62
395.903	84.62
396.127	88.62
396.352	81.62
396.576	85.62
396.801	91.62
397.025	94.62
397.249	85.62
397.474	92.62
397.698	89.62
397.922	88.62
398.147	91.62
398.371	72.62
398.595	94.62
398.82	89.62
399.044	85.62
399.268	85.62
399.492	84.62
399.717	84.62
399.941	95.62
400.165	100.62
400.389	85.62
400.613	79.62
400.837	94.62
401.062	76.62
401.286	70.62
401.51	74.62
401.734	96.62
401.958	103.62
402.182	118.62
402.406	138.62
402.63	103.62
402.854	80.62
403.078	87.62
403.302	91.62
403.526	90.62
403.75	73.62
403.974	83.62
404.198	84.62
404.422	98.62
404.645	95.62
404.869	88.62
405.093	92.62
405.317	87.62
405.541	95.62
405.765	96.62
405.988	115.62
406.212	142.62
406.436	175.62
406.66	124.62
406.883	89.62
407.107	94.62
407.331	97.62
407.555	94.62
407.778	95.62
408.002	95.62
408.226	82.62
408.449	88.62
408.673	85.62
408.896	94.62
409.12	108.62
409.344	84.62
409.567	90.62
409.791	89.62
410.014	89.62
410.238	102.62
410.461	84.62
410.685	110.62
410.908	97.62
411.132	102.62
411.355	98.62
411.578	65.62
411.802	86.62
412.025	86.62
412.249	97.62
412.472	103.62
412.695	91.62
412.919	93.62
413.142	92.62
413.365	95.62
413.589	92.62
413.812	89.62
414.035	88.62
414.258	84.62
414.482	93.62
414.705	90.62
414.928	82.62
415.151	84.62
415.374	90.62
415.597	101.62
415.821	96.62
416.044	82.62
416.267	84.62
416.49	71.62
416.713	84.62
416.936	100.62
417.159	87.62
417.382	81.62
417.605	72.62
417.828	90.62
418.051	97.62
418.274	101.62
418.497	84.62
418.72	94.62
418.943	83.62
419.166	94.62
419.389	85.62
419.611	87.62
419.834	96.62
420.057	96.62
420.28	81.62
420.503	92.62
420.726	95.62
420.948	80.62
421.171	88.62
421.394	87.62
421.617	84.62
421.839	104.62
422.062	84.62
422.285	81.62
422.507	98.62
422.73	105.62
422.953	104.62
423.175	112.62
423.398	84.62
423.621	88.62
423.843	95.62
424.066	90.62
424.288	79.62
424.511	76.62
424.733	88.62
424.956	85.62
425.178	95.62
425.401	86.62
425.623	112.62
425.846	89.62
426.068	86.62
426.291	93.62
426.513	94.62
426.735	97.62
426.958	87.62
427.18	97.62
427.402	116.62
427.625	143.62
427.847	124.62
428.069	111.62
428.292	87.62
428.514	88.62
428.736	86.62
428.958	82.62
429.181	86.62
429.403	90.62
429.625	80.62
429.847	85.62
430.069	85.62
430.292	84.62
430.514	69.62
430.736	81.62
430.958	89.62
431.18	88.62
431.402	86.62
431.624	81.62
431.846	80.62
432.068	100.62
432.29	88.62
432.512	81.62
432.734	85.62
432.956	93.62
433.178	97.62
433.4	92.62
433.622	92.62
433.844	95.62
434.066	93.62
434.287	93.62
434.509	83.62
434.731	80.62
434.953	87.62
435.175	85.62
435.397	103.62
435.618	96.62
435.84	122.62
436.062	109.62
436.284	99.62
436.505	110.62
436.727	102.62
436.949	98.62
437.17	89.62
437.392	99.62
437.614	92.62
437.835	117.62
438.057	123.62
438.278	106.62
438.5	93.62
438.721	110.62
438.943	88.62
439.165	85.62
439.386	103.62
439.608	88.62
439.829	86.62
440.05	117.62
440.272	138.62
440.493	79.62
440.715	100.62
440.936	92.62
441.158	83.62
441.379	90.62
441.6	80.62
441.822	91.62
442.043	103.62
442.264	100.62
442.486	88.62
442.707	89.62
442.928	106.62
443.149	139.62
443.371	120.62
443.592	89.62
443.813	82.62
444.034	93.62
444.255	103.62
444.476	86.62
444.698	100.62
444.919	92.62
445.14	141.62
445.361	121.62
445.582	101.62
445.803	123.62
446.024	123.62
446.245	130.62
446.466	110.62
446.687	94.62
446.908	92.62
447.129	83.62
447.35	93.62
447.571	78.62
447.792	102.62
448.013	100.62
448.234	97.62
448.455	94.62
448.675	95.62
448.896	115.62
449.117	101.62
449.338	94.62
449.559	116.62
449.779	111.62
450	84.62
450.221	95.62
450.442	99.62
450.662	96.62
450.883	94.62
451.104	98.62
451.324	98.62
451.545	97.62
451.766	76.62
451.986	93.62
452.207	88.62
452.428	82.62
452.648	97.62
452.869	94.62
453.089	108.62
453.31	106.62
453.53	85.62
453.751	90.62
453.971	110.62
454.192	114.62
454.412	88.62
454.633	93.62
454.853	85.62
455.073	94.62
455.294	78.62
455.514	94.62
455.734	81.62
455.955	77.62
456.175	89.62
456.395	82.62
456.616	97.62
456.836	79.62
457.056	79.62
457.276	80.62
457.497	77.62
457.717	92.62
457.937	73.62
458.157	80.62
458.377	66.62
458.598	91.62
458.818	145.62
459.038	142.62
459.258	104.62
459.478	87.62
459.698	93.62
459.918	82.62
460.138	93.62
460.358	81.62
460.578	84.62
460.798	87.62
461.018	87.62
461.238	89.62
461.458	83.62
461.678	86.62
461.898	73.62
462.118	86.62
462.338	80.62
462.558	86.62
462.777	80.62
462.997	86.62
463.217	94.62
463.437	105.62
463.657	97.62
463.876	78.62
464.096	100.62
464.316	93.62
464.536	88.62
464.755	106.62
464.975	99.62
465.195	156.62
465.414	157.62
465.634	94.62
465.854	87.62
466.073	84.62
466.293	103.62
466.512	95.62
466.732	100.62
466.951	80.62
467.171	95.62
467.391	104.62
467.61	95.62
467.829	104.62
468.049	123.62
468.268	135.62
468.488	103.62
468.707	97.62
468.927	83.62
469.146	94.62
469.365	84.62
469.585	100.62
469.804	97.62
470.023	95.62
470.243	105.62
470.462	103.62
470.681	112.62
470.901	99.62
471.12	84.62
471.339	100.62
471.558	85.62
471.777	96.62
471.997	104.62
472.216	159.62
472.435	255.62
472.654	121.62
472.873	90.62
473.092	94.62
473.311	92.62
473.53	78.62
473.749	86.62
473.968	96.62
474.187	106.62
474.406	105.62
474.625	97.62
474.844	85.62
475.063	90.62
475.282	80.62
475.501	83.62
475.72	76.62
475.939	78.62
476.158	90.62
476.377	82.62
476.596	100.62
476.814	102.62
477.033	86.62
477.252	93.62
477.471	94.62
477.69	100.62
477.908	81.62
478.127	94.62
478.346	81.62
478.564	104.62
478.783	94.62
479.002	94.62
479.22	84.62
479.439	105.62
479.658	93.62
479.876	89.62
480.095	99.62
480.313	93.62
480.532	87.62
480.751	115.62
480.969	185.62
481.188	417.62
481.406	264.62
481.624	112.62
481.843	96.62
482.061	90.62
482.28	89.62
482.498	79.62
482.717	93.62
482.935	98.62
483.153	100.62
483.372	86.62
483.59	85.62
483.808	86.62
484.027	85.62
484.245	79.62
484.463	90.62
484.681	83.62
484.9	84.62
485.118	97.62
485.336	99.62
485.554	88.62
485.772	92.62
485.99	97.62
486.209	100.62
486.427	99.62
486.645	89.62
486.863	99.62
487.081	85.62
487.299	89.62
487.517	88.62
487.735	88.62
487.953	109.62
488.171	99.62
488.389	88.62
488.607	101.62
488.825	84.62
489.043	94.62
489.261	87.62
489.479	84.62
489.696	94.62
489.914	92.62
490.132	81.62
490.35	94.62
490.568	92.62
490.786	88.62
491.003	84.62
491.221	90.62
491.439	87.62
491.657	95.62
491.874	94.62
492.092	93.62
492.31	92.62
492.527	96.62
492.745	93.62
492.963	66.62
493.18	96.62
493.398	92.62
493.615	92.62
493.833	97.62
494.05	81.62
494.268	90.62
494.485	76.62
494.703	95.62
494.92	89.62
495.138	85.62
495.355	102.62
495.573	103.62
495.79	88.62
496.008	88.62
496.225	81.62
496.442	97.62
496.66	96.62
496.877	79.62
497.094	85.62
497.312	90.62
497.529	77.62
497.746	92.62
497.963	98.62
498.181	87.62
498.398	93.62
498.615	105.62
498.832	104.62
499.049	88.62
499.267	96.62
499.484	95.62
499.701	97.62
499.918	102.62
500.135	74.62
500.352	99.62
500.569	96.62
500.786	81.62
501.003	90.62
501.22	96.62
501.437	81.62
501.654	99.62
501.871	98.62
502.088	81.62
502.305	77.62
502.522	84.62
502.739	83.62
502.956	91.62
503.172	97.62
503.389	104.62
503.606	99.62
503.823	96.62
504.04	106.62
504.256	89.62
504.473	77.62
504.69	93.62
504.907	97.62
505.123	105.62
505.34	93.62
505.557	95.62
505.773	85.62
505.99	92.62
506.207	96.62
506.423	101.62
506.64	66.62
506.856	86.62
507.073	92.62
507.289	104.62
507.506	96.62
507.722	109.62
507.939	103.62
508.155	97.62
508.372	93.62
508.588	83.62
508.805	105.62
509.021	81.62
509.238	96.62
509.454	118.62
509.67	114.62
509.887	107.62
510.103	104.62
510.319	184.62
510.536	619.62
510.752	1892.62
510.968	521.62
511.184	144.62
511.401	105.62
511.617	95.62
511.833	89.62
512.049	86.62
512.265	104.62
512.481	88.62
512.698	81.62
512.914	91.62
513.13	92.62
513.346	93.62
513.562	96.62
513.778	95.62
513.994	100.62
514.21	105.62
514.426	99.62
514.642	121.62
514.858	106.62
515.074	147.62
515.29	373.62
515.506	1180.62
515.721	451.62
515.937	143.62
