Data from Uncirc_1989_H10_HRD10591_00040.txt Node
Date: Wed Jan 03 11:57:43 EST 2024
User: Yrep
Spectrometer: HR+D1059
Trigger mode: 1
Integration Time (sec): 1.000000E-1
Scans to average: 1
Electric dark correction enabled: true
Nonlinearity correction enabled: false
Boxcar width: 0
XAxis mode: Wavelengths
Number of Pixels in Spectrum: 2048
>>>>>Begin Spectral Data<<<<<
223.165	-13.88
223.4	-13.88
223.635	-13.88
223.869	-15.88
224.104	-14.88
224.338	-4.88
224.573	-31.88
224.808	-7.88
225.042	-6.88
225.277	0.12
225.511	-11.88
225.746	2.12
225.98	-0.88
226.215	11.12
226.449	9.12
226.683	17.12
226.918	25.12
227.152	44.12
227.387	33.12
227.621	38.12
227.856	55.12
228.09	42.12
228.324	51.12
228.559	54.12
228.793	61.12
229.027	59.12
229.262	53.12
229.496	62.12
229.73	83.12
229.964	71.12
230.199	62.12
230.433	66.12
230.667	79.12
230.901	70.12
231.136	86.12
231.37	78.12
231.604	95.12
231.838	82.12
232.072	72.12
232.306	76.12
232.541	90.12
232.775	68.12
233.009	77.12
233.243	84.12
233.477	68.12
233.711	70.12
233.945	80.12
234.179	74.12
234.413	92.12
234.647	73.12
234.881	75.12
235.115	88.12
235.349	98.12
235.583	91.12
235.817	81.12
236.051	79.12
236.285	70.12
236.519	80.12
236.753	88.12
236.987	81.12
237.221	63.12
237.455	79.12
237.689	91.12
237.922	73.12
238.156	80.12
238.39	78.12
238.624	73.12
238.858	82.12
239.091	72.12
239.325	77.12
239.559	79.12
239.793	72.12
240.027	86.12
240.26	80.12
240.494	87.12
240.728	67.12
240.961	77.12
241.195	92.12
241.429	81.12
241.662	82.12
241.896	96.12
242.13	61.12
242.363	73.12
242.597	69.12
242.83	95.12
243.064	77.12
243.298	78.12
243.531	69.12
243.765	77.12
243.998	70.12
244.232	64.12
244.465	84.12
244.699	69.12
244.932	73.12
245.166	87.12
245.399	61.12
245.633	79.12
245.866	97.12
246.099	80.12
246.333	84.12
246.566	61.12
246.8	82.12
247.033	77.12
247.266	69.12
247.5	83.12
247.733	79.12
247.966	88.12
248.2	78.12
248.433	88.12
248.666	79.12
248.899	84.12
249.133	85.12
249.366	105.12
249.599	91.12
249.832	79.12
250.066	85.12
250.299	78.12
250.532	91.12
250.765	87.12
250.998	69.12
251.231	84.12
251.465	67.12
251.698	79.12
251.931	83.12
252.164	88.12
252.397	80.12
252.63	80.12
252.863	81.12
253.096	81.12
253.329	71.12
253.562	80.12
253.795	77.12
254.028	92.12
254.261	81.12
254.494	85.12
254.727	76.12
254.96	71.12
255.193	80.12
255.426	97.12
255.659	87.12
255.892	71.12
256.124	82.12
256.357	69.12
256.59	81.12
256.823	83.12
257.056	81.12
257.289	87.12
257.521	84.12
257.754	83.12
257.987	75.12
258.22	63.12
258.452	77.12
258.685	71.12
258.918	80.12
259.151	72.12
259.383	85.12
259.616	79.12
259.849	83.12
260.081	76.12
260.314	63.12
260.547	88.12
260.779	81.12
261.012	86.12
261.244	98.12
261.477	92.12
261.71	76.12
261.942	109.12
262.175	115.12
262.407	92.12
262.64	82.12
262.872	77.12
263.105	91.12
263.337	83.12
263.57	83.12
263.802	79.12
264.035	85.12
264.267	82.12
264.499	75.12
264.732	86.12
264.964	87.12
265.197	77.12
265.429	79.12
265.661	81.12
265.894	89.12
266.126	87.12
266.358	83.12
266.591	80.12
266.823	86.12
267.055	68.12
267.287	78.12
267.52	91.12
267.752	92.12
267.984	81.12
268.216	81.12
268.448	84.12
268.681	65.12
268.913	75.12
269.145	87.12
269.377	97.12
269.609	85.12
269.841	81.12
270.073	78.12
270.306	96.12
270.538	82.12
270.77	81.12
271.002	89.12
271.234	95.12
271.466	86.12
271.698	81.12
271.93	81.12
272.162	95.12
272.394	87.12
272.626	77.12
272.858	81.12
273.09	94.12
273.322	81.12
273.553	90.12
273.785	75.12
274.017	83.12
274.249	98.12
274.481	70.12
274.713	84.12
274.945	105.12
275.176	88.12
275.408	94.12
275.64	95.12
275.872	88.12
276.104	79.12
276.335	91.12
276.567	96.12
276.799	111.12
277.031	84.12
277.262	92.12
277.494	79.12
277.726	89.12
277.957	84.12
278.189	88.12
278.421	92.12
278.652	99.12
278.884	84.12
279.115	77.12
279.347	90.12
279.579	94.12
279.81	88.12
280.042	84.12
280.273	97.12
280.505	77.12
280.736	89.12
280.968	95.12
281.199	90.12
281.431	82.12
281.662	83.12
281.894	85.12
282.125	89.12
282.356	114.12
282.588	121.12
282.819	107.12
283.051	88.12
283.282	75.12
283.513	69.12
283.745	87.12
283.976	95.12
284.207	92.12
284.439	96.12
284.67	96.12
284.901	77.12
285.132	79.12
285.364	76.12
285.595	93.12
285.826	93.12
286.057	95.12
286.288	87.12
286.52	94.12
286.751	86.12
286.982	69.12
287.213	89.12
287.444	97.12
287.675	94.12
287.906	73.12
288.138	93.12
288.369	96.12
288.6	104.12
288.831	91.12
289.062	76.12
289.293	100.12
289.524	94.12
289.755	82.12
289.986	80.12
290.217	103.12
290.448	93.12
290.679	98.12
290.91	89.12
291.141	76.12
291.371	85.12
291.602	85.12
291.833	85.12
292.064	83.12
292.295	99.12
292.526	96.12
292.757	94.12
292.987	98.12
293.218	89.12
293.449	83.12
293.68	91.12
293.91	65.12
294.141	81.12
294.372	84.12
294.603	85.12
294.833	95.12
295.064	94.12
295.295	93.12
295.525	84.12
295.756	96.12
295.987	105.12
296.217	131.12
296.448	123.12
296.679	101.12
296.909	102.12
297.14	95.12
297.37	86.12
297.601	82.12
297.831	101.12
298.062	89.12
298.292	86.12
298.523	79.12
298.753	82.12
298.984	92.12
299.214	84.12
299.445	86.12
299.675	81.12
299.905	94.12
300.136	86.12
300.366	92.12
300.597	95.12
300.827	95.12
301.057	104.12
301.288	83.12
301.518	87.12
301.748	86.12
301.979	96.12
302.209	104.12
302.439	88.12
302.669	97.12
302.9	89.12
303.13	100.12
303.36	98.12
303.59	100.12
303.82	101.12
304.051	105.12
304.281	92.12
304.511	89.12
304.741	91.12
304.971	87.12
305.201	90.12
305.431	83.12
305.661	93.12
305.891	81.12
306.121	93.12
306.352	89.12
306.582	96.12
306.812	102.12
307.042	100.12
307.272	106.12
307.502	92.12
307.731	91.12
307.961	101.12
308.191	97.12
308.421	93.12
308.651	92.12
308.881	92.12
309.111	98.12
309.341	95.12
309.571	91.12
309.8	81.12
310.03	95.12
310.26	92.12
310.49	93.12
310.72	99.12
310.949	96.12
311.179	93.12
311.409	91.12
311.639	98.12
311.868	95.12
312.098	98.12
312.328	98.12
312.557	92.12
312.787	102.12
313.017	105.12
313.246	83.12
313.476	87.12
313.706	78.12
313.935	101.12
314.165	104.12
314.394	94.12
314.624	86.12
314.853	86.12
315.083	90.12
315.312	85.12
315.542	81.12
315.771	94.12
316.001	92.12
316.23	103.12
316.46	95.12
316.689	81.12
316.919	93.12
317.148	98.12
317.377	89.12
317.607	98.12
317.836	89.12
318.065	95.12
318.295	81.12
318.524	87.12
318.753	95.12
318.983	89.12
319.212	104.12
319.441	95.12
319.67	106.12
319.9	85.12
320.129	88.12
320.358	92.12
320.587	109.12
320.816	104.12
321.046	98.12
321.275	99.12
321.504	100.12
321.733	108.12
321.962	100.12
322.191	108.12
322.42	100.12
322.649	116.12
322.878	117.12
323.108	104.12
323.337	113.12
323.566	123.12
323.795	134.12
324.024	173.12
324.253	339.12
324.482	695.12
324.71	1461.12
324.939	1927.12
325.168	725.12
325.397	221.12
325.626	134.12
325.855	116.12
326.084	112.12
326.313	120.12
326.542	131.12
326.77	213.12
326.999	384.12
327.228	813.12
327.457	1508.12
327.686	1215.12
327.914	339.12
328.143	188.12
328.372	149.12
328.6	135.12
328.829	124.12
329.058	119.12
329.287	116.12
329.515	102.12
329.744	117.12
329.972	119.12
330.201	159.12
330.43	172.12
330.658	131.12
330.887	131.12
331.115	106.12
331.344	86.12
331.572	83.12
331.801	98.12
332.03	88.12
332.258	104.12
332.486	85.12
332.715	95.12
332.943	105.12
333.172	97.12
333.4	98.12
333.629	105.12
333.857	111.12
334.085	119.12
334.314	157.12
334.542	187.12
334.771	183.12
334.999	106.12
335.227	94.12
335.455	99.12
335.684	98.12
335.912	102.12
336.14	91.12
336.369	97.12
336.597	98.12
336.825	90.12
337.053	99.12
337.281	75.12
337.51	84.12
337.738	99.12
337.966	104.12
338.194	98.12
338.422	104.12
338.65	88.12
338.878	99.12
339.106	79.12
339.334	79.12
339.562	95.12
339.79	96.12
340.018	99.12
340.246	99.12
340.474	95.12
340.702	84.12
340.93	121.12
341.158	88.12
341.386	94.12
341.614	89.12
341.842	91.12
342.07	100.12
342.298	100.12
342.526	102.12
342.754	85.12
342.981	97.12
343.209	91.12
343.437	100.12
343.665	96.12
343.893	80.12
344.12	105.12
344.348	97.12
344.576	84.12
344.804	84.12
345.031	106.12
345.259	87.12
345.487	83.12
345.714	87.12
345.942	108.12
346.17	94.12
346.397	89.12
346.625	88.12
346.853	93.12
347.08	93.12
347.308	111.12
347.535	97.12
347.763	90.12
347.99	101.12
348.218	94.12
348.445	86.12
348.673	94.12
348.9	95.12
349.128	89.12
349.355	91.12
349.583	86.12
349.81	95.12
350.037	84.12
350.265	100.12
350.492	84.12
350.72	90.12
350.947	91.12
351.174	107.12
351.402	106.12
351.629	102.12
351.856	89.12
352.083	104.12
352.311	97.12
352.538	102.12
352.765	111.12
352.992	116.12
353.22	111.12
353.447	94.12
353.674	99.12
353.901	100.12
354.128	99.12
354.355	86.12
354.583	93.12
354.81	98.12
355.037	89.12
355.264	94.12
355.491	103.12
355.718	85.12
355.945	91.12
356.172	85.12
356.399	96.12
356.626	97.12
356.853	87.12
357.08	89.12
357.307	84.12
357.534	93.12
357.761	85.12
357.988	95.12
358.215	88.12
358.441	90.12
358.668	89.12
358.895	90.12
359.122	68.12
359.349	86.12
359.576	83.12
359.802	85.12
360.029	88.12
360.256	102.12
360.483	97.12
360.709	86.12
360.936	88.12
361.163	90.12
361.39	105.12
361.616	100.12
361.843	85.12
362.07	87.12
362.296	103.12
362.523	93.12
362.749	94.12
362.976	91.12
363.203	105.12
363.429	79.12
363.656	83.12
363.882	80.12
364.109	102.12
364.335	84.12
364.562	79.12
364.788	91.12
365.015	85.12
365.241	95.12
365.468	100.12
365.694	88.12
365.92	102.12
366.147	96.12
366.373	82.12
366.599	83.12
366.826	88.12
367.052	87.12
367.278	93.12
367.505	77.12
367.731	80.12
367.957	76.12
368.184	95.12
368.41	115.12
368.636	96.12
368.862	98.12
369.089	88.12
369.315	92.12
369.541	93.12
369.767	86.12
369.993	86.12
370.219	85.12
370.445	63.12
370.672	101.12
370.898	83.12
371.124	87.12
371.35	100.12
371.576	79.12
371.802	83.12
372.028	87.12
372.254	83.12
372.48	80.12
372.706	87.12
372.932	86.12
373.158	91.12
373.384	89.12
373.61	96.12
373.835	98.12
374.061	84.12
374.287	99.12
374.513	105.12
374.739	82.12
374.965	88.12
375.191	87.12
375.416	102.12
375.642	85.12
375.868	70.12
376.094	88.12
376.319	84.12
376.545	71.12
376.771	89.12
376.997	82.12
377.222	107.12
377.448	87.12
377.674	88.12
377.899	81.12
378.125	85.12
378.35	104.12
378.576	99.12
378.802	93.12
379.027	99.12
379.253	88.12
379.478	96.12
379.704	91.12
379.929	82.12
380.155	77.12
380.38	88.12
380.606	85.12
380.831	86.12
381.057	81.12
381.282	83.12
381.507	74.12
381.733	79.12
381.958	94.12
382.184	95.12
382.409	106.12
382.634	109.12
382.86	98.12
383.085	87.12
383.31	93.12
383.535	87.12
383.761	89.12
383.986	83.12
384.211	91.12
384.436	90.12
384.662	100.12
384.887	91.12
385.112	92.12
385.337	90.12
385.562	95.12
385.787	103.12
386.013	110.12
386.238	95.12
386.463	106.12
386.688	106.12
386.913	100.12
387.138	99.12
387.363	96.12
387.588	103.12
387.813	95.12
388.038	86.12
388.263	87.12
388.488	103.12
388.713	97.12
388.938	88.12
389.163	91.12
389.387	97.12
389.612	94.12
389.837	87.12
390.062	86.12
390.287	92.12
390.512	96.12
390.736	87.12
390.961	87.12
391.186	95.12
391.411	108.12
391.636	91.12
391.86	86.12
392.085	76.12
392.31	89.12
392.534	77.12
392.759	95.12
392.984	90.12
393.208	104.12
393.433	116.12
393.658	97.12
393.882	81.12
394.107	85.12
394.331	91.12
394.556	79.12
394.78	85.12
395.005	91.12
395.229	79.12
395.454	85.12
395.678	93.12
395.903	89.12
396.127	86.12
396.352	94.12
396.576	95.12
396.801	89.12
397.025	92.12
397.249	95.12
397.474	88.12
397.698	75.12
397.922	80.12
398.147	84.12
398.371	77.12
398.595	81.12
398.82	82.12
399.044	75.12
399.268	96.12
399.492	89.12
399.717	96.12
399.941	92.12
400.165	92.12
400.389	95.12
400.613	77.12
400.837	96.12
401.062	102.12
401.286	91.12
401.51	83.12
401.734	93.12
401.958	88.12
402.182	102.12
402.406	152.12
402.63	107.12
402.854	106.12
403.078	75.12
403.302	78.12
403.526	81.12
403.75	73.12
403.974	96.12
404.198	93.12
404.422	86.12
404.645	83.12
404.869	101.12
405.093	97.12
405.317	95.12
405.541	105.12
405.765	96.12
405.988	117.12
406.212	150.12
406.436	198.12
406.66	133.12
406.883	109.12
407.107	91.12
407.331	94.12
407.555	93.12
407.778	89.12
408.002	94.12
408.226	87.12
408.449	91.12
408.673	91.12
408.896	91.12
409.12	96.12
409.344	100.12
409.567	87.12
409.791	92.12
410.014	83.12
410.238	91.12
410.461	93.12
410.685	88.12
410.908	104.12
411.132	102.12
411.355	99.12
411.578	97.12
411.802	78.12
412.025	87.12
412.249	92.12
412.472	88.12
412.695	95.12
412.919	89.12
413.142	87.12
413.365	88.12
413.589	79.12
413.812	79.12
414.035	88.12
414.258	89.12
414.482	66.12
414.705	69.12
414.928	89.12
415.151	64.12
415.374	99.12
415.597	79.12
415.821	94.12
416.044	105.12
416.267	77.12
416.49	92.12
416.713	93.12
416.936	87.12
417.159	69.12
417.382	88.12
417.605	85.12
417.828	93.12
418.051	103.12
418.274	90.12
418.497	90.12
418.72	80.12
418.943	97.12
419.166	89.12
419.389	80.12
419.611	89.12
419.834	84.12
420.057	77.12
420.28	89.12
420.503	96.12
420.726	82.12
420.948	95.12
421.171	104.12
421.394	88.12
421.617	88.12
421.839	92.12
422.062	90.12
422.285	84.12
422.507	85.12
422.73	108.12
422.953	103.12
423.175	84.12
423.398	81.12
423.621	77.12
423.843	87.12
424.066	77.12
424.288	83.12
424.511	92.12
424.733	96.12
424.956	94.12
425.178	101.12
425.401	97.12
425.623	95.12
425.846	88.12
426.068	98.12
426.291	84.12
426.513	88.12
426.735	88.12
426.958	89.12
427.18	88.12
427.402	111.12
427.625	135.12
427.847	136.12
428.069	111.12
428.292	80.12
428.514	79.12
428.736	73.12
428.958	76.12
429.181	99.12
429.403	100.12
429.625	88.12
429.847	94.12
430.069	103.12
430.292	79.12
430.514	79.12
430.736	84.12
430.958	83.12
431.18	94.12
431.402	83.12
431.624	80.12
431.846	81.12
432.068	85.12
432.29	87.12
432.512	80.12
432.734	85.12
432.956	88.12
433.178	105.12
433.4	100.12
433.622	86.12
433.844	80.12
434.066	75.12
434.287	78.12
434.509	82.12
434.731	96.12
434.953	88.12
435.175	87.12
435.397	83.12
435.618	101.12
435.84	102.12
436.062	111.12
436.284	103.12
436.505	102.12
436.727	91.12
436.949	79.12
437.17	84.12
437.392	90.12
437.614	96.12
437.835	105.12
438.057	107.12
438.278	96.12
438.5	96.12
438.721	119.12
438.943	83.12
439.165	78.12
439.386	92.12
439.608	92.12
439.829	99.12
440.05	121.12
440.272	121.12
440.493	94.12
440.715	83.12
440.936	76.12
441.158	83.12
441.379	78.12
441.6	102.12
441.822	90.12
442.043	103.12
442.264	97.12
442.486	103.12
442.707	88.12
442.928	105.12
443.149	121.12
443.371	134.12
443.592	110.12
443.813	94.12
444.034	109.12
444.255	89.12
444.476	86.12
444.698	82.12
444.919	81.12
445.14	133.12
445.361	122.12
445.582	104.12
445.803	117.12
446.024	106.12
446.245	118.12
446.466	100.12
446.687	71.12
446.908	87.12
447.129	91.12
447.35	95.12
447.571	80.12
447.792	111.12
448.013	91.12
448.234	88.12
448.455	95.12
448.675	107.12
448.896	92.12
449.117	97.12
449.338	101.12
449.559	116.12
449.779	97.12
450	87.12
450.221	85.12
450.442	84.12
450.662	91.12
450.883	102.12
451.104	105.12
451.324	92.12
451.545	78.12
451.766	80.12
451.986	88.12
452.207	99.12
452.428	95.12
452.648	91.12
452.869	104.12
453.089	103.12
453.31	105.12
453.53	83.12
453.751	87.12
453.971	105.12
454.192	100.12
454.412	86.12
454.633	94.12
454.853	75.12
455.073	85.12
455.294	87.12
455.514	78.12
455.734	68.12
455.955	85.12
456.175	68.12
456.395	81.12
456.616	106.12
456.836	111.12
457.056	83.12
457.276	98.12
457.497	81.12
457.717	92.12
457.937	78.12
458.157	85.12
458.377	97.12
458.598	93.12
458.818	135.12
459.038	144.12
459.258	104.12
459.478	84.12
459.698	88.12
459.918	85.12
460.138	77.12
460.358	88.12
460.578	75.12
460.798	88.12
461.018	86.12
461.238	70.12
461.458	91.12
461.678	73.12
461.898	77.12
462.118	88.12
462.338	96.12
462.558	96.12
462.777	85.12
462.997	100.12
463.217	89.12
463.437	94.12
463.657	100.12
463.876	86.12
464.096	75.12
464.316	102.12
464.536	104.12
464.755	96.12
464.975	89.12
465.195	133.12
465.414	140.12
465.634	100.12
465.854	85.12
466.073	80.12
466.293	91.12
466.512	82.12
466.732	84.12
466.951	86.12
467.171	91.12
467.391	81.12
467.61	89.12
467.829	83.12
468.049	113.12
468.268	126.12
468.488	83.12
468.707	103.12
468.927	77.12
469.146	93.12
469.365	82.12
469.585	87.12
469.804	88.12
470.023	92.12
470.243	84.12
470.462	97.12
470.681	84.12
470.901	97.12
471.12	83.12
471.339	99.12
471.558	81.12
471.777	75.12
471.997	102.12
472.216	165.12
472.435	222.12
472.654	127.12
472.873	93.12
473.092	66.12
473.311	79.12
473.53	75.12
473.749	100.12
473.968	95.12
474.187	111.12
474.406	98.12
474.625	87.12
474.844	83.12
475.063	88.12
475.282	95.12
475.501	102.12
475.72	88.12
475.939	77.12
476.158	91.12
476.377	93.12
476.596	80.12
476.814	90.12
477.033	72.12
477.252	99.12
477.471	90.12
477.69	91.12
477.908	86.12
478.127	104.12
478.346	81.12
478.564	66.12
478.783	89.12
479.002	84.12
479.22	102.12
479.439	109.12
479.658	96.12
479.876	79.12
480.095	99.12
480.313	104.12
480.532	89.12
480.751	102.12
480.969	158.12
481.188	398.12
481.406	244.12
481.624	93.12
481.843	85.12
482.061	90.12
482.28	88.12
482.498	95.12
482.717	72.12
482.935	85.12
483.153	83.12
483.372	93.12
483.59	100.12
483.808	79.12
484.027	83.12
484.245	98.12
484.463	80.12
484.681	70.12
484.9	96.12
485.118	83.12
485.336	89.12
485.554	93.12
485.772	94.12
485.99	99.12
486.209	95.12
486.427	107.12
486.645	98.12
486.863	107.12
487.081	87.12
487.299	89.12
487.517	89.12
487.735	83.12
487.953	87.12
488.171	85.12
488.389	90.12
488.607	95.12
488.825	72.12
489.043	74.12
489.261	88.12
489.479	81.12
489.696	87.12
489.914	92.12
490.132	93.12
490.35	87.12
490.568	85.12
490.786	98.12
491.003	81.12
491.221	91.12
491.439	94.12
491.657	90.12
491.874	94.12
492.092	87.12
492.31	82.12
492.527	91.12
492.745	94.12
492.963	105.12
493.18	91.12
493.398	107.12
493.615	97.12
493.833	85.12
494.05	85.12
494.268	96.12
494.485	97.12
494.703	78.12
494.92	95.12
495.138	109.12
495.355	85.12
495.573	86.12
495.79	109.12
496.008	81.12
496.225	82.12
496.442	81.12
496.66	112.12
496.877	86.12
497.094	81.12
497.312	89.12
497.529	78.12
497.746	83.12
497.963	86.12
498.181	80.12
498.398	87.12
498.615	91.12
498.832	117.12
499.049	100.12
499.267	98.12
499.484	93.12
499.701	77.12
499.918	85.12
500.135	79.12
500.352	84.12
500.569	91.12
500.786	96.12
501.003	78.12
501.22	88.12
501.437	96.12
501.654	90.12
501.871	105.12
502.088	91.12
502.305	85.12
502.522	93.12
502.739	102.12
502.956	96.12
503.172	85.12
503.389	86.12
503.606	96.12
503.823	92.12
504.04	79.12
504.256	82.12
504.473	99.12
504.69	100.12
504.907	72.12
505.123	87.12
505.34	102.12
505.557	99.12
505.773	96.12
505.99	103.12
506.207	85.12
506.423	93.12
506.64	93.12
506.856	93.12
507.073	92.12
507.289	87.12
507.506	65.12
507.722	84.12
507.939	99.12
508.155	79.12
508.372	89.12
508.588	100.12
508.805	97.12
509.021	83.12
509.238	85.12
509.454	102.12
509.67	99.12
509.887	100.12
510.103	128.12
510.319	172.12
510.536	636.12
510.752	1925.12
510.968	514.12
511.184	136.12
511.401	109.12
511.617	97.12
511.833	95.12
512.049	89.12
512.265	77.12
512.481	83.12
512.698	87.12
512.914	103.12
513.13	95.12
513.346	93.12
513.562	97.12
513.778	101.12
513.994	96.12
514.21	103.12
514.426	114.12
514.642	101.12
514.858	107.12
515.074	159.12
515.29	391.12
515.506	1204.12
515.721	450.12
515.937	141.12
516.153	105.12
