Data from Uncirc_1989_H10_HRD10591_00097.txt Node
Date: Wed Jan 03 11:57:55 EST 2024
User: Yrep
Spectrometer: HR+D1059
Trigger mode: 1
Integration Time (sec): 1.000000E-1
Scans to average: 1
Electric dark correction enabled: true
Nonlinearity correction enabled: false
Boxcar width: 0
XAxis mode: Wavelengths
Number of Pixels in Spectrum: 2048
>>>>>Begin Spectral Data<<<<<
223.165	-10.25
223.4	-10.25
223.635	-10.25
223.869	-30.25
224.104	-32.25
224.338	-3.25
224.573	-7.25
224.808	-11.25
225.042	-12.25
225.277	-18.25
225.511	-5.25
225.746	0.75
225.98	16.75
226.215	11.75
226.449	10.75
226.683	31.75
226.918	31.75
227.152	26.75
227.387	34.75
227.621	24.75
227.856	28.75
228.09	50.75
228.324	59.75
228.559	48.75
228.793	58.75
229.027	57.75
229.262	54.75
229.496	75.75
229.73	74.75
229.964	67.75
230.199	54.75
230.433	65.75
230.667	87.75
230.901	85.75
231.136	80.75
231.37	83.75
231.604	80.75
231.838	80.75
232.072	73.75
232.306	79.75
232.541	80.75
232.775	69.75
233.009	76.75
233.243	64.75
233.477	84.75
233.711	82.75
233.945	90.75
234.179	67.75
234.413	83.75
234.647	70.75
234.881	80.75
235.115	82.75
235.349	86.75
235.583	70.75
235.817	83.75
236.051	72.75
236.285	76.75
236.519	76.75
236.753	71.75
236.987	76.75
237.221	85.75
237.455	78.75
237.689	79.75
237.922	88.75
238.156	82.75
238.39	80.75
238.624	74.75
238.858	78.75
239.091	82.75
239.325	87.75
239.559	69.75
239.793	77.75
240.027	63.75
240.26	80.75
240.494	78.75
240.728	75.75
240.961	77.75
241.195	74.75
241.429	79.75
241.662	67.75
241.896	78.75
242.13	78.75
242.363	78.75
242.597	86.75
242.83	86.75
243.064	78.75
243.298	72.75
243.531	70.75
243.765	67.75
243.998	68.75
244.232	81.75
244.465	78.75
244.699	76.75
244.932	78.75
245.166	89.75
245.399	63.75
245.633	83.75
245.866	62.75
246.099	79.75
246.333	76.75
246.566	75.75
246.8	81.75
247.033	80.75
247.266	91.75
247.5	63.75
247.733	71.75
247.966	82.75
248.2	65.75
248.433	70.75
248.666	75.75
248.899	83.75
249.133	69.75
249.366	88.75
249.599	90.75
249.832	78.75
250.066	78.75
250.299	76.75
250.532	84.75
250.765	65.75
250.998	67.75
251.231	80.75
251.465	68.75
251.698	81.75
251.931	84.75
252.164	79.75
252.397	76.75
252.63	66.75
252.863	84.75
253.096	80.75
253.329	81.75
253.562	94.75
253.795	78.75
254.028	78.75
254.261	86.75
254.494	88.75
254.727	80.75
254.96	91.75
255.193	87.75
255.426	71.75
255.659	84.75
255.892	78.75
256.124	75.75
256.357	81.75
256.59	79.75
256.823	74.75
257.056	75.75
257.289	101.75
257.521	86.75
257.754	86.75
257.987	74.75
258.22	77.75
258.452	74.75
258.685	77.75
258.918	84.75
259.151	75.75
259.383	86.75
259.616	69.75
259.849	86.75
260.081	64.75
260.314	78.75
260.547	72.75
260.779	80.75
261.012	75.75
261.244	89.75
261.477	87.75
261.71	94.75
261.942	99.75
262.175	102.75
262.407	83.75
262.64	78.75
262.872	68.75
263.105	77.75
263.337	82.75
263.57	69.75
263.802	82.75
264.035	76.75
264.267	71.75
264.499	87.75
264.732	78.75
264.964	93.75
265.197	96.75
265.429	95.75
265.661	83.75
265.894	74.75
266.126	102.75
266.358	71.75
266.591	77.75
266.823	90.75
267.055	75.75
267.287	83.75
267.52	86.75
267.752	80.75
267.984	84.75
268.216	104.75
268.448	82.75
268.681	85.75
268.913	80.75
269.145	68.75
269.377	91.75
269.609	83.75
269.841	91.75
270.073	92.75
270.306	97.75
270.538	86.75
270.77	93.75
271.002	74.75
271.234	88.75
271.466	80.75
271.698	78.75
271.93	88.75
272.162	95.75
272.394	88.75
272.626	80.75
272.858	80.75
273.09	81.75
273.322	96.75
273.553	87.75
273.785	95.75
274.017	90.75
274.249	95.75
274.481	92.75
274.713	97.75
274.945	85.75
275.176	82.75
275.408	83.75
275.64	90.75
275.872	90.75
276.104	90.75
276.335	76.75
276.567	92.75
276.799	91.75
277.031	92.75
277.262	96.75
277.494	96.75
277.726	109.75
277.957	86.75
278.189	83.75
278.421	86.75
278.652	90.75
278.884	87.75
279.115	84.75
279.347	95.75
279.579	90.75
279.81	104.75
280.042	98.75
280.273	112.75
280.505	99.75
280.736	87.75
280.968	86.75
281.199	87.75
281.431	91.75
281.662	90.75
281.894	85.75
282.125	80.75
282.356	104.75
282.588	126.75
282.819	81.75
283.051	93.75
283.282	92.75
283.513	86.75
283.745	85.75
283.976	81.75
284.207	67.75
284.439	96.75
284.67	85.75
284.901	92.75
285.132	84.75
285.364	79.75
285.595	86.75
285.826	82.75
286.057	84.75
286.288	82.75
286.52	95.75
286.751	88.75
286.982	86.75
287.213	91.75
287.444	82.75
287.675	90.75
287.906	85.75
288.138	81.75
288.369	85.75
288.6	98.75
288.831	100.75
289.062	77.75
289.293	75.75
289.524	80.75
289.755	72.75
289.986	78.75
290.217	81.75
290.448	78.75
290.679	81.75
290.91	81.75
291.141	87.75
291.371	91.75
291.602	98.75
291.833	80.75
292.064	85.75
292.295	82.75
292.526	89.75
292.757	87.75
292.987	98.75
293.218	84.75
293.449	84.75
293.68	86.75
293.91	83.75
294.141	89.75
294.372	94.75
294.603	79.75
294.833	79.75
295.064	86.75
295.295	85.75
295.525	84.75
295.756	101.75
295.987	104.75
296.217	113.75
296.448	102.75
296.679	92.75
296.909	92.75
297.14	87.75
297.37	103.75
297.601	92.75
297.831	86.75
298.062	78.75
298.292	86.75
298.523	76.75
298.753	83.75
298.984	84.75
299.214	81.75
299.445	77.75
299.675	95.75
299.905	103.75
300.136	103.75
300.366	71.75
300.597	88.75
300.827	87.75
301.057	89.75
301.288	92.75
301.518	96.75
301.748	95.75
301.979	112.75
302.209	91.75
302.439	90.75
302.669	92.75
302.9	93.75
303.13	74.75
303.36	75.75
303.59	86.75
303.82	114.75
304.051	92.75
304.281	103.75
304.511	90.75
304.741	92.75
304.971	85.75
305.201	84.75
305.431	86.75
305.661	93.75
305.891	90.75
306.121	95.75
306.352	107.75
306.582	104.75
306.812	90.75
307.042	86.75
307.272	85.75
307.502	117.75
307.731	115.75
307.961	101.75
308.191	92.75
308.421	103.75
308.651	87.75
308.881	92.75
309.111	87.75
309.341	84.75
309.571	104.75
309.8	96.75
310.03	99.75
310.26	92.75
310.49	108.75
310.72	95.75
310.949	91.75
311.179	78.75
311.409	89.75
311.639	97.75
311.868	96.75
312.098	96.75
312.328	114.75
312.557	88.75
312.787	101.75
313.017	85.75
313.246	87.75
313.476	82.75
313.706	106.75
313.935	85.75
314.165	87.75
314.394	94.75
314.624	97.75
314.853	100.75
315.083	89.75
315.312	98.75
315.542	78.75
315.771	91.75
316.001	84.75
316.23	94.75
316.46	96.75
316.689	102.75
316.919	84.75
317.148	79.75
317.377	92.75
317.607	87.75
317.836	99.75
318.065	94.75
318.295	101.75
318.524	85.75
318.753	91.75
318.983	98.75
319.212	85.75
319.441	107.75
319.67	92.75
319.9	100.75
320.129	87.75
320.358	91.75
320.587	98.75
320.816	98.75
321.046	82.75
321.275	88.75
321.504	90.75
321.733	92.75
321.962	102.75
322.191	86.75
322.42	110.75
322.649	112.75
322.878	110.75
323.108	116.75
323.337	114.75
323.566	129.75
323.795	128.75
324.024	174.75
324.253	340.75
324.482	703.75
324.71	1449.75
324.939	1850.75
325.168	714.75
325.397	219.75
325.626	123.75
325.855	119.75
326.084	113.75
326.313	120.75
326.542	131.75
326.77	217.75
326.999	399.75
327.228	830.75
327.457	1500.75
327.686	1215.75
327.914	332.75
328.143	188.75
328.372	183.75
328.6	136.75
328.829	109.75
329.058	115.75
329.287	117.75
329.515	116.75
329.744	108.75
329.972	129.75
330.201	216.75
330.43	239.75
330.658	164.75
330.887	132.75
331.115	119.75
331.344	102.75
331.572	106.75
331.801	102.75
332.03	96.75
332.258	93.75
332.486	88.75
332.715	93.75
332.943	97.75
333.172	96.75
333.4	84.75
333.629	112.75
333.857	103.75
334.085	125.75
334.314	200.75
334.542	322.75
334.771	296.75
334.999	137.75
335.227	97.75
335.455	100.75
335.684	96.75
335.912	97.75
336.14	91.75
336.369	98.75
336.597	98.75
336.825	90.75
337.053	82.75
337.281	80.75
337.51	96.75
337.738	78.75
337.966	95.75
338.194	91.75
338.422	82.75
338.65	72.75
338.878	103.75
339.106	101.75
339.334	91.75
339.562	98.75
339.79	96.75
340.018	87.75
340.246	99.75
340.474	94.75
340.702	92.75
340.93	82.75
341.158	85.75
341.386	84.75
341.614	94.75
341.842	103.75
342.07	104.75
342.298	91.75
342.526	104.75
342.754	99.75
342.981	86.75
343.209	98.75
343.437	96.75
343.665	82.75
343.893	87.75
344.12	85.75
344.348	95.75
344.576	88.75
344.804	85.75
345.031	87.75
345.259	94.75
345.487	83.75
345.714	93.75
345.942	86.75
346.17	86.75
346.397	86.75
346.625	103.75
346.853	101.75
347.08	83.75
347.308	103.75
347.535	98.75
347.763	106.75
347.99	96.75
348.218	101.75
348.445	111.75
348.673	98.75
348.9	96.75
349.128	94.75
349.355	102.75
349.583	102.75
349.81	96.75
350.037	103.75
350.265	94.75
350.492	77.75
350.72	91.75
350.947	112.75
351.174	95.75
351.402	110.75
351.629	85.75
351.856	100.75
352.083	97.75
352.311	118.75
352.538	109.75
352.765	98.75
352.992	84.75
353.22	102.75
353.447	100.75
353.674	83.75
353.901	87.75
354.128	81.75
354.355	79.75
354.583	94.75
354.81	95.75
355.037	91.75
355.264	97.75
355.491	85.75
355.718	96.75
355.945	80.75
356.172	100.75
356.399	105.75
356.626	93.75
356.853	89.75
357.08	91.75
357.307	82.75
357.534	69.75
357.761	83.75
357.988	80.75
358.215	99.75
358.441	94.75
358.668	93.75
358.895	98.75
359.122	82.75
359.349	80.75
359.576	96.75
359.802	88.75
360.029	88.75
360.256	109.75
360.483	90.75
360.709	92.75
360.936	91.75
361.163	73.75
361.39	95.75
361.616	91.75
361.843	84.75
362.07	88.75
362.296	91.75
362.523	84.75
362.749	90.75
362.976	94.75
363.203	96.75
363.429	100.75
363.656	86.75
363.882	86.75
364.109	86.75
364.335	79.75
364.562	89.75
364.788	81.75
365.015	82.75
365.241	98.75
365.468	106.75
365.694	94.75
365.92	88.75
366.147	81.75
366.373	87.75
366.599	87.75
366.826	106.75
367.052	95.75
367.278	91.75
367.505	70.75
367.731	78.75
367.957	94.75
368.184	100.75
368.41	96.75
368.636	106.75
368.862	97.75
369.089	102.75
369.315	113.75
369.541	77.75
369.767	90.75
369.993	96.75
370.219	82.75
370.445	103.75
370.672	95.75
370.898	91.75
371.124	87.75
371.35	91.75
371.576	88.75
371.802	88.75
372.028	88.75
372.254	93.75
372.48	90.75
372.706	89.75
372.932	90.75
373.158	85.75
373.384	88.75
373.61	94.75
373.835	82.75
374.061	90.75
374.287	95.75
374.513	98.75
374.739	92.75
374.965	86.75
375.191	87.75
375.416	90.75
375.642	94.75
375.868	79.75
376.094	80.75
376.319	95.75
376.545	79.75
376.771	83.75
376.997	94.75
377.222	94.75
377.448	102.75
377.674	92.75
377.899	78.75
378.125	76.75
378.35	91.75
378.576	79.75
378.802	92.75
379.027	91.75
379.253	85.75
379.478	81.75
379.704	93.75
379.929	92.75
380.155	92.75
380.38	104.75
380.606	79.75
380.831	96.75
381.057	88.75
381.282	88.75
381.507	87.75
381.733	99.75
381.958	101.75
382.184	103.75
382.409	93.75
382.634	95.75
382.86	88.75
383.085	104.75
383.31	98.75
383.535	100.75
383.761	87.75
383.986	102.75
384.211	90.75
384.436	103.75
384.662	84.75
384.887	99.75
385.112	102.75
385.337	100.75
385.562	88.75
385.787	91.75
386.013	107.75
386.238	116.75
386.463	99.75
386.688	98.75
386.913	105.75
387.138	98.75
387.363	87.75
387.588	95.75
387.813	100.75
388.038	108.75
388.263	110.75
388.488	105.75
388.713	94.75
388.938	89.75
389.163	88.75
389.387	100.75
389.612	82.75
389.837	93.75
390.062	94.75
390.287	98.75
390.512	74.75
390.736	93.75
390.961	99.75
391.186	101.75
391.411	93.75
391.636	98.75
391.86	92.75
392.085	93.75
392.31	91.75
392.534	79.75
392.759	102.75
392.984	64.75
393.208	85.75
393.433	86.75
393.658	100.75
393.882	90.75
394.107	84.75
394.331	90.75
394.556	85.75
394.78	103.75
395.005	77.75
395.229	73.75
395.454	107.75
395.678	94.75
395.903	86.75
396.127	83.75
396.352	88.75
396.576	83.75
396.801	86.75
397.025	100.75
397.249	92.75
397.474	87.75
397.698	104.75
397.922	98.75
398.147	94.75
398.371	84.75
398.595	81.75
398.82	94.75
399.044	80.75
399.268	97.75
399.492	85.75
399.717	100.75
399.941	87.75
400.165	77.75
400.389	79.75
400.613	81.75
400.837	77.75
401.062	92.75
401.286	90.75
401.51	86.75
401.734	86.75
401.958	90.75
402.182	107.75
402.406	122.75
402.63	107.75
402.854	84.75
403.078	88.75
403.302	91.75
403.526	89.75
403.75	98.75
403.974	92.75
404.198	83.75
404.422	95.75
404.645	86.75
404.869	86.75
405.093	86.75
405.317	89.75
405.541	96.75
405.765	94.75
405.988	113.75
406.212	158.75
406.436	177.75
406.66	128.75
406.883	93.75
407.107	93.75
407.331	91.75
407.555	90.75
407.778	95.75
408.002	88.75
408.226	97.75
408.449	86.75
408.673	93.75
408.896	80.75
409.12	101.75
409.344	83.75
409.567	91.75
409.791	87.75
410.014	104.75
410.238	101.75
410.461	82.75
410.685	88.75
410.908	79.75
411.132	105.75
411.355	97.75
411.578	84.75
411.802	80.75
412.025	82.75
412.249	80.75
412.472	99.75
412.695	100.75
412.919	91.75
413.142	89.75
413.365	96.75
413.589	96.75
413.812	84.75
414.035	89.75
414.258	92.75
414.482	93.75
414.705	81.75
414.928	86.75
415.151	81.75
415.374	90.75
415.597	89.75
415.821	90.75
416.044	85.75
416.267	76.75
416.49	88.75
416.713	89.75
416.936	94.75
417.159	84.75
417.382	89.75
417.605	90.75
417.828	93.75
418.051	81.75
418.274	90.75
418.497	87.75
418.72	82.75
418.943	79.75
419.166	74.75
419.389	99.75
419.611	92.75
419.834	92.75
420.057	79.75
420.28	80.75
420.503	84.75
420.726	83.75
420.948	88.75
421.171	89.75
421.394	90.75
421.617	83.75
421.839	85.75
422.062	93.75
422.285	91.75
422.507	90.75
422.73	93.75
422.953	87.75
423.175	94.75
423.398	86.75
423.621	91.75
423.843	95.75
424.066	90.75
424.288	86.75
424.511	85.75
424.733	83.75
424.956	95.75
425.178	92.75
425.401	92.75
425.623	78.75
425.846	81.75
426.068	100.75
426.291	81.75
426.513	90.75
426.735	86.75
426.958	76.75
427.18	101.75
427.402	117.75
427.625	143.75
427.847	132.75
428.069	119.75
428.292	77.75
428.514	79.75
428.736	77.75
428.958	88.75
429.181	76.75
429.403	85.75
429.625	89.75
429.847	78.75
430.069	95.75
430.292	87.75
430.514	80.75
430.736	84.75
430.958	74.75
431.18	77.75
431.402	78.75
431.624	79.75
431.846	83.75
432.068	90.75
432.29	83.75
432.512	87.75
432.734	68.75
432.956	79.75
433.178	81.75
433.4	101.75
433.622	86.75
433.844	87.75
434.066	95.75
434.287	86.75
434.509	79.75
434.731	80.75
434.953	70.75
435.175	80.75
435.397	97.75
435.618	105.75
435.84	99.75
436.062	101.75
436.284	96.75
436.505	104.75
436.727	101.75
436.949	101.75
437.17	88.75
437.392	76.75
437.614	87.75
437.835	88.75
438.057	102.75
438.278	87.75
438.5	97.75
438.721	96.75
438.943	84.75
439.165	94.75
439.386	92.75
439.608	102.75
439.829	90.75
440.05	108.75
440.272	108.75
440.493	94.75
440.715	87.75
440.936	87.75
441.158	84.75
441.379	85.75
441.6	92.75
441.822	82.75
442.043	97.75
442.264	94.75
442.486	81.75
442.707	95.75
442.928	86.75
443.149	120.75
443.371	128.75
443.592	102.75
443.813	103.75
444.034	114.75
444.255	86.75
444.476	91.75
444.698	86.75
444.919	84.75
445.14	139.75
445.361	109.75
445.582	124.75
445.803	123.75
446.024	113.75
446.245	109.75
446.466	85.75
446.687	85.75
446.908	95.75
447.129	100.75
447.35	81.75
447.571	93.75
447.792	89.75
448.013	100.75
448.234	93.75
448.455	102.75
448.675	89.75
448.896	86.75
449.117	89.75
449.338	96.75
449.559	119.75
449.779	114.75
450	99.75
450.221	90.75
450.442	98.75
450.662	101.75
450.883	92.75
451.104	90.75
451.324	86.75
451.545	79.75
451.766	80.75
451.986	97.75
452.207	80.75
452.428	90.75
452.648	84.75
452.869	86.75
453.089	110.75
453.31	107.75
453.53	92.75
453.751	86.75
453.971	114.75
454.192	99.75
454.412	85.75
454.633	90.75
454.853	83.75
455.073	77.75
455.294	100.75
455.514	108.75
455.734	95.75
455.955	93.75
456.175	79.75
456.395	83.75
456.616	86.75
456.836	82.75
457.056	84.75
457.276	79.75
457.497	73.75
457.717	81.75
457.937	91.75
458.157	78.75
458.377	84.75
458.598	104.75
458.818	118.75
459.038	126.75
459.258	111.75
459.478	90.75
459.698	86.75
459.918	79.75
460.138	82.75
460.358	82.75
460.578	91.75
460.798	87.75
461.018	87.75
461.238	91.75
461.458	92.75
461.678	83.75
461.898	78.75
462.118	83.75
462.338	78.75
462.558	88.75
462.777	82.75
462.997	82.75
463.217	88.75
463.437	91.75
463.657	78.75
463.876	88.75
464.096	81.75
464.316	77.75
464.536	76.75
464.755	91.75
464.975	88.75
465.195	140.75
465.414	150.75
465.634	93.75
465.854	84.75
466.073	90.75
466.293	82.75
466.512	101.75
466.732	75.75
466.951	90.75
467.171	91.75
467.391	96.75
467.61	98.75
467.829	100.75
468.049	151.75
468.268	174.75
468.488	84.75
468.707	88.75
468.927	86.75
469.146	99.75
469.365	78.75
469.585	86.75
469.804	93.75
470.023	91.75
470.243	88.75
470.462	85.75
470.681	104.75
470.901	82.75
471.12	82.75
471.339	75.75
471.558	88.75
471.777	94.75
471.997	100.75
472.216	231.75
472.435	397.75
472.654	143.75
472.873	93.75
473.092	91.75
473.311	95.75
473.53	87.75
473.749	93.75
473.968	85.75
474.187	91.75
474.406	84.75
474.625	90.75
474.844	74.75
475.063	98.75
475.282	88.75
475.501	89.75
475.72	94.75
475.939	78.75
476.158	91.75
476.377	76.75
476.596	87.75
476.814	79.75
477.033	86.75
477.252	94.75
477.471	90.75
477.69	90.75
477.908	90.75
478.127	83.75
478.346	86.75
478.564	87.75
478.783	93.75
479.002	104.75
479.22	95.75
479.439	103.75
479.658	98.75
479.876	99.75
480.095	85.75
480.313	84.75
480.532	90.75
480.751	105.75
480.969	228.75
481.188	685.75
481.406	400.75
481.624	139.75
481.843	97.75
482.061	92.75
482.28	88.75
482.498	90.75
482.717	87.75
482.935	91.75
483.153	75.75
483.372	78.75
483.59	78.75
483.808	97.75
484.027	72.75
484.245	99.75
484.463	82.75
484.681	103.75
484.9	84.75
485.118	96.75
485.336	94.75
485.554	91.75
485.772	102.75
485.99	100.75
486.209	98.75
486.427	101.75
486.645	106.75
486.863	101.75
487.081	102.75
487.299	76.75
487.517	88.75
487.735	98.75
487.953	86.75
488.171	94.75
488.389	77.75
488.607	84.75
488.825	74.75
489.043	95.75
489.261	99.75
489.479	95.75
489.696	83.75
489.914	80.75
490.132	70.75
490.35	106.75
490.568	80.75
490.786	85.75
491.003	92.75
491.221	95.75
491.439	87.75
491.657	94.75
491.874	78.75
492.092	90.75
492.31	86.75
492.527	90.75
492.745	81.75
492.963	86.75
493.18	92.75
493.398	84.75
493.615	87.75
493.833	79.75
494.05	87.75
494.268	85.75
494.485	67.75
494.703	77.75
494.92	91.75
495.138	74.75
495.355	96.75
495.573	94.75
495.79	89.75
496.008	90.75
496.225	94.75
496.442	94.75
496.66	102.75
496.877	93.75
497.094	93.75
497.312	87.75
497.529	93.75
497.746	78.75
497.963	86.75
498.181	98.75
498.398	106.75
498.615	112.75
498.832	87.75
499.049	82.75
499.267	90.75
499.484	86.75
499.701	91.75
499.918	95.75
500.135	86.75
500.352	82.75
500.569	94.75
500.786	90.75
501.003	95.75
501.22	86.75
501.437	72.75
501.654	96.75
501.871	92.75
502.088	91.75
502.305	72.75
502.522	91.75
502.739	103.75
502.956	90.75
503.172	99.75
503.389	98.75
503.606	100.75
503.823	85.75
504.04	104.75
504.256	90.75
504.473	95.75
504.69	88.75
504.907	108.75
505.123	87.75
505.34	95.75
505.557	101.75
505.773	91.75
505.99	87.75
506.207	79.75
506.423	92.75
506.64	96.75
506.856	81.75
507.073	85.75
507.289	87.75
507.506	90.75
507.722	103.75
507.939	103.75
508.155	108.75
508.372	100.75
508.588	95.75
508.805	93.75
509.021	91.75
509.238	94.75
509.454	92.75
509.67	92.75
509.887	91.75
510.103	96.75
510.319	173.75
510.536	582.75
510.752	1718.75
510.968	530.75
511.184	122.75
511.401	97.75
511.617	92.75
511.833	84.75
512.049	94.75
512.265	91.75
512.481	74.75
512.698	91.75
512.914	100.75
513.13	79.75
513.346	87.75
513.562	94.75
513.778	94.75
513.994	101.75
514.21	112.75
514.426	107.75
514.642	120.75
514.858	109.75
515.074	149.75
515.29	367.75
515.506	1125.75
515.721	420.75
515.937	150.75
516.153	110.75
516.369	98.75
