Data from Uncirc_1989_H10_HRD10591_00023.txt Node
Date: Wed Jan 03 11:57:40 EST 2024
User: Yrep
Spectrometer: HR+D1059
Trigger mode: 1
Integration Time (sec): 1.000000E-1
Scans to average: 1
Electric dark correction enabled: true
Nonlinearity correction enabled: false
Boxcar width: 0
XAxis mode: Wavelengths
Number of Pixels in Spectrum: 2048
>>>>>Begin Spectral Data<<<<<
223.165	-21.88
223.4	-21.88
223.635	-21.88
223.869	-22.88
224.104	-20.88
224.338	-20.88
224.573	-16.88
224.808	-14.88
225.042	-7.88
225.277	-10.88
225.511	1.12
225.746	15.12
225.98	7.12
226.215	24.12
226.449	11.12
226.683	21.12
226.918	18.12
227.152	39.12
227.387	44.12
227.621	27.12
227.856	46.12
228.09	62.12
228.324	46.12
228.559	51.12
228.793	50.12
229.027	55.12
229.262	61.12
229.496	85.12
229.73	73.12
229.964	77.12
230.199	71.12
230.433	79.12
230.667	82.12
230.901	81.12
231.136	62.12
231.37	67.12
231.604	69.12
231.838	71.12
232.072	79.12
232.306	79.12
232.541	74.12
232.775	85.12
233.009	87.12
233.243	84.12
233.477	84.12
233.711	91.12
233.945	73.12
234.179	91.12
234.413	85.12
234.647	89.12
234.881	84.12
235.115	75.12
235.349	84.12
235.583	68.12
235.817	83.12
236.051	69.12
236.285	77.12
236.519	74.12
236.753	78.12
236.987	84.12
237.221	85.12
237.455	84.12
237.689	68.12
237.922	72.12
238.156	73.12
238.39	64.12
238.624	79.12
238.858	91.12
239.091	76.12
239.325	76.12
239.559	71.12
239.793	57.12
240.027	78.12
240.26	79.12
240.494	72.12
240.728	79.12
240.961	85.12
241.195	87.12
241.429	97.12
241.662	64.12
241.896	44.12
242.13	78.12
242.363	84.12
242.597	86.12
242.83	81.12
243.064	89.12
243.298	81.12
243.531	93.12
243.765	76.12
243.998	45.12
244.232	83.12
244.465	85.12
244.699	78.12
244.932	59.12
245.166	83.12
245.399	79.12
245.633	60.12
245.866	72.12
246.099	87.12
246.333	72.12
246.566	82.12
246.8	82.12
247.033	76.12
247.266	68.12
247.5	79.12
247.733	64.12
247.966	71.12
248.2	75.12
248.433	90.12
248.666	70.12
248.899	79.12
249.133	80.12
249.366	107.12
249.599	87.12
249.832	71.12
250.066	88.12
250.299	70.12
250.532	71.12
250.765	77.12
250.998	93.12
251.231	86.12
251.465	76.12
251.698	79.12
251.931	80.12
252.164	78.12
252.397	69.12
252.63	91.12
252.863	94.12
253.096	67.12
253.329	91.12
253.562	89.12
253.795	88.12
254.028	56.12
254.261	76.12
254.494	81.12
254.727	90.12
254.96	64.12
255.193	81.12
255.426	78.12
255.659	78.12
255.892	77.12
256.124	83.12
256.357	89.12
256.59	90.12
256.823	86.12
257.056	80.12
257.289	83.12
257.521	98.12
257.754	71.12
257.987	72.12
258.22	68.12
258.452	78.12
258.685	79.12
258.918	83.12
259.151	95.12
259.383	82.12
259.616	84.12
259.849	72.12
260.081	88.12
260.314	82.12
260.547	74.12
260.779	64.12
261.012	81.12
261.244	72.12
261.477	83.12
261.71	81.12
261.942	92.12
262.175	110.12
262.407	80.12
262.64	91.12
262.872	80.12
263.105	67.12
263.337	83.12
263.57	91.12
263.802	76.12
264.035	70.12
264.267	87.12
264.499	88.12
264.732	76.12
264.964	77.12
265.197	91.12
265.429	78.12
265.661	81.12
265.894	92.12
266.126	84.12
266.358	104.12
266.591	79.12
266.823	92.12
267.055	98.12
267.287	79.12
267.52	87.12
267.752	91.12
267.984	84.12
268.216	79.12
268.448	95.12
268.681	93.12
268.913	88.12
269.145	80.12
269.377	81.12
269.609	82.12
269.841	95.12
270.073	94.12
270.306	67.12
270.538	82.12
270.77	79.12
271.002	78.12
271.234	96.12
271.466	86.12
271.698	80.12
271.93	85.12
272.162	63.12
272.394	70.12
272.626	86.12
272.858	76.12
273.09	74.12
273.322	84.12
273.553	93.12
273.785	91.12
274.017	76.12
274.249	71.12
274.481	83.12
274.713	89.12
274.945	86.12
275.176	85.12
275.408	91.12
275.64	88.12
275.872	95.12
276.104	86.12
276.335	78.12
276.567	78.12
276.799	88.12
277.031	84.12
277.262	96.12
277.494	91.12
277.726	89.12
277.957	64.12
278.189	71.12
278.421	80.12
278.652	75.12
278.884	87.12
279.115	88.12
279.347	93.12
279.579	79.12
279.81	75.12
280.042	94.12
280.273	78.12
280.505	83.12
280.736	93.12
280.968	83.12
281.199	79.12
281.431	78.12
281.662	85.12
281.894	95.12
282.125	85.12
282.356	94.12
282.588	129.12
282.819	103.12
283.051	93.12
283.282	79.12
283.513	94.12
283.745	89.12
283.976	84.12
284.207	95.12
284.439	79.12
284.67	94.12
284.901	90.12
285.132	85.12
285.364	81.12
285.595	79.12
285.826	88.12
286.057	76.12
286.288	79.12
286.52	87.12
286.751	73.12
286.982	93.12
287.213	92.12
287.444	71.12
287.675	84.12
287.906	80.12
288.138	81.12
288.369	98.12
288.6	86.12
288.831	92.12
289.062	87.12
289.293	83.12
289.524	83.12
289.755	84.12
289.986	86.12
290.217	90.12
290.448	88.12
290.679	90.12
290.91	83.12
291.141	83.12
291.371	98.12
291.602	96.12
291.833	92.12
292.064	88.12
292.295	79.12
292.526	100.12
292.757	81.12
292.987	81.12
293.218	91.12
293.449	98.12
293.68	81.12
293.91	95.12
294.141	99.12
294.372	90.12
294.603	91.12
294.833	82.12
295.064	77.12
295.295	79.12
295.525	98.12
295.756	101.12
295.987	103.12
296.217	112.12
296.448	101.12
296.679	87.12
296.909	98.12
297.14	77.12
297.37	89.12
297.601	76.12
297.831	97.12
298.062	93.12
298.292	82.12
298.523	94.12
298.753	73.12
298.984	84.12
299.214	89.12
299.445	84.12
299.675	93.12
299.905	95.12
300.136	89.12
300.366	89.12
300.597	102.12
300.827	93.12
301.057	104.12
301.288	89.12
301.518	94.12
301.748	86.12
301.979	100.12
302.209	83.12
302.439	75.12
302.669	100.12
302.9	91.12
303.13	91.12
303.36	107.12
303.59	102.12
303.82	111.12
304.051	93.12
304.281	100.12
304.511	91.12
304.741	73.12
304.971	91.12
305.201	91.12
305.431	87.12
305.661	94.12
305.891	92.12
306.121	99.12
306.352	100.12
306.582	97.12
306.812	96.12
307.042	91.12
307.272	96.12
307.502	87.12
307.731	89.12
307.961	92.12
308.191	97.12
308.421	98.12
308.651	101.12
308.881	85.12
309.111	96.12
309.341	96.12
309.571	100.12
309.8	89.12
310.03	102.12
310.26	89.12
310.49	94.12
310.72	90.12
310.949	84.12
311.179	103.12
311.409	107.12
311.639	83.12
311.868	95.12
312.098	84.12
312.328	85.12
312.557	83.12
312.787	103.12
313.017	80.12
313.246	92.12
313.476	80.12
313.706	95.12
313.935	101.12
314.165	100.12
314.394	80.12
314.624	95.12
314.853	82.12
315.083	85.12
315.312	95.12
315.542	80.12
315.771	88.12
316.001	93.12
316.23	88.12
316.46	92.12
316.689	94.12
316.919	91.12
317.148	79.12
317.377	95.12
317.607	91.12
317.836	100.12
318.065	95.12
318.295	93.12
318.524	91.12
318.753	109.12
318.983	101.12
319.212	87.12
319.441	100.12
319.67	94.12
319.9	85.12
320.129	80.12
320.358	96.12
320.587	88.12
320.816	104.12
321.046	89.12
321.275	86.12
321.504	101.12
321.733	105.12
321.962	92.12
322.191	90.12
322.42	99.12
322.649	105.12
322.878	105.12
323.108	132.12
323.337	106.12
323.566	115.12
323.795	133.12
324.024	176.12
324.253	300.12
324.482	621.12
324.71	1305.12
324.939	1658.12
325.168	617.12
325.397	187.12
325.626	136.12
325.855	119.12
326.084	124.12
326.313	132.12
326.542	135.12
326.77	185.12
326.999	360.12
327.228	733.12
327.457	1321.12
327.686	1030.12
327.914	295.12
328.143	168.12
328.372	144.12
328.6	129.12
328.829	105.12
329.058	112.12
329.287	116.12
329.515	102.12
329.744	111.12
329.972	111.12
330.201	126.12
330.43	139.12
330.658	129.12
330.887	115.12
331.115	102.12
331.344	92.12
331.572	103.12
331.801	97.12
332.03	91.12
332.258	93.12
332.486	82.12
332.715	97.12
332.943	90.12
333.172	94.12
333.4	95.12
333.629	94.12
333.857	102.12
334.085	122.12
334.314	133.12
334.542	167.12
334.771	139.12
334.999	104.12
335.227	75.12
335.455	93.12
335.684	95.12
335.912	90.12
336.14	94.12
336.369	99.12
336.597	84.12
336.825	98.12
337.053	84.12
337.281	98.12
337.51	104.12
337.738	100.12
337.966	83.12
338.194	87.12
338.422	96.12
338.65	88.12
338.878	93.12
339.106	79.12
339.334	86.12
339.562	92.12
339.79	93.12
340.018	94.12
340.246	91.12
340.474	95.12
340.702	97.12
340.93	103.12
341.158	86.12
341.386	100.12
341.614	103.12
341.842	86.12
342.07	102.12
342.298	87.12
342.526	99.12
342.754	92.12
342.981	80.12
343.209	98.12
343.437	116.12
343.665	101.12
343.893	84.12
344.12	90.12
344.348	90.12
344.576	84.12
344.804	84.12
345.031	81.12
345.259	104.12
345.487	80.12
345.714	84.12
345.942	91.12
346.17	104.12
346.397	84.12
346.625	99.12
346.853	92.12
347.08	97.12
347.308	95.12
347.535	92.12
347.763	86.12
347.99	104.12
348.218	103.12
348.445	99.12
348.673	90.12
348.9	88.12
349.128	87.12
349.355	95.12
349.583	93.12
349.81	86.12
350.037	86.12
350.265	92.12
350.492	86.12
350.72	90.12
350.947	113.12
351.174	124.12
351.402	113.12
351.629	109.12
351.856	94.12
352.083	106.12
352.311	106.12
352.538	110.12
352.765	105.12
352.992	94.12
353.22	88.12
353.447	96.12
353.674	91.12
353.901	86.12
354.128	81.12
354.355	95.12
354.583	108.12
354.81	85.12
355.037	105.12
355.264	102.12
355.491	96.12
355.718	76.12
355.945	86.12
356.172	84.12
356.399	88.12
356.626	94.12
356.853	100.12
357.08	103.12
357.307	94.12
357.534	100.12
357.761	79.12
357.988	94.12
358.215	89.12
358.441	97.12
358.668	93.12
358.895	109.12
359.122	104.12
359.349	80.12
359.576	96.12
359.802	92.12
360.029	89.12
360.256	104.12
360.483	91.12
360.709	95.12
360.936	71.12
361.163	93.12
361.39	97.12
361.616	94.12
361.843	93.12
362.07	101.12
362.296	96.12
362.523	94.12
362.749	93.12
362.976	83.12
363.203	84.12
363.429	92.12
363.656	81.12
363.882	76.12
364.109	89.12
364.335	110.12
364.562	80.12
364.788	93.12
365.015	85.12
365.241	97.12
365.468	91.12
365.694	96.12
365.92	81.12
366.147	95.12
366.373	78.12
366.599	101.12
366.826	79.12
367.052	71.12
367.278	90.12
367.505	78.12
367.731	98.12
367.957	98.12
368.184	94.12
368.41	87.12
368.636	101.12
368.862	108.12
369.089	109.12
369.315	96.12
369.541	91.12
369.767	83.12
369.993	92.12
370.219	86.12
370.445	89.12
370.672	77.12
370.898	102.12
371.124	102.12
371.35	99.12
371.576	95.12
371.802	80.12
372.028	83.12
372.254	97.12
372.48	95.12
372.706	109.12
372.932	81.12
373.158	83.12
373.384	95.12
373.61	84.12
373.835	85.12
374.061	80.12
374.287	91.12
374.513	91.12
374.739	98.12
374.965	91.12
375.191	88.12
375.416	83.12
375.642	85.12
375.868	91.12
376.094	75.12
376.319	100.12
376.545	91.12
376.771	89.12
376.997	97.12
377.222	85.12
377.448	89.12
377.674	88.12
377.899	88.12
378.125	93.12
378.35	100.12
378.576	89.12
378.802	86.12
379.027	93.12
379.253	101.12
379.478	93.12
379.704	95.12
379.929	96.12
380.155	98.12
380.38	117.12
380.606	93.12
380.831	84.12
381.057	93.12
381.282	80.12
381.507	90.12
381.733	88.12
381.958	96.12
382.184	85.12
382.409	106.12
382.634	102.12
382.86	100.12
383.085	99.12
383.31	104.12
383.535	107.12
383.761	94.12
383.986	99.12
384.211	109.12
384.436	104.12
384.662	85.12
384.887	94.12
385.112	101.12
385.337	99.12
385.562	107.12
385.787	107.12
386.013	111.12
386.238	117.12
386.463	105.12
386.688	129.12
386.913	112.12
387.138	116.12
387.363	104.12
387.588	93.12
387.813	88.12
388.038	104.12
388.263	115.12
388.488	104.12
388.713	80.12
388.938	85.12
389.163	96.12
389.387	92.12
389.612	95.12
389.837	91.12
390.062	99.12
390.287	100.12
390.512	98.12
390.736	89.12
390.961	109.12
391.186	95.12
391.411	97.12
391.636	91.12
391.86	77.12
392.085	83.12
392.31	85.12
392.534	86.12
392.759	82.12
392.984	95.12
393.208	104.12
393.433	118.12
393.658	105.12
393.882	96.12
394.107	86.12
394.331	89.12
394.556	86.12
394.78	82.12
395.005	74.12
395.229	85.12
395.454	79.12
395.678	73.12
395.903	82.12
396.127	84.12
396.352	91.12
396.576	88.12
396.801	97.12
397.025	97.12
397.249	104.12
397.474	92.12
397.698	93.12
397.922	92.12
398.147	91.12
398.371	83.12
398.595	91.12
398.82	100.12
399.044	90.12
399.268	75.12
399.492	92.12
399.717	86.12
399.941	77.12
400.165	83.12
400.389	88.12
400.613	104.12
400.837	99.12
401.062	92.12
401.286	82.12
401.51	93.12
401.734	99.12
401.958	99.12
402.182	111.12
402.406	125.12
402.63	116.12
402.854	79.12
403.078	87.12
403.302	83.12
403.526	96.12
403.75	78.12
403.974	89.12
404.198	82.12
404.422	102.12
404.645	81.12
404.869	88.12
405.093	91.12
405.317	91.12
405.541	100.12
405.765	101.12
405.988	98.12
406.212	135.12
406.436	184.12
406.66	120.12
406.883	97.12
407.107	96.12
407.331	100.12
407.555	97.12
407.778	101.12
408.002	85.12
408.226	89.12
408.449	81.12
408.673	95.12
408.896	82.12
409.12	97.12
409.344	87.12
409.567	85.12
409.791	95.12
410.014	93.12
410.238	99.12
410.461	99.12
410.685	89.12
410.908	99.12
411.132	107.12
411.355	95.12
411.578	86.12
411.802	96.12
412.025	88.12
412.249	68.12
412.472	85.12
412.695	108.12
412.919	76.12
413.142	82.12
413.365	88.12
413.589	84.12
413.812	98.12
414.035	98.12
414.258	83.12
414.482	92.12
414.705	100.12
414.928	95.12
415.151	81.12
415.374	95.12
415.597	104.12
415.821	82.12
416.044	77.12
416.267	86.12
416.49	91.12
416.713	87.12
416.936	88.12
417.159	81.12
417.382	84.12
417.605	88.12
417.828	89.12
418.051	76.12
418.274	83.12
418.497	92.12
418.72	87.12
418.943	90.12
419.166	89.12
419.389	95.12
419.611	101.12
419.834	79.12
420.057	95.12
420.28	91.12
420.503	91.12
420.726	94.12
420.948	79.12
421.171	96.12
421.394	83.12
421.617	91.12
421.839	88.12
422.062	87.12
422.285	97.12
422.507	101.12
422.73	88.12
422.953	85.12
423.175	85.12
423.398	97.12
423.621	93.12
423.843	80.12
424.066	97.12
424.288	76.12
424.511	75.12
424.733	77.12
424.956	100.12
425.178	109.12
425.401	110.12
425.623	97.12
425.846	84.12
426.068	102.12
426.291	90.12
426.513	96.12
426.735	91.12
426.958	91.12
427.18	91.12
427.402	110.12
427.625	139.12
427.847	117.12
428.069	109.12
428.292	95.12
428.514	94.12
428.736	95.12
428.958	102.12
429.181	88.12
429.403	85.12
429.625	88.12
429.847	95.12
430.069	76.12
430.292	81.12
430.514	93.12
430.736	92.12
430.958	85.12
431.18	88.12
431.402	96.12
431.624	96.12
431.846	81.12
432.068	83.12
432.29	75.12
432.512	100.12
432.734	68.12
432.956	84.12
433.178	87.12
433.4	88.12
433.622	81.12
433.844	75.12
434.066	82.12
434.287	79.12
434.509	87.12
434.731	100.12
434.953	87.12
435.175	91.12
435.397	88.12
435.618	92.12
435.84	98.12
436.062	100.12
436.284	97.12
436.505	101.12
436.727	100.12
436.949	85.12
437.17	87.12
437.392	87.12
437.614	82.12
437.835	88.12
438.057	88.12
438.278	89.12
438.5	88.12
438.721	108.12
438.943	91.12
439.165	78.12
439.386	91.12
439.608	84.12
439.829	91.12
440.05	119.12
440.272	120.12
440.493	92.12
440.715	91.12
440.936	89.12
441.158	101.12
441.379	85.12
441.6	103.12
441.822	84.12
442.043	88.12
442.264	91.12
442.486	97.12
442.707	92.12
442.928	97.12
443.149	110.12
443.371	120.12
443.592	103.12
443.813	104.12
444.034	94.12
444.255	95.12
444.476	87.12
444.698	76.12
444.919	90.12
445.14	148.12
445.361	113.12
445.582	117.12
445.803	128.12
446.024	110.12
446.245	116.12
446.466	109.12
446.687	88.12
446.908	89.12
447.129	83.12
447.35	84.12
447.571	88.12
447.792	86.12
448.013	88.12
448.234	91.12
448.455	109.12
448.675	107.12
448.896	99.12
449.117	102.12
449.338	88.12
449.559	117.12
449.779	116.12
450	93.12
450.221	93.12
450.442	85.12
450.662	91.12
450.883	91.12
451.104	94.12
451.324	90.12
451.545	82.12
451.766	77.12
451.986	75.12
452.207	87.12
452.428	91.12
452.648	86.12
452.869	106.12
453.089	113.12
453.31	102.12
453.53	92.12
453.751	83.12
453.971	99.12
454.192	101.12
454.412	105.12
454.633	95.12
454.853	86.12
455.073	84.12
455.294	85.12
455.514	101.12
455.734	87.12
455.955	75.12
456.175	81.12
456.395	108.12
456.616	84.12
456.836	75.12
457.056	81.12
457.276	70.12
457.497	81.12
457.717	83.12
457.937	80.12
458.157	93.12
458.377	80.12
458.598	98.12
458.818	116.12
459.038	134.12
459.258	89.12
459.478	83.12
459.698	92.12
459.918	83.12
460.138	94.12
460.358	80.12
460.578	93.12
460.798	77.12
461.018	79.12
461.238	86.12
461.458	83.12
461.678	87.12
461.898	95.12
462.118	75.12
462.338	77.12
462.558	76.12
462.777	91.12
462.997	92.12
463.217	88.12
463.437	98.12
463.657	92.12
463.876	79.12
464.096	93.12
464.316	105.12
464.536	88.12
464.755	87.12
464.975	104.12
465.195	141.12
465.414	122.12
465.634	92.12
465.854	87.12
466.073	68.12
466.293	83.12
466.512	88.12
466.732	83.12
466.951	95.12
467.171	87.12
467.391	102.12
467.61	96.12
467.829	84.12
468.049	93.12
468.268	109.12
468.488	93.12
468.707	104.12
468.927	100.12
469.146	82.12
469.365	84.12
469.585	93.12
469.804	94.12
470.023	100.12
470.243	93.12
470.462	95.12
470.681	100.12
470.901	88.12
471.12	96.12
471.339	91.12
471.558	93.12
471.777	78.12
471.997	95.12
472.216	133.12
472.435	166.12
472.654	107.12
472.873	95.12
473.092	96.12
473.311	95.12
473.53	79.12
473.749	84.12
473.968	85.12
474.187	90.12
474.406	95.12
474.625	97.12
474.844	99.12
475.063	87.12
475.282	81.12
475.501	85.12
475.72	80.12
475.939	93.12
476.158	84.12
476.377	88.12
476.596	70.12
476.814	96.12
477.033	80.12
477.252	92.12
477.471	85.12
477.69	81.12
477.908	75.12
478.127	85.12
478.346	96.12
478.564	100.12
478.783	81.12
479.002	94.12
479.22	81.12
479.439	93.12
479.658	93.12
479.876	104.12
480.095	96.12
480.313	86.12
480.532	92.12
480.751	76.12
480.969	129.12
481.188	256.12
481.406	179.12
481.624	91.12
481.843	91.12
482.061	78.12
482.28	98.12
482.498	84.12
482.717	78.12
482.935	101.12
483.153	88.12
483.372	92.12
483.59	101.12
483.808	91.12
484.027	79.12
484.245	95.12
484.463	110.12
484.681	105.12
484.9	96.12
485.118	103.12
485.336	99.12
485.554	91.12
485.772	97.12
485.99	93.12
486.209	102.12
486.427	95.12
486.645	118.12
486.863	107.12
487.081	93.12
487.299	100.12
487.517	94.12
487.735	108.12
487.953	100.12
488.171	92.12
488.389	98.12
488.607	89.12
488.825	88.12
489.043	102.12
489.261	91.12
489.479	90.12
489.696	86.12
489.914	75.12
490.132	94.12
490.35	75.12
490.568	81.12
490.786	75.12
491.003	91.12
491.221	81.12
491.439	83.12
491.657	93.12
491.874	80.12
492.092	83.12
492.31	89.12
492.527	88.12
492.745	91.12
492.963	101.12
493.18	90.12
493.398	93.12
493.615	87.12
493.833	84.12
494.05	96.12
494.268	97.12
494.485	82.12
494.703	89.12
494.92	90.12
495.138	91.12
495.355	100.12
495.573	93.12
495.79	79.12
496.008	81.12
496.225	84.12
496.442	91.12
496.66	81.12
496.877	86.12
497.094	103.12
497.312	92.12
497.529	88.12
497.746	84.12
497.963	79.12
498.181	88.12
498.398	94.12
498.615	99.12
498.832	111.12
499.049	101.12
499.267	93.12
499.484	97.12
499.701	103.12
499.918	92.12
500.135	93.12
500.352	87.12
500.569	90.12
500.786	96.12
501.003	101.12
501.22	78.12
501.437	96.12
501.654	97.12
501.871	87.12
502.088	85.12
502.305	90.12
502.522	94.12
502.739	86.12
502.956	85.12
503.172	79.12
503.389	94.12
503.606	102.12
503.823	107.12
504.04	99.12
504.256	87.12
504.473	87.12
504.69	89.12
504.907	97.12
505.123	89.12
505.34	80.12
505.557	89.12
505.773	83.12
505.99	90.12
506.207	98.12
506.423	97.12
506.64	80.12
506.856	85.12
507.073	91.12
507.289	95.12
507.506	106.12
507.722	102.12
507.939	95.12
508.155	84.12
508.372	77.12
508.588	103.12
508.805	79.12
509.021	93.12
509.238	113.12
509.454	102.12
509.67	87.12
509.887	117.12
510.103	111.12
510.319	176.12
510.536	604.12
510.752	1664.12
510.968	478.12
511.184	118.12
511.401	101.12
511.617	94.12
511.833	100.12
512.049	98.12
512.265	96.12
512.481	85.12
512.698	88.12
512.914	90.12
513.13	86.12
513.346	93.12
513.562	92.12
513.778	84.12
513.994	95.12
514.21	95.12
514.426	115.12
514.642	121.12
514.858	112.12
515.074	132.12
515.29	342.12
515.506	1079.12
515.721	401.12
515.937	129.12
516.153	99.12
