Data from Uncirc_1989_H10_HRD10591_00039.txt Node
Date: Wed Jan 03 11:57:43 EST 2024
User: Yrep
Spectrometer: HR+D1059
Trigger mode: 1
Integration Time (sec): 1.000000E-1
Scans to average: 1
Electric dark correction enabled: true
Nonlinearity correction enabled: false
Boxcar width: 0
XAxis mode: Wavelengths
Number of Pixels in Spectrum: 2048
>>>>>Begin Spectral Data<<<<<
223.165	-27.81
223.4	-27.81
223.635	-27.81
223.869	-26.81
224.104	-22.81
224.338	-27.81
224.573	-9.81
224.808	-12.81
225.042	-10.81
225.277	9.19
225.511	-14.81
225.746	5.19
225.98	29.19
226.215	13.19
226.449	15.19
226.683	32.19
226.918	26.19
227.152	23.19
227.387	30.19
227.621	33.19
227.856	35.19
228.09	44.19
228.324	55.19
228.559	55.19
228.793	56.19
229.027	73.19
229.262	63.19
229.496	70.19
229.73	73.19
229.964	74.19
230.199	92.19
230.433	83.19
230.667	70.19
230.901	74.19
231.136	72.19
231.37	87.19
231.604	73.19
231.838	79.19
232.072	74.19
232.306	75.19
232.541	83.19
232.775	74.19
233.009	76.19
233.243	80.19
233.477	80.19
233.711	79.19
233.945	78.19
234.179	72.19
234.413	83.19
234.647	75.19
234.881	73.19
235.115	78.19
235.349	77.19
235.583	68.19
235.817	79.19
236.051	76.19
236.285	74.19
236.519	74.19
236.753	77.19
236.987	89.19
237.221	84.19
237.455	89.19
237.689	77.19
237.922	73.19
238.156	76.19
238.39	88.19
238.624	73.19
238.858	66.19
239.091	53.19
239.325	77.19
239.559	85.19
239.793	77.19
240.027	86.19
240.26	72.19
240.494	56.19
240.728	76.19
240.961	75.19
241.195	81.19
241.429	78.19
241.662	81.19
241.896	74.19
242.13	70.19
242.363	82.19
242.597	62.19
242.83	56.19
243.064	62.19
243.298	66.19
243.531	68.19
243.765	63.19
243.998	83.19
244.232	74.19
244.465	94.19
244.699	88.19
244.932	77.19
245.166	68.19
245.399	86.19
245.633	89.19
245.866	94.19
246.099	81.19
246.333	83.19
246.566	69.19
246.8	82.19
247.033	85.19
247.266	69.19
247.5	66.19
247.733	63.19
247.966	88.19
248.2	83.19
248.433	83.19
248.666	90.19
248.899	70.19
249.133	78.19
249.366	91.19
249.599	96.19
249.832	72.19
250.066	69.19
250.299	76.19
250.532	80.19
250.765	55.19
250.998	72.19
251.231	88.19
251.465	78.19
251.698	72.19
251.931	76.19
252.164	93.19
252.397	74.19
252.63	83.19
252.863	92.19
253.096	86.19
253.329	81.19
253.562	68.19
253.795	76.19
254.028	85.19
254.261	83.19
254.494	79.19
254.727	76.19
254.96	76.19
255.193	74.19
255.426	71.19
255.659	87.19
255.892	79.19
256.124	92.19
256.357	80.19
256.59	77.19
256.823	77.19
257.056	86.19
257.289	79.19
257.521	71.19
257.754	81.19
257.987	68.19
258.22	72.19
258.452	85.19
258.685	86.19
258.918	72.19
259.151	82.19
259.383	73.19
259.616	88.19
259.849	70.19
260.081	84.19
260.314	72.19
260.547	95.19
260.779	80.19
261.012	83.19
261.244	74.19
261.477	86.19
261.71	86.19
261.942	94.19
262.175	91.19
262.407	88.19
262.64	67.19
262.872	65.19
263.105	97.19
263.337	80.19
263.57	84.19
263.802	69.19
264.035	82.19
264.267	72.19
264.499	68.19
264.732	74.19
264.964	93.19
265.197	74.19
265.429	80.19
265.661	72.19
265.894	81.19
266.126	74.19
266.358	94.19
266.591	73.19
266.823	77.19
267.055	79.19
267.287	77.19
267.52	89.19
267.752	76.19
267.984	78.19
268.216	85.19
268.448	78.19
268.681	85.19
268.913	86.19
269.145	77.19
269.377	83.19
269.609	77.19
269.841	90.19
270.073	80.19
270.306	82.19
270.538	71.19
270.77	88.19
271.002	85.19
271.234	76.19
271.466	85.19
271.698	81.19
271.93	94.19
272.162	91.19
272.394	94.19
272.626	80.19
272.858	86.19
273.09	76.19
273.322	85.19
273.553	80.19
273.785	84.19
274.017	84.19
274.249	82.19
274.481	65.19
274.713	76.19
274.945	80.19
275.176	74.19
275.408	85.19
275.64	79.19
275.872	92.19
276.104	76.19
276.335	83.19
276.567	75.19
276.799	90.19
277.031	90.19
277.262	85.19
277.494	84.19
277.726	94.19
277.957	80.19
278.189	76.19
278.421	73.19
278.652	77.19
278.884	79.19
279.115	73.19
279.347	83.19
279.579	92.19
279.81	73.19
280.042	93.19
280.273	76.19
280.505	88.19
280.736	78.19
280.968	98.19
281.199	97.19
281.431	77.19
281.662	80.19
281.894	82.19
282.125	95.19
282.356	108.19
282.588	112.19
282.819	103.19
283.051	83.19
283.282	91.19
283.513	76.19
283.745	89.19
283.976	80.19
284.207	79.19
284.439	79.19
284.67	94.19
284.901	85.19
285.132	88.19
285.364	88.19
285.595	85.19
285.826	92.19
286.057	78.19
286.288	90.19
286.52	76.19
286.751	78.19
286.982	84.19
287.213	83.19
287.444	96.19
287.675	90.19
287.906	90.19
288.138	84.19
288.369	83.19
288.6	78.19
288.831	82.19
289.062	94.19
289.293	95.19
289.524	104.19
289.755	82.19
289.986	83.19
290.217	89.19
290.448	81.19
290.679	74.19
290.91	96.19
291.141	88.19
291.371	94.19
291.602	92.19
291.833	90.19
292.064	63.19
292.295	76.19
292.526	82.19
292.757	92.19
292.987	88.19
293.218	92.19
293.449	89.19
293.68	77.19
293.91	87.19
294.141	92.19
294.372	78.19
294.603	83.19
294.833	79.19
295.064	98.19
295.295	103.19
295.525	81.19
295.756	96.19
295.987	117.19
296.217	111.19
296.448	120.19
296.679	106.19
296.909	78.19
297.14	84.19
297.37	100.19
297.601	86.19
297.831	90.19
298.062	94.19
298.292	88.19
298.523	93.19
298.753	84.19
298.984	91.19
299.214	69.19
299.445	80.19
299.675	85.19
299.905	98.19
300.136	86.19
300.366	91.19
300.597	80.19
300.827	85.19
301.057	84.19
301.288	86.19
301.518	85.19
301.748	88.19
301.979	100.19
302.209	89.19
302.439	80.19
302.669	82.19
302.9	93.19
303.13	99.19
303.36	88.19
303.59	97.19
303.82	102.19
304.051	80.19
304.281	92.19
304.511	75.19
304.741	98.19
304.971	68.19
305.201	73.19
305.431	76.19
305.661	94.19
305.891	104.19
306.121	92.19
306.352	97.19
306.582	108.19
306.812	93.19
307.042	85.19
307.272	97.19
307.502	100.19
307.731	97.19
307.961	87.19
308.191	91.19
308.421	90.19
308.651	76.19
308.881	81.19
309.111	82.19
309.341	92.19
309.571	90.19
309.8	82.19
310.03	100.19
310.26	106.19
310.49	88.19
310.72	92.19
310.949	102.19
311.179	94.19
311.409	102.19
311.639	97.19
311.868	93.19
312.098	80.19
312.328	83.19
312.557	112.19
312.787	95.19
313.017	93.19
313.246	85.19
313.476	98.19
313.706	84.19
313.935	88.19
314.165	88.19
314.394	97.19
314.624	69.19
314.853	83.19
315.083	94.19
315.312	85.19
315.542	69.19
315.771	93.19
316.001	92.19
316.23	88.19
316.46	89.19
316.689	100.19
316.919	104.19
317.148	87.19
317.377	84.19
317.607	80.19
317.836	88.19
318.065	73.19
318.295	90.19
318.524	84.19
318.753	91.19
318.983	84.19
319.212	100.19
319.441	89.19
319.67	98.19
319.9	92.19
320.129	93.19
320.358	90.19
320.587	80.19
320.816	94.19
321.046	101.19
321.275	99.19
321.504	89.19
321.733	85.19
321.962	80.19
322.191	89.19
322.42	84.19
322.649	94.19
322.878	105.19
323.108	118.19
323.337	99.19
323.566	125.19
323.795	157.19
324.024	187.19
324.253	316.19
324.482	676.19
324.71	1338.19
324.939	1811.19
325.168	667.19
325.397	198.19
325.626	137.19
325.855	117.19
326.084	136.19
326.313	118.19
326.542	128.19
326.77	200.19
326.999	389.19
327.228	784.19
327.457	1409.19
327.686	1120.19
327.914	310.19
328.143	186.19
328.372	154.19
328.6	114.19
328.829	96.19
329.058	109.19
329.287	118.19
329.515	113.19
329.744	101.19
329.972	122.19
330.201	147.19
330.43	168.19
330.658	128.19
330.887	123.19
331.115	113.19
331.344	96.19
331.572	90.19
331.801	97.19
332.03	86.19
332.258	94.19
332.486	84.19
332.715	77.19
332.943	87.19
333.172	97.19
333.4	88.19
333.629	102.19
333.857	104.19
334.085	120.19
334.314	142.19
334.542	197.19
334.771	180.19
334.999	100.19
335.227	88.19
335.455	72.19
335.684	88.19
335.912	102.19
336.14	99.19
336.369	97.19
336.597	92.19
336.825	100.19
337.053	89.19
337.281	93.19
337.51	92.19
337.738	101.19
337.966	108.19
338.194	98.19
338.422	92.19
338.65	80.19
338.878	101.19
339.106	87.19
339.334	96.19
339.562	80.19
339.79	96.19
340.018	86.19
340.246	100.19
340.474	82.19
340.702	67.19
340.93	67.19
341.158	82.19
341.386	84.19
341.614	85.19
341.842	90.19
342.07	78.19
342.298	89.19
342.526	92.19
342.754	101.19
342.981	91.19
343.209	89.19
343.437	89.19
343.665	83.19
343.893	85.19
344.12	85.19
344.348	102.19
344.576	90.19
344.804	90.19
345.031	92.19
345.259	85.19
345.487	95.19
345.714	93.19
345.942	91.19
346.17	102.19
346.397	92.19
346.625	93.19
346.853	90.19
347.08	86.19
347.308	112.19
347.535	104.19
347.763	83.19
347.99	97.19
348.218	88.19
348.445	86.19
348.673	83.19
348.9	84.19
349.128	99.19
349.355	93.19
349.583	101.19
349.81	96.19
350.037	82.19
350.265	93.19
350.492	90.19
350.72	98.19
350.947	95.19
351.174	83.19
351.402	102.19
351.629	98.19
351.856	102.19
352.083	101.19
352.311	100.19
352.538	94.19
352.765	110.19
352.992	110.19
353.22	102.19
353.447	117.19
353.674	106.19
353.901	103.19
354.128	95.19
354.355	80.19
354.583	84.19
354.81	101.19
355.037	84.19
355.264	83.19
355.491	88.19
355.718	84.19
355.945	84.19
356.172	86.19
356.399	83.19
356.626	91.19
356.853	82.19
357.08	96.19
357.307	101.19
357.534	90.19
357.761	88.19
357.988	86.19
358.215	84.19
358.441	98.19
358.668	86.19
358.895	87.19
359.122	97.19
359.349	94.19
359.576	96.19
359.802	98.19
360.029	108.19
360.256	100.19
360.483	92.19
360.709	82.19
360.936	84.19
361.163	86.19
361.39	98.19
361.616	92.19
361.843	92.19
362.07	94.19
362.296	97.19
362.523	98.19
362.749	97.19
362.976	74.19
363.203	88.19
363.429	81.19
363.656	88.19
363.882	82.19
364.109	86.19
364.335	84.19
364.562	84.19
364.788	98.19
365.015	86.19
365.241	104.19
365.468	89.19
365.694	93.19
365.92	89.19
366.147	91.19
366.373	80.19
366.599	85.19
366.826	80.19
367.052	87.19
367.278	87.19
367.505	91.19
367.731	89.19
367.957	88.19
368.184	83.19
368.41	100.19
368.636	105.19
368.862	98.19
369.089	92.19
369.315	77.19
369.541	86.19
369.767	89.19
369.993	93.19
370.219	83.19
370.445	70.19
370.672	84.19
370.898	84.19
371.124	93.19
371.35	93.19
371.576	92.19
371.802	97.19
372.028	105.19
372.254	91.19
372.48	76.19
372.706	88.19
372.932	101.19
373.158	90.19
373.384	80.19
373.61	68.19
373.835	99.19
374.061	97.19
374.287	87.19
374.513	93.19
374.739	88.19
374.965	98.19
375.191	91.19
375.416	88.19
375.642	93.19
375.868	90.19
376.094	106.19
376.319	99.19
376.545	88.19
376.771	83.19
376.997	102.19
377.222	92.19
377.448	89.19
377.674	91.19
377.899	83.19
378.125	74.19
378.35	88.19
378.576	89.19
378.802	90.19
379.027	65.19
379.253	98.19
379.478	77.19
379.704	97.19
379.929	91.19
380.155	85.19
380.38	101.19
380.606	90.19
380.831	91.19
381.057	96.19
381.282	89.19
381.507	94.19
381.733	108.19
381.958	99.19
382.184	100.19
382.409	96.19
382.634	96.19
382.86	112.19
383.085	98.19
383.31	95.19
383.535	87.19
383.761	82.19
383.986	93.19
384.211	101.19
384.436	107.19
384.662	95.19
384.887	91.19
385.112	94.19
385.337	97.19
385.562	88.19
385.787	114.19
386.013	100.19
386.238	104.19
386.463	99.19
386.688	107.19
386.913	89.19
387.138	106.19
387.363	90.19
387.588	105.19
387.813	81.19
388.038	99.19
388.263	99.19
388.488	101.19
388.713	96.19
388.938	97.19
389.163	96.19
389.387	100.19
389.612	96.19
389.837	97.19
390.062	76.19
390.287	94.19
390.512	90.19
390.736	88.19
390.961	98.19
391.186	84.19
391.411	91.19
391.636	84.19
391.86	96.19
392.085	78.19
392.31	76.19
392.534	93.19
392.759	85.19
392.984	101.19
393.208	110.19
393.433	118.19
393.658	92.19
393.882	88.19
394.107	94.19
394.331	90.19
394.556	75.19
394.78	87.19
395.005	92.19
395.229	66.19
395.454	79.19
395.678	80.19
395.903	91.19
396.127	78.19
396.352	67.19
396.576	83.19
396.801	94.19
397.025	91.19
397.249	87.19
397.474	88.19
397.698	90.19
397.922	65.19
398.147	88.19
398.371	85.19
398.595	88.19
398.82	81.19
399.044	85.19
399.268	79.19
399.492	90.19
399.717	88.19
399.941	85.19
400.165	100.19
400.389	85.19
400.613	92.19
400.837	83.19
401.062	82.19
401.286	86.19
401.51	89.19
401.734	78.19
401.958	94.19
402.182	124.19
402.406	125.19
402.63	111.19
402.854	85.19
403.078	82.19
403.302	90.19
403.526	83.19
403.75	92.19
403.974	76.19
404.198	86.19
404.422	67.19
404.645	87.19
404.869	88.19
405.093	101.19
405.317	103.19
405.541	98.19
405.765	100.19
405.988	85.19
406.212	155.19
406.436	186.19
406.66	134.19
406.883	94.19
407.107	77.19
407.331	86.19
407.555	89.19
407.778	100.19
408.002	82.19
408.226	80.19
408.449	77.19
408.673	82.19
408.896	90.19
409.12	89.19
409.344	100.19
409.567	96.19
409.791	102.19
410.014	93.19
410.238	89.19
410.461	88.19
410.685	93.19
410.908	79.19
411.132	109.19
411.355	90.19
411.578	95.19
411.802	89.19
412.025	90.19
412.249	88.19
412.472	107.19
412.695	101.19
412.919	82.19
413.142	87.19
413.365	79.19
413.589	68.19
413.812	82.19
414.035	79.19
414.258	100.19
414.482	80.19
414.705	78.19
414.928	91.19
415.151	88.19
415.374	86.19
415.597	94.19
415.821	92.19
416.044	88.19
416.267	70.19
416.49	89.19
416.713	78.19
416.936	86.19
417.159	82.19
417.382	83.19
417.605	80.19
417.828	67.19
418.051	81.19
418.274	83.19
418.497	100.19
418.72	76.19
418.943	83.19
419.166	78.19
419.389	67.19
419.611	79.19
419.834	80.19
420.057	83.19
420.28	77.19
420.503	79.19
420.726	88.19
420.948	80.19
421.171	92.19
421.394	76.19
421.617	79.19
421.839	87.19
422.062	90.19
422.285	83.19
422.507	89.19
422.73	104.19
422.953	86.19
423.175	82.19
423.398	89.19
423.621	83.19
423.843	86.19
424.066	82.19
424.288	82.19
424.511	91.19
424.733	84.19
424.956	102.19
425.178	100.19
425.401	98.19
425.623	100.19
425.846	70.19
426.068	92.19
426.291	86.19
426.513	81.19
426.735	95.19
426.958	89.19
427.18	100.19
427.402	106.19
427.625	144.19
427.847	121.19
428.069	118.19
428.292	79.19
428.514	78.19
428.736	96.19
428.958	93.19
429.181	85.19
429.403	80.19
429.625	74.19
429.847	85.19
430.069	108.19
430.292	83.19
430.514	82.19
430.736	84.19
430.958	78.19
431.18	83.19
431.402	76.19
431.624	108.19
431.846	92.19
432.068	81.19
432.29	90.19
432.512	96.19
432.734	96.19
432.956	93.19
433.178	88.19
433.4	86.19
433.622	83.19
433.844	86.19
434.066	93.19
434.287	87.19
434.509	92.19
434.731	93.19
434.953	95.19
435.175	70.19
435.397	82.19
435.618	82.19
435.84	89.19
436.062	103.19
436.284	109.19
436.505	93.19
436.727	99.19
436.949	79.19
437.17	84.19
437.392	83.19
437.614	81.19
437.835	93.19
438.057	110.19
438.278	95.19
438.5	90.19
438.721	101.19
438.943	99.19
439.165	98.19
439.386	93.19
439.608	84.19
439.829	93.19
440.05	110.19
440.272	116.19
440.493	88.19
440.715	94.19
440.936	85.19
441.158	67.19
441.379	88.19
441.6	97.19
441.822	87.19
442.043	89.19
442.264	78.19
442.486	90.19
442.707	92.19
442.928	104.19
443.149	109.19
443.371	131.19
443.592	90.19
443.813	104.19
444.034	90.19
444.255	88.19
444.476	88.19
444.698	84.19
444.919	92.19
445.14	127.19
445.361	116.19
445.582	91.19
445.803	122.19
446.024	128.19
446.245	104.19
446.466	103.19
446.687	92.19
446.908	82.19
447.129	79.19
447.35	81.19
447.571	90.19
447.792	107.19
448.013	89.19
448.234	93.19
448.455	88.19
448.675	82.19
448.896	111.19
449.117	70.19
449.338	96.19
449.559	93.19
449.779	116.19
450	87.19
450.221	78.19
450.442	90.19
450.662	87.19
450.883	84.19
451.104	92.19
451.324	87.19
451.545	89.19
451.766	90.19
451.986	80.19
452.207	91.19
452.428	81.19
452.648	92.19
452.869	94.19
453.089	85.19
453.31	90.19
453.53	79.19
453.751	81.19
453.971	97.19
454.192	97.19
454.412	86.19
454.633	77.19
454.853	91.19
455.073	87.19
455.294	84.19
455.514	89.19
455.734	86.19
455.955	77.19
456.175	78.19
456.395	84.19
456.616	81.19
456.836	78.19
457.056	93.19
457.276	90.19
457.497	86.19
457.717	79.19
457.937	72.19
458.157	88.19
458.377	73.19
458.598	86.19
458.818	122.19
459.038	120.19
459.258	95.19
459.478	76.19
459.698	76.19
459.918	85.19
460.138	79.19
460.358	77.19
460.578	87.19
460.798	81.19
461.018	87.19
461.238	83.19
461.458	72.19
461.678	75.19
461.898	92.19
462.118	76.19
462.338	80.19
462.558	62.19
462.777	80.19
462.997	84.19
463.217	79.19
463.437	80.19
463.657	93.19
463.876	91.19
464.096	90.19
464.316	89.19
464.536	83.19
464.755	72.19
464.975	100.19
465.195	129.19
465.414	142.19
465.634	81.19
465.854	92.19
466.073	90.19
466.293	82.19
466.512	76.19
466.732	82.19
466.951	86.19
467.171	99.19
467.391	94.19
467.61	89.19
467.829	97.19
468.049	121.19
468.268	133.19
468.488	106.19
468.707	78.19
468.927	90.19
469.146	94.19
469.365	84.19
469.585	80.19
469.804	88.19
470.023	90.19
470.243	79.19
470.462	97.19
470.681	81.19
470.901	91.19
471.12	86.19
471.339	91.19
471.558	88.19
471.777	85.19
471.997	89.19
472.216	143.19
472.435	241.19
472.654	125.19
472.873	89.19
473.092	80.19
473.311	80.19
473.53	81.19
473.749	92.19
473.968	83.19
474.187	97.19
474.406	93.19
474.625	83.19
474.844	93.19
475.063	87.19
475.282	96.19
475.501	83.19
475.72	77.19
475.939	76.19
476.158	92.19
476.377	83.19
476.596	72.19
476.814	90.19
477.033	89.19
477.252	79.19
477.471	85.19
477.69	86.19
477.908	74.19
478.127	93.19
478.346	92.19
478.564	94.19
478.783	86.19
479.002	80.19
479.22	77.19
479.439	89.19
479.658	80.19
479.876	78.19
480.095	85.19
480.313	91.19
480.532	88.19
480.751	116.19
480.969	164.19
481.188	373.19
481.406	236.19
481.624	104.19
481.843	92.19
482.061	80.19
482.28	83.19
482.498	81.19
482.717	76.19
482.935	85.19
483.153	83.19
483.372	92.19
483.59	81.19
483.808	87.19
484.027	81.19
484.245	80.19
484.463	96.19
484.681	89.19
484.9	87.19
485.118	81.19
485.336	81.19
485.554	98.19
485.772	78.19
485.99	95.19
486.209	104.19
486.427	81.19
486.645	98.19
486.863	111.19
487.081	93.19
487.299	81.19
487.517	99.19
487.735	81.19
487.953	83.19
488.171	106.19
488.389	83.19
488.607	101.19
488.825	96.19
489.043	88.19
489.261	84.19
489.479	78.19
489.696	85.19
489.914	72.19
490.132	80.19
490.35	82.19
490.568	77.19
490.786	74.19
491.003	74.19
491.221	77.19
491.439	92.19
491.657	98.19
491.874	96.19
492.092	66.19
492.31	70.19
492.527	102.19
492.745	82.19
492.963	87.19
493.18	88.19
493.398	98.19
493.615	85.19
493.833	81.19
494.05	79.19
494.268	86.19
494.485	94.19
494.703	80.19
494.92	97.19
495.138	86.19
495.355	105.19
495.573	83.19
495.79	74.19
496.008	88.19
496.225	90.19
496.442	84.19
496.66	81.19
496.877	74.19
497.094	93.19
497.312	95.19
497.529	92.19
497.746	71.19
497.963	85.19
498.181	78.19
498.398	86.19
498.615	99.19
498.832	91.19
499.049	88.19
499.267	84.19
499.484	81.19
499.701	85.19
499.918	100.19
500.135	88.19
500.352	89.19
500.569	105.19
500.786	94.19
501.003	100.19
501.22	89.19
501.437	81.19
501.654	95.19
501.871	106.19
502.088	91.19
502.305	82.19
502.522	78.19
502.739	73.19
502.956	74.19
503.172	88.19
503.389	74.19
503.606	95.19
503.823	109.19
504.04	90.19
504.256	112.19
504.473	96.19
504.69	88.19
504.907	82.19
505.123	85.19
505.34	99.19
505.557	86.19
505.773	87.19
505.99	84.19
506.207	70.19
506.423	82.19
506.64	97.19
506.856	96.19
507.073	81.19
507.289	84.19
507.506	96.19
507.722	99.19
507.939	114.19
508.155	72.19
508.372	83.19
508.588	82.19
508.805	94.19
509.021	89.19
509.238	86.19
509.454	102.19
509.67	91.19
509.887	101.19
510.103	123.19
510.319	179.19
510.536	666.19
510.752	1905.19
510.968	529.19
511.184	140.19
511.401	105.19
511.617	82.19
511.833	87.19
512.049	103.19
512.265	75.19
512.481	91.19
512.698	101.19
512.914	95.19
513.13	92.19
513.346	95.19
513.562	86.19
513.778	86.19
513.994	85.19
514.21	104.19
514.426	109.19
514.642	127.19
514.858	108.19
515.074	133.19
515.29	366.19
515.506	1167.19
515.721	423.19
515.937	145.19
516.153	108.19
516.369	91.19
516.585	72.19
516.801	100.19
517.016	107.19
