Data from Uncirc_1989_H10_HRD10591_00026.txt Node
Date: Wed Jan 03 11:57:40 EST 2024
User: Yrep
Spectrometer: HR+D1059
Trigger mode: 1
Integration Time (sec): 1.000000E-1
Scans to average: 1
Electric dark correction enabled: true
Nonlinearity correction enabled: false
Boxcar width: 0
XAxis mode: Wavelengths
Number of Pixels in Spectrum: 2048
>>>>>Begin Spectral Data<<<<<
223.165	-16.44
223.4	-16.44
223.635	-16.44
223.869	-22.44
224.104	-14.44
224.338	-8.44
224.573	-22.44
224.808	-27.44
225.042	-3.44
225.277	-2.44
225.511	-5.44
225.746	8.56
225.98	1.56
226.215	7.56
226.449	24.56
226.683	23.56
226.918	26.56
227.152	30.56
227.387	42.56
227.621	49.56
227.856	51.56
228.09	33.56
228.324	45.56
228.559	56.56
228.793	51.56
229.027	77.56
229.262	60.56
229.496	91.56
229.73	77.56
229.964	83.56
230.199	88.56
230.433	72.56
230.667	77.56
230.901	80.56
231.136	87.56
231.37	81.56
231.604	83.56
231.838	82.56
232.072	86.56
232.306	80.56
232.541	88.56
232.775	86.56
233.009	89.56
233.243	91.56
233.477	80.56
233.711	67.56
233.945	93.56
234.179	85.56
234.413	83.56
234.647	76.56
234.881	98.56
235.115	89.56
235.349	81.56
235.583	93.56
235.817	81.56
236.051	89.56
236.285	69.56
236.519	81.56
236.753	96.56
236.987	81.56
237.221	96.56
237.455	71.56
237.689	85.56
237.922	83.56
238.156	83.56
238.39	75.56
238.624	100.56
238.858	90.56
239.091	77.56
239.325	91.56
239.559	97.56
239.793	69.56
240.027	80.56
240.26	65.56
240.494	75.56
240.728	80.56
240.961	72.56
241.195	87.56
241.429	77.56
241.662	72.56
241.896	89.56
242.13	74.56
242.363	80.56
242.597	79.56
242.83	70.56
243.064	81.56
243.298	79.56
243.531	78.56
243.765	81.56
243.998	79.56
244.232	91.56
244.465	96.56
244.699	63.56
244.932	84.56
245.166	83.56
245.399	76.56
245.633	76.56
245.866	77.56
246.099	75.56
246.333	72.56
246.566	80.56
246.8	85.56
247.033	84.56
247.266	69.56
247.5	81.56
247.733	82.56
247.966	72.56
248.2	83.56
248.433	77.56
248.666	84.56
248.899	92.56
249.133	88.56
249.366	103.56
249.599	91.56
249.832	72.56
250.066	81.56
250.299	73.56
250.532	87.56
250.765	81.56
250.998	82.56
251.231	93.56
251.465	84.56
251.698	82.56
251.931	85.56
252.164	96.56
252.397	77.56
252.63	74.56
252.863	78.56
253.096	84.56
253.329	88.56
253.562	93.56
253.795	71.56
254.028	99.56
254.261	81.56
254.494	81.56
254.727	89.56
254.96	73.56
255.193	90.56
255.426	95.56
255.659	74.56
255.892	67.56
256.124	95.56
256.357	89.56
256.59	91.56
256.823	74.56
257.056	86.56
257.289	84.56
257.521	92.56
257.754	94.56
257.987	71.56
258.22	80.56
258.452	84.56
258.685	88.56
258.918	85.56
259.151	94.56
259.383	95.56
259.616	88.56
259.849	87.56
260.081	76.56
260.314	95.56
260.547	81.56
260.779	85.56
261.012	79.56
261.244	90.56
261.477	80.56
261.71	100.56
261.942	100.56
262.175	104.56
262.407	79.56
262.64	87.56
262.872	84.56
263.105	83.56
263.337	92.56
263.57	87.56
263.802	81.56
264.035	92.56
264.267	75.56
264.499	86.56
264.732	72.56
264.964	95.56
265.197	104.56
265.429	95.56
265.661	82.56
265.894	76.56
266.126	98.56
266.358	100.56
266.591	81.56
266.823	91.56
267.055	80.56
267.287	91.56
267.52	94.56
267.752	97.56
267.984	77.56
268.216	92.56
268.448	94.56
268.681	81.56
268.913	90.56
269.145	67.56
269.377	90.56
269.609	99.56
269.841	83.56
270.073	68.56
270.306	81.56
270.538	90.56
270.77	91.56
271.002	84.56
271.234	93.56
271.466	87.56
271.698	101.56
271.93	93.56
272.162	93.56
272.394	88.56
272.626	82.56
272.858	83.56
273.09	87.56
273.322	91.56
273.553	90.56
273.785	100.56
274.017	96.56
274.249	92.56
274.481	89.56
274.713	81.56
274.945	98.56
275.176	88.56
275.408	94.56
275.64	89.56
275.872	94.56
276.104	111.56
276.335	96.56
276.567	108.56
276.799	99.56
277.031	99.56
277.262	95.56
277.494	96.56
277.726	93.56
277.957	86.56
278.189	82.56
278.421	80.56
278.652	81.56
278.884	90.56
279.115	87.56
279.347	90.56
279.579	84.56
279.81	81.56
280.042	96.56
280.273	91.56
280.505	89.56
280.736	96.56
280.968	84.56
281.199	98.56
281.431	85.56
281.662	106.56
281.894	92.56
282.125	104.56
282.356	107.56
282.588	132.56
282.819	98.56
283.051	93.56
283.282	85.56
283.513	93.56
283.745	80.56
283.976	72.56
284.207	95.56
284.439	84.56
284.67	97.56
284.901	97.56
285.132	81.56
285.364	82.56
285.595	90.56
285.826	98.56
286.057	106.56
286.288	91.56
286.52	87.56
286.751	84.56
286.982	101.56
287.213	92.56
287.444	83.56
287.675	87.56
287.906	83.56
288.138	88.56
288.369	82.56
288.6	97.56
288.831	101.56
289.062	83.56
289.293	79.56
289.524	86.56
289.755	95.56
289.986	107.56
290.217	89.56
290.448	87.56
290.679	100.56
290.91	90.56
291.141	84.56
291.371	96.56
291.602	103.56
291.833	101.56
292.064	94.56
292.295	91.56
292.526	89.56
292.757	89.56
292.987	87.56
293.218	95.56
293.449	83.56
293.68	84.56
293.91	93.56
294.141	97.56
294.372	99.56
294.603	85.56
294.833	101.56
295.064	93.56
295.295	95.56
295.525	91.56
295.756	104.56
295.987	112.56
296.217	120.56
296.448	117.56
296.679	90.56
296.909	92.56
297.14	86.56
297.37	91.56
297.601	80.56
297.831	89.56
298.062	90.56
298.292	97.56
298.523	88.56
298.753	85.56
298.984	101.56
299.214	96.56
299.445	89.56
299.675	88.56
299.905	89.56
300.136	82.56
300.366	88.56
300.597	91.56
300.827	84.56
301.057	96.56
301.288	89.56
301.518	92.56
301.748	91.56
301.979	95.56
302.209	87.56
302.439	91.56
302.669	106.56
302.9	100.56
303.13	92.56
303.36	109.56
303.59	113.56
303.82	97.56
304.051	103.56
304.281	95.56
304.511	89.56
304.741	87.56
304.971	85.56
305.201	92.56
305.431	109.56
305.661	79.56
305.891	99.56
306.121	95.56
306.352	102.56
306.582	90.56
306.812	82.56
307.042	87.56
307.272	90.56
307.502	104.56
307.731	105.56
307.961	82.56
308.191	98.56
308.421	95.56
308.651	86.56
308.881	92.56
309.111	106.56
309.341	109.56
309.571	97.56
309.8	97.56
310.03	99.56
310.26	117.56
310.49	100.56
310.72	92.56
310.949	104.56
311.179	107.56
311.409	104.56
311.639	112.56
311.868	92.56
312.098	93.56
312.328	90.56
312.557	110.56
312.787	99.56
313.017	113.56
313.246	99.56
313.476	93.56
313.706	86.56
313.935	99.56
314.165	91.56
314.394	104.56
314.624	98.56
314.853	90.56
315.083	98.56
315.312	104.56
315.542	93.56
315.771	105.56
316.001	95.56
316.23	93.56
316.46	90.56
316.689	107.56
316.919	92.56
317.148	99.56
317.377	93.56
317.607	84.56
317.836	103.56
318.065	96.56
318.295	88.56
318.524	101.56
318.753	106.56
318.983	92.56
319.212	91.56
319.441	98.56
319.67	92.56
319.9	104.56
320.129	98.56
320.358	100.56
320.587	106.56
320.816	96.56
321.046	108.56
321.275	95.56
321.504	93.56
321.733	103.56
321.962	76.56
322.191	92.56
322.42	123.56
322.649	93.56
322.878	114.56
323.108	111.56
323.337	127.56
323.566	122.56
323.795	138.56
324.024	198.56
324.253	355.56
324.482	723.56
324.71	1467.56
324.939	1933.56
325.168	702.56
325.397	220.56
325.626	145.56
325.855	116.56
326.084	123.56
326.313	128.56
326.542	157.56
326.77	218.56
326.999	419.56
327.228	857.56
327.457	1529.56
327.686	1213.56
327.914	331.56
328.143	173.56
328.372	163.56
328.6	120.56
328.829	118.56
329.058	134.56
329.287	120.56
329.515	97.56
329.744	116.56
329.972	118.56
330.201	140.56
330.43	164.56
330.658	138.56
330.887	130.56
331.115	130.56
331.344	101.56
331.572	95.56
331.801	105.56
332.03	106.56
332.258	85.56
332.486	90.56
332.715	94.56
332.943	100.56
333.172	96.56
333.4	91.56
333.629	111.56
333.857	100.56
334.085	105.56
334.314	138.56
334.542	162.56
334.771	148.56
334.999	114.56
335.227	97.56
335.455	91.56
335.684	92.56
335.912	109.56
336.14	109.56
336.369	92.56
336.597	99.56
336.825	91.56
337.053	81.56
337.281	92.56
337.51	91.56
337.738	82.56
337.966	97.56
338.194	92.56
338.422	85.56
338.65	107.56
338.878	91.56
339.106	87.56
339.334	101.56
339.562	88.56
339.79	104.56
340.018	96.56
340.246	96.56
340.474	96.56
340.702	91.56
340.93	92.56
341.158	93.56
341.386	98.56
341.614	92.56
341.842	93.56
342.07	108.56
342.298	99.56
342.526	90.56
342.754	102.56
342.981	96.56
343.209	97.56
343.437	98.56
343.665	91.56
343.893	99.56
344.12	96.56
344.348	93.56
344.576	77.56
344.804	102.56
345.031	104.56
345.259	110.56
345.487	108.56
345.714	86.56
345.942	94.56
346.17	99.56
346.397	92.56
346.625	111.56
346.853	89.56
347.08	99.56
347.308	97.56
347.535	97.56
347.763	111.56
347.99	107.56
348.218	92.56
348.445	100.56
348.673	99.56
348.9	108.56
349.128	92.56
349.355	84.56
349.583	85.56
349.81	90.56
350.037	99.56
350.265	88.56
350.492	92.56
350.72	89.56
350.947	102.56
351.174	102.56
351.402	99.56
351.629	102.56
351.856	87.56
352.083	92.56
352.311	99.56
352.538	114.56
352.765	102.56
352.992	118.56
353.22	102.56
353.447	104.56
353.674	104.56
353.901	99.56
354.128	93.56
354.355	88.56
354.583	91.56
354.81	84.56
355.037	103.56
355.264	91.56
355.491	92.56
355.718	104.56
355.945	105.56
356.172	93.56
356.399	95.56
356.626	104.56
356.853	100.56
357.08	90.56
357.307	91.56
357.534	77.56
357.761	98.56
357.988	99.56
358.215	99.56
358.441	96.56
358.668	80.56
358.895	84.56
359.122	94.56
359.349	99.56
359.576	101.56
359.802	99.56
360.029	105.56
360.256	106.56
360.483	100.56
360.709	86.56
360.936	94.56
361.163	87.56
361.39	99.56
361.616	93.56
361.843	92.56
362.07	100.56
362.296	101.56
362.523	90.56
362.749	82.56
362.976	83.56
363.203	97.56
363.429	96.56
363.656	95.56
363.882	95.56
364.109	97.56
364.335	101.56
364.562	96.56
364.788	103.56
365.015	93.56
365.241	94.56
365.468	103.56
365.694	111.56
365.92	92.56
366.147	106.56
366.373	96.56
366.599	85.56
366.826	81.56
367.052	91.56
367.278	88.56
367.505	91.56
367.731	88.56
367.957	89.56
368.184	105.56
368.41	107.56
368.636	111.56
368.862	119.56
369.089	106.56
369.315	102.56
369.541	99.56
369.767	100.56
369.993	81.56
370.219	82.56
370.445	100.56
370.672	85.56
370.898	94.56
371.124	108.56
371.35	108.56
371.576	70.56
371.802	101.56
372.028	84.56
372.254	98.56
372.48	93.56
372.706	103.56
372.932	92.56
373.158	100.56
373.384	91.56
373.61	90.56
373.835	93.56
374.061	89.56
374.287	93.56
374.513	87.56
374.739	95.56
374.965	87.56
375.191	95.56
375.416	83.56
375.642	112.56
375.868	99.56
376.094	88.56
376.319	80.56
376.545	101.56
376.771	80.56
376.997	80.56
377.222	95.56
377.448	92.56
377.674	97.56
377.899	92.56
378.125	77.56
378.35	79.56
378.576	81.56
378.802	102.56
379.027	88.56
379.253	99.56
379.478	90.56
379.704	101.56
379.929	87.56
380.155	101.56
380.38	92.56
380.606	85.56
380.831	111.56
381.057	103.56
381.282	110.56
381.507	93.56
381.733	95.56
381.958	79.56
382.184	93.56
382.409	95.56
382.634	111.56
382.86	102.56
383.085	105.56
383.31	97.56
383.535	110.56
383.761	99.56
383.986	97.56
384.211	100.56
384.436	92.56
384.662	97.56
384.887	101.56
385.112	99.56
385.337	95.56
385.562	101.56
385.787	124.56
386.013	124.56
386.238	109.56
386.463	117.56
386.688	127.56
386.913	101.56
387.138	115.56
387.363	105.56
387.588	92.56
387.813	91.56
388.038	95.56
388.263	103.56
388.488	106.56
388.713	105.56
388.938	93.56
389.163	105.56
389.387	95.56
389.612	88.56
389.837	92.56
390.062	93.56
390.287	94.56
390.512	102.56
390.736	85.56
390.961	104.56
391.186	96.56
391.411	88.56
391.636	88.56
391.86	93.56
392.085	83.56
392.31	93.56
392.534	84.56
392.759	98.56
392.984	110.56
393.208	115.56
393.433	129.56
393.658	123.56
393.882	94.56
394.107	82.56
394.331	84.56
394.556	94.56
394.78	73.56
395.005	96.56
395.229	91.56
395.454	109.56
395.678	93.56
395.903	103.56
396.127	89.56
396.352	81.56
396.576	91.56
396.801	96.56
397.025	108.56
397.249	89.56
397.474	77.56
397.698	85.56
397.922	90.56
398.147	79.56
398.371	87.56
398.595	94.56
398.82	74.56
399.044	91.56
399.268	83.56
399.492	84.56
399.717	82.56
399.941	102.56
400.165	107.56
400.389	99.56
400.613	89.56
400.837	76.56
401.062	107.56
401.286	91.56
401.51	90.56
401.734	103.56
401.958	95.56
402.182	115.56
402.406	143.56
402.63	115.56
402.854	95.56
403.078	105.56
403.302	85.56
403.526	93.56
403.75	100.56
403.974	91.56
404.198	85.56
404.422	103.56
404.645	83.56
404.869	98.56
405.093	98.56
405.317	112.56
405.541	99.56
405.765	112.56
405.988	120.56
406.212	146.56
406.436	197.56
406.66	122.56
406.883	101.56
407.107	88.56
407.331	97.56
407.555	79.56
407.778	106.56
408.002	93.56
408.226	99.56
408.449	96.56
408.673	104.56
408.896	94.56
409.12	92.56
409.344	100.56
409.567	86.56
409.791	84.56
410.014	88.56
410.238	93.56
410.461	103.56
410.685	88.56
410.908	101.56
411.132	97.56
411.355	98.56
411.578	99.56
411.802	91.56
412.025	83.56
412.249	99.56
412.472	96.56
412.695	92.56
412.919	90.56
413.142	99.56
413.365	90.56
413.589	104.56
413.812	85.56
414.035	87.56
414.258	96.56
414.482	96.56
414.705	92.56
414.928	92.56
415.151	97.56
415.374	96.56
415.597	93.56
415.821	84.56
416.044	105.56
416.267	92.56
416.49	96.56
416.713	92.56
416.936	89.56
417.159	103.56
417.382	101.56
417.605	96.56
417.828	96.56
418.051	91.56
418.274	91.56
418.497	93.56
418.72	93.56
418.943	89.56
419.166	96.56
419.389	102.56
419.611	101.56
419.834	85.56
420.057	96.56
420.28	81.56
420.503	95.56
420.726	91.56
420.948	80.56
421.171	102.56
421.394	95.56
421.617	87.56
421.839	89.56
422.062	95.56
422.285	97.56
422.507	93.56
422.73	121.56
422.953	95.56
423.175	94.56
423.398	81.56
423.621	97.56
423.843	91.56
424.066	95.56
424.288	103.56
424.511	99.56
424.733	97.56
424.956	101.56
425.178	99.56
425.401	95.56
425.623	102.56
425.846	81.56
426.068	82.56
426.291	91.56
426.513	94.56
426.735	104.56
426.958	93.56
427.18	111.56
427.402	135.56
427.625	151.56
427.847	134.56
428.069	109.56
428.292	85.56
428.514	90.56
428.736	83.56
428.958	92.56
429.181	91.56
429.403	103.56
429.625	96.56
429.847	103.56
430.069	82.56
430.292	92.56
430.514	80.56
430.736	97.56
430.958	87.56
431.18	96.56
431.402	97.56
431.624	93.56
431.846	76.56
432.068	99.56
432.29	97.56
432.512	93.56
432.734	95.56
432.956	106.56
433.178	100.56
433.4	92.56
433.622	99.56
433.844	90.56
434.066	85.56
434.287	101.56
434.509	87.56
434.731	88.56
434.953	90.56
435.175	92.56
435.397	91.56
435.618	108.56
435.84	95.56
436.062	120.56
436.284	109.56
436.505	99.56
436.727	92.56
436.949	77.56
437.17	104.56
437.392	94.56
437.614	91.56
437.835	110.56
438.057	105.56
438.278	98.56
438.5	101.56
438.721	95.56
438.943	90.56
439.165	100.56
439.386	85.56
439.608	98.56
439.829	98.56
440.05	124.56
440.272	128.56
440.493	100.56
440.715	82.56
440.936	92.56
441.158	98.56
441.379	87.56
441.6	92.56
441.822	94.56
442.043	88.56
442.264	104.56
442.486	99.56
442.707	74.56
442.928	91.56
443.149	129.56
443.371	119.56
443.592	109.56
443.813	113.56
444.034	99.56
444.255	109.56
444.476	99.56
444.698	80.56
444.919	91.56
445.14	138.56
445.361	131.56
445.582	104.56
445.803	123.56
446.024	132.56
446.245	125.56
446.466	116.56
446.687	91.56
446.908	82.56
447.129	91.56
447.35	96.56
447.571	109.56
447.792	92.56
448.013	89.56
448.234	114.56
448.455	95.56
448.675	96.56
448.896	102.56
449.117	99.56
449.338	111.56
449.559	113.56
449.779	130.56
450	87.56
450.221	86.56
450.442	81.56
450.662	99.56
450.883	105.56
451.104	103.56
451.324	90.56
451.545	82.56
451.766	95.56
451.986	88.56
452.207	96.56
452.428	107.56
452.648	97.56
452.869	117.56
453.089	101.56
453.31	119.56
453.53	103.56
453.751	82.56
453.971	107.56
454.192	107.56
454.412	103.56
454.633	106.56
454.853	93.56
455.073	95.56
455.294	94.56
455.514	92.56
455.734	92.56
455.955	96.56
456.175	97.56
456.395	91.56
456.616	87.56
456.836	88.56
457.056	82.56
457.276	96.56
457.497	89.56
457.717	83.56
457.937	101.56
458.157	99.56
458.377	99.56
458.598	118.56
458.818	137.56
459.038	148.56
459.258	111.56
459.478	83.56
459.698	88.56
459.918	97.56
460.138	95.56
460.358	96.56
460.578	98.56
460.798	104.56
461.018	84.56
461.238	95.56
461.458	85.56
461.678	95.56
461.898	92.56
462.118	100.56
462.338	100.56
462.558	76.56
462.777	75.56
462.997	97.56
463.217	90.56
463.437	89.56
463.657	91.56
463.876	89.56
464.096	83.56
464.316	81.56
464.536	87.56
464.755	101.56
464.975	115.56
465.195	145.56
465.414	143.56
465.634	95.56
465.854	68.56
466.073	97.56
466.293	85.56
466.512	82.56
466.732	83.56
466.951	86.56
467.171	109.56
467.391	96.56
467.61	99.56
467.829	105.56
468.049	115.56
468.268	118.56
468.488	94.56
468.707	87.56
468.927	88.56
469.146	89.56
469.365	99.56
469.585	85.56
469.804	92.56
470.023	100.56
470.243	84.56
470.462	108.56
470.681	103.56
470.901	92.56
471.12	91.56
471.339	97.56
471.558	95.56
471.777	81.56
471.997	124.56
472.216	142.56
472.435	207.56
472.654	109.56
472.873	83.56
473.092	87.56
473.311	89.56
473.53	95.56
473.749	88.56
473.968	103.56
474.187	106.56
474.406	90.56
474.625	102.56
474.844	102.56
475.063	89.56
475.282	84.56
475.501	76.56
475.72	74.56
475.939	104.56
476.158	91.56
476.377	99.56
476.596	106.56
476.814	99.56
477.033	89.56
477.252	96.56
477.471	88.56
477.69	97.56
477.908	98.56
478.127	91.56
478.346	92.56
478.564	87.56
478.783	102.56
479.002	95.56
479.22	105.56
479.439	110.56
479.658	101.56
479.876	95.56
480.095	96.56
480.313	105.56
480.532	95.56
480.751	104.56
480.969	152.56
481.188	296.56
481.406	208.56
481.624	110.56
481.843	98.56
482.061	95.56
482.28	98.56
482.498	101.56
482.717	87.56
482.935	84.56
483.153	83.56
483.372	84.56
483.59	92.56
483.808	94.56
484.027	99.56
484.245	91.56
484.463	97.56
484.681	103.56
484.9	84.56
485.118	95.56
485.336	100.56
485.554	100.56
485.772	102.56
485.99	106.56
486.209	103.56
486.427	102.56
486.645	111.56
486.863	103.56
487.081	96.56
487.299	99.56
487.517	101.56
487.735	97.56
487.953	97.56
488.171	100.56
488.389	95.56
488.607	98.56
488.825	91.56
489.043	107.56
489.261	90.56
489.479	89.56
489.696	95.56
489.914	92.56
490.132	79.56
490.35	95.56
490.568	96.56
490.786	96.56
491.003	90.56
491.221	89.56
491.439	102.56
491.657	87.56
491.874	98.56
492.092	90.56
492.31	97.56
492.527	93.56
492.745	86.56
492.963	98.56
493.18	93.56
493.398	118.56
493.615	112.56
493.833	96.56
494.05	87.56
494.268	87.56
494.485	87.56
494.703	99.56
494.92	92.56
495.138	88.56
495.355	99.56
495.573	94.56
495.79	112.56
496.008	93.56
496.225	84.56
496.442	77.56
496.66	99.56
496.877	82.56
497.094	93.56
497.312	103.56
497.529	85.56
497.746	92.56
497.963	92.56
498.181	93.56
498.398	100.56
498.615	107.56
498.832	104.56
499.049	93.56
499.267	96.56
499.484	92.56
499.701	93.56
499.918	77.56
500.135	93.56
500.352	96.56
500.569	105.56
500.786	105.56
501.003	99.56
501.22	82.56
501.437	94.56
501.654	100.56
501.871	89.56
502.088	96.56
502.305	90.56
502.522	104.56
502.739	100.56
502.956	90.56
503.172	75.56
503.389	93.56
503.606	102.56
503.823	91.56
504.04	89.56
504.256	97.56
504.473	83.56
504.69	101.56
504.907	108.56
505.123	93.56
505.34	92.56
505.557	123.56
505.773	107.56
505.99	76.56
506.207	99.56
506.423	99.56
506.64	103.56
506.856	96.56
507.073	92.56
507.289	96.56
507.506	97.56
507.722	115.56
507.939	107.56
508.155	97.56
508.372	112.56
508.588	91.56
508.805	102.56
509.021	86.56
509.238	111.56
509.454	96.56
509.67	108.56
509.887	113.56
510.103	128.56
510.319	180.56
510.536	637.56
510.752	1981.56
510.968	547.56
511.184	147.56
511.401	111.56
511.617	85.56
511.833	85.56
512.049	91.56
512.265	88.56
512.481	96.56
512.698	90.56
512.914	103.56
513.13	98.56
513.346	92.56
513.562	90.56
513.778	99.56
513.994	89.56
514.21	100.56
514.426	101.56
514.642	130.56
514.858	124.56
