Data from Uncirc_1989_H10_HRD10591_00012.txt Node
Date: Wed Jan 03 11:57:38 EST 2024
User: Yrep
Spectrometer: HR+D1059
Trigger mode: 1
Integration Time (sec): 1.000000E-1
Scans to average: 1
Electric dark correction enabled: true
Nonlinearity correction enabled: false
Boxcar width: 0
XAxis mode: Wavelengths
Number of Pixels in Spectrum: 2048
>>>>>Begin Spectral Data<<<<<
223.165	-31.25
223.4	-31.25
223.635	-31.25
223.869	-17.25
224.104	-16.25
224.338	-17.25
224.573	-21.25
224.808	-17.25
225.042	-0.25
225.277	-1.25
225.511	2.75
225.746	7.75
225.98	4.75
226.215	16.75
226.449	19.75
226.683	14.75
226.918	30.75
227.152	24.75
227.387	37.75
227.621	46.75
227.856	39.75
228.09	46.75
228.324	52.75
228.559	58.75
228.793	61.75
229.027	56.75
229.262	66.75
229.496	57.75
229.73	95.75
229.964	89.75
230.199	78.75
230.433	79.75
230.667	80.75
230.901	87.75
231.136	80.75
231.37	71.75
231.604	75.75
231.838	90.75
232.072	90.75
232.306	84.75
232.541	75.75
232.775	88.75
233.009	66.75
233.243	93.75
233.477	95.75
233.711	79.75
233.945	84.75
234.179	81.75
234.413	69.75
234.647	91.75
234.881	76.75
235.115	79.75
235.349	94.75
235.583	79.75
235.817	76.75
236.051	81.75
236.285	86.75
236.519	71.75
236.753	86.75
236.987	76.75
237.221	83.75
237.455	76.75
237.689	78.75
237.922	82.75
238.156	79.75
238.39	73.75
238.624	66.75
238.858	72.75
239.091	89.75
239.325	92.75
239.559	80.75
239.793	85.75
240.027	83.75
240.26	80.75
240.494	90.75
240.728	86.75
240.961	93.75
241.195	78.75
241.429	74.75
241.662	84.75
241.896	83.75
242.13	84.75
242.363	78.75
242.597	87.75
242.83	87.75
243.064	75.75
243.298	84.75
243.531	71.75
243.765	88.75
243.998	83.75
244.232	84.75
244.465	90.75
244.699	91.75
244.932	88.75
245.166	90.75
245.399	89.75
245.633	81.75
245.866	75.75
246.099	87.75
246.333	72.75
246.566	78.75
246.8	89.75
247.033	81.75
247.266	72.75
247.5	83.75
247.733	90.75
247.966	81.75
248.2	85.75
248.433	78.75
248.666	76.75
248.899	92.75
249.133	104.75
249.366	98.75
249.599	92.75
249.832	94.75
250.066	75.75
250.299	70.75
250.532	79.75
250.765	86.75
250.998	84.75
251.231	95.75
251.465	80.75
251.698	88.75
251.931	88.75
252.164	71.75
252.397	80.75
252.63	91.75
252.863	74.75
253.096	88.75
253.329	88.75
253.562	80.75
253.795	77.75
254.028	94.75
254.261	73.75
254.494	78.75
254.727	81.75
254.96	90.75
255.193	92.75
255.426	83.75
255.659	90.75
255.892	91.75
256.124	101.75
256.357	91.75
256.59	94.75
256.823	100.75
257.056	91.75
257.289	82.75
257.521	81.75
257.754	79.75
257.987	87.75
258.22	92.75
258.452	89.75
258.685	89.75
258.918	85.75
259.151	84.75
259.383	96.75
259.616	79.75
259.849	94.75
260.081	94.75
260.314	66.75
260.547	93.75
260.779	99.75
261.012	90.75
261.244	79.75
261.477	88.75
261.71	107.75
261.942	99.75
262.175	103.75
262.407	98.75
262.64	81.75
262.872	76.75
263.105	78.75
263.337	94.75
263.57	72.75
263.802	87.75
264.035	91.75
264.267	78.75
264.499	84.75
264.732	85.75
264.964	96.75
265.197	93.75
265.429	79.75
265.661	83.75
265.894	98.75
266.126	89.75
266.358	85.75
266.591	85.75
266.823	99.75
267.055	90.75
267.287	74.75
267.52	88.75
267.752	86.75
267.984	90.75
268.216	89.75
268.448	83.75
268.681	80.75
268.913	92.75
269.145	88.75
269.377	72.75
269.609	94.75
269.841	70.75
270.073	83.75
270.306	84.75
270.538	89.75
270.77	81.75
271.002	83.75
271.234	88.75
271.466	96.75
271.698	100.75
271.93	79.75
272.162	88.75
272.394	85.75
272.626	86.75
272.858	84.75
273.09	98.75
273.322	88.75
273.553	78.75
273.785	84.75
274.017	88.75
274.249	88.75
274.481	87.75
274.713	86.75
274.945	110.75
275.176	87.75
275.408	94.75
275.64	86.75
275.872	79.75
276.104	101.75
276.335	82.75
276.567	96.75
276.799	87.75
277.031	94.75
277.262	86.75
277.494	94.75
277.726	85.75
277.957	93.75
278.189	78.75
278.421	74.75
278.652	88.75
278.884	88.75
279.115	95.75
279.347	88.75
279.579	79.75
279.81	102.75
280.042	101.75
280.273	100.75
280.505	97.75
280.736	91.75
280.968	96.75
281.199	88.75
281.431	103.75
281.662	94.75
281.894	105.75
282.125	84.75
282.356	104.75
282.588	117.75
282.819	111.75
283.051	100.75
283.282	94.75
283.513	87.75
283.745	90.75
283.976	78.75
284.207	80.75
284.439	79.75
284.67	86.75
284.901	87.75
285.132	94.75
285.364	93.75
285.595	72.75
285.826	89.75
286.057	105.75
286.288	78.75
286.52	79.75
286.751	94.75
286.982	94.75
287.213	99.75
287.444	88.75
287.675	83.75
287.906	91.75
288.138	87.75
288.369	84.75
288.6	104.75
288.831	98.75
289.062	100.75
289.293	88.75
289.524	95.75
289.755	90.75
289.986	96.75
290.217	88.75
290.448	105.75
290.679	101.75
290.91	99.75
291.141	88.75
291.371	96.75
291.602	97.75
291.833	82.75
292.064	92.75
292.295	104.75
292.526	90.75
292.757	97.75
292.987	102.75
293.218	100.75
293.449	95.75
293.68	89.75
293.91	98.75
294.141	103.75
294.372	98.75
294.603	77.75
294.833	71.75
295.064	80.75
295.295	89.75
295.525	81.75
295.756	91.75
295.987	108.75
296.217	110.75
296.448	113.75
296.679	98.75
296.909	96.75
297.14	80.75
297.37	85.75
297.601	87.75
297.831	97.75
298.062	90.75
298.292	86.75
298.523	91.75
298.753	73.75
298.984	88.75
299.214	84.75
299.445	92.75
299.675	105.75
299.905	85.75
300.136	86.75
300.366	86.75
300.597	101.75
300.827	87.75
301.057	94.75
301.288	88.75
301.518	86.75
301.748	88.75
301.979	99.75
302.209	92.75
302.439	87.75
302.669	97.75
302.9	90.75
303.13	86.75
303.36	98.75
303.59	89.75
303.82	102.75
304.051	96.75
304.281	85.75
304.511	94.75
304.741	97.75
304.971	79.75
305.201	86.75
305.431	110.75
305.661	100.75
305.891	90.75
306.121	97.75
306.352	98.75
306.582	92.75
306.812	98.75
307.042	95.75
307.272	105.75
307.502	99.75
307.731	100.75
307.961	98.75
308.191	86.75
308.421	90.75
308.651	88.75
308.881	97.75
309.111	82.75
309.341	98.75
309.571	111.75
309.8	97.75
310.03	93.75
310.26	78.75
310.49	95.75
310.72	104.75
310.949	86.75
311.179	104.75
311.409	90.75
311.639	89.75
311.868	94.75
312.098	93.75
312.328	94.75
312.557	91.75
312.787	97.75
313.017	107.75
313.246	101.75
313.476	81.75
313.706	96.75
313.935	104.75
314.165	103.75
314.394	113.75
314.624	101.75
314.853	87.75
315.083	101.75
315.312	84.75
315.542	84.75
315.771	95.75
316.001	91.75
316.23	98.75
316.46	92.75
316.689	84.75
316.919	86.75
317.148	88.75
317.377	90.75
317.607	80.75
317.836	105.75
318.065	98.75
318.295	104.75
318.524	104.75
318.753	106.75
318.983	89.75
319.212	99.75
319.441	92.75
319.67	84.75
319.9	95.75
320.129	90.75
320.358	98.75
320.587	101.75
320.816	101.75
321.046	94.75
321.275	98.75
321.504	98.75
321.733	111.75
321.962	112.75
322.191	97.75
322.42	95.75
322.649	120.75
322.878	108.75
323.108	115.75
323.337	110.75
323.566	120.75
323.795	114.75
324.024	186.75
324.253	298.75
324.482	586.75
324.71	1202.75
324.939	1594.75
325.168	570.75
325.397	198.75
325.626	130.75
325.855	95.75
326.084	121.75
326.313	123.75
326.542	130.75
326.77	186.75
326.999	344.75
327.228	714.75
327.457	1284.75
327.686	990.75
327.914	274.75
328.143	154.75
328.372	128.75
328.6	111.75
328.829	112.75
329.058	107.75
329.287	106.75
329.515	104.75
329.744	98.75
329.972	122.75
330.201	94.75
330.43	128.75
330.658	117.75
330.887	118.75
331.115	114.75
331.344	104.75
331.572	94.75
331.801	94.75
332.03	99.75
332.258	106.75
332.486	97.75
332.715	90.75
332.943	102.75
333.172	100.75
333.4	87.75
333.629	99.75
333.857	104.75
334.085	93.75
334.314	112.75
334.542	131.75
334.771	115.75
334.999	94.75
335.227	110.75
335.455	90.75
335.684	94.75
335.912	100.75
336.14	90.75
336.369	101.75
336.597	106.75
336.825	88.75
337.053	96.75
337.281	96.75
337.51	100.75
337.738	92.75
337.966	88.75
338.194	112.75
338.422	81.75
338.65	83.75
338.878	88.75
339.106	91.75
339.334	99.75
339.562	85.75
339.79	95.75
340.018	99.75
340.246	97.75
340.474	86.75
340.702	82.75
340.93	91.75
341.158	98.75
341.386	99.75
341.614	88.75
341.842	90.75
342.07	92.75
342.298	82.75
342.526	90.75
342.754	85.75
342.981	90.75
343.209	91.75
343.437	101.75
343.665	96.75
343.893	91.75
344.12	91.75
344.348	94.75
344.576	91.75
344.804	89.75
345.031	92.75
345.259	92.75
345.487	82.75
345.714	86.75
345.942	94.75
346.17	87.75
346.397	97.75
346.625	95.75
346.853	95.75
347.08	92.75
347.308	91.75
347.535	105.75
347.763	105.75
347.99	99.75
348.218	97.75
348.445	100.75
348.673	97.75
348.9	98.75
349.128	96.75
349.355	100.75
349.583	86.75
349.81	100.75
350.037	89.75
350.265	97.75
350.492	103.75
350.72	90.75
350.947	103.75
351.174	103.75
351.402	112.75
351.629	102.75
351.856	100.75
352.083	107.75
352.311	119.75
352.538	107.75
352.765	111.75
352.992	96.75
353.22	80.75
353.447	93.75
353.674	98.75
353.901	108.75
354.128	82.75
354.355	70.75
354.583	106.75
354.81	98.75
355.037	102.75
355.264	106.75
355.491	110.75
355.718	99.75
355.945	98.75
356.172	91.75
356.399	92.75
356.626	103.75
356.853	101.75
357.08	99.75
357.307	96.75
357.534	88.75
357.761	91.75
357.988	91.75
358.215	90.75
358.441	103.75
358.668	100.75
358.895	88.75
359.122	90.75
359.349	90.75
359.576	98.75
359.802	96.75
360.029	112.75
360.256	95.75
360.483	90.75
360.709	82.75
360.936	97.75
361.163	95.75
361.39	95.75
361.616	90.75
361.843	92.75
362.07	91.75
362.296	90.75
362.523	83.75
362.749	95.75
362.976	100.75
363.203	97.75
363.429	100.75
363.656	96.75
363.882	101.75
364.109	95.75
364.335	87.75
364.562	87.75
364.788	99.75
365.015	101.75
365.241	91.75
365.468	108.75
365.694	94.75
365.92	94.75
366.147	84.75
366.373	89.75
366.599	88.75
366.826	98.75
367.052	89.75
367.278	86.75
367.505	90.75
367.731	86.75
367.957	86.75
368.184	100.75
368.41	98.75
368.636	97.75
368.862	105.75
369.089	82.75
369.315	96.75
369.541	106.75
369.767	95.75
369.993	82.75
370.219	98.75
370.445	92.75
370.672	91.75
370.898	87.75
371.124	98.75
371.35	83.75
371.576	94.75
371.802	79.75
372.028	84.75
372.254	87.75
372.48	95.75
372.706	94.75
372.932	110.75
373.158	84.75
373.384	108.75
373.61	111.75
373.835	87.75
374.061	98.75
374.287	94.75
374.513	79.75
374.739	101.75
374.965	84.75
375.191	89.75
375.416	91.75
375.642	86.75
375.868	87.75
376.094	100.75
376.319	82.75
376.545	93.75
376.771	96.75
376.997	96.75
377.222	106.75
377.448	98.75
377.674	93.75
377.899	94.75
378.125	96.75
378.35	97.75
378.576	99.75
378.802	92.75
379.027	87.75
379.253	93.75
379.478	85.75
379.704	107.75
379.929	106.75
380.155	89.75
380.38	77.75
380.606	99.75
380.831	99.75
381.057	96.75
381.282	83.75
381.507	90.75
381.733	103.75
381.958	98.75
382.184	108.75
382.409	117.75
382.634	111.75
382.86	99.75
383.085	98.75
383.31	107.75
383.535	100.75
383.761	97.75
383.986	103.75
384.211	99.75
384.436	97.75
384.662	92.75
384.887	104.75
385.112	100.75
385.337	98.75
385.562	97.75
385.787	107.75
386.013	112.75
386.238	107.75
386.463	121.75
386.688	105.75
386.913	104.75
387.138	111.75
387.363	89.75
387.588	101.75
387.813	100.75
388.038	108.75
388.263	120.75
388.488	96.75
388.713	95.75
388.938	101.75
389.163	94.75
389.387	108.75
389.612	93.75
389.837	109.75
390.062	106.75
390.287	87.75
390.512	76.75
390.736	87.75
390.961	102.75
391.186	93.75
391.411	90.75
391.636	110.75
391.86	93.75
392.085	85.75
392.31	80.75
392.534	80.75
392.759	94.75
392.984	98.75
393.208	111.75
393.433	123.75
393.658	115.75
393.882	84.75
394.107	92.75
394.331	85.75
394.556	81.75
394.78	89.75
395.005	92.75
395.229	98.75
395.454	97.75
395.678	88.75
395.903	83.75
396.127	92.75
396.352	93.75
396.576	89.75
396.801	107.75
397.025	108.75
397.249	96.75
397.474	86.75
397.698	83.75
397.922	105.75
398.147	85.75
398.371	91.75
398.595	83.75
398.82	80.75
399.044	85.75
399.268	90.75
399.492	86.75
399.717	85.75
399.941	103.75
400.165	96.75
400.389	97.75
400.613	91.75
400.837	94.75
401.062	93.75
401.286	90.75
401.51	81.75
401.734	98.75
401.958	103.75
402.182	102.75
402.406	123.75
402.63	111.75
402.854	98.75
403.078	87.75
403.302	102.75
403.526	105.75
403.75	87.75
403.974	90.75
404.198	102.75
404.422	111.75
404.645	87.75
404.869	72.75
405.093	89.75
405.317	90.75
405.541	96.75
405.765	99.75
405.988	106.75
406.212	120.75
406.436	168.75
406.66	114.75
406.883	108.75
407.107	90.75
407.331	87.75
407.555	98.75
407.778	97.75
408.002	88.75
408.226	85.75
408.449	85.75
408.673	98.75
408.896	102.75
409.12	96.75
409.344	93.75
409.567	84.75
409.791	90.75
410.014	99.75
410.238	94.75
410.461	87.75
410.685	80.75
410.908	106.75
411.132	98.75
411.355	102.75
411.578	89.75
411.802	104.75
412.025	102.75
412.249	100.75
412.472	76.75
412.695	97.75
412.919	94.75
413.142	70.75
413.365	94.75
413.589	87.75
413.812	90.75
414.035	83.75
414.258	86.75
414.482	94.75
414.705	92.75
414.928	101.75
415.151	90.75
415.374	98.75
415.597	88.75
415.821	90.75
416.044	94.75
416.267	98.75
416.49	85.75
416.713	82.75
416.936	105.75
417.159	74.75
417.382	84.75
417.605	88.75
417.828	81.75
418.051	103.75
418.274	90.75
418.497	92.75
418.72	80.75
418.943	84.75
419.166	87.75
419.389	95.75
419.611	99.75
419.834	91.75
420.057	97.75
420.28	88.75
420.503	98.75
420.726	97.75
420.948	83.75
421.171	84.75
421.394	96.75
421.617	100.75
421.839	88.75
422.062	95.75
422.285	96.75
422.507	92.75
422.73	112.75
422.953	105.75
423.175	91.75
423.398	92.75
423.621	88.75
423.843	86.75
424.066	94.75
424.288	97.75
424.511	99.75
424.733	87.75
424.956	112.75
425.178	78.75
425.401	81.75
425.623	90.75
425.846	82.75
426.068	104.75
426.291	81.75
426.513	96.75
426.735	98.75
426.958	100.75
427.18	86.75
427.402	120.75
427.625	135.75
427.847	101.75
428.069	116.75
428.292	90.75
428.514	78.75
428.736	91.75
428.958	78.75
429.181	92.75
429.403	95.75
429.625	90.75
429.847	88.75
430.069	93.75
430.292	98.75
430.514	78.75
430.736	83.75
430.958	80.75
431.18	75.75
431.402	85.75
431.624	97.75
431.846	91.75
432.068	88.75
432.29	100.75
432.512	90.75
432.734	97.75
432.956	93.75
433.178	88.75
433.4	95.75
433.622	88.75
433.844	91.75
434.066	75.75
434.287	79.75
434.509	88.75
434.731	87.75
434.953	89.75
435.175	82.75
435.397	75.75
435.618	100.75
435.84	103.75
436.062	106.75
436.284	92.75
436.505	95.75
436.727	81.75
436.949	89.75
437.17	91.75
437.392	75.75
437.614	98.75
437.835	103.75
438.057	105.75
438.278	105.75
438.5	97.75
438.721	108.75
438.943	91.75
439.165	91.75
439.386	78.75
439.608	90.75
439.829	113.75
440.05	106.75
440.272	123.75
440.493	94.75
440.715	85.75
440.936	86.75
441.158	92.75
441.379	91.75
441.6	78.75
441.822	80.75
442.043	90.75
442.264	94.75
442.486	104.75
442.707	97.75
442.928	116.75
443.149	112.75
443.371	105.75
443.592	82.75
443.813	100.75
444.034	111.75
444.255	88.75
444.476	83.75
444.698	80.75
444.919	92.75
445.14	116.75
445.361	119.75
445.582	103.75
445.803	114.75
446.024	106.75
446.245	113.75
446.466	98.75
446.687	96.75
446.908	90.75
447.129	84.75
447.35	91.75
447.571	78.75
447.792	110.75
448.013	95.75
448.234	83.75
448.455	99.75
448.675	106.75
448.896	84.75
449.117	87.75
449.338	99.75
449.559	115.75
449.779	114.75
450	94.75
450.221	83.75
450.442	101.75
450.662	105.75
450.883	97.75
451.104	89.75
451.324	87.75
451.545	95.75
451.766	88.75
451.986	90.75
452.207	70.75
452.428	94.75
452.648	99.75
452.869	104.75
453.089	101.75
453.31	107.75
453.53	94.75
453.751	96.75
453.971	99.75
454.192	97.75
454.412	80.75
454.633	87.75
454.853	87.75
455.073	86.75
455.294	88.75
455.514	99.75
455.734	91.75
455.955	83.75
456.175	99.75
456.395	90.75
456.616	101.75
456.836	85.75
457.056	96.75
457.276	83.75
457.497	89.75
457.717	87.75
457.937	75.75
458.157	74.75
458.377	91.75
458.598	86.75
458.818	121.75
459.038	124.75
459.258	108.75
459.478	81.75
459.698	96.75
459.918	73.75
460.138	82.75
460.358	84.75
460.578	85.75
460.798	76.75
461.018	106.75
461.238	91.75
461.458	87.75
461.678	80.75
461.898	91.75
462.118	98.75
462.338	99.75
462.558	80.75
462.777	78.75
462.997	86.75
463.217	91.75
463.437	99.75
463.657	85.75
463.876	86.75
464.096	101.75
464.316	87.75
464.536	88.75
464.755	93.75
464.975	100.75
465.195	140.75
465.414	126.75
465.634	81.75
465.854	89.75
466.073	78.75
466.293	74.75
466.512	75.75
466.732	94.75
466.951	99.75
467.171	98.75
467.391	84.75
467.61	93.75
467.829	93.75
468.049	88.75
468.268	87.75
468.488	90.75
468.707	82.75
468.927	76.75
469.146	86.75
469.365	85.75
469.585	89.75
469.804	96.75
470.023	91.75
470.243	81.75
470.462	86.75
470.681	99.75
470.901	90.75
471.12	74.75
471.339	84.75
471.558	95.75
471.777	93.75
471.997	102.75
472.216	108.75
472.435	138.75
472.654	101.75
472.873	97.75
473.092	82.75
473.311	89.75
473.53	85.75
473.749	84.75
473.968	91.75
474.187	87.75
474.406	81.75
474.625	91.75
474.844	99.75
475.063	88.75
475.282	82.75
475.501	104.75
475.72	95.75
475.939	84.75
476.158	84.75
476.377	93.75
476.596	94.75
476.814	92.75
477.033	91.75
477.252	87.75
477.471	79.75
477.69	97.75
477.908	88.75
478.127	84.75
478.346	93.75
478.564	92.75
478.783	70.75
479.002	90.75
479.22	99.75
479.439	93.75
479.658	91.75
479.876	101.75
480.095	82.75
480.313	88.75
480.532	92.75
480.751	107.75
480.969	108.75
481.188	179.75
481.406	129.75
481.624	104.75
481.843	89.75
482.061	99.75
482.28	88.75
482.498	89.75
482.717	112.75
482.935	96.75
483.153	106.75
483.372	92.75
483.59	86.75
483.808	89.75
484.027	80.75
484.245	98.75
484.463	76.75
484.681	101.75
484.9	95.75
485.118	91.75
485.336	109.75
485.554	116.75
485.772	105.75
485.99	102.75
486.209	111.75
486.427	112.75
486.645	98.75
486.863	99.75
487.081	100.75
487.299	95.75
487.517	91.75
487.735	85.75
487.953	75.75
488.171	107.75
488.389	87.75
488.607	90.75
488.825	91.75
489.043	90.75
489.261	90.75
489.479	87.75
489.696	72.75
489.914	85.75
490.132	103.75
490.35	99.75
490.568	109.75
490.786	85.75
491.003	90.75
491.221	88.75
491.439	95.75
491.657	91.75
491.874	99.75
492.092	87.75
492.31	80.75
492.527	94.75
492.745	87.75
492.963	93.75
493.18	87.75
493.398	89.75
493.615	102.75
493.833	90.75
494.05	93.75
494.268	85.75
494.485	75.75
494.703	87.75
494.92	90.75
495.138	97.75
495.355	74.75
495.573	93.75
495.79	96.75
496.008	101.75
496.225	91.75
496.442	96.75
496.66	90.75
496.877	94.75
497.094	102.75
497.312	99.75
497.529	113.75
497.746	87.75
497.963	86.75
498.181	94.75
498.398	95.75
498.615	108.75
498.832	119.75
499.049	100.75
499.267	100.75
499.484	86.75
499.701	88.75
499.918	86.75
500.135	103.75
500.352	98.75
500.569	99.75
500.786	87.75
501.003	99.75
501.22	85.75
501.437	83.75
501.654	75.75
501.871	93.75
502.088	85.75
502.305	98.75
502.522	95.75
502.739	92.75
502.956	92.75
503.172	90.75
503.389	96.75
503.606	101.75
503.823	94.75
504.04	98.75
504.256	92.75
504.473	85.75
504.69	70.75
504.907	103.75
505.123	83.75
505.34	103.75
505.557	87.75
505.773	80.75
505.99	88.75
506.207	92.75
506.423	83.75
506.64	92.75
506.856	86.75
507.073	76.75
507.289	96.75
507.506	101.75
507.722	92.75
507.939	119.75
508.155	97.75
508.372	90.75
508.588	90.75
508.805	99.75
509.021	105.75
509.238	81.75
509.454	94.75
509.67	91.75
509.887	102.75
510.103	122.75
510.319	171.75
510.536	495.75
510.752	1451.75
510.968	434.75
511.184	119.75
511.401	96.75
511.617	95.75
511.833	108.75
512.049	89.75
512.265	102.75
512.481	104.75
512.698	104.75
512.914	78.75
513.13	105.75
513.346	90.75
513.562	90.75
513.778	98.75
513.994	93.75
514.21	98.75
514.426	115.75
514.642	118.75
514.858	123.75
515.074	133.75
515.29	288.75
515.506	913.75
515.721	366.75
