Data from Uncirc_1989_H10_HRD10591_00099.txt Node
Date: Wed Jan 03 11:57:55 EST 2024
User: Yrep
Spectrometer: HR+D1059
Trigger mode: 1
Integration Time (sec): 1.000000E-1
Scans to average: 1
Electric dark correction enabled: true
Nonlinearity correction enabled: false
Boxcar width: 0
XAxis mode: Wavelengths
Number of Pixels in Spectrum: 2048
>>>>>Begin Spectral Data<<<<<
223.165	-7.69
223.4	-7.69
223.635	-7.69
223.869	-16.69
224.104	-12.69
224.338	-28.69
224.573	-19.69
224.808	-12.69
225.042	-18.69
225.277	8.31
225.511	-2.69
225.746	11.31
225.98	9.31
226.215	5.31
226.449	15.31
226.683	8.31
226.918	22.31
227.152	39.31
227.387	37.31
227.621	29.31
227.856	49.31
228.09	44.31
228.324	45.31
228.559	44.31
228.793	59.31
229.027	59.31
229.262	72.31
229.496	73.31
229.73	72.31
229.964	77.31
230.199	76.31
230.433	60.31
230.667	65.31
230.901	72.31
231.136	69.31
231.37	71.31
231.604	76.31
231.838	82.31
232.072	82.31
232.306	94.31
232.541	81.31
232.775	69.31
233.009	64.31
233.243	77.31
233.477	76.31
233.711	77.31
233.945	76.31
234.179	64.31
234.413	74.31
234.647	72.31
234.881	60.31
235.115	74.31
235.349	78.31
235.583	62.31
235.817	65.31
236.051	88.31
236.285	68.31
236.519	78.31
236.753	66.31
236.987	88.31
237.221	79.31
237.455	93.31
237.689	62.31
237.922	85.31
238.156	70.31
238.39	64.31
238.624	63.31
238.858	73.31
239.091	65.31
239.325	86.31
239.559	82.31
239.793	84.31
240.027	86.31
240.26	68.31
240.494	69.31
240.728	67.31
240.961	77.31
241.195	66.31
241.429	75.31
241.662	77.31
241.896	77.31
242.13	65.31
242.363	66.31
242.597	78.31
242.83	68.31
243.064	64.31
243.298	80.31
243.531	82.31
243.765	74.31
243.998	89.31
244.232	88.31
244.465	80.31
244.699	69.31
244.932	65.31
245.166	81.31
245.399	74.31
245.633	70.31
245.866	84.31
246.099	67.31
246.333	74.31
246.566	68.31
246.8	80.31
247.033	77.31
247.266	74.31
247.5	78.31
247.733	70.31
247.966	75.31
248.2	69.31
248.433	85.31
248.666	80.31
248.899	61.31
249.133	94.31
249.366	98.31
249.599	80.31
249.832	81.31
250.066	79.31
250.299	75.31
250.532	74.31
250.765	75.31
250.998	67.31
251.231	75.31
251.465	83.31
251.698	80.31
251.931	77.31
252.164	73.31
252.397	75.31
252.63	69.31
252.863	69.31
253.096	88.31
253.329	76.31
253.562	84.31
253.795	80.31
254.028	84.31
254.261	62.31
254.494	70.31
254.727	82.31
254.96	91.31
255.193	74.31
255.426	86.31
255.659	76.31
255.892	80.31
256.124	66.31
256.357	66.31
256.59	68.31
256.823	69.31
257.056	86.31
257.289	92.31
257.521	81.31
257.754	70.31
257.987	69.31
258.22	82.31
258.452	87.31
258.685	76.31
258.918	80.31
259.151	97.31
259.383	78.31
259.616	72.31
259.849	75.31
260.081	78.31
260.314	78.31
260.547	76.31
260.779	77.31
261.012	94.31
261.244	76.31
261.477	103.31
261.71	83.31
261.942	112.31
262.175	93.31
262.407	93.31
262.64	69.31
262.872	84.31
263.105	74.31
263.337	74.31
263.57	76.31
263.802	90.31
264.035	89.31
264.267	92.31
264.499	84.31
264.732	89.31
264.964	86.31
265.197	82.31
265.429	77.31
265.661	75.31
265.894	74.31
266.126	90.31
266.358	89.31
266.591	79.31
266.823	89.31
267.055	77.31
267.287	64.31
267.52	84.31
267.752	78.31
267.984	64.31
268.216	78.31
268.448	85.31
268.681	86.31
268.913	82.31
269.145	85.31
269.377	85.31
269.609	79.31
269.841	69.31
270.073	93.31
270.306	74.31
270.538	90.31
270.77	86.31
271.002	90.31
271.234	83.31
271.466	84.31
271.698	93.31
271.93	85.31
272.162	84.31
272.394	85.31
272.626	81.31
272.858	86.31
273.09	83.31
273.322	83.31
273.553	87.31
273.785	88.31
274.017	85.31
274.249	82.31
274.481	86.31
274.713	65.31
274.945	81.31
275.176	80.31
275.408	83.31
275.64	88.31
275.872	98.31
276.104	94.31
276.335	74.31
276.567	84.31
276.799	105.31
277.031	98.31
277.262	86.31
277.494	69.31
277.726	84.31
277.957	80.31
278.189	78.31
278.421	76.31
278.652	87.31
278.884	70.31
279.115	73.31
279.347	78.31
279.579	88.31
279.81	86.31
280.042	89.31
280.273	102.31
280.505	86.31
280.736	85.31
280.968	85.31
281.199	83.31
281.431	78.31
281.662	77.31
281.894	85.31
282.125	93.31
282.356	114.31
282.588	113.31
282.819	98.31
283.051	82.31
283.282	88.31
283.513	90.31
283.745	71.31
283.976	77.31
284.207	76.31
284.439	101.31
284.67	80.31
284.901	83.31
285.132	88.31
285.364	74.31
285.595	82.31
285.826	81.31
286.057	82.31
286.288	80.31
286.52	84.31
286.751	73.31
286.982	88.31
287.213	81.31
287.444	91.31
287.675	90.31
287.906	97.31
288.138	78.31
288.369	70.31
288.6	84.31
288.831	86.31
289.062	88.31
289.293	93.31
289.524	72.31
289.755	82.31
289.986	80.31
290.217	74.31
290.448	87.31
290.679	75.31
290.91	77.31
291.141	78.31
291.371	84.31
291.602	72.31
291.833	82.31
292.064	80.31
292.295	87.31
292.526	85.31
292.757	101.31
292.987	86.31
293.218	90.31
293.449	88.31
293.68	73.31
293.91	83.31
294.141	86.31
294.372	76.31
294.603	99.31
294.833	68.31
295.064	78.31
295.295	85.31
295.525	100.31
295.756	88.31
295.987	98.31
296.217	108.31
296.448	86.31
296.679	90.31
296.909	85.31
297.14	82.31
297.37	86.31
297.601	92.31
297.831	92.31
298.062	84.31
298.292	80.31
298.523	99.31
298.753	84.31
298.984	75.31
299.214	79.31
299.445	81.31
299.675	81.31
299.905	73.31
300.136	92.31
300.366	88.31
300.597	79.31
300.827	81.31
301.057	94.31
301.288	80.31
301.518	77.31
301.748	88.31
301.979	89.31
302.209	77.31
302.439	83.31
302.669	82.31
302.9	76.31
303.13	81.31
303.36	95.31
303.59	93.31
303.82	104.31
304.051	82.31
304.281	93.31
304.511	76.31
304.741	82.31
304.971	84.31
305.201	85.31
305.431	82.31
305.661	94.31
305.891	80.31
306.121	78.31
306.352	93.31
306.582	117.31
306.812	101.31
307.042	83.31
307.272	104.31
307.502	99.31
307.731	102.31
307.961	90.31
308.191	73.31
308.421	68.31
308.651	77.31
308.881	81.31
309.111	88.31
309.341	84.31
309.571	83.31
309.8	80.31
310.03	91.31
310.26	79.31
310.49	88.31
310.72	91.31
310.949	102.31
311.179	85.31
311.409	91.31
311.639	86.31
311.868	78.31
312.098	96.31
312.328	89.31
312.557	76.31
312.787	110.31
313.017	99.31
313.246	86.31
313.476	84.31
313.706	86.31
313.935	85.31
314.165	89.31
314.394	86.31
314.624	90.31
314.853	80.31
315.083	83.31
315.312	94.31
315.542	74.31
315.771	88.31
316.001	75.31
316.23	81.31
316.46	83.31
316.689	88.31
316.919	82.31
317.148	94.31
317.377	89.31
317.607	101.31
317.836	89.31
318.065	96.31
318.295	74.31
318.524	68.31
318.753	92.31
318.983	79.31
319.212	94.31
319.441	90.31
319.67	88.31
319.9	63.31
320.129	91.31
320.358	106.31
320.587	80.31
320.816	93.31
321.046	99.31
321.275	98.31
321.504	99.31
321.733	81.31
321.962	80.31
322.191	77.31
322.42	97.31
322.649	94.31
322.878	107.31
323.108	106.31
323.337	125.31
323.566	125.31
323.795	147.31
324.024	182.31
324.253	307.31
324.482	706.31
324.71	1402.31
324.939	1814.31
325.168	685.31
325.397	199.31
325.626	121.31
325.855	130.31
326.084	123.31
326.313	116.31
326.542	144.31
326.77	214.31
326.999	395.31
327.228	798.31
327.457	1453.31
327.686	1148.31
327.914	324.31
328.143	198.31
328.372	175.31
328.6	154.31
328.829	112.31
329.058	108.31
329.287	116.31
329.515	104.31
329.744	112.31
329.972	137.31
330.201	210.31
330.43	252.31
330.658	178.31
330.887	142.31
331.115	110.31
331.344	98.31
331.572	101.31
331.801	99.31
332.03	95.31
332.258	99.31
332.486	94.31
332.715	97.31
332.943	94.31
333.172	82.31
333.4	89.31
333.629	107.31
333.857	109.31
334.085	151.31
334.314	206.31
334.542	314.31
334.771	284.31
334.999	128.31
335.227	107.31
335.455	90.31
335.684	95.31
335.912	95.31
336.14	92.31
336.369	95.31
336.597	108.31
336.825	96.31
337.053	94.31
337.281	88.31
337.51	83.31
337.738	82.31
337.966	86.31
338.194	83.31
338.422	88.31
338.65	87.31
338.878	89.31
339.106	102.31
339.334	91.31
339.562	97.31
339.79	84.31
340.018	104.31
340.246	96.31
340.474	96.31
340.702	87.31
340.93	88.31
341.158	84.31
341.386	89.31
341.614	97.31
341.842	89.31
342.07	91.31
342.298	84.31
342.526	93.31
342.754	88.31
342.981	82.31
343.209	99.31
343.437	105.31
343.665	93.31
343.893	97.31
344.12	101.31
344.348	90.31
344.576	99.31
344.804	77.31
345.031	98.31
345.259	100.31
345.487	97.31
345.714	98.31
345.942	78.31
346.17	83.31
346.397	88.31
346.625	90.31
346.853	78.31
347.08	76.31
347.308	82.31
347.535	87.31
347.763	93.31
347.99	84.31
348.218	115.31
348.445	84.31
348.673	96.31
348.9	93.31
349.128	90.31
349.355	98.31
349.583	93.31
349.81	111.31
350.037	85.31
350.265	85.31
350.492	87.31
350.72	87.31
350.947	79.31
351.174	99.31
351.402	105.31
351.629	106.31
351.856	88.31
352.083	105.31
352.311	93.31
352.538	109.31
352.765	110.31
352.992	126.31
353.22	111.31
353.447	82.31
353.674	91.31
353.901	81.31
354.128	81.31
354.355	102.31
354.583	108.31
354.81	101.31
355.037	79.31
355.264	99.31
355.491	97.31
355.718	83.31
355.945	86.31
356.172	86.31
356.399	102.31
356.626	89.31
356.853	80.31
357.08	81.31
357.307	89.31
357.534	87.31
357.761	78.31
357.988	98.31
358.215	83.31
358.441	79.31
358.668	88.31
358.895	97.31
359.122	83.31
359.349	72.31
359.576	100.31
359.802	87.31
360.029	94.31
360.256	90.31
360.483	88.31
360.709	85.31
360.936	85.31
361.163	95.31
361.39	96.31
361.616	96.31
361.843	87.31
362.07	88.31
362.296	86.31
362.523	92.31
362.749	93.31
362.976	81.31
363.203	92.31
363.429	82.31
363.656	82.31
363.882	91.31
364.109	85.31
364.335	81.31
364.562	97.31
364.788	86.31
365.015	94.31
365.241	109.31
365.468	105.31
365.694	97.31
365.92	80.31
366.147	92.31
366.373	102.31
366.599	77.31
366.826	87.31
367.052	76.31
367.278	82.31
367.505	90.31
367.731	89.31
367.957	96.31
368.184	90.31
368.41	96.31
368.636	92.31
368.862	98.31
369.089	92.31
369.315	83.31
369.541	92.31
369.767	76.31
369.993	98.31
370.219	97.31
370.445	84.31
370.672	97.31
370.898	88.31
371.124	78.31
371.35	80.31
371.576	81.31
371.802	84.31
372.028	79.31
372.254	95.31
372.48	89.31
372.706	95.31
372.932	81.31
373.158	98.31
373.384	90.31
373.61	90.31
373.835	89.31
374.061	76.31
374.287	83.31
374.513	76.31
374.739	91.31
374.965	94.31
375.191	84.31
375.416	81.31
375.642	85.31
375.868	94.31
376.094	91.31
376.319	94.31
376.545	92.31
376.771	72.31
376.997	81.31
377.222	94.31
377.448	86.31
377.674	78.31
377.899	86.31
378.125	89.31
378.35	90.31
378.576	83.31
378.802	87.31
379.027	83.31
379.253	85.31
379.478	84.31
379.704	92.31
379.929	78.31
380.155	84.31
380.38	103.31
380.606	81.31
380.831	88.31
381.057	83.31
381.282	83.31
381.507	82.31
381.733	83.31
381.958	97.31
382.184	93.31
382.409	84.31
382.634	106.31
382.86	89.31
383.085	91.31
383.31	95.31
383.535	86.31
383.761	90.31
383.986	109.31
384.211	77.31
384.436	94.31
384.662	75.31
384.887	86.31
385.112	93.31
385.337	96.31
385.562	95.31
385.787	92.31
386.013	108.31
386.238	94.31
386.463	102.31
386.688	108.31
386.913	90.31
387.138	89.31
387.363	96.31
387.588	95.31
387.813	108.31
388.038	89.31
388.263	91.31
388.488	103.31
388.713	96.31
388.938	96.31
389.163	84.31
389.387	101.31
389.612	91.31
389.837	86.31
390.062	81.31
390.287	101.31
390.512	89.31
390.736	93.31
390.961	102.31
391.186	95.31
391.411	98.31
391.636	80.31
391.86	77.31
392.085	97.31
392.31	87.31
392.534	85.31
392.759	80.31
392.984	84.31
393.208	81.31
393.433	80.31
393.658	79.31
393.882	83.31
394.107	76.31
394.331	81.31
394.556	79.31
394.78	88.31
395.005	78.31
395.229	84.31
395.454	90.31
395.678	78.31
395.903	97.31
396.127	80.31
396.352	79.31
396.576	91.31
396.801	99.31
397.025	94.31
397.249	87.31
397.474	89.31
397.698	89.31
397.922	91.31
398.147	85.31
398.371	76.31
398.595	80.31
398.82	84.31
399.044	81.31
399.268	90.31
399.492	74.31
399.717	83.31
399.941	90.31
400.165	77.31
400.389	97.31
400.613	90.31
400.837	88.31
401.062	76.31
401.286	77.31
401.51	77.31
401.734	89.31
401.958	94.31
402.182	117.31
402.406	144.31
402.63	93.31
402.854	100.31
403.078	77.31
403.302	79.31
403.526	71.31
403.75	96.31
403.974	97.31
404.198	74.31
404.422	94.31
404.645	82.31
404.869	85.31
405.093	106.31
405.317	115.31
405.541	91.31
405.765	95.31
405.988	97.31
406.212	134.31
406.436	176.31
406.66	123.31
406.883	97.31
407.107	98.31
407.331	102.31
407.555	102.31
407.778	90.31
408.002	84.31
408.226	95.31
408.449	80.31
408.673	83.31
408.896	89.31
409.12	90.31
409.344	82.31
409.567	86.31
409.791	91.31
410.014	92.31
410.238	86.31
410.461	84.31
410.685	96.31
410.908	89.31
411.132	88.31
411.355	96.31
411.578	90.31
411.802	72.31
412.025	86.31
412.249	85.31
412.472	84.31
412.695	111.31
412.919	85.31
413.142	80.31
413.365	107.31
413.589	83.31
413.812	80.31
414.035	100.31
414.258	89.31
414.482	96.31
414.705	86.31
414.928	94.31
415.151	83.31
415.374	100.31
415.597	88.31
415.821	100.31
416.044	78.31
416.267	88.31
416.49	80.31
416.713	70.31
416.936	85.31
417.159	80.31
417.382	84.31
417.605	90.31
417.828	96.31
418.051	80.31
418.274	74.31
418.497	77.31
418.72	73.31
418.943	95.31
419.166	85.31
419.389	73.31
419.611	70.31
419.834	85.31
420.057	98.31
420.28	89.31
420.503	85.31
420.726	83.31
420.948	85.31
421.171	80.31
421.394	76.31
421.617	80.31
421.839	77.31
422.062	78.31
422.285	89.31
422.507	101.31
422.73	90.31
422.953	82.31
423.175	77.31
423.398	78.31
423.621	100.31
423.843	84.31
424.066	96.31
424.288	99.31
424.511	78.31
424.733	105.31
424.956	101.31
425.178	87.31
425.401	94.31
425.623	94.31
425.846	75.31
426.068	75.31
426.291	89.31
426.513	86.31
426.735	88.31
426.958	97.31
427.18	96.31
427.402	123.31
427.625	158.31
427.847	127.31
428.069	132.31
428.292	82.31
428.514	95.31
428.736	81.31
428.958	86.31
429.181	87.31
429.403	97.31
429.625	88.31
429.847	74.31
430.069	100.31
430.292	94.31
430.514	86.31
430.736	84.31
430.958	94.31
431.18	77.31
431.402	82.31
431.624	80.31
431.846	77.31
432.068	96.31
432.29	94.31
432.512	84.31
432.734	79.31
432.956	90.31
433.178	96.31
433.4	85.31
433.622	79.31
433.844	83.31
434.066	84.31
434.287	93.31
434.509	88.31
434.731	75.31
434.953	85.31
435.175	91.31
435.397	88.31
435.618	92.31
435.84	78.31
436.062	99.31
436.284	106.31
436.505	87.31
436.727	98.31
436.949	68.31
437.17	76.31
437.392	88.31
437.614	83.31
437.835	103.31
438.057	108.31
438.278	98.31
438.5	94.31
438.721	100.31
438.943	92.31
439.165	87.31
439.386	96.31
439.608	79.31
439.829	109.31
440.05	120.31
440.272	131.31
440.493	84.31
440.715	84.31
440.936	77.31
441.158	90.31
441.379	75.31
441.6	76.31
441.822	91.31
442.043	94.31
442.264	98.31
442.486	109.31
442.707	89.31
442.928	97.31
443.149	133.31
443.371	115.31
443.592	94.31
443.813	96.31
444.034	96.31
444.255	92.31
444.476	80.31
444.698	80.31
444.919	67.31
445.14	108.31
445.361	118.31
445.582	102.31
445.803	117.31
446.024	116.31
446.245	122.31
446.466	110.31
446.687	96.31
446.908	88.31
447.129	89.31
447.35	75.31
447.571	74.31
447.792	84.31
448.013	89.31
448.234	92.31
448.455	84.31
448.675	97.31
448.896	107.31
449.117	88.31
449.338	90.31
449.559	110.31
449.779	108.31
450	82.31
450.221	80.31
450.442	88.31
450.662	95.31
450.883	104.31
451.104	108.31
451.324	80.31
451.545	83.31
451.766	74.31
451.986	99.31
452.207	90.31
452.428	89.31
452.648	99.31
452.869	97.31
453.089	103.31
453.31	111.31
453.53	88.31
453.751	87.31
453.971	97.31
454.192	81.31
454.412	99.31
454.633	76.31
454.853	85.31
455.073	91.31
455.294	76.31
455.514	90.31
455.734	83.31
455.955	80.31
456.175	83.31
456.395	81.31
456.616	86.31
456.836	85.31
457.056	80.31
457.276	81.31
457.497	73.31
457.717	78.31
457.937	89.31
458.157	77.31
458.377	73.31
458.598	105.31
458.818	115.31
459.038	127.31
459.258	119.31
459.478	88.31
459.698	78.31
459.918	83.31
460.138	74.31
460.358	82.31
460.578	76.31
460.798	67.31
461.018	72.31
461.238	83.31
461.458	81.31
461.678	85.31
461.898	90.31
462.118	92.31
462.338	80.31
462.558	91.31
462.777	87.31
462.997	83.31
463.217	79.31
463.437	82.31
463.657	76.31
463.876	76.31
464.096	81.31
464.316	83.31
464.536	83.31
464.755	82.31
464.975	98.31
465.195	145.31
465.414	132.31
465.634	96.31
465.854	89.31
466.073	95.31
466.293	85.31
466.512	88.31
466.732	82.31
466.951	83.31
467.171	96.31
467.391	104.31
467.61	97.31
467.829	81.31
468.049	160.31
468.268	189.31
468.488	102.31
468.707	99.31
468.927	83.31
469.146	88.31
469.365	85.31
469.585	94.31
469.804	82.31
470.023	88.31
470.243	84.31
470.462	93.31
470.681	91.31
470.901	91.31
471.12	83.31
471.339	91.31
471.558	72.31
471.777	80.31
471.997	110.31
472.216	232.31
472.435	394.31
472.654	136.31
472.873	96.31
473.092	77.31
473.311	79.31
473.53	75.31
473.749	89.31
473.968	84.31
474.187	85.31
474.406	89.31
474.625	86.31
474.844	84.31
475.063	83.31
475.282	102.31
475.501	88.31
475.72	98.31
475.939	103.31
476.158	76.31
476.377	82.31
476.596	94.31
476.814	78.31
477.033	73.31
477.252	91.31
477.471	93.31
477.69	84.31
477.908	87.31
478.127	88.31
478.346	88.31
478.564	95.31
478.783	70.31
479.002	85.31
479.22	90.31
479.439	90.31
479.658	113.31
479.876	80.31
480.095	77.31
480.313	93.31
480.532	101.31
480.751	112.31
480.969	230.31
481.188	689.31
481.406	422.31
481.624	118.31
481.843	93.31
482.061	84.31
482.28	92.31
482.498	91.31
482.717	80.31
482.935	91.31
483.153	86.31
483.372	82.31
483.59	78.31
483.808	91.31
484.027	90.31
484.245	95.31
484.463	86.31
484.681	84.31
484.9	79.31
485.118	100.31
485.336	83.31
485.554	85.31
485.772	89.31
485.99	79.31
486.209	85.31
486.427	95.31
486.645	102.31
486.863	105.31
487.081	93.31
487.299	93.31
487.517	83.31
487.735	86.31
487.953	81.31
488.171	86.31
488.389	88.31
488.607	97.31
488.825	77.31
489.043	88.31
489.261	93.31
489.479	84.31
489.696	75.31
489.914	102.31
490.132	93.31
490.35	91.31
490.568	91.31
490.786	81.31
491.003	93.31
491.221	89.31
491.439	93.31
491.657	94.31
491.874	104.31
492.092	81.31
492.31	95.31
492.527	80.31
492.745	90.31
492.963	81.31
493.18	84.31
493.398	84.31
493.615	86.31
493.833	84.31
494.05	80.31
494.268	80.31
494.485	85.31
494.703	78.31
494.92	82.31
495.138	94.31
495.355	83.31
495.573	86.31
495.79	88.31
496.008	94.31
496.225	88.31
496.442	103.31
496.66	98.31
496.877	72.31
497.094	95.31
497.312	86.31
497.529	76.31
497.746	90.31
497.963	84.31
498.181	89.31
498.398	88.31
498.615	99.31
498.832	97.31
499.049	90.31
499.267	85.31
499.484	76.31
499.701	92.31
499.918	98.31
500.135	92.31
500.352	82.31
500.569	78.31
500.786	85.31
501.003	82.31
501.22	91.31
501.437	61.31
501.654	86.31
501.871	98.31
502.088	78.31
502.305	75.31
502.522	94.31
502.739	89.31
502.956	90.31
503.172	87.31
503.389	88.31
503.606	90.31
503.823	89.31
504.04	70.31
504.256	82.31
504.473	76.31
504.69	88.31
504.907	85.31
505.123	85.31
505.34	80.31
505.557	71.31
505.773	95.31
505.99	82.31
506.207	101.31
506.423	87.31
506.64	80.31
506.856	93.31
507.073	91.31
507.289	85.31
507.506	86.31
507.722	101.31
507.939	111.31
508.155	82.31
508.372	74.31
508.588	99.31
508.805	101.31
509.021	85.31
509.238	92.31
509.454	87.31
509.67	83.31
509.887	96.31
510.103	96.31
510.319	171.31
510.536	554.31
510.752	1647.31
510.968	470.31
511.184	118.31
511.401	88.31
511.617	104.31
511.833	89.31
512.049	87.31
512.265	89.31
512.481	90.31
512.698	89.31
512.914	78.31
513.13	86.31
513.346	85.31
513.562	84.31
513.778	96.31
513.994	91.31
514.21	94.31
514.426	108.31
514.642	114.31
514.858	102.31
515.074	142.31
515.29	331.31
515.506	1012.31
515.721	358.31
515.937	126.31
516.153	101.31
516.369	89.31
516.585	93.31
516.801	102.31
517.016	88.31
517.232	82.31
