Data from Uncirc_1989_H10_HRD10591_00017.txt Node
Date: Wed Jan 03 11:57:39 EST 2024
User: Yrep
Spectrometer: HR+D1059
Trigger mode: 1
Integration Time (sec): 1.000000E-1
Scans to average: 1
Electric dark correction enabled: true
Nonlinearity correction enabled: false
Boxcar width: 0
XAxis mode: Wavelengths
Number of Pixels in Spectrum: 2048
>>>>>Begin Spectral Data<<<<<
223.165	-26.06
223.4	-26.06
223.635	-26.06
223.869	-26.06
224.104	-34.06
224.338	-5.06
224.573	-11.06
224.808	-11.06
225.042	1.94
225.277	-19.06
225.511	-2.06
225.746	5.94
225.98	20.94
226.215	15.94
226.449	15.94
226.683	21.94
226.918	19.94
227.152	31.94
227.387	35.94
227.621	34.94
227.856	40.94
228.09	49.94
228.324	49.94
228.559	65.94
228.793	44.94
229.027	62.94
229.262	67.94
229.496	73.94
229.73	69.94
229.964	90.94
230.199	77.94
230.433	77.94
230.667	80.94
230.901	66.94
231.136	77.94
231.37	65.94
231.604	82.94
231.838	78.94
232.072	78.94
232.306	77.94
232.541	92.94
232.775	79.94
233.009	71.94
233.243	70.94
233.477	83.94
233.711	75.94
233.945	82.94
234.179	72.94
234.413	71.94
234.647	86.94
234.881	89.94
235.115	69.94
235.349	77.94
235.583	79.94
235.817	76.94
236.051	71.94
236.285	77.94
236.519	68.94
236.753	85.94
236.987	77.94
237.221	71.94
237.455	71.94
237.689	87.94
237.922	74.94
238.156	71.94
238.39	86.94
238.624	88.94
238.858	79.94
239.091	75.94
239.325	77.94
239.559	66.94
239.793	82.94
240.027	62.94
240.26	75.94
240.494	84.94
240.728	65.94
240.961	62.94
241.195	75.94
241.429	67.94
241.662	78.94
241.896	77.94
242.13	86.94
242.363	79.94
242.597	75.94
242.83	74.94
243.064	68.94
243.298	66.94
243.531	86.94
243.765	84.94
243.998	62.94
244.232	58.94
244.465	86.94
244.699	79.94
244.932	67.94
245.166	73.94
245.399	70.94
245.633	89.94
245.866	80.94
246.099	76.94
246.333	86.94
246.566	90.94
246.8	70.94
247.033	66.94
247.266	85.94
247.5	67.94
247.733	73.94
247.966	71.94
248.2	75.94
248.433	73.94
248.666	75.94
248.899	80.94
249.133	79.94
249.366	84.94
249.599	87.94
249.832	87.94
250.066	84.94
250.299	91.94
250.532	68.94
250.765	75.94
250.998	77.94
251.231	87.94
251.465	74.94
251.698	76.94
251.931	69.94
252.164	70.94
252.397	70.94
252.63	68.94
252.863	84.94
253.096	86.94
253.329	78.94
253.562	65.94
253.795	81.94
254.028	73.94
254.261	82.94
254.494	81.94
254.727	79.94
254.96	75.94
255.193	79.94
255.426	72.94
255.659	81.94
255.892	82.94
256.124	78.94
256.357	70.94
256.59	81.94
256.823	76.94
257.056	74.94
257.289	70.94
257.521	75.94
257.754	77.94
257.987	80.94
258.22	78.94
258.452	81.94
258.685	77.94
258.918	75.94
259.151	78.94
259.383	68.94
259.616	65.94
259.849	86.94
260.081	86.94
260.314	78.94
260.547	63.94
260.779	86.94
261.012	89.94
261.244	93.94
261.477	92.94
261.71	78.94
261.942	93.94
262.175	91.94
262.407	80.94
262.64	83.94
262.872	75.94
263.105	86.94
263.337	87.94
263.57	86.94
263.802	82.94
264.035	80.94
264.267	90.94
264.499	87.94
264.732	94.94
264.964	86.94
265.197	63.94
265.429	83.94
265.661	83.94
265.894	63.94
266.126	81.94
266.358	78.94
266.591	82.94
266.823	87.94
267.055	81.94
267.287	81.94
267.52	70.94
267.752	83.94
267.984	85.94
268.216	86.94
268.448	84.94
268.681	79.94
268.913	83.94
269.145	82.94
269.377	77.94
269.609	96.94
269.841	89.94
270.073	93.94
270.306	89.94
270.538	84.94
270.77	78.94
271.002	96.94
271.234	86.94
271.466	80.94
271.698	83.94
271.93	79.94
272.162	73.94
272.394	81.94
272.626	91.94
272.858	73.94
273.09	86.94
273.322	75.94
273.553	79.94
273.785	83.94
274.017	69.94
274.249	81.94
274.481	85.94
274.713	85.94
274.945	78.94
275.176	75.94
275.408	87.94
275.64	90.94
275.872	73.94
276.104	92.94
276.335	88.94
276.567	87.94
276.799	99.94
277.031	101.94
277.262	91.94
277.494	69.94
277.726	91.94
277.957	85.94
278.189	85.94
278.421	85.94
278.652	67.94
278.884	99.94
279.115	88.94
279.347	84.94
279.579	103.94
279.81	91.94
280.042	99.94
280.273	85.94
280.505	87.94
280.736	96.94
280.968	66.94
281.199	71.94
281.431	90.94
281.662	85.94
281.894	81.94
282.125	101.94
282.356	91.94
282.588	117.94
282.819	87.94
283.051	93.94
283.282	91.94
283.513	70.94
283.745	97.94
283.976	89.94
284.207	97.94
284.439	80.94
284.67	81.94
284.901	85.94
285.132	76.94
285.364	86.94
285.595	77.94
285.826	83.94
286.057	91.94
286.288	79.94
286.52	93.94
286.751	73.94
286.982	83.94
287.213	99.94
287.444	78.94
287.675	73.94
287.906	83.94
288.138	79.94
288.369	96.94
288.6	84.94
288.831	83.94
289.062	81.94
289.293	86.94
289.524	94.94
289.755	86.94
289.986	82.94
290.217	86.94
290.448	104.94
290.679	95.94
290.91	91.94
291.141	86.94
291.371	81.94
291.602	93.94
291.833	86.94
292.064	93.94
292.295	86.94
292.526	95.94
292.757	89.94
292.987	81.94
293.218	75.94
293.449	89.94
293.68	96.94
293.91	87.94
294.141	83.94
294.372	85.94
294.603	86.94
294.833	102.94
295.064	86.94
295.295	79.94
295.525	85.94
295.756	95.94
295.987	109.94
296.217	115.94
296.448	107.94
296.679	81.94
296.909	83.94
297.14	86.94
297.37	87.94
297.601	91.94
297.831	85.94
298.062	95.94
298.292	94.94
298.523	107.94
298.753	77.94
298.984	79.94
299.214	80.94
299.445	90.94
299.675	79.94
299.905	86.94
300.136	75.94
300.366	99.94
300.597	81.94
300.827	89.94
301.057	95.94
301.288	93.94
301.518	68.94
301.748	93.94
301.979	102.94
302.209	79.94
302.439	71.94
302.669	88.94
302.9	81.94
303.13	93.94
303.36	92.94
303.59	102.94
303.82	94.94
304.051	102.94
304.281	85.94
304.511	87.94
304.741	80.94
304.971	99.94
305.201	92.94
305.431	83.94
305.661	87.94
305.891	83.94
306.121	100.94
306.352	95.94
306.582	91.94
306.812	93.94
307.042	80.94
307.272	89.94
307.502	66.94
307.731	81.94
307.961	85.94
308.191	93.94
308.421	84.94
308.651	89.94
308.881	89.94
309.111	88.94
309.341	95.94
309.571	96.94
309.8	94.94
310.03	90.94
310.26	88.94
310.49	93.94
310.72	89.94
310.949	89.94
311.179	101.94
311.409	79.94
311.639	89.94
311.868	98.94
312.098	94.94
312.328	97.94
312.557	86.94
312.787	93.94
313.017	95.94
313.246	101.94
313.476	77.94
313.706	91.94
313.935	92.94
314.165	89.94
314.394	94.94
314.624	91.94
314.853	86.94
315.083	87.94
315.312	84.94
315.542	89.94
315.771	93.94
316.001	82.94
316.23	90.94
316.46	65.94
316.689	67.94
316.919	76.94
317.148	93.94
317.377	84.94
317.607	91.94
317.836	89.94
318.065	86.94
318.295	83.94
318.524	81.94
318.753	94.94
318.983	89.94
319.212	86.94
319.441	95.94
319.67	89.94
319.9	91.94
320.129	91.94
320.358	82.94
320.587	76.94
320.816	98.94
321.046	92.94
321.275	94.94
321.504	102.94
321.733	87.94
321.962	87.94
322.191	94.94
322.42	102.94
322.649	108.94
322.878	119.94
323.108	103.94
323.337	110.94
323.566	120.94
323.795	121.94
324.024	173.94
324.253	322.94
324.482	641.94
324.71	1337.94
324.939	1723.94
325.168	649.94
325.397	208.94
325.626	142.94
325.855	122.94
326.084	113.94
326.313	134.94
326.542	138.94
326.77	209.94
326.999	398.94
327.228	779.94
327.457	1382.94
327.686	1106.94
327.914	301.94
328.143	166.94
328.372	141.94
328.6	111.94
328.829	103.94
329.058	110.94
329.287	122.94
329.515	97.94
329.744	104.94
329.972	111.94
330.201	113.94
330.43	116.94
330.658	91.94
330.887	115.94
331.115	108.94
331.344	89.94
331.572	91.94
331.801	94.94
332.03	86.94
332.258	92.94
332.486	99.94
332.715	83.94
332.943	83.94
333.172	93.94
333.4	89.94
333.629	114.94
333.857	109.94
334.085	109.94
334.314	129.94
334.542	151.94
334.771	139.94
334.999	95.94
335.227	96.94
335.455	92.94
335.684	98.94
335.912	89.94
336.14	92.94
336.369	95.94
336.597	97.94
336.825	93.94
337.053	83.94
337.281	89.94
337.51	93.94
337.738	81.94
337.966	98.94
338.194	88.94
338.422	93.94
338.65	86.94
338.878	103.94
339.106	78.94
339.334	80.94
339.562	78.94
339.79	80.94
340.018	81.94
340.246	97.94
340.474	100.94
340.702	93.94
340.93	97.94
341.158	85.94
341.386	88.94
341.614	87.94
341.842	76.94
342.07	76.94
342.298	91.94
342.526	95.94
342.754	98.94
342.981	77.94
343.209	82.94
343.437	103.94
343.665	65.94
343.893	87.94
344.12	103.94
344.348	106.94
344.576	101.94
344.804	85.94
345.031	100.94
345.259	83.94
345.487	86.94
345.714	98.94
345.942	80.94
346.17	88.94
346.397	93.94
346.625	97.94
346.853	94.94
347.08	73.94
347.308	98.94
347.535	99.94
347.763	94.94
347.99	95.94
348.218	91.94
348.445	103.94
348.673	93.94
348.9	87.94
349.128	97.94
349.355	68.94
349.583	79.94
349.81	87.94
350.037	100.94
350.265	100.94
350.492	89.94
350.72	86.94
350.947	94.94
351.174	89.94
351.402	106.94
351.629	105.94
351.856	108.94
352.083	106.94
352.311	94.94
352.538	104.94
352.765	97.94
352.992	84.94
353.22	102.94
353.447	104.94
353.674	106.94
353.901	109.94
354.128	89.94
354.355	80.94
354.583	111.94
354.81	89.94
355.037	94.94
355.264	91.94
355.491	87.94
355.718	93.94
355.945	103.94
356.172	101.94
356.399	115.94
356.626	110.94
356.853	99.94
357.08	86.94
357.307	71.94
357.534	86.94
357.761	103.94
357.988	102.94
358.215	98.94
358.441	94.94
358.668	103.94
358.895	97.94
359.122	73.94
359.349	87.94
359.576	92.94
359.802	94.94
360.029	106.94
360.256	98.94
360.483	78.94
360.709	88.94
360.936	93.94
361.163	92.94
361.39	95.94
361.616	74.94
361.843	82.94
362.07	90.94
362.296	77.94
362.523	97.94
362.749	79.94
362.976	102.94
363.203	83.94
363.429	81.94
363.656	81.94
363.882	84.94
364.109	93.94
364.335	78.94
364.562	81.94
364.788	90.94
365.015	98.94
365.241	95.94
365.468	92.94
365.694	105.94
365.92	91.94
366.147	95.94
366.373	75.94
366.599	82.94
366.826	89.94
367.052	83.94
367.278	91.94
367.505	88.94
367.731	79.94
367.957	77.94
368.184	73.94
368.41	80.94
368.636	110.94
368.862	86.94
369.089	108.94
369.315	73.94
369.541	90.94
369.767	75.94
369.993	94.94
370.219	92.94
370.445	101.94
370.672	80.94
370.898	96.94
371.124	87.94
371.35	83.94
371.576	73.94
371.802	76.94
372.028	92.94
372.254	85.94
372.48	86.94
372.706	83.94
372.932	83.94
373.158	76.94
373.384	87.94
373.61	98.94
373.835	97.94
374.061	81.94
374.287	92.94
374.513	101.94
374.739	88.94
374.965	86.94
375.191	89.94
375.416	91.94
375.642	77.94
375.868	92.94
376.094	108.94
376.319	90.94
376.545	91.94
376.771	84.94
376.997	88.94
377.222	95.94
377.448	95.94
377.674	77.94
377.899	81.94
378.125	94.94
378.35	83.94
378.576	98.94
378.802	93.94
379.027	75.94
379.253	91.94
379.478	93.94
379.704	86.94
379.929	94.94
380.155	91.94
380.38	94.94
380.606	91.94
380.831	94.94
381.057	94.94
381.282	84.94
381.507	89.94
381.733	95.94
381.958	91.94
382.184	103.94
382.409	108.94
382.634	92.94
382.86	96.94
383.085	86.94
383.31	106.94
383.535	103.94
383.761	91.94
383.986	106.94
384.211	99.94
384.436	94.94
384.662	98.94
384.887	97.94
385.112	92.94
385.337	97.94
385.562	108.94
385.787	113.94
386.013	106.94
386.238	100.94
386.463	103.94
386.688	100.94
386.913	103.94
387.138	95.94
387.363	91.94
387.588	99.94
387.813	103.94
388.038	98.94
388.263	117.94
388.488	106.94
388.713	104.94
388.938	101.94
389.163	97.94
389.387	87.94
389.612	97.94
389.837	82.94
390.062	90.94
390.287	87.94
390.512	78.94
390.736	67.94
390.961	82.94
391.186	99.94
391.411	99.94
391.636	94.94
391.86	83.94
392.085	89.94
392.31	100.94
392.534	78.94
392.759	85.94
392.984	88.94
393.208	96.94
393.433	125.94
393.658	116.94
393.882	80.94
394.107	75.94
394.331	92.94
394.556	91.94
394.78	93.94
395.005	90.94
395.229	86.94
395.454	86.94
395.678	100.94
395.903	77.94
396.127	86.94
396.352	91.94
396.576	96.94
396.801	98.94
397.025	98.94
397.249	85.94
397.474	86.94
397.698	85.94
397.922	93.94
398.147	95.94
398.371	77.94
398.595	75.94
398.82	83.94
399.044	80.94
399.268	79.94
399.492	81.94
399.717	77.94
399.941	74.94
400.165	90.94
400.389	93.94
400.613	94.94
400.837	79.94
401.062	85.94
401.286	76.94
401.51	77.94
401.734	71.94
401.958	102.94
402.182	117.94
402.406	103.94
402.63	93.94
402.854	98.94
403.078	85.94
403.302	86.94
403.526	91.94
403.75	78.94
403.974	81.94
404.198	85.94
404.422	93.94
404.645	102.94
404.869	83.94
405.093	101.94
405.317	94.94
405.541	94.94
405.765	97.94
405.988	100.94
406.212	140.94
406.436	175.94
406.66	130.94
406.883	96.94
407.107	94.94
407.331	89.94
407.555	97.94
407.778	89.94
408.002	93.94
408.226	90.94
408.449	87.94
408.673	97.94
408.896	77.94
409.12	88.94
409.344	96.94
409.567	98.94
409.791	94.94
410.014	91.94
410.238	90.94
410.461	94.94
410.685	98.94
410.908	105.94
411.132	111.94
411.355	99.94
411.578	81.94
411.802	89.94
412.025	85.94
412.249	84.94
412.472	77.94
412.695	83.94
412.919	88.94
413.142	74.94
413.365	83.94
413.589	97.94
413.812	89.94
414.035	95.94
414.258	90.94
414.482	68.94
414.705	90.94
414.928	87.94
415.151	90.94
415.374	87.94
415.597	95.94
415.821	103.94
416.044	92.94
416.267	95.94
416.49	82.94
416.713	92.94
416.936	93.94
417.159	83.94
417.382	82.94
417.605	101.94
417.828	85.94
418.051	97.94
418.274	86.94
418.497	77.94
418.72	97.94
418.943	92.94
419.166	93.94
419.389	99.94
419.611	99.94
419.834	81.94
420.057	79.94
420.28	79.94
420.503	85.94
420.726	92.94
420.948	70.94
421.171	96.94
421.394	89.94
421.617	84.94
421.839	78.94
422.062	89.94
422.285	73.94
422.507	103.94
422.73	93.94
422.953	94.94
423.175	91.94
423.398	92.94
423.621	95.94
423.843	86.94
424.066	93.94
424.288	91.94
424.511	90.94
424.733	94.94
424.956	95.94
425.178	83.94
425.401	93.94
425.623	102.94
425.846	91.94
426.068	83.94
426.291	94.94
426.513	98.94
426.735	95.94
426.958	86.94
427.18	101.94
427.402	124.94
427.625	142.94
427.847	118.94
428.069	109.94
428.292	83.94
428.514	86.94
428.736	93.94
428.958	83.94
429.181	87.94
429.403	85.94
429.625	79.94
429.847	86.94
430.069	83.94
430.292	85.94
430.514	93.94
430.736	77.94
430.958	74.94
431.18	80.94
431.402	74.94
431.624	95.94
431.846	97.94
432.068	76.94
432.29	84.94
432.512	74.94
432.734	80.94
432.956	80.94
433.178	90.94
433.4	106.94
433.622	85.94
433.844	80.94
434.066	90.94
434.287	94.94
434.509	96.94
434.731	81.94
434.953	90.94
435.175	82.94
435.397	80.94
435.618	91.94
435.84	94.94
436.062	105.94
436.284	95.94
436.505	87.94
436.727	105.94
436.949	111.94
437.17	85.94
437.392	76.94
437.614	75.94
437.835	95.94
438.057	111.94
438.278	91.94
438.5	98.94
438.721	103.94
438.943	88.94
439.165	89.94
439.386	91.94
439.608	76.94
439.829	94.94
440.05	99.94
440.272	128.94
440.493	88.94
440.715	77.94
440.936	105.94
441.158	77.94
441.379	69.94
441.6	87.94
441.822	96.94
442.043	86.94
442.264	91.94
442.486	98.94
442.707	96.94
442.928	101.94
443.149	102.94
443.371	116.94
443.592	100.94
443.813	95.94
444.034	103.94
444.255	82.94
444.476	91.94
444.698	78.94
444.919	85.94
445.14	126.94
445.361	128.94
445.582	99.94
445.803	113.94
446.024	121.94
446.245	104.94
446.466	80.94
446.687	78.94
446.908	97.94
447.129	102.94
447.35	85.94
447.571	81.94
447.792	94.94
448.013	97.94
448.234	105.94
448.455	82.94
448.675	91.94
448.896	110.94
449.117	103.94
449.338	90.94
449.559	105.94
449.779	102.94
450	89.94
450.221	79.94
450.442	86.94
450.662	82.94
450.883	105.94
451.104	105.94
451.324	80.94
451.545	79.94
451.766	91.94
451.986	88.94
452.207	88.94
452.428	84.94
452.648	102.94
452.869	97.94
453.089	115.94
453.31	110.94
453.53	82.94
453.751	81.94
453.971	86.94
454.192	105.94
454.412	89.94
454.633	78.94
454.853	77.94
455.073	90.94
455.294	91.94
455.514	98.94
455.734	85.94
455.955	73.94
456.175	82.94
456.395	85.94
456.616	85.94
456.836	82.94
457.056	74.94
457.276	89.94
457.497	59.94
457.717	71.94
457.937	86.94
458.157	83.94
458.377	94.94
458.598	93.94
458.818	130.94
459.038	134.94
459.258	103.94
459.478	92.94
459.698	91.94
459.918	95.94
460.138	80.94
460.358	75.94
460.578	98.94
460.798	94.94
461.018	87.94
461.238	77.94
461.458	95.94
461.678	80.94
461.898	97.94
462.118	82.94
462.338	82.94
462.558	84.94
462.777	56.94
462.997	87.94
463.217	96.94
463.437	82.94
463.657	68.94
463.876	75.94
464.096	73.94
464.316	90.94
464.536	93.94
464.755	98.94
464.975	103.94
465.195	145.94
465.414	109.94
465.634	80.94
465.854	89.94
466.073	83.94
466.293	79.94
466.512	81.94
466.732	73.94
466.951	68.94
467.171	87.94
467.391	94.94
467.61	89.94
467.829	93.94
468.049	95.94
468.268	107.94
468.488	83.94
468.707	91.94
468.927	86.94
469.146	83.94
469.365	98.94
469.585	90.94
469.804	80.94
470.023	97.94
470.243	101.94
470.462	90.94
470.681	94.94
470.901	80.94
471.12	92.94
471.339	83.94
471.558	91.94
471.777	93.94
471.997	92.94
472.216	110.94
472.435	149.94
472.654	98.94
472.873	81.94
473.092	87.94
473.311	85.94
473.53	80.94
473.749	76.94
473.968	82.94
474.187	87.94
474.406	87.94
474.625	91.94
474.844	84.94
475.063	79.94
475.282	91.94
475.501	91.94
475.72	81.94
475.939	60.94
476.158	88.94
476.377	75.94
476.596	88.94
476.814	78.94
477.033	78.94
477.252	104.94
477.471	92.94
477.69	90.94
477.908	82.94
478.127	90.94
478.346	94.94
478.564	89.94
478.783	99.94
479.002	97.94
479.22	97.94
479.439	87.94
479.658	96.94
479.876	79.94
480.095	75.94
480.313	81.94
480.532	95.94
480.751	90.94
480.969	104.94
481.188	223.94
481.406	172.94
481.624	92.94
481.843	93.94
482.061	87.94
482.28	86.94
482.498	73.94
482.717	90.94
482.935	92.94
483.153	97.94
483.372	95.94
483.59	84.94
483.808	99.94
484.027	92.94
484.245	83.94
484.463	82.94
484.681	97.94
484.9	95.94
485.118	93.94
485.336	100.94
485.554	87.94
485.772	98.94
485.99	99.94
486.209	96.94
486.427	113.94
486.645	107.94
486.863	102.94
487.081	89.94
487.299	102.94
487.517	95.94
487.735	99.94
487.953	89.94
488.171	93.94
488.389	97.94
488.607	103.94
488.825	94.94
489.043	100.94
489.261	100.94
489.479	85.94
489.696	83.94
489.914	75.94
490.132	80.94
490.35	93.94
490.568	115.94
490.786	94.94
491.003	97.94
491.221	89.94
491.439	91.94
491.657	90.94
491.874	67.94
492.092	92.94
492.31	91.94
492.527	88.94
492.745	82.94
492.963	93.94
493.18	85.94
493.398	103.94
493.615	101.94
493.833	90.94
494.05	80.94
494.268	68.94
494.485	102.94
494.703	86.94
494.92	99.94
495.138	93.94
495.355	84.94
495.573	83.94
495.79	79.94
496.008	81.94
496.225	94.94
496.442	100.94
496.66	106.94
496.877	91.94
497.094	80.94
497.312	83.94
497.529	73.94
497.746	96.94
497.963	93.94
498.181	101.94
498.398	85.94
498.615	93.94
498.832	107.94
499.049	86.94
499.267	79.94
499.484	103.94
499.701	93.94
499.918	95.94
500.135	95.94
500.352	82.94
500.569	99.94
500.786	91.94
501.003	85.94
501.22	100.94
501.437	89.94
501.654	98.94
501.871	77.94
502.088	93.94
502.305	81.94
502.522	99.94
502.739	85.94
502.956	102.94
503.172	91.94
503.389	97.94
503.606	110.94
503.823	89.94
504.04	89.94
504.256	77.94
504.473	95.94
504.69	95.94
504.907	95.94
505.123	78.94
505.34	79.94
505.557	94.94
505.773	95.94
505.99	93.94
506.207	91.94
506.423	97.94
506.64	82.94
506.856	87.94
507.073	88.94
507.289	88.94
507.506	74.94
507.722	100.94
507.939	93.94
508.155	81.94
508.372	94.94
508.588	82.94
508.805	99.94
509.021	83.94
509.238	82.94
509.454	107.94
509.67	93.94
509.887	95.94
510.103	113.94
510.319	185.94
510.536	605.94
510.752	1703.94
510.968	473.94
511.184	132.94
511.401	101.94
511.617	87.94
511.833	96.94
512.049	81.94
512.265	94.94
512.481	107.94
512.698	89.94
512.914	87.94
513.13	92.94
513.346	78.94
513.562	88.94
513.778	89.94
513.994	86.94
514.21	87.94
514.426	109.94
514.642	119.94
514.858	113.94
515.074	141.94
515.29	359.94
515.506	1062.94
515.721	410.94
515.937	126.94
516.153	107.94
516.369	83.94
516.585	85.94
516.801	92.94
517.016	98.94
