Data from Uncirc_1989_H10_HRD10591_00016.txt Node
Date: Wed Jan 03 11:57:38 EST 2024
User: Yrep
Spectrometer: HR+D1059
Trigger mode: 1
Integration Time (sec): 1.000000E-1
Scans to average: 1
Electric dark correction enabled: true
Nonlinearity correction enabled: false
Boxcar width: 0
XAxis mode: Wavelengths
Number of Pixels in Spectrum: 2048
>>>>>Begin Spectral Data<<<<<
223.165	-24
223.4	-24
223.635	-24
223.869	-22
224.104	-15
224.338	-17
224.573	-11
224.808	-21
225.042	-5
225.277	-7
225.511	1
225.746	0
225.98	3
226.215	0
226.449	25
226.683	31
226.918	27
227.152	35
227.387	47
227.621	43
227.856	41
228.09	52
228.324	46
228.559	54
228.793	61
229.027	71
229.262	62
229.496	57
229.73	79
229.964	77
230.199	68
230.433	88
230.667	70
230.901	84
231.136	65
231.37	86
231.604	60
231.838	93
232.072	88
232.306	71
232.541	103
232.775	86
233.009	79
233.243	85
233.477	64
233.711	81
233.945	74
234.179	69
234.413	71
234.647	72
234.881	67
235.115	71
235.349	79
235.583	83
235.817	81
236.051	91
236.285	80
236.519	75
236.753	83
236.987	60
237.221	72
237.455	61
237.689	70
237.922	80
238.156	72
238.39	77
238.624	81
238.858	79
239.091	71
239.325	79
239.559	85
239.793	66
240.027	97
240.26	75
240.494	69
240.728	88
240.961	77
241.195	76
241.429	81
241.662	73
241.896	73
242.13	92
242.363	83
242.597	75
242.83	68
243.064	67
243.298	76
243.531	79
243.765	93
243.998	75
244.232	75
244.465	73
244.699	69
244.932	59
245.166	91
245.399	68
245.633	67
245.866	95
246.099	78
246.333	70
246.566	70
246.8	90
247.033	81
247.266	78
247.5	71
247.733	93
247.966	70
248.2	66
248.433	64
248.666	82
248.899	90
249.133	71
249.366	88
249.599	84
249.832	91
250.066	91
250.299	93
250.532	83
250.765	95
250.998	93
251.231	84
251.465	79
251.698	79
251.931	70
252.164	81
252.397	75
252.63	69
252.863	92
253.096	77
253.329	85
253.562	88
253.795	79
254.028	70
254.261	76
254.494	89
254.727	84
254.96	72
255.193	84
255.426	76
255.659	87
255.892	75
256.124	83
256.357	92
256.59	86
256.823	83
257.056	94
257.289	81
257.521	68
257.754	74
257.987	91
258.22	75
258.452	76
258.685	88
258.918	82
259.151	93
259.383	94
259.616	72
259.849	79
260.081	71
260.314	87
260.547	71
260.779	81
261.012	75
261.244	94
261.477	95
261.71	84
261.942	102
262.175	111
262.407	89
262.64	78
262.872	85
263.105	74
263.337	85
263.57	81
263.802	78
264.035	88
264.267	87
264.499	70
264.732	85
264.964	91
265.197	87
265.429	70
265.661	86
265.894	91
266.126	82
266.358	79
266.591	71
266.823	80
267.055	69
267.287	67
267.52	88
267.752	66
267.984	83
268.216	86
268.448	73
268.681	79
268.913	86
269.145	85
269.377	93
269.609	93
269.841	79
270.073	88
270.306	84
270.538	83
270.77	80
271.002	76
271.234	92
271.466	102
271.698	78
271.93	78
272.162	79
272.394	81
272.626	88
272.858	72
273.09	86
273.322	95
273.553	77
273.785	82
274.017	79
274.249	92
274.481	72
274.713	83
274.945	81
275.176	82
275.408	85
275.64	78
275.872	78
276.104	81
276.335	87
276.567	87
276.799	96
277.031	95
277.262	100
277.494	85
277.726	80
277.957	89
278.189	88
278.421	87
278.652	96
278.884	79
279.115	91
279.347	75
279.579	77
279.81	86
280.042	89
280.273	109
280.505	96
280.736	91
280.968	91
281.199	89
281.431	80
281.662	88
281.894	79
282.125	90
282.356	102
282.588	120
282.819	115
283.051	87
283.282	76
283.513	84
283.745	90
283.976	91
284.207	85
284.439	80
284.67	87
284.901	77
285.132	86
285.364	80
285.595	94
285.826	84
286.057	71
286.288	94
286.52	79
286.751	86
286.982	87
287.213	88
287.444	95
287.675	89
287.906	86
288.138	85
288.369	89
288.6	86
288.831	75
289.062	81
289.293	84
289.524	90
289.755	83
289.986	87
290.217	84
290.448	90
290.679	101
290.91	84
291.141	82
291.371	88
291.602	78
291.833	83
292.064	81
292.295	77
292.526	71
292.757	76
292.987	91
293.218	87
293.449	97
293.68	93
293.91	96
294.141	99
294.372	83
294.603	98
294.833	80
295.064	93
295.295	89
295.525	80
295.756	83
295.987	103
296.217	113
296.448	102
296.679	85
296.909	90
297.14	95
297.37	100
297.601	66
297.831	80
298.062	81
298.292	75
298.523	90
298.753	94
298.984	98
299.214	90
299.445	100
299.675	92
299.905	98
300.136	86
300.366	89
300.597	84
300.827	78
301.057	88
301.288	92
301.518	85
301.748	88
301.979	87
302.209	96
302.439	89
302.669	81
302.9	85
303.13	88
303.36	94
303.59	93
303.82	93
304.051	89
304.281	89
304.511	73
304.741	92
304.971	83
305.201	72
305.431	85
305.661	84
305.891	89
306.121	98
306.352	93
306.582	102
306.812	63
307.042	89
307.272	97
307.502	80
307.731	84
307.961	72
308.191	89
308.421	102
308.651	85
308.881	91
309.111	89
309.341	95
309.571	87
309.8	81
310.03	93
310.26	103
310.49	79
310.72	93
310.949	98
311.179	103
311.409	92
311.639	87
311.868	96
312.098	104
312.328	87
312.557	81
312.787	92
313.017	88
313.246	65
313.476	83
313.706	87
313.935	102
314.165	91
314.394	100
314.624	93
314.853	80
315.083	95
315.312	67
315.542	86
315.771	91
316.001	91
316.23	103
316.46	88
316.689	89
316.919	91
317.148	86
317.377	101
317.607	94
317.836	102
318.065	83
318.295	91
318.524	95
318.753	83
318.983	97
319.212	90
319.441	100
319.67	109
319.9	104
320.129	78
320.358	83
320.587	81
320.816	91
321.046	101
321.275	91
321.504	89
321.733	86
321.962	97
322.191	82
322.42	97
322.649	103
322.878	112
323.108	98
323.337	114
323.566	114
323.795	141
324.024	157
324.253	294
324.482	617
324.71	1264
324.939	1643
325.168	607
325.397	210
325.626	126
325.855	121
326.084	111
326.313	105
326.542	136
326.77	190
326.999	367
327.228	748
327.457	1301
327.686	1026
327.914	297
328.143	165
328.372	132
328.6	106
328.829	98
329.058	84
329.287	110
329.515	99
329.744	87
329.972	98
330.201	110
330.43	119
330.658	121
330.887	114
331.115	95
331.344	99
331.572	108
331.801	100
332.03	90
332.258	101
332.486	98
332.715	102
332.943	81
333.172	85
333.4	97
333.629	100
333.857	96
334.085	101
334.314	95
334.542	107
334.771	123
334.999	93
335.227	104
335.455	91
335.684	104
335.912	91
336.14	101
336.369	101
336.597	94
336.825	101
337.053	84
337.281	85
337.51	83
337.738	98
337.966	85
338.194	89
338.422	79
338.65	93
338.878	90
339.106	78
339.334	82
339.562	84
339.79	99
340.018	89
340.246	100
340.474	87
340.702	85
340.93	87
341.158	88
341.386	97
341.614	104
341.842	91
342.07	88
342.298	87
342.526	102
342.754	96
342.981	72
343.209	78
343.437	85
343.665	95
343.893	81
344.12	89
344.348	101
344.576	92
344.804	87
345.031	77
345.259	92
345.487	98
345.714	95
345.942	85
346.17	95
346.397	100
346.625	96
346.853	81
347.08	85
347.308	109
347.535	85
347.763	86
347.99	90
348.218	97
348.445	106
348.673	83
348.9	92
349.128	97
349.355	103
349.583	83
349.81	94
350.037	92
350.265	99
350.492	84
350.72	89
350.947	89
351.174	95
351.402	106
351.629	107
351.856	110
352.083	116
352.311	104
352.538	107
352.765	107
352.992	116
353.22	100
353.447	80
353.674	93
353.901	92
354.128	102
354.355	81
354.583	85
354.81	93
355.037	105
355.264	97
355.491	95
355.718	107
355.945	99
356.172	80
356.399	95
356.626	102
356.853	84
357.08	83
357.307	75
357.534	96
357.761	89
357.988	87
358.215	99
358.441	86
358.668	90
358.895	85
359.122	97
359.349	91
359.576	82
359.802	93
360.029	111
360.256	106
360.483	72
360.709	90
360.936	91
361.163	98
361.39	106
361.616	91
361.843	82
362.07	85
362.296	79
362.523	88
362.749	91
362.976	83
363.203	88
363.429	95
363.656	86
363.882	90
364.109	102
364.335	115
364.562	94
364.788	95
365.015	76
365.241	95
365.468	101
365.694	91
365.92	89
366.147	93
366.373	85
366.599	86
366.826	81
367.052	90
367.278	90
367.505	79
367.731	81
367.957	86
368.184	83
368.41	95
368.636	90
368.862	103
369.089	92
369.315	90
369.541	94
369.767	76
369.993	90
370.219	95
370.445	77
370.672	81
370.898	85
371.124	89
371.35	86
371.576	83
371.802	89
372.028	91
372.254	79
372.48	87
372.706	96
372.932	85
373.158	97
373.384	92
373.61	81
373.835	89
374.061	97
374.287	88
374.513	82
374.739	66
374.965	84
375.191	81
375.416	94
375.642	95
375.868	100
376.094	88
376.319	87
376.545	91
376.771	79
376.997	95
377.222	81
377.448	88
377.674	82
377.899	91
378.125	87
378.35	100
378.576	89
378.802	91
379.027	88
379.253	86
379.478	91
379.704	87
379.929	92
380.155	98
380.38	87
380.606	85
380.831	87
381.057	93
381.282	105
381.507	78
381.733	90
381.958	84
382.184	99
382.409	101
382.634	114
382.86	86
383.085	91
383.31	112
383.535	100
383.761	102
383.986	90
384.211	107
384.436	91
384.662	91
384.887	94
385.112	92
385.337	91
385.562	102
385.787	96
386.013	115
386.238	101
386.463	110
386.688	115
386.913	104
387.138	97
387.363	106
387.588	103
387.813	108
388.038	105
388.263	104
388.488	108
388.713	81
388.938	89
389.163	104
389.387	71
389.612	99
389.837	99
390.062	103
390.287	86
390.512	83
390.736	109
390.961	88
391.186	99
391.411	92
391.636	83
391.86	91
392.085	101
392.31	103
392.534	83
392.759	91
392.984	86
393.208	91
393.433	137
393.658	91
393.882	85
394.107	88
394.331	68
394.556	83
394.78	89
395.005	83
395.229	63
395.454	79
395.678	77
395.903	79
396.127	82
396.352	82
396.576	76
396.801	103
397.025	104
397.249	85
397.474	93
397.698	111
397.922	77
398.147	85
398.371	92
398.595	80
398.82	69
399.044	84
399.268	72
399.492	96
399.717	80
399.941	91
400.165	88
400.389	109
400.613	84
400.837	80
401.062	83
401.286	93
401.51	87
401.734	87
401.958	96
402.182	104
402.406	118
402.63	109
402.854	101
403.078	95
403.302	88
403.526	84
403.75	96
403.974	75
404.198	96
404.422	81
404.645	75
404.869	82
405.093	99
405.317	99
405.541	96
405.765	82
405.988	91
406.212	131
406.436	172
406.66	126
406.883	96
407.107	89
407.331	98
407.555	88
407.778	106
408.002	89
408.226	91
408.449	87
408.673	90
408.896	93
409.12	102
409.344	77
409.567	83
409.791	95
410.014	94
410.238	82
410.461	101
410.685	79
410.908	109
411.132	85
411.355	94
411.578	82
411.802	83
412.025	84
412.249	97
412.472	104
412.695	99
412.919	94
413.142	94
413.365	95
413.589	103
413.812	89
414.035	88
414.258	89
414.482	95
414.705	95
414.928	98
415.151	94
415.374	97
415.597	92
415.821	83
416.044	82
416.267	96
416.49	81
416.713	94
416.936	92
417.159	104
417.382	76
417.605	91
417.828	81
418.051	92
418.274	72
418.497	84
418.72	86
418.943	95
419.166	80
419.389	82
419.611	87
419.834	94
420.057	102
420.28	90
420.503	92
420.726	90
420.948	96
421.171	79
421.394	95
421.617	88
421.839	94
422.062	91
422.285	88
422.507	103
422.73	112
422.953	97
423.175	82
423.398	88
423.621	77
423.843	88
424.066	104
424.288	62
424.511	79
424.733	89
424.956	90
425.178	87
425.401	85
425.623	83
425.846	97
426.068	100
426.291	97
426.513	93
426.735	86
426.958	78
427.18	103
427.402	122
427.625	128
427.847	125
428.069	118
428.292	102
428.514	88
428.736	74
428.958	91
429.181	77
429.403	86
429.625	72
429.847	85
430.069	88
430.292	95
430.514	77
430.736	73
430.958	97
431.18	92
431.402	86
431.624	87
431.846	78
432.068	72
432.29	75
432.512	85
432.734	90
432.956	77
433.178	104
433.4	107
433.622	94
433.844	89
434.066	92
434.287	100
434.509	73
434.731	91
434.953	79
435.175	85
435.397	99
435.618	84
435.84	86
436.062	101
436.284	96
436.505	112
436.727	105
436.949	94
437.17	85
437.392	101
437.614	97
437.835	75
438.057	102
438.278	93
438.5	96
438.721	105
438.943	87
439.165	87
439.386	68
439.608	97
439.829	89
440.05	103
440.272	112
440.493	100
440.715	62
440.936	98
441.158	85
441.379	91
441.6	100
441.822	83
442.043	86
442.264	88
442.486	90
442.707	70
442.928	96
443.149	123
443.371	110
443.592	94
443.813	101
444.034	99
444.255	94
444.476	104
444.698	85
444.919	108
445.14	134
445.361	120
445.582	109
445.803	104
446.024	113
446.245	113
446.466	91
446.687	83
446.908	72
447.129	79
447.35	81
447.571	87
447.792	92
448.013	102
448.234	89
448.455	94
448.675	95
448.896	104
449.117	84
449.338	71
449.559	121
449.779	111
450	87
450.221	110
450.442	97
450.662	90
450.883	99
451.104	108
451.324	97
451.545	96
451.766	89
451.986	86
452.207	95
452.428	100
452.648	87
452.869	92
453.089	95
453.31	97
453.53	78
453.751	83
453.971	87
454.192	96
454.412	91
454.633	96
454.853	100
455.073	84
455.294	81
455.514	90
455.734	81
455.955	92
456.175	96
456.395	88
456.616	81
456.836	78
457.056	79
457.276	77
457.497	84
457.717	88
457.937	82
458.157	80
458.377	108
458.598	92
458.818	119
459.038	118
459.258	95
459.478	91
459.698	73
459.918	77
460.138	68
460.358	86
460.578	95
460.798	109
461.018	81
461.238	76
461.458	76
461.678	89
461.898	87
462.118	81
462.338	88
462.558	87
462.777	86
462.997	98
463.217	87
463.437	87
463.657	96
463.876	86
464.096	79
464.316	92
464.536	103
464.755	96
464.975	98
465.195	130
465.414	134
465.634	86
465.854	85
466.073	96
466.293	91
466.512	86
466.732	94
466.951	96
467.171	85
467.391	93
467.61	102
467.829	104
468.049	115
468.268	105
468.488	95
468.707	82
468.927	72
469.146	75
469.365	75
469.585	100
469.804	83
470.023	93
470.243	89
470.462	79
470.681	92
470.901	75
471.12	87
471.339	95
471.558	81
471.777	85
471.997	81
472.216	97
472.435	125
472.654	98
472.873	89
473.092	66
473.311	95
473.53	76
473.749	80
473.968	84
474.187	100
474.406	92
474.625	84
474.844	95
475.063	83
475.282	87
475.501	96
475.72	91
475.939	82
476.158	94
476.377	95
476.596	70
476.814	100
477.033	97
477.252	84
477.471	81
477.69	83
477.908	70
478.127	80
478.346	91
478.564	98
478.783	104
479.002	77
479.22	84
479.439	96
479.658	96
479.876	91
480.095	84
480.313	84
480.532	80
480.751	84
480.969	111
481.188	210
481.406	150
481.624	93
481.843	92
482.061	87
482.28	92
482.498	81
482.717	85
482.935	95
483.153	99
483.372	92
483.59	94
483.808	89
484.027	83
484.245	87
484.463	85
484.681	94
484.9	78
485.118	95
485.336	88
485.554	86
485.772	102
485.99	116
486.209	99
486.427	100
486.645	107
486.863	117
487.081	101
487.299	89
487.517	92
487.735	87
487.953	88
488.171	91
488.389	90
488.607	104
488.825	97
489.043	98
489.261	99
489.479	100
489.696	93
489.914	100
490.132	87
490.35	91
490.568	85
490.786	104
491.003	91
491.221	87
491.439	103
491.657	90
491.874	82
492.092	88
492.31	68
492.527	79
492.745	77
492.963	83
493.18	84
493.398	99
493.615	93
493.833	87
494.05	99
494.268	107
494.485	90
494.703	88
494.92	85
495.138	103
495.355	87
495.573	80
495.79	74
496.008	90
496.225	87
496.442	101
496.66	94
496.877	99
497.094	97
497.312	99
497.529	94
497.746	83
497.963	93
498.181	93
498.398	100
498.615	107
498.832	94
499.049	91
499.267	78
499.484	88
499.701	96
499.918	88
500.135	88
500.352	85
500.569	81
500.786	86
501.003	83
501.22	84
501.437	96
501.654	93
501.871	88
502.088	88
502.305	89
502.522	79
502.739	88
502.956	88
503.172	85
503.389	86
503.606	88
503.823	85
504.04	89
504.256	84
504.473	104
504.69	94
504.907	98
505.123	87
505.34	92
505.557	86
505.773	83
505.99	87
506.207	85
506.423	92
506.64	87
506.856	68
507.073	72
507.289	97
507.506	91
507.722	94
507.939	103
508.155	78
508.372	92
508.588	91
508.805	91
509.021	73
509.238	87
509.454	91
509.67	103
509.887	102
510.103	105
510.319	178
510.536	561
510.752	1554
510.968	480
511.184	141
511.401	83
511.617	102
511.833	100
512.049	84
512.265	85
512.481	88
512.698	99
512.914	90
513.13	96
513.346	81
513.562	87
513.778	100
513.994	93
514.21	89
514.426	106
514.642	111
514.858	108
515.074	128
515.29	311
515.506	977
515.721	363
515.937	136
516.153	110
516.369	90
516.585	85
516.801	92
517.016	98
517.232	98
517.448	105
517.664	80
517.879	90
518.095	90
518.311	89
518.527	101
518.742	84
518.958	87
519.173	94
519.389	92
519.605	91
519.82	90
520.036	88
520.251	105
520.467	105
520.682	109
520.898	102
521.113	104
521.329	116
521.544	160
521.76	407
521.975	1563
522.19	959
522.406	228
522.621	103
522.836	102
523.052	101
523.267	85
523.482	93
523.698	89
523.913	110
524.128	99
524.343	84
524.559	91
524.774	88
524.989	95
525.204	115
525.419	95
525.634	87
525.849	90
526.064	65
526.28	96
526.495	78
526.71	93
526.925	83
527.14	86
527.355	88
527.57	84
527.785	78
527.999	83
528.214	76
528.429	85
528.644	98
528.859	91
529.074	83
529.289	107
529.503	148
529.718	106
529.933	87
530.148	86
530.363	89
530.577	100
530.792	92
531.007	83
531.221	99
531.436	95
531.651	89
531.865	97
532.08	104
532.295	98
532.509	93
532.724	74
532.938	101
533.153	90
533.367	102
533.582	84
533.796	94
534.011	105
534.225	95
534.44	79
534.654	97
534.868	83
535.083	91
535.297	95
535.511	84
535.726	86
535.94	95
536.154	101
536.369	84
536.583	92
536.797	97
537.011	86
537.225	87
537.44	94
537.654	83
537.868	96
538.082	86
538.296	80
538.51	94
538.724	85
538.938	96
539.153	83
539.367	104
539.581	94
539.795	91
540.009	91
540.222	89
540.436	79
540.65	96
540.864	95
541.078	79
541.292	96
541.506	100
541.72	83
541.934	89
542.147	90
542.361	82
542.575	91
542.789	97
543.002	78
543.216	92
543.43	92
543.644	87
543.857	101
544.071	81
544.285	95
544.498	86
544.712	99
544.925	96
545.139	81
545.352	85
545.566	91
545.779	97
545.993	99
546.206	80
546.42	81
546.633	86
546.847	97
547.06	85
547.274	73
547.487	88
547.7	93
547.914	100
548.127	87
548.34	103
548.554	82
548.767	99
548.98	96
549.193	91
549.407	69
549.62	82
549.833	103
550.046	100
550.259	101
550.473	87
550.686	88
550.899	86
551.112	88
551.325	80
551.538	94
551.751	89
551.964	95
552.177	91
552.39	96
552.603	82
552.816	94
553.029	80
553.242	99
553.455	104
553.667	102
553.88	94
554.093	85
554.306	98
554.519	77
554.732	80
554.944	78
555.157	92
555.37	88
555.583	87
555.795	94
556.008	85
556.221	90
556.433	79
556.646	91
556.859	73
557.071	98
557.284	92
557.496	85
557.709	83
557.921	103
558.134	94
558.346	98
558.559	90
558.771	97
558.984	98
559.196	87
559.409	82
559.621	78
559.833	78
560.046	83
560.258	95
560.47	67
560.683	94
560.895	87
561.107	91
561.32	99
561.532	86
561.744	80
561.956	80
562.168	88
562.381	97
562.593	96
562.805	91
563.017	100
563.229	90
563.441	92
563.653	87
563.865	93
564.077	90
564.289	85
564.501	70
564.713	88
564.925	82
565.137	78
565.349	92
565.561	87
565.773	81
565.985	89
566.197	105
566.408	83
566.62	95
566.832	79
567.044	89
567.255	93
567.467	102
567.679	89
567.891	72
568.102	81
568.314	97
568.526	95
568.737	95
568.949	80
569.161	91
569.372	80
569.584	88
569.795	86
570.007	109
570.218	194
570.43	102
570.641	71
570.853	93
571.064	109
571.276	81
571.487	87
571.698	75
571.91	84
572.121	67
572.333	87
572.544	76
572.755	88
572.966	105
573.178	95
573.389	98
573.6	92
573.811	92
574.023	83
574.234	90
574.445	86
574.656	81
574.867	90
575.078	93
575.289	89
575.501	80
575.712	75
575.923	96
576.134	99
576.345	91
576.556	81
576.767	94
576.978	100
577.188	100
577.399	88
577.61	94
577.821	94
578.032	101
578.243	231
578.454	540
578.665	171
578.875	101
579.086	103
579.297	83
579.508	88
579.718	86
579.929	96
580.14	102
580.35	71
580.561	99
580.772	100
580.982	95
581.193	87
581.403	80
581.614	81
581.825	82
582.035	97
582.246	75
582.456	71
582.667	85
582.877	85
583.087	88
583.298	86
583.508	88
583.719	86
583.929	95
584.139	89
584.35	94
584.56	80
584.77	91
584.981	81
585.191	87
585.401	81
585.611	88
