Data from Uncirc_1989_H10_HRD10591_00053.txt Node
Date: Wed Jan 03 11:57:46 EST 2024
User: Yrep
Spectrometer: HR+D1059
Trigger mode: 1
Integration Time (sec): 1.000000E-1
Scans to average: 1
Electric dark correction enabled: true
Nonlinearity correction enabled: false
Boxcar width: 0
XAxis mode: Wavelengths
Number of Pixels in Spectrum: 2048
>>>>>Begin Spectral Data<<<<<
223.165	-7.38
223.4	-7.38
223.635	-7.38
223.869	-22.38
224.104	-24.38
224.338	-15.38
224.573	-12.38
224.808	-9.38
225.042	0.62
225.277	-6.38
225.511	-0.38
225.746	8.62
225.98	-7.38
226.215	8.62
226.449	8.62
226.683	26.62
226.918	14.62
227.152	37.62
227.387	57.62
227.621	46.62
227.856	48.62
228.09	40.62
228.324	40.62
228.559	53.62
228.793	62.62
229.027	72.62
229.262	80.62
229.496	68.62
229.73	69.62
229.964	80.62
230.199	64.62
230.433	69.62
230.667	80.62
230.901	80.62
231.136	80.62
231.37	69.62
231.604	80.62
231.838	79.62
232.072	70.62
232.306	97.62
232.541	78.62
232.775	85.62
233.009	75.62
233.243	73.62
233.477	67.62
233.711	93.62
233.945	72.62
234.179	68.62
234.413	78.62
234.647	83.62
234.881	75.62
235.115	68.62
235.349	75.62
235.583	67.62
235.817	75.62
236.051	76.62
236.285	88.62
236.519	62.62
236.753	65.62
236.987	80.62
237.221	76.62
237.455	73.62
237.689	66.62
237.922	70.62
238.156	65.62
238.39	65.62
238.624	81.62
238.858	66.62
239.091	83.62
239.325	80.62
239.559	92.62
239.793	84.62
240.027	83.62
240.26	76.62
240.494	79.62
240.728	76.62
240.961	63.62
241.195	72.62
241.429	69.62
241.662	68.62
241.896	79.62
242.13	79.62
242.363	75.62
242.597	66.62
242.83	78.62
243.064	75.62
243.298	69.62
243.531	69.62
243.765	76.62
243.998	84.62
244.232	78.62
244.465	76.62
244.699	73.62
244.932	84.62
245.166	76.62
245.399	75.62
245.633	80.62
245.866	75.62
246.099	70.62
246.333	79.62
246.566	68.62
246.8	82.62
247.033	69.62
247.266	64.62
247.5	75.62
247.733	84.62
247.966	78.62
248.2	69.62
248.433	71.62
248.666	98.62
248.899	78.62
249.133	83.62
249.366	92.62
249.599	92.62
249.832	80.62
250.066	80.62
250.299	83.62
250.532	80.62
250.765	67.62
250.998	65.62
251.231	75.62
251.465	80.62
251.698	72.62
251.931	80.62
252.164	81.62
252.397	85.62
252.63	88.62
252.863	72.62
253.096	73.62
253.329	76.62
253.562	81.62
253.795	82.62
254.028	76.62
254.261	97.62
254.494	81.62
254.727	77.62
254.96	80.62
255.193	62.62
255.426	74.62
255.659	70.62
255.892	82.62
256.124	66.62
256.357	82.62
256.59	66.62
256.823	79.62
257.056	62.62
257.289	67.62
257.521	79.62
257.754	78.62
257.987	81.62
258.22	85.62
258.452	65.62
258.685	72.62
258.918	74.62
259.151	80.62
259.383	77.62
259.616	79.62
259.849	85.62
260.081	72.62
260.314	76.62
260.547	76.62
260.779	85.62
261.012	80.62
261.244	79.62
261.477	85.62
261.71	84.62
261.942	103.62
262.175	107.62
262.407	74.62
262.64	76.62
262.872	70.62
263.105	74.62
263.337	78.62
263.57	75.62
263.802	82.62
264.035	81.62
264.267	75.62
264.499	69.62
264.732	86.62
264.964	88.62
265.197	67.62
265.429	93.62
265.661	91.62
265.894	84.62
266.126	80.62
266.358	73.62
266.591	72.62
266.823	84.62
267.055	68.62
267.287	77.62
267.52	88.62
267.752	88.62
267.984	73.62
268.216	76.62
268.448	81.62
268.681	74.62
268.913	67.62
269.145	80.62
269.377	74.62
269.609	71.62
269.841	68.62
270.073	82.62
270.306	92.62
270.538	84.62
270.77	79.62
271.002	74.62
271.234	74.62
271.466	76.62
271.698	85.62
271.93	81.62
272.162	66.62
272.394	60.62
272.626	83.62
272.858	84.62
273.09	78.62
273.322	86.62
273.553	86.62
273.785	82.62
274.017	74.62
274.249	90.62
274.481	85.62
274.713	82.62
274.945	83.62
275.176	80.62
275.408	100.62
275.64	83.62
275.872	74.62
276.104	72.62
276.335	76.62
276.567	97.62
276.799	104.62
277.031	87.62
277.262	82.62
277.494	85.62
277.726	80.62
277.957	74.62
278.189	76.62
278.421	86.62
278.652	83.62
278.884	77.62
279.115	66.62
279.347	91.62
279.579	70.62
279.81	95.62
280.042	95.62
280.273	84.62
280.505	77.62
280.736	60.62
280.968	69.62
281.199	78.62
281.431	74.62
281.662	80.62
281.894	88.62
282.125	94.62
282.356	102.62
282.588	131.62
282.819	98.62
283.051	84.62
283.282	80.62
283.513	81.62
283.745	90.62
283.976	75.62
284.207	68.62
284.439	85.62
284.67	69.62
284.901	74.62
285.132	84.62
285.364	97.62
285.595	85.62
285.826	75.62
286.057	87.62
286.288	73.62
286.52	96.62
286.751	83.62
286.982	69.62
287.213	75.62
287.444	89.62
287.675	92.62
287.906	68.62
288.138	69.62
288.369	90.62
288.6	83.62
288.831	80.62
289.062	82.62
289.293	89.62
289.524	72.62
289.755	93.62
289.986	83.62
290.217	76.62
290.448	79.62
290.679	81.62
290.91	86.62
291.141	75.62
291.371	74.62
291.602	86.62
291.833	85.62
292.064	76.62
292.295	81.62
292.526	84.62
292.757	75.62
292.987	90.62
293.218	80.62
293.449	87.62
293.68	96.62
293.91	85.62
294.141	85.62
294.372	92.62
294.603	84.62
294.833	82.62
295.064	93.62
295.295	85.62
295.525	76.62
295.756	85.62
295.987	91.62
296.217	114.62
296.448	122.62
296.679	97.62
296.909	97.62
297.14	88.62
297.37	82.62
297.601	73.62
297.831	84.62
298.062	93.62
298.292	84.62
298.523	85.62
298.753	82.62
298.984	80.62
299.214	74.62
299.445	93.62
299.675	98.62
299.905	99.62
300.136	94.62
300.366	85.62
300.597	86.62
300.827	109.62
301.057	90.62
301.288	96.62
301.518	80.62
301.748	85.62
301.979	94.62
302.209	96.62
302.439	84.62
302.669	86.62
302.9	73.62
303.13	75.62
303.36	91.62
303.59	80.62
303.82	96.62
304.051	86.62
304.281	92.62
304.511	81.62
304.741	80.62
304.971	95.62
305.201	73.62
305.431	82.62
305.661	87.62
305.891	86.62
306.121	89.62
306.352	102.62
306.582	101.62
306.812	76.62
307.042	90.62
307.272	84.62
307.502	78.62
307.731	101.62
307.961	83.62
308.191	82.62
308.421	91.62
308.651	78.62
308.881	86.62
309.111	91.62
309.341	89.62
309.571	92.62
309.8	86.62
310.03	94.62
310.26	80.62
310.49	85.62
310.72	110.62
310.949	94.62
311.179	87.62
311.409	94.62
311.639	91.62
311.868	91.62
312.098	82.62
312.328	83.62
312.557	108.62
312.787	112.62
313.017	90.62
313.246	78.62
313.476	97.62
313.706	87.62
313.935	90.62
314.165	96.62
314.394	89.62
314.624	88.62
314.853	95.62
315.083	109.62
315.312	90.62
315.542	88.62
315.771	75.62
316.001	82.62
316.23	89.62
316.46	84.62
316.689	107.62
316.919	75.62
317.148	90.62
317.377	79.62
317.607	91.62
317.836	93.62
318.065	85.62
318.295	88.62
318.524	84.62
318.753	82.62
318.983	102.62
319.212	95.62
319.441	94.62
319.67	91.62
319.9	84.62
320.129	90.62
320.358	97.62
320.587	91.62
320.816	88.62
321.046	105.62
321.275	89.62
321.504	92.62
321.733	91.62
321.962	87.62
322.191	86.62
322.42	88.62
322.649	97.62
322.878	97.62
323.108	106.62
323.337	103.62
323.566	105.62
323.795	125.62
324.024	173.62
324.253	338.62
324.482	728.62
324.71	1498.62
324.939	1976.62
325.168	728.62
325.397	210.62
325.626	140.62
325.855	113.62
326.084	125.62
326.313	103.62
326.542	144.62
326.77	210.62
326.999	440.62
327.228	852.62
327.457	1556.62
327.686	1194.62
327.914	338.62
328.143	180.62
328.372	166.62
328.6	113.62
328.829	110.62
329.058	113.62
329.287	115.62
329.515	94.62
329.744	97.62
329.972	120.62
330.201	165.62
330.43	198.62
330.658	148.62
330.887	131.62
331.115	91.62
331.344	103.62
331.572	86.62
331.801	85.62
332.03	95.62
332.258	86.62
332.486	99.62
332.715	93.62
332.943	93.62
333.172	101.62
333.4	97.62
333.629	84.62
333.857	102.62
334.085	129.62
334.314	170.62
334.542	245.62
334.771	226.62
334.999	129.62
335.227	91.62
335.455	89.62
335.684	93.62
335.912	96.62
336.14	94.62
336.369	93.62
336.597	99.62
336.825	106.62
337.053	86.62
337.281	81.62
337.51	79.62
337.738	85.62
337.966	82.62
338.194	92.62
338.422	100.62
338.65	105.62
338.878	85.62
339.106	96.62
339.334	90.62
339.562	86.62
339.79	84.62
340.018	81.62
340.246	76.62
340.474	86.62
340.702	93.62
340.93	75.62
341.158	90.62
341.386	96.62
341.614	95.62
341.842	91.62
342.07	81.62
342.298	78.62
342.526	84.62
342.754	97.62
342.981	85.62
343.209	90.62
343.437	101.62
343.665	101.62
343.893	86.62
344.12	93.62
344.348	99.62
344.576	94.62
344.804	92.62
345.031	88.62
345.259	99.62
345.487	100.62
345.714	80.62
345.942	89.62
346.17	86.62
346.397	105.62
346.625	88.62
346.853	81.62
347.08	82.62
347.308	76.62
347.535	88.62
347.763	91.62
347.99	88.62
348.218	102.62
348.445	100.62
348.673	94.62
348.9	93.62
349.128	88.62
349.355	91.62
349.583	74.62
349.81	84.62
350.037	101.62
350.265	76.62
350.492	96.62
350.72	84.62
350.947	99.62
351.174	91.62
351.402	101.62
351.629	102.62
351.856	82.62
352.083	87.62
352.311	97.62
352.538	89.62
352.765	92.62
352.992	104.62
353.22	106.62
353.447	98.62
353.674	100.62
353.901	84.62
354.128	102.62
354.355	106.62
354.583	107.62
354.81	97.62
355.037	96.62
355.264	97.62
355.491	86.62
355.718	91.62
355.945	107.62
356.172	106.62
356.399	93.62
356.626	83.62
356.853	87.62
357.08	106.62
357.307	76.62
357.534	94.62
357.761	92.62
357.988	97.62
358.215	103.62
358.441	89.62
358.668	80.62
358.895	83.62
359.122	93.62
359.349	96.62
359.576	87.62
359.802	100.62
360.029	105.62
360.256	117.62
360.483	99.62
360.709	76.62
360.936	72.62
361.163	95.62
361.39	80.62
361.616	85.62
361.843	92.62
362.07	76.62
362.296	99.62
362.523	84.62
362.749	96.62
362.976	91.62
363.203	97.62
363.429	87.62
363.656	82.62
363.882	86.62
364.109	99.62
364.335	99.62
364.562	94.62
364.788	90.62
365.015	87.62
365.241	102.62
365.468	88.62
365.694	102.62
365.92	76.62
366.147	87.62
366.373	92.62
366.599	95.62
366.826	88.62
367.052	91.62
367.278	84.62
367.505	96.62
367.731	76.62
367.957	91.62
368.184	80.62
368.41	101.62
368.636	96.62
368.862	109.62
369.089	88.62
369.315	86.62
369.541	79.62
369.767	83.62
369.993	93.62
370.219	90.62
370.445	84.62
370.672	96.62
370.898	85.62
371.124	92.62
371.35	84.62
371.576	98.62
371.802	91.62
372.028	81.62
372.254	101.62
372.48	76.62
372.706	91.62
372.932	75.62
373.158	102.62
373.384	97.62
373.61	101.62
373.835	77.62
374.061	86.62
374.287	100.62
374.513	89.62
374.739	85.62
374.965	112.62
375.191	93.62
375.416	94.62
375.642	89.62
375.868	89.62
376.094	87.62
376.319	76.62
376.545	93.62
376.771	89.62
376.997	94.62
377.222	91.62
377.448	89.62
377.674	83.62
377.899	87.62
378.125	84.62
378.35	90.62
378.576	92.62
378.802	87.62
379.027	94.62
379.253	92.62
379.478	74.62
379.704	90.62
379.929	73.62
380.155	84.62
380.38	96.62
380.606	97.62
380.831	100.62
381.057	89.62
381.282	88.62
381.507	95.62
381.733	88.62
381.958	83.62
382.184	77.62
382.409	83.62
382.634	82.62
382.86	90.62
383.085	96.62
383.31	91.62
383.535	88.62
383.761	91.62
383.986	84.62
384.211	90.62
384.436	102.62
384.662	78.62
384.887	89.62
385.112	104.62
385.337	90.62
385.562	79.62
385.787	102.62
386.013	95.62
386.238	106.62
386.463	98.62
386.688	96.62
386.913	102.62
387.138	94.62
387.363	84.62
387.588	80.62
387.813	87.62
388.038	105.62
388.263	110.62
388.488	105.62
388.713	102.62
388.938	96.62
389.163	99.62
389.387	92.62
389.612	89.62
389.837	100.62
390.062	94.62
390.287	97.62
390.512	73.62
390.736	95.62
390.961	87.62
391.186	92.62
391.411	90.62
391.636	84.62
391.86	93.62
392.085	82.62
392.31	76.62
392.534	85.62
392.759	86.62
392.984	88.62
393.208	86.62
393.433	98.62
393.658	93.62
393.882	85.62
394.107	82.62
394.331	78.62
394.556	92.62
394.78	92.62
395.005	70.62
395.229	78.62
395.454	82.62
395.678	80.62
395.903	80.62
396.127	85.62
396.352	85.62
396.576	91.62
396.801	95.62
397.025	85.62
397.249	98.62
397.474	84.62
397.698	101.62
397.922	94.62
398.147	99.62
398.371	78.62
398.595	88.62
398.82	86.62
399.044	102.62
399.268	85.62
399.492	84.62
399.717	77.62
399.941	84.62
400.165	96.62
400.389	93.62
400.613	81.62
400.837	92.62
401.062	78.62
401.286	89.62
401.51	80.62
401.734	83.62
401.958	79.62
402.182	121.62
402.406	146.62
402.63	109.62
402.854	88.62
403.078	78.62
403.302	76.62
403.526	83.62
403.75	80.62
403.974	88.62
404.198	81.62
404.422	76.62
404.645	90.62
404.869	103.62
405.093	84.62
405.317	86.62
405.541	99.62
405.765	86.62
405.988	119.62
406.212	149.62
406.436	194.62
406.66	150.62
406.883	92.62
407.107	96.62
407.331	89.62
407.555	86.62
407.778	100.62
408.002	88.62
408.226	90.62
408.449	98.62
408.673	87.62
408.896	89.62
409.12	86.62
409.344	86.62
409.567	84.62
409.791	84.62
410.014	91.62
410.238	95.62
410.461	74.62
410.685	89.62
410.908	94.62
411.132	101.62
411.355	107.62
411.578	96.62
411.802	83.62
412.025	80.62
412.249	85.62
412.472	105.62
412.695	103.62
412.919	84.62
413.142	88.62
413.365	92.62
413.589	77.62
413.812	78.62
414.035	88.62
414.258	87.62
414.482	96.62
414.705	82.62
414.928	79.62
415.151	85.62
415.374	86.62
415.597	81.62
415.821	95.62
416.044	92.62
416.267	83.62
416.49	83.62
416.713	89.62
416.936	79.62
417.159	76.62
417.382	80.62
417.605	91.62
417.828	85.62
418.051	95.62
418.274	89.62
418.497	78.62
418.72	60.62
418.943	85.62
419.166	89.62
419.389	92.62
419.611	79.62
419.834	85.62
420.057	101.62
420.28	87.62
420.503	73.62
420.726	85.62
420.948	74.62
421.171	78.62
421.394	74.62
421.617	69.62
421.839	84.62
422.062	88.62
422.285	82.62
422.507	96.62
422.73	96.62
422.953	82.62
423.175	93.62
423.398	90.62
423.621	96.62
423.843	91.62
424.066	88.62
424.288	88.62
424.511	75.62
424.733	91.62
424.956	84.62
425.178	106.62
425.401	98.62
425.623	88.62
425.846	86.62
426.068	85.62
426.291	83.62
426.513	105.62
426.735	93.62
426.958	81.62
427.18	96.62
427.402	121.62
427.625	150.62
427.847	128.62
428.069	130.62
428.292	79.62
428.514	79.62
428.736	79.62
428.958	77.62
429.181	75.62
429.403	84.62
429.625	81.62
429.847	95.62
430.069	104.62
430.292	89.62
430.514	69.62
430.736	72.62
430.958	81.62
431.18	87.62
431.402	77.62
431.624	74.62
431.846	73.62
432.068	68.62
432.29	86.62
432.512	80.62
432.734	86.62
432.956	86.62
433.178	94.62
433.4	94.62
433.622	88.62
433.844	78.62
434.066	74.62
434.287	88.62
434.509	68.62
434.731	94.62
434.953	91.62
435.175	93.62
435.397	88.62
435.618	74.62
435.84	97.62
436.062	107.62
436.284	100.62
436.505	101.62
436.727	105.62
436.949	95.62
437.17	91.62
437.392	82.62
437.614	91.62
437.835	105.62
438.057	89.62
438.278	110.62
438.5	80.62
438.721	104.62
438.943	107.62
439.165	90.62
439.386	72.62
439.608	90.62
439.829	84.62
440.05	110.62
440.272	123.62
440.493	92.62
440.715	99.62
440.936	78.62
441.158	85.62
441.379	86.62
441.6	85.62
441.822	92.62
442.043	72.62
442.264	93.62
442.486	82.62
442.707	88.62
442.928	109.62
443.149	119.62
443.371	110.62
443.592	88.62
443.813	100.62
444.034	82.62
444.255	85.62
444.476	75.62
444.698	90.62
444.919	87.62
445.14	125.62
445.361	112.62
445.582	115.62
445.803	108.62
446.024	123.62
446.245	140.62
446.466	95.62
446.687	75.62
446.908	80.62
447.129	83.62
447.35	77.62
447.571	94.62
447.792	74.62
448.013	90.62
448.234	99.62
448.455	80.62
448.675	88.62
448.896	104.62
449.117	101.62
449.338	99.62
449.559	115.62
449.779	115.62
450	90.62
450.221	76.62
450.442	88.62
450.662	86.62
450.883	110.62
451.104	93.62
451.324	87.62
451.545	79.62
451.766	83.62
451.986	80.62
452.207	86.62
452.428	72.62
452.648	92.62
452.869	107.62
453.089	100.62
453.31	98.62
453.53	94.62
453.751	70.62
453.971	84.62
454.192	107.62
454.412	91.62
454.633	84.62
454.853	77.62
455.073	72.62
455.294	93.62
455.514	89.62
455.734	82.62
455.955	63.62
456.175	66.62
456.395	89.62
456.616	84.62
456.836	89.62
457.056	76.62
457.276	74.62
457.497	76.62
457.717	84.62
457.937	68.62
458.157	93.62
458.377	92.62
458.598	102.62
458.818	120.62
459.038	134.62
459.258	108.62
459.478	85.62
459.698	77.62
459.918	73.62
460.138	78.62
460.358	93.62
460.578	95.62
460.798	99.62
461.018	92.62
461.238	81.62
461.458	84.62
461.678	80.62
461.898	91.62
462.118	82.62
462.338	80.62
462.558	74.62
462.777	74.62
462.997	81.62
463.217	75.62
463.437	86.62
463.657	87.62
463.876	97.62
464.096	89.62
464.316	94.62
464.536	94.62
464.755	81.62
464.975	106.62
465.195	148.62
465.414	133.62
465.634	93.62
465.854	74.62
466.073	98.62
466.293	76.62
466.512	78.62
466.732	64.62
466.951	85.62
467.171	94.62
467.391	99.62
467.61	93.62
467.829	94.62
468.049	133.62
468.268	148.62
468.488	95.62
468.707	76.62
468.927	76.62
469.146	81.62
469.365	80.62
469.585	96.62
469.804	80.62
470.023	77.62
470.243	90.62
470.462	84.62
470.681	93.62
470.901	86.62
471.12	86.62
471.339	88.62
471.558	83.62
471.777	81.62
471.997	94.62
472.216	193.62
472.435	287.62
472.654	129.62
472.873	85.62
473.092	82.62
473.311	76.62
473.53	93.62
473.749	77.62
473.968	102.62
474.187	81.62
474.406	87.62
474.625	85.62
474.844	80.62
475.063	75.62
475.282	101.62
475.501	89.62
475.72	80.62
475.939	90.62
476.158	90.62
476.377	86.62
476.596	93.62
476.814	89.62
477.033	88.62
477.252	91.62
477.471	88.62
477.69	95.62
477.908	89.62
478.127	86.62
478.346	96.62
478.564	72.62
478.783	88.62
479.002	88.62
479.22	89.62
479.439	86.62
479.658	82.62
479.876	79.62
480.095	88.62
480.313	101.62
480.532	82.62
480.751	109.62
480.969	188.62
481.188	475.62
481.406	282.62
481.624	117.62
481.843	88.62
482.061	100.62
482.28	96.62
482.498	89.62
482.717	89.62
482.935	78.62
483.153	76.62
483.372	94.62
483.59	65.62
483.808	94.62
484.027	81.62
484.245	87.62
484.463	79.62
484.681	78.62
484.9	83.62
485.118	70.62
485.336	81.62
485.554	99.62
485.772	91.62
485.99	93.62
486.209	97.62
486.427	97.62
486.645	108.62
486.863	95.62
487.081	92.62
487.299	82.62
487.517	88.62
487.735	77.62
487.953	80.62
488.171	94.62
488.389	104.62
488.607	84.62
488.825	76.62
489.043	91.62
489.261	94.62
489.479	82.62
489.696	76.62
489.914	83.62
490.132	79.62
490.35	82.62
490.568	77.62
490.786	83.62
491.003	89.62
491.221	84.62
491.439	106.62
491.657	93.62
491.874	102.62
492.092	89.62
492.31	91.62
492.527	86.62
492.745	87.62
492.963	96.62
493.18	88.62
493.398	90.62
493.615	88.62
493.833	101.62
494.05	83.62
494.268	81.62
494.485	90.62
494.703	74.62
494.92	85.62
495.138	98.62
495.355	92.62
495.573	97.62
495.79	76.62
496.008	95.62
496.225	107.62
496.442	86.62
496.66	79.62
496.877	90.62
497.094	102.62
497.312	85.62
497.529	102.62
497.746	96.62
497.963	76.62
498.181	93.62
498.398	85.62
498.615	98.62
498.832	92.62
499.049	97.62
499.267	83.62
499.484	81.62
499.701	94.62
499.918	88.62
500.135	90.62
500.352	82.62
500.569	96.62
500.786	84.62
501.003	82.62
501.22	81.62
501.437	94.62
501.654	90.62
501.871	89.62
502.088	83.62
502.305	73.62
502.522	89.62
502.739	91.62
502.956	91.62
503.172	91.62
503.389	84.62
503.606	96.62
503.823	85.62
504.04	101.62
504.256	83.62
504.473	82.62
504.69	77.62
504.907	87.62
505.123	80.62
505.34	84.62
505.557	86.62
505.773	85.62
505.99	84.62
506.207	84.62
506.423	80.62
506.64	70.62
506.856	90.62
507.073	92.62
507.289	86.62
507.506	86.62
507.722	87.62
507.939	91.62
508.155	94.62
508.372	78.62
508.588	102.62
508.805	90.62
509.021	101.62
509.238	96.62
509.454	79.62
509.67	104.62
509.887	108.62
510.103	127.62
510.319	200.62
510.536	648.62
510.752	1924.62
510.968	538.62
511.184	131.62
511.401	101.62
511.617	82.62
511.833	84.62
512.049	92.62
512.265	82.62
512.481	95.62
512.698	94.62
512.914	86.62
513.13	76.62
513.346	94.62
513.562	85.62
513.778	88.62
513.994	82.62
514.21	95.62
514.426	126.62
514.642	122.62
514.858	112.62
515.074	142.62
515.29	383.62
515.506	1190.62
515.721	450.62
515.937	143.62
516.153	102.62
516.369	88.62
516.585	96.62
516.801	82.62
517.016	104.62
517.232	92.62
