Data from Uncirc_1989_H10_HRD10591_00032.txt Node
Date: Wed Jan 03 11:57:42 EST 2024
User: Yrep
Spectrometer: HR+D1059
Trigger mode: 1
Integration Time (sec): 1.000000E-1
Scans to average: 1
Electric dark correction enabled: true
Nonlinearity correction enabled: false
Boxcar width: 0
XAxis mode: Wavelengths
Number of Pixels in Spectrum: 2048
>>>>>Begin Spectral Data<<<<<
223.165	-6.5
223.4	-6.5
223.635	-6.5
223.869	-21.5
224.104	-14.5
224.338	-23.5
224.573	-9.5
224.808	-30.5
225.042	-1.5
225.277	-14.5
225.511	-10.5
225.746	1.5
225.98	24.5
226.215	18.5
226.449	10.5
226.683	29.5
226.918	34.5
227.152	13.5
227.387	25.5
227.621	33.5
227.856	51.5
228.09	36.5
228.324	51.5
228.559	53.5
228.793	61.5
229.027	70.5
229.262	54.5
229.496	66.5
229.73	72.5
229.964	87.5
230.199	82.5
230.433	81.5
230.667	71.5
230.901	73.5
231.136	69.5
231.37	68.5
231.604	85.5
231.838	71.5
232.072	81.5
232.306	99.5
232.541	82.5
232.775	86.5
233.009	83.5
233.243	87.5
233.477	74.5
233.711	67.5
233.945	85.5
234.179	91.5
234.413	93.5
234.647	88.5
234.881	77.5
235.115	82.5
235.349	85.5
235.583	71.5
235.817	85.5
236.051	64.5
236.285	76.5
236.519	77.5
236.753	75.5
236.987	85.5
237.221	86.5
237.455	82.5
237.689	53.5
237.922	73.5
238.156	85.5
238.39	80.5
238.624	81.5
238.858	74.5
239.091	80.5
239.325	74.5
239.559	75.5
239.793	73.5
240.027	74.5
240.26	71.5
240.494	63.5
240.728	69.5
240.961	79.5
241.195	95.5
241.429	85.5
241.662	59.5
241.896	78.5
242.13	87.5
242.363	69.5
242.597	65.5
242.83	71.5
243.064	90.5
243.298	80.5
243.531	79.5
243.765	80.5
243.998	81.5
244.232	86.5
244.465	99.5
244.699	80.5
244.932	63.5
245.166	83.5
245.399	87.5
245.633	81.5
245.866	80.5
246.099	87.5
246.333	74.5
246.566	98.5
246.8	79.5
247.033	85.5
247.266	92.5
247.5	82.5
247.733	75.5
247.966	81.5
248.2	90.5
248.433	80.5
248.666	71.5
248.899	68.5
249.133	79.5
249.366	95.5
249.599	99.5
249.832	75.5
250.066	84.5
250.299	78.5
250.532	65.5
250.765	75.5
250.998	85.5
251.231	87.5
251.465	85.5
251.698	82.5
251.931	77.5
252.164	81.5
252.397	81.5
252.63	84.5
252.863	80.5
253.096	72.5
253.329	77.5
253.562	87.5
253.795	96.5
254.028	80.5
254.261	87.5
254.494	83.5
254.727	84.5
254.96	83.5
255.193	79.5
255.426	91.5
255.659	74.5
255.892	74.5
256.124	71.5
256.357	69.5
256.59	65.5
256.823	87.5
257.056	77.5
257.289	67.5
257.521	72.5
257.754	83.5
257.987	89.5
258.22	82.5
258.452	87.5
258.685	91.5
258.918	73.5
259.151	78.5
259.383	90.5
259.616	89.5
259.849	94.5
260.081	93.5
260.314	94.5
260.547	67.5
260.779	73.5
261.012	81.5
261.244	82.5
261.477	89.5
261.71	93.5
261.942	107.5
262.175	106.5
262.407	85.5
262.64	90.5
262.872	85.5
263.105	71.5
263.337	94.5
263.57	72.5
263.802	85.5
264.035	87.5
264.267	93.5
264.499	86.5
264.732	95.5
264.964	70.5
265.197	88.5
265.429	89.5
265.661	86.5
265.894	95.5
266.126	97.5
266.358	89.5
266.591	82.5
266.823	75.5
267.055	77.5
267.287	103.5
267.52	99.5
267.752	89.5
267.984	82.5
268.216	93.5
268.448	87.5
268.681	93.5
268.913	94.5
269.145	98.5
269.377	84.5
269.609	86.5
269.841	85.5
270.073	67.5
270.306	79.5
270.538	81.5
270.77	96.5
271.002	93.5
271.234	90.5
271.466	87.5
271.698	84.5
271.93	87.5
272.162	88.5
272.394	87.5
272.626	80.5
272.858	77.5
273.09	90.5
273.322	90.5
273.553	83.5
273.785	88.5
274.017	71.5
274.249	94.5
274.481	65.5
274.713	75.5
274.945	82.5
275.176	90.5
275.408	93.5
275.64	90.5
275.872	93.5
276.104	84.5
276.335	83.5
276.567	93.5
276.799	93.5
277.031	91.5
277.262	100.5
277.494	82.5
277.726	79.5
277.957	79.5
278.189	81.5
278.421	92.5
278.652	85.5
278.884	92.5
279.115	87.5
279.347	83.5
279.579	99.5
279.81	87.5
280.042	88.5
280.273	98.5
280.505	100.5
280.736	99.5
280.968	89.5
281.199	81.5
281.431	96.5
281.662	90.5
281.894	93.5
282.125	90.5
282.356	107.5
282.588	137.5
282.819	100.5
283.051	97.5
283.282	93.5
283.513	94.5
283.745	92.5
283.976	95.5
284.207	81.5
284.439	93.5
284.67	78.5
284.901	83.5
285.132	100.5
285.364	93.5
285.595	97.5
285.826	81.5
286.057	105.5
286.288	89.5
286.52	74.5
286.751	81.5
286.982	89.5
287.213	67.5
287.444	83.5
287.675	99.5
287.906	91.5
288.138	101.5
288.369	102.5
288.6	86.5
288.831	89.5
289.062	87.5
289.293	88.5
289.524	87.5
289.755	91.5
289.986	76.5
290.217	94.5
290.448	90.5
290.679	83.5
290.91	97.5
291.141	74.5
291.371	88.5
291.602	91.5
291.833	84.5
292.064	88.5
292.295	111.5
292.526	100.5
292.757	89.5
292.987	73.5
293.218	89.5
293.449	98.5
293.68	102.5
293.91	88.5
294.141	85.5
294.372	85.5
294.603	87.5
294.833	74.5
295.064	89.5
295.295	81.5
295.525	90.5
295.756	81.5
295.987	108.5
296.217	129.5
296.448	93.5
296.679	95.5
296.909	83.5
297.14	90.5
297.37	94.5
297.601	96.5
297.831	86.5
298.062	101.5
298.292	89.5
298.523	84.5
298.753	87.5
298.984	97.5
299.214	92.5
299.445	82.5
299.675	96.5
299.905	96.5
300.136	80.5
300.366	87.5
300.597	90.5
300.827	80.5
301.057	88.5
301.288	110.5
301.518	94.5
301.748	92.5
301.979	92.5
302.209	96.5
302.439	79.5
302.669	73.5
302.9	90.5
303.13	91.5
303.36	103.5
303.59	86.5
303.82	106.5
304.051	95.5
304.281	77.5
304.511	91.5
304.741	84.5
304.971	77.5
305.201	101.5
305.431	98.5
305.661	94.5
305.891	82.5
306.121	103.5
306.352	101.5
306.582	99.5
306.812	79.5
307.042	110.5
307.272	88.5
307.502	84.5
307.731	99.5
307.961	89.5
308.191	96.5
308.421	101.5
308.651	102.5
308.881	89.5
309.111	94.5
309.341	90.5
309.571	98.5
309.8	115.5
310.03	103.5
310.26	111.5
310.49	99.5
310.72	81.5
310.949	92.5
311.179	113.5
311.409	87.5
311.639	89.5
311.868	100.5
312.098	92.5
312.328	93.5
312.557	118.5
312.787	81.5
313.017	93.5
313.246	108.5
313.476	99.5
313.706	84.5
313.935	86.5
314.165	104.5
314.394	102.5
314.624	84.5
314.853	111.5
315.083	93.5
315.312	96.5
315.542	102.5
315.771	84.5
316.001	73.5
316.23	90.5
316.46	93.5
316.689	87.5
316.919	99.5
317.148	89.5
317.377	91.5
317.607	98.5
317.836	88.5
318.065	96.5
318.295	84.5
318.524	79.5
318.753	89.5
318.983	109.5
319.212	114.5
319.441	106.5
319.67	87.5
319.9	97.5
320.129	105.5
320.358	90.5
320.587	114.5
320.816	93.5
321.046	98.5
321.275	99.5
321.504	96.5
321.733	102.5
321.962	108.5
322.191	91.5
322.42	106.5
322.649	98.5
322.878	110.5
323.108	102.5
323.337	99.5
323.566	126.5
323.795	141.5
324.024	175.5
324.253	331.5
324.482	689.5
324.71	1385.5
324.939	1819.5
325.168	678.5
325.397	211.5
325.626	145.5
325.855	122.5
326.084	113.5
326.313	118.5
326.542	129.5
326.77	189.5
326.999	417.5
327.228	788.5
327.457	1437.5
327.686	1126.5
327.914	325.5
328.143	193.5
328.372	153.5
328.6	118.5
328.829	115.5
329.058	110.5
329.287	124.5
329.515	89.5
329.744	96.5
329.972	113.5
330.201	136.5
330.43	170.5
330.658	129.5
330.887	117.5
331.115	100.5
331.344	90.5
331.572	88.5
331.801	99.5
332.03	95.5
332.258	95.5
332.486	94.5
332.715	86.5
332.943	93.5
333.172	87.5
333.4	101.5
333.629	102.5
333.857	102.5
334.085	107.5
334.314	151.5
334.542	178.5
334.771	179.5
334.999	107.5
335.227	89.5
335.455	89.5
335.684	100.5
335.912	105.5
336.14	87.5
336.369	88.5
336.597	113.5
336.825	95.5
337.053	95.5
337.281	99.5
337.51	107.5
337.738	99.5
337.966	85.5
338.194	99.5
338.422	95.5
338.65	80.5
338.878	96.5
339.106	66.5
339.334	101.5
339.562	95.5
339.79	103.5
340.018	101.5
340.246	85.5
340.474	91.5
340.702	90.5
340.93	101.5
341.158	85.5
341.386	98.5
341.614	100.5
341.842	97.5
342.07	92.5
342.298	90.5
342.526	82.5
342.754	82.5
342.981	84.5
343.209	95.5
343.437	98.5
343.665	92.5
343.893	107.5
344.12	81.5
344.348	87.5
344.576	106.5
344.804	99.5
345.031	98.5
345.259	95.5
345.487	104.5
345.714	88.5
345.942	88.5
346.17	94.5
346.397	100.5
346.625	89.5
346.853	92.5
347.08	93.5
347.308	89.5
347.535	78.5
347.763	93.5
347.99	98.5
348.218	97.5
348.445	97.5
348.673	112.5
348.9	106.5
349.128	96.5
349.355	97.5
349.583	98.5
349.81	92.5
350.037	93.5
350.265	101.5
350.492	103.5
350.72	102.5
350.947	104.5
351.174	83.5
351.402	99.5
351.629	93.5
351.856	103.5
352.083	95.5
352.311	102.5
352.538	99.5
352.765	102.5
352.992	103.5
353.22	104.5
353.447	113.5
353.674	105.5
353.901	96.5
354.128	96.5
354.355	104.5
354.583	89.5
354.81	96.5
355.037	92.5
355.264	97.5
355.491	100.5
355.718	86.5
355.945	97.5
356.172	85.5
356.399	119.5
356.626	89.5
356.853	89.5
357.08	96.5
357.307	100.5
357.534	96.5
357.761	102.5
357.988	81.5
358.215	93.5
358.441	100.5
358.668	102.5
358.895	78.5
359.122	89.5
359.349	84.5
359.576	91.5
359.802	100.5
360.029	103.5
360.256	108.5
360.483	107.5
360.709	81.5
360.936	82.5
361.163	85.5
361.39	89.5
361.616	85.5
361.843	92.5
362.07	88.5
362.296	91.5
362.523	85.5
362.749	93.5
362.976	89.5
363.203	91.5
363.429	93.5
363.656	86.5
363.882	94.5
364.109	102.5
364.335	85.5
364.562	77.5
364.788	82.5
365.015	89.5
365.241	102.5
365.468	101.5
365.694	125.5
365.92	107.5
366.147	106.5
366.373	89.5
366.599	101.5
366.826	96.5
367.052	83.5
367.278	95.5
367.505	102.5
367.731	105.5
367.957	86.5
368.184	97.5
368.41	86.5
368.636	101.5
368.862	113.5
369.089	87.5
369.315	86.5
369.541	97.5
369.767	101.5
369.993	102.5
370.219	98.5
370.445	98.5
370.672	68.5
370.898	96.5
371.124	91.5
371.35	101.5
371.576	98.5
371.802	88.5
372.028	88.5
372.254	89.5
372.48	94.5
372.706	85.5
372.932	84.5
373.158	94.5
373.384	88.5
373.61	98.5
373.835	106.5
374.061	102.5
374.287	91.5
374.513	81.5
374.739	80.5
374.965	98.5
375.191	94.5
375.416	87.5
375.642	87.5
375.868	106.5
376.094	88.5
376.319	89.5
376.545	95.5
376.771	94.5
376.997	101.5
377.222	103.5
377.448	98.5
377.674	93.5
377.899	85.5
378.125	88.5
378.35	96.5
378.576	97.5
378.802	85.5
379.027	94.5
379.253	95.5
379.478	88.5
379.704	89.5
379.929	92.5
380.155	89.5
380.38	83.5
380.606	93.5
380.831	96.5
381.057	99.5
381.282	101.5
381.507	105.5
381.733	95.5
381.958	101.5
382.184	101.5
382.409	100.5
382.634	95.5
382.86	97.5
383.085	98.5
383.31	110.5
383.535	94.5
383.761	97.5
383.986	87.5
384.211	89.5
384.436	95.5
384.662	101.5
384.887	94.5
385.112	102.5
385.337	100.5
385.562	106.5
385.787	101.5
386.013	111.5
386.238	103.5
386.463	110.5
386.688	107.5
386.913	81.5
387.138	103.5
387.363	95.5
387.588	100.5
387.813	107.5
388.038	98.5
388.263	104.5
388.488	99.5
388.713	98.5
388.938	98.5
389.163	96.5
389.387	86.5
389.612	91.5
389.837	90.5
390.062	102.5
390.287	70.5
390.512	90.5
390.736	102.5
390.961	91.5
391.186	96.5
391.411	95.5
391.636	97.5
391.86	100.5
392.085	106.5
392.31	81.5
392.534	99.5
392.759	86.5
392.984	95.5
393.208	97.5
393.433	133.5
393.658	116.5
393.882	89.5
394.107	81.5
394.331	89.5
394.556	91.5
394.78	78.5
395.005	95.5
395.229	86.5
395.454	81.5
395.678	89.5
395.903	114.5
396.127	92.5
396.352	76.5
396.576	79.5
396.801	105.5
397.025	116.5
397.249	99.5
397.474	74.5
397.698	100.5
397.922	94.5
398.147	83.5
398.371	91.5
398.595	90.5
398.82	83.5
399.044	88.5
399.268	86.5
399.492	95.5
399.717	90.5
399.941	101.5
400.165	115.5
400.389	86.5
400.613	87.5
400.837	84.5
401.062	81.5
401.286	84.5
401.51	109.5
401.734	101.5
401.958	80.5
402.182	114.5
402.406	134.5
402.63	116.5
402.854	92.5
403.078	85.5
403.302	94.5
403.526	92.5
403.75	82.5
403.974	85.5
404.198	82.5
404.422	83.5
404.645	74.5
404.869	81.5
405.093	98.5
405.317	111.5
405.541	114.5
405.765	109.5
405.988	91.5
406.212	161.5
406.436	189.5
406.66	126.5
406.883	111.5
407.107	86.5
407.331	82.5
407.555	102.5
407.778	86.5
408.002	87.5
408.226	89.5
408.449	89.5
408.673	90.5
408.896	85.5
409.12	106.5
409.344	109.5
409.567	88.5
409.791	87.5
410.014	92.5
410.238	100.5
410.461	86.5
410.685	100.5
410.908	98.5
411.132	101.5
411.355	87.5
411.578	102.5
411.802	96.5
412.025	94.5
412.249	90.5
412.472	78.5
412.695	89.5
412.919	91.5
413.142	85.5
413.365	105.5
413.589	92.5
413.812	95.5
414.035	98.5
414.258	79.5
414.482	97.5
414.705	92.5
414.928	101.5
415.151	94.5
415.374	96.5
415.597	89.5
415.821	72.5
416.044	101.5
416.267	105.5
416.49	91.5
416.713	96.5
416.936	99.5
417.159	83.5
417.382	98.5
417.605	101.5
417.828	85.5
418.051	89.5
418.274	97.5
418.497	79.5
418.72	85.5
418.943	93.5
419.166	94.5
419.389	94.5
419.611	87.5
419.834	81.5
420.057	95.5
420.28	79.5
420.503	79.5
420.726	80.5
420.948	87.5
421.171	95.5
421.394	99.5
421.617	94.5
421.839	95.5
422.062	87.5
422.285	90.5
422.507	93.5
422.73	103.5
422.953	89.5
423.175	87.5
423.398	94.5
423.621	107.5
423.843	93.5
424.066	88.5
424.288	79.5
424.511	99.5
424.733	105.5
424.956	103.5
425.178	93.5
425.401	104.5
425.623	99.5
425.846	81.5
426.068	99.5
426.291	89.5
426.513	89.5
426.735	102.5
426.958	103.5
427.18	92.5
427.402	137.5
427.625	137.5
427.847	127.5
428.069	98.5
428.292	103.5
428.514	89.5
428.736	85.5
428.958	86.5
429.181	89.5
429.403	91.5
429.625	99.5
429.847	87.5
430.069	89.5
430.292	82.5
430.514	79.5
430.736	83.5
430.958	86.5
431.18	82.5
431.402	72.5
431.624	79.5
431.846	89.5
432.068	98.5
432.29	83.5
432.512	104.5
432.734	81.5
432.956	86.5
433.178	85.5
433.4	101.5
433.622	90.5
433.844	85.5
434.066	103.5
434.287	92.5
434.509	96.5
434.731	97.5
434.953	95.5
435.175	90.5
435.397	95.5
435.618	99.5
435.84	98.5
436.062	105.5
436.284	99.5
436.505	100.5
436.727	107.5
436.949	104.5
437.17	88.5
437.392	93.5
437.614	97.5
437.835	115.5
438.057	108.5
438.278	112.5
438.5	111.5
438.721	109.5
438.943	96.5
439.165	103.5
439.386	79.5
439.608	81.5
439.829	91.5
440.05	98.5
440.272	126.5
440.493	91.5
440.715	95.5
440.936	90.5
441.158	78.5
441.379	89.5
441.6	87.5
441.822	90.5
442.043	97.5
442.264	99.5
442.486	87.5
442.707	95.5
442.928	104.5
443.149	106.5
443.371	137.5
443.592	114.5
443.813	98.5
444.034	97.5
444.255	97.5
444.476	104.5
444.698	94.5
444.919	104.5
445.14	134.5
445.361	118.5
445.582	115.5
445.803	123.5
446.024	107.5
446.245	110.5
446.466	117.5
446.687	95.5
446.908	93.5
447.129	80.5
447.35	81.5
447.571	86.5
447.792	83.5
448.013	102.5
448.234	104.5
448.455	87.5
448.675	101.5
448.896	114.5
449.117	99.5
449.338	99.5
449.559	122.5
449.779	111.5
450	91.5
450.221	95.5
450.442	84.5
450.662	99.5
450.883	97.5
451.104	112.5
451.324	91.5
451.545	80.5
451.766	84.5
451.986	87.5
452.207	82.5
452.428	93.5
452.648	95.5
452.869	113.5
453.089	102.5
453.31	129.5
453.53	85.5
453.751	94.5
453.971	99.5
454.192	100.5
454.412	91.5
454.633	80.5
454.853	81.5
455.073	83.5
455.294	79.5
455.514	87.5
455.734	93.5
455.955	83.5
456.175	86.5
456.395	79.5
456.616	85.5
456.836	91.5
457.056	94.5
457.276	62.5
457.497	97.5
457.717	91.5
457.937	88.5
458.157	75.5
458.377	84.5
458.598	91.5
458.818	142.5
459.038	149.5
459.258	111.5
459.478	87.5
459.698	78.5
459.918	85.5
460.138	100.5
460.358	85.5
460.578	84.5
460.798	93.5
461.018	97.5
461.238	96.5
461.458	93.5
461.678	78.5
461.898	77.5
462.118	77.5
462.338	92.5
462.558	77.5
462.777	89.5
462.997	82.5
463.217	98.5
463.437	87.5
463.657	90.5
463.876	93.5
464.096	82.5
464.316	90.5
464.536	97.5
464.755	102.5
464.975	107.5
465.195	152.5
465.414	142.5
465.634	97.5
465.854	94.5
466.073	82.5
466.293	90.5
466.512	89.5
466.732	86.5
466.951	85.5
467.171	90.5
467.391	91.5
467.61	97.5
467.829	97.5
468.049	127.5
468.268	123.5
468.488	87.5
468.707	94.5
468.927	80.5
469.146	71.5
469.365	98.5
469.585	79.5
469.804	94.5
470.023	112.5
470.243	96.5
470.462	98.5
470.681	110.5
470.901	80.5
471.12	89.5
471.339	85.5
471.558	85.5
471.777	79.5
471.997	110.5
472.216	137.5
472.435	211.5
472.654	103.5
472.873	98.5
473.092	98.5
473.311	90.5
473.53	86.5
473.749	97.5
473.968	95.5
474.187	92.5
474.406	100.5
474.625	67.5
474.844	79.5
475.063	81.5
475.282	93.5
475.501	91.5
475.72	94.5
475.939	83.5
476.158	86.5
476.377	86.5
476.596	88.5
476.814	86.5
477.033	90.5
477.252	97.5
477.471	90.5
477.69	89.5
477.908	90.5
478.127	102.5
478.346	93.5
478.564	98.5
478.783	105.5
479.002	91.5
479.22	86.5
479.439	118.5
479.658	87.5
479.876	89.5
480.095	77.5
480.313	74.5
480.532	99.5
480.751	114.5
480.969	153.5
481.188	308.5
481.406	209.5
481.624	106.5
481.843	104.5
482.061	81.5
482.28	95.5
482.498	87.5
482.717	87.5
482.935	101.5
483.153	84.5
483.372	104.5
483.59	93.5
483.808	85.5
484.027	80.5
484.245	83.5
484.463	93.5
484.681	84.5
484.9	92.5
485.118	86.5
485.336	90.5
485.554	98.5
485.772	105.5
485.99	104.5
486.209	101.5
486.427	102.5
486.645	112.5
486.863	106.5
487.081	105.5
487.299	93.5
487.517	100.5
487.735	99.5
487.953	99.5
488.171	81.5
488.389	86.5
488.607	96.5
488.825	89.5
489.043	86.5
489.261	96.5
489.479	95.5
489.696	97.5
489.914	92.5
490.132	107.5
490.35	91.5
490.568	108.5
490.786	93.5
491.003	82.5
491.221	79.5
491.439	88.5
491.657	99.5
491.874	93.5
492.092	85.5
492.31	88.5
492.527	93.5
492.745	78.5
492.963	107.5
493.18	102.5
493.398	104.5
493.615	103.5
493.833	81.5
494.05	103.5
494.268	93.5
494.485	98.5
494.703	102.5
494.92	103.5
495.138	103.5
495.355	95.5
495.573	97.5
495.79	86.5
496.008	94.5
496.225	92.5
496.442	91.5
496.66	91.5
496.877	92.5
497.094	81.5
497.312	103.5
497.529	100.5
497.746	95.5
497.963	88.5
498.181	86.5
498.398	85.5
498.615	95.5
498.832	116.5
499.049	97.5
499.267	101.5
499.484	86.5
499.701	87.5
499.918	87.5
500.135	86.5
500.352	87.5
500.569	92.5
500.786	87.5
501.003	91.5
501.22	97.5
501.437	97.5
501.654	98.5
501.871	98.5
502.088	84.5
502.305	101.5
502.522	93.5
502.739	107.5
502.956	92.5
503.172	95.5
503.389	109.5
503.606	99.5
503.823	97.5
504.04	95.5
504.256	100.5
504.473	94.5
504.69	89.5
504.907	107.5
505.123	107.5
505.34	101.5
505.557	88.5
505.773	105.5
505.99	87.5
506.207	82.5
506.423	79.5
506.64	91.5
506.856	97.5
507.073	85.5
507.289	90.5
507.506	107.5
507.722	107.5
507.939	105.5
508.155	93.5
508.372	91.5
508.588	85.5
508.805	84.5
509.021	90.5
509.238	90.5
509.454	96.5
509.67	97.5
509.887	94.5
510.103	126.5
510.319	191.5
510.536	637.5
510.752	1871.5
510.968	528.5
511.184	128.5
511.401	104.5
511.617	88.5
511.833	99.5
512.049	92.5
512.265	91.5
512.481	82.5
512.698	96.5
512.914	87.5
513.13	93.5
513.346	95.5
513.562	97.5
513.778	95.5
513.994	102.5
514.21	91.5
514.426	125.5
514.642	129.5
514.858	116.5
515.074	154.5
515.29	377.5
515.506	1120.5
515.721	431.5
515.937	122.5
516.153	103.5
516.369	91.5
516.585	112.5
516.801	85.5
517.016	92.5
517.232	90.5
517.448	83.5
517.664	87.5
517.879	86.5
518.095	88.5
518.311	92.5
518.527	88.5
518.742	72.5
518.958	101.5
519.173	98.5
519.389	86.5
519.605	85.5
519.82	98.5
520.036	102.5
520.251	113.5
520.467	114.5
520.682	98.5
520.898	113.5
521.113	115.5
521.329	113.5
521.544	193.5
521.76	488.5
521.975	1897.5
522.19	1119.5
522.406	252.5
522.621	121.5
522.836	104.5
523.052	91.5
523.267	92.5
523.482	102.5
523.698	98.5
523.913	121.5
524.128	94.5
524.343	94.5
524.559	95.5
524.774	97.5
524.989	93.5
525.204	108.5
525.419	109.5
525.634	94.5
525.849	94.5
526.064	105.5
526.28	98.5
526.495	105.5
526.71	88.5
526.925	100.5
527.14	88.5
527.355	78.5
527.57	93.5
527.785	77.5
527.999	87.5
528.214	107.5
528.429	99.5
528.644	98.5
528.859	94.5
529.074	108.5
529.289	108.5
529.503	147.5
529.718	106.5
529.933	64.5
530.148	98.5
530.363	100.5
530.577	81.5
530.792	107.5
531.007	90.5
531.221	81.5
531.436	98.5
531.651	85.5
531.865	85.5
532.08	102.5
532.295	88.5
532.509	93.5
532.724	87.5
532.938	104.5
533.153	99.5
533.367	92.5
533.582	103.5
533.796	82.5
534.011	90.5
534.225	83.5
534.44	86.5
534.654	97.5
534.868	95.5
