Data from Uncirc_1989_H10_HRD10591_00093.txt Node
Date: Wed Jan 03 11:57:54 EST 2024
User: Yrep
Spectrometer: HR+D1059
Trigger mode: 1
Integration Time (sec): 1.000000E-1
Scans to average: 1
Electric dark correction enabled: true
Nonlinearity correction enabled: false
Boxcar width: 0
XAxis mode: Wavelengths
Number of Pixels in Spectrum: 2048
>>>>>Begin Spectral Data<<<<<
223.165	-16.25
223.4	-16.25
223.635	-16.25
223.869	-18.25
224.104	-14.25
224.338	-5.25
224.573	-19.25
224.808	-15.25
225.042	-8.25
225.277	-3.25
225.511	6.75
225.746	-6.25
225.98	1.75
226.215	9.75
226.449	10.75
226.683	15.75
226.918	26.75
227.152	34.75
227.387	43.75
227.621	43.75
227.856	35.75
228.09	39.75
228.324	60.75
228.559	58.75
228.793	62.75
229.027	60.75
229.262	68.75
229.496	79.75
229.73	78.75
229.964	82.75
230.199	71.75
230.433	80.75
230.667	69.75
230.901	72.75
231.136	70.75
231.37	78.75
231.604	90.75
231.838	80.75
232.072	81.75
232.306	100.75
232.541	92.75
232.775	84.75
233.009	71.75
233.243	95.75
233.477	95.75
233.711	79.75
233.945	83.75
234.179	68.75
234.413	83.75
234.647	86.75
234.881	76.75
235.115	79.75
235.349	80.75
235.583	64.75
235.817	85.75
236.051	94.75
236.285	73.75
236.519	77.75
236.753	88.75
236.987	86.75
237.221	78.75
237.455	81.75
237.689	75.75
237.922	75.75
238.156	75.75
238.39	73.75
238.624	78.75
238.858	82.75
239.091	76.75
239.325	82.75
239.559	74.75
239.793	86.75
240.027	93.75
240.26	78.75
240.494	65.75
240.728	84.75
240.961	86.75
241.195	82.75
241.429	69.75
241.662	76.75
241.896	75.75
242.13	94.75
242.363	78.75
242.597	96.75
242.83	75.75
243.064	79.75
243.298	71.75
243.531	72.75
243.765	78.75
243.998	86.75
244.232	76.75
244.465	92.75
244.699	81.75
244.932	82.75
245.166	73.75
245.399	54.75
245.633	74.75
245.866	80.75
246.099	94.75
246.333	87.75
246.566	78.75
246.8	82.75
247.033	83.75
247.266	85.75
247.5	71.75
247.733	80.75
247.966	84.75
248.2	76.75
248.433	84.75
248.666	73.75
248.899	95.75
249.133	79.75
249.366	75.75
249.599	97.75
249.832	85.75
250.066	69.75
250.299	84.75
250.532	76.75
250.765	100.75
250.998	88.75
251.231	90.75
251.465	70.75
251.698	86.75
251.931	75.75
252.164	90.75
252.397	86.75
252.63	86.75
252.863	79.75
253.096	79.75
253.329	84.75
253.562	98.75
253.795	83.75
254.028	81.75
254.261	78.75
254.494	79.75
254.727	83.75
254.96	81.75
255.193	74.75
255.426	73.75
255.659	81.75
255.892	98.75
256.124	82.75
256.357	95.75
256.59	90.75
256.823	90.75
257.056	81.75
257.289	94.75
257.521	79.75
257.754	81.75
257.987	67.75
258.22	85.75
258.452	78.75
258.685	81.75
258.918	72.75
259.151	76.75
259.383	75.75
259.616	88.75
259.849	75.75
260.081	82.75
260.314	78.75
260.547	90.75
260.779	76.75
261.012	93.75
261.244	78.75
261.477	75.75
261.71	90.75
261.942	85.75
262.175	100.75
262.407	82.75
262.64	78.75
262.872	88.75
263.105	89.75
263.337	71.75
263.57	71.75
263.802	82.75
264.035	85.75
264.267	100.75
264.499	82.75
264.732	75.75
264.964	73.75
265.197	87.75
265.429	87.75
265.661	81.75
265.894	89.75
266.126	94.75
266.358	79.75
266.591	82.75
266.823	78.75
267.055	85.75
267.287	87.75
267.52	80.75
267.752	98.75
267.984	84.75
268.216	87.75
268.448	101.75
268.681	79.75
268.913	94.75
269.145	89.75
269.377	85.75
269.609	78.75
269.841	81.75
270.073	85.75
270.306	82.75
270.538	87.75
270.77	76.75
271.002	79.75
271.234	90.75
271.466	81.75
271.698	82.75
271.93	86.75
272.162	82.75
272.394	96.75
272.626	78.75
272.858	75.75
273.09	80.75
273.322	74.75
273.553	92.75
273.785	101.75
274.017	93.75
274.249	73.75
274.481	93.75
274.713	88.75
274.945	88.75
275.176	80.75
275.408	78.75
275.64	100.75
275.872	92.75
276.104	80.75
276.335	103.75
276.567	100.75
276.799	84.75
277.031	99.75
277.262	107.75
277.494	86.75
277.726	80.75
277.957	83.75
278.189	82.75
278.421	89.75
278.652	86.75
278.884	99.75
279.115	80.75
279.347	70.75
279.579	98.75
279.81	97.75
280.042	102.75
280.273	99.75
280.505	88.75
280.736	102.75
280.968	75.75
281.199	82.75
281.431	85.75
281.662	99.75
281.894	92.75
282.125	96.75
282.356	107.75
282.588	126.75
282.819	99.75
283.051	85.75
283.282	74.75
283.513	87.75
283.745	93.75
283.976	76.75
284.207	76.75
284.439	101.75
284.67	85.75
284.901	87.75
285.132	99.75
285.364	96.75
285.595	102.75
285.826	82.75
286.057	88.75
286.288	86.75
286.52	93.75
286.751	83.75
286.982	92.75
287.213	89.75
287.444	99.75
287.675	102.75
287.906	94.75
288.138	91.75
288.369	107.75
288.6	88.75
288.831	68.75
289.062	92.75
289.293	95.75
289.524	89.75
289.755	86.75
289.986	68.75
290.217	80.75
290.448	90.75
290.679	91.75
290.91	82.75
291.141	90.75
291.371	90.75
291.602	110.75
291.833	87.75
292.064	85.75
292.295	93.75
292.526	85.75
292.757	82.75
292.987	88.75
293.218	105.75
293.449	72.75
293.68	94.75
293.91	90.75
294.141	84.75
294.372	97.75
294.603	88.75
294.833	80.75
295.064	94.75
295.295	91.75
295.525	87.75
295.756	110.75
295.987	105.75
296.217	113.75
296.448	103.75
296.679	92.75
296.909	85.75
297.14	92.75
297.37	106.75
297.601	102.75
297.831	82.75
298.062	85.75
298.292	84.75
298.523	86.75
298.753	91.75
298.984	85.75
299.214	82.75
299.445	84.75
299.675	95.75
299.905	89.75
300.136	103.75
300.366	100.75
300.597	96.75
300.827	95.75
301.057	112.75
301.288	84.75
301.518	100.75
301.748	87.75
301.979	107.75
302.209	83.75
302.439	90.75
302.669	86.75
302.9	87.75
303.13	89.75
303.36	89.75
303.59	98.75
303.82	91.75
304.051	96.75
304.281	85.75
304.511	72.75
304.741	91.75
304.971	102.75
305.201	88.75
305.431	84.75
305.661	83.75
305.891	81.75
306.121	105.75
306.352	92.75
306.582	100.75
306.812	88.75
307.042	96.75
307.272	98.75
307.502	108.75
307.731	100.75
307.961	99.75
308.191	92.75
308.421	84.75
308.651	90.75
308.881	89.75
309.111	100.75
309.341	94.75
309.571	99.75
309.8	87.75
310.03	117.75
310.26	103.75
310.49	95.75
310.72	92.75
310.949	111.75
311.179	99.75
311.409	100.75
311.639	110.75
311.868	107.75
312.098	85.75
312.328	94.75
312.557	98.75
312.787	91.75
313.017	103.75
313.246	92.75
313.476	106.75
313.706	82.75
313.935	85.75
314.165	99.75
314.394	98.75
314.624	103.75
314.853	90.75
315.083	83.75
315.312	92.75
315.542	88.75
315.771	104.75
316.001	95.75
316.23	80.75
316.46	91.75
316.689	78.75
316.919	106.75
317.148	87.75
317.377	87.75
317.607	112.75
317.836	96.75
318.065	98.75
318.295	98.75
318.524	101.75
318.753	105.75
318.983	99.75
319.212	88.75
319.441	102.75
319.67	102.75
319.9	97.75
320.129	97.75
320.358	94.75
320.587	90.75
320.816	89.75
321.046	98.75
321.275	98.75
321.504	100.75
321.733	101.75
321.962	101.75
322.191	99.75
322.42	103.75
322.649	90.75
322.878	97.75
323.108	107.75
323.337	116.75
323.566	120.75
323.795	155.75
324.024	181.75
324.253	336.75
324.482	675.75
324.71	1387.75
324.939	1782.75
325.168	649.75
325.397	224.75
325.626	144.75
325.855	136.75
326.084	114.75
326.313	121.75
326.542	138.75
326.77	204.75
326.999	374.75
327.228	786.75
327.457	1443.75
327.686	1137.75
327.914	325.75
328.143	194.75
328.372	187.75
328.6	137.75
328.829	113.75
329.058	124.75
329.287	116.75
329.515	115.75
329.744	119.75
329.972	151.75
330.201	212.75
330.43	243.75
330.658	147.75
330.887	129.75
331.115	125.75
331.344	98.75
331.572	89.75
331.801	106.75
332.03	96.75
332.258	103.75
332.486	89.75
332.715	95.75
332.943	100.75
333.172	102.75
333.4	110.75
333.629	120.75
333.857	134.75
334.085	134.75
334.314	204.75
334.542	320.75
334.771	278.75
334.999	135.75
335.227	106.75
335.455	107.75
335.684	111.75
335.912	98.75
336.14	100.75
336.369	99.75
336.597	83.75
336.825	94.75
337.053	95.75
337.281	101.75
337.51	88.75
337.738	107.75
337.966	101.75
338.194	91.75
338.422	89.75
338.65	95.75
338.878	93.75
339.106	84.75
339.334	88.75
339.562	87.75
339.79	86.75
340.018	92.75
340.246	92.75
340.474	96.75
340.702	103.75
340.93	95.75
341.158	94.75
341.386	100.75
341.614	88.75
341.842	87.75
342.07	81.75
342.298	100.75
342.526	80.75
342.754	84.75
342.981	83.75
343.209	80.75
343.437	99.75
343.665	89.75
343.893	95.75
344.12	107.75
344.348	103.75
344.576	88.75
344.804	85.75
345.031	103.75
345.259	115.75
345.487	102.75
345.714	103.75
345.942	89.75
346.17	89.75
346.397	108.75
346.625	81.75
346.853	92.75
347.08	94.75
347.308	107.75
347.535	93.75
347.763	100.75
347.99	113.75
348.218	106.75
348.445	100.75
348.673	109.75
348.9	101.75
349.128	101.75
349.355	94.75
349.583	90.75
349.81	94.75
350.037	95.75
350.265	87.75
350.492	96.75
350.72	91.75
350.947	99.75
351.174	98.75
351.402	95.75
351.629	98.75
351.856	108.75
352.083	92.75
352.311	109.75
352.538	95.75
352.765	84.75
352.992	108.75
353.22	97.75
353.447	87.75
353.674	107.75
353.901	105.75
354.128	112.75
354.355	100.75
354.583	108.75
354.81	90.75
355.037	98.75
355.264	98.75
355.491	92.75
355.718	89.75
355.945	97.75
356.172	117.75
356.399	116.75
356.626	100.75
356.853	88.75
357.08	98.75
357.307	105.75
357.534	96.75
357.761	104.75
357.988	95.75
358.215	111.75
358.441	96.75
358.668	93.75
358.895	91.75
359.122	91.75
359.349	87.75
359.576	108.75
359.802	88.75
360.029	93.75
360.256	94.75
360.483	100.75
360.709	96.75
360.936	99.75
361.163	89.75
361.39	87.75
361.616	97.75
361.843	91.75
362.07	103.75
362.296	103.75
362.523	73.75
362.749	103.75
362.976	87.75
363.203	98.75
363.429	95.75
363.656	99.75
363.882	90.75
364.109	98.75
364.335	88.75
364.562	91.75
364.788	78.75
365.015	86.75
365.241	85.75
365.468	94.75
365.694	102.75
365.92	113.75
366.147	95.75
366.373	91.75
366.599	86.75
366.826	93.75
367.052	87.75
367.278	96.75
367.505	86.75
367.731	101.75
367.957	93.75
368.184	98.75
368.41	116.75
368.636	110.75
368.862	112.75
369.089	105.75
369.315	86.75
369.541	102.75
369.767	95.75
369.993	100.75
370.219	97.75
370.445	103.75
370.672	86.75
370.898	78.75
371.124	99.75
371.35	80.75
371.576	92.75
371.802	95.75
372.028	88.75
372.254	76.75
372.48	95.75
372.706	100.75
372.932	98.75
373.158	106.75
373.384	94.75
373.61	92.75
373.835	76.75
374.061	85.75
374.287	95.75
374.513	82.75
374.739	88.75
374.965	83.75
375.191	96.75
375.416	94.75
375.642	89.75
375.868	97.75
376.094	88.75
376.319	101.75
376.545	96.75
376.771	99.75
376.997	89.75
377.222	85.75
377.448	91.75
377.674	76.75
377.899	86.75
378.125	88.75
378.35	94.75
378.576	98.75
378.802	96.75
379.027	95.75
379.253	92.75
379.478	97.75
379.704	90.75
379.929	98.75
380.155	107.75
380.38	95.75
380.606	83.75
380.831	99.75
381.057	92.75
381.282	91.75
381.507	97.75
381.733	104.75
381.958	101.75
382.184	99.75
382.409	87.75
382.634	98.75
382.86	98.75
383.085	89.75
383.31	91.75
383.535	111.75
383.761	111.75
383.986	96.75
384.211	105.75
384.436	89.75
384.662	97.75
384.887	89.75
385.112	103.75
385.337	106.75
385.562	102.75
385.787	102.75
386.013	104.75
386.238	106.75
386.463	107.75
386.688	103.75
386.913	95.75
387.138	96.75
387.363	96.75
387.588	111.75
387.813	92.75
388.038	114.75
388.263	111.75
388.488	98.75
388.713	97.75
388.938	91.75
389.163	87.75
389.387	99.75
389.612	106.75
389.837	88.75
390.062	105.75
390.287	100.75
390.512	96.75
390.736	87.75
390.961	82.75
391.186	98.75
391.411	98.75
391.636	91.75
391.86	90.75
392.085	87.75
392.31	100.75
392.534	66.75
392.759	79.75
392.984	90.75
393.208	82.75
393.433	92.75
393.658	92.75
393.882	89.75
394.107	104.75
394.331	78.75
394.556	98.75
394.78	92.75
395.005	79.75
395.229	97.75
395.454	100.75
395.678	95.75
395.903	78.75
396.127	95.75
396.352	85.75
396.576	94.75
396.801	78.75
397.025	100.75
397.249	76.75
397.474	95.75
397.698	92.75
397.922	100.75
398.147	89.75
398.371	81.75
398.595	81.75
398.82	66.75
399.044	86.75
399.268	93.75
399.492	88.75
399.717	90.75
399.941	91.75
400.165	93.75
400.389	85.75
400.613	75.75
400.837	78.75
401.062	83.75
401.286	88.75
401.51	96.75
401.734	87.75
401.958	97.75
402.182	111.75
402.406	129.75
402.63	107.75
402.854	106.75
403.078	84.75
403.302	81.75
403.526	95.75
403.75	89.75
403.974	90.75
404.198	96.75
404.422	78.75
404.645	84.75
404.869	79.75
405.093	109.75
405.317	101.75
405.541	100.75
405.765	98.75
405.988	108.75
406.212	130.75
406.436	193.75
406.66	127.75
406.883	88.75
407.107	101.75
407.331	105.75
407.555	97.75
407.778	105.75
408.002	89.75
408.226	100.75
408.449	90.75
408.673	92.75
408.896	104.75
409.12	82.75
409.344	95.75
409.567	92.75
409.791	87.75
410.014	99.75
410.238	82.75
410.461	104.75
410.685	95.75
410.908	94.75
411.132	116.75
411.355	103.75
411.578	95.75
411.802	91.75
412.025	91.75
412.249	92.75
412.472	107.75
412.695	103.75
412.919	88.75
413.142	95.75
413.365	92.75
413.589	93.75
413.812	90.75
414.035	105.75
414.258	96.75
414.482	89.75
414.705	88.75
414.928	78.75
415.151	90.75
415.374	100.75
415.597	88.75
415.821	106.75
416.044	85.75
416.267	83.75
416.49	72.75
416.713	73.75
416.936	88.75
417.159	82.75
417.382	86.75
417.605	96.75
417.828	94.75
418.051	102.75
418.274	86.75
418.497	98.75
418.72	95.75
418.943	97.75
419.166	91.75
419.389	94.75
419.611	91.75
419.834	81.75
420.057	90.75
420.28	83.75
420.503	81.75
420.726	93.75
420.948	84.75
421.171	88.75
421.394	83.75
421.617	97.75
421.839	90.75
422.062	102.75
422.285	94.75
422.507	101.75
422.73	96.75
422.953	86.75
423.175	84.75
423.398	101.75
423.621	96.75
423.843	82.75
424.066	99.75
424.288	82.75
424.511	98.75
424.733	87.75
424.956	97.75
425.178	98.75
425.401	96.75
425.623	94.75
425.846	96.75
426.068	99.75
426.291	100.75
426.513	91.75
426.735	96.75
426.958	98.75
427.18	105.75
427.402	114.75
427.625	124.75
427.847	130.75
428.069	139.75
428.292	95.75
428.514	82.75
428.736	87.75
428.958	101.75
429.181	92.75
429.403	91.75
429.625	95.75
429.847	81.75
430.069	104.75
430.292	92.75
430.514	74.75
430.736	75.75
430.958	83.75
431.18	92.75
431.402	80.75
431.624	79.75
431.846	91.75
432.068	87.75
432.29	82.75
432.512	93.75
432.734	87.75
432.956	98.75
433.178	101.75
433.4	90.75
433.622	97.75
433.844	103.75
434.066	91.75
434.287	106.75
434.509	87.75
434.731	89.75
434.953	97.75
435.175	90.75
435.397	91.75
435.618	86.75
435.84	95.75
436.062	111.75
436.284	107.75
436.505	102.75
436.727	100.75
436.949	106.75
437.17	86.75
437.392	92.75
437.614	86.75
437.835	111.75
438.057	103.75
438.278	102.75
438.5	91.75
438.721	111.75
438.943	106.75
439.165	92.75
439.386	73.75
439.608	90.75
439.829	100.75
440.05	113.75
440.272	131.75
440.493	97.75
440.715	95.75
440.936	102.75
441.158	95.75
441.379	91.75
441.6	91.75
441.822	103.75
442.043	94.75
442.264	88.75
442.486	104.75
442.707	90.75
442.928	104.75
443.149	115.75
443.371	114.75
443.592	105.75
443.813	114.75
444.034	101.75
444.255	89.75
444.476	88.75
444.698	93.75
444.919	81.75
445.14	138.75
445.361	129.75
445.582	102.75
445.803	111.75
446.024	120.75
446.245	121.75
446.466	118.75
446.687	86.75
446.908	92.75
447.129	97.75
447.35	99.75
447.571	99.75
447.792	97.75
448.013	99.75
448.234	101.75
448.455	102.75
448.675	107.75
448.896	96.75
449.117	97.75
449.338	98.75
449.559	118.75
449.779	112.75
450	100.75
450.221	91.75
450.442	99.75
450.662	88.75
450.883	99.75
451.104	83.75
451.324	87.75
451.545	82.75
451.766	96.75
451.986	87.75
452.207	98.75
452.428	97.75
452.648	100.75
452.869	113.75
453.089	109.75
453.31	100.75
453.53	94.75
453.751	90.75
453.971	100.75
454.192	110.75
454.412	99.75
454.633	95.75
454.853	87.75
455.073	75.75
455.294	72.75
455.514	79.75
455.734	91.75
455.955	95.75
456.175	97.75
456.395	91.75
456.616	95.75
456.836	83.75
457.056	81.75
457.276	100.75
457.497	86.75
457.717	100.75
457.937	91.75
458.157	92.75
458.377	97.75
458.598	102.75
458.818	126.75
459.038	132.75
459.258	109.75
459.478	92.75
459.698	84.75
459.918	95.75
460.138	85.75
460.358	93.75
460.578	93.75
460.798	96.75
461.018	74.75
461.238	99.75
461.458	102.75
461.678	106.75
461.898	97.75
462.118	90.75
462.338	83.75
462.558	88.75
462.777	75.75
462.997	82.75
463.217	79.75
463.437	92.75
463.657	96.75
463.876	89.75
464.096	91.75
464.316	87.75
464.536	105.75
464.755	86.75
464.975	110.75
465.195	139.75
465.414	125.75
465.634	100.75
465.854	96.75
466.073	79.75
466.293	97.75
466.512	91.75
466.732	83.75
466.951	94.75
467.171	100.75
467.391	99.75
467.61	109.75
467.829	108.75
468.049	154.75
468.268	188.75
468.488	112.75
468.707	84.75
468.927	95.75
469.146	87.75
469.365	99.75
469.585	75.75
469.804	104.75
470.023	96.75
470.243	99.75
470.462	99.75
470.681	98.75
470.901	90.75
471.12	103.75
471.339	93.75
471.558	87.75
471.777	101.75
471.997	120.75
472.216	226.75
472.435	407.75
472.654	158.75
472.873	107.75
473.092	111.75
473.311	84.75
473.53	89.75
473.749	87.75
473.968	80.75
474.187	94.75
474.406	89.75
474.625	79.75
474.844	93.75
475.063	82.75
475.282	91.75
475.501	88.75
475.72	91.75
475.939	94.75
476.158	83.75
476.377	84.75
476.596	102.75
476.814	96.75
477.033	95.75
477.252	87.75
477.471	90.75
477.69	80.75
477.908	90.75
478.127	87.75
478.346	89.75
478.564	88.75
478.783	90.75
479.002	102.75
479.22	92.75
479.439	101.75
479.658	88.75
479.876	93.75
480.095	97.75
480.313	93.75
480.532	95.75
480.751	126.75
480.969	231.75
481.188	687.75
481.406	412.75
481.624	128.75
481.843	109.75
482.061	87.75
482.28	86.75
482.498	97.75
482.717	98.75
482.935	91.75
483.153	95.75
483.372	88.75
483.59	82.75
483.808	88.75
484.027	89.75
484.245	90.75
484.463	92.75
484.681	97.75
484.9	101.75
485.118	86.75
485.336	96.75
485.554	89.75
485.772	102.75
485.99	95.75
486.209	103.75
486.427	108.75
486.645	101.75
486.863	109.75
487.081	93.75
487.299	89.75
487.517	93.75
487.735	95.75
487.953	84.75
488.171	92.75
488.389	98.75
488.607	100.75
488.825	98.75
489.043	103.75
489.261	96.75
489.479	87.75
489.696	82.75
489.914	103.75
490.132	100.75
490.35	89.75
490.568	97.75
490.786	85.75
491.003	84.75
491.221	96.75
491.439	84.75
491.657	98.75
491.874	102.75
492.092	87.75
492.31	95.75
492.527	95.75
492.745	100.75
492.963	94.75
493.18	96.75
493.398	83.75
493.615	83.75
493.833	97.75
494.05	90.75
494.268	96.75
494.485	106.75
494.703	78.75
494.92	96.75
495.138	83.75
495.355	92.75
495.573	108.75
495.79	112.75
496.008	93.75
496.225	99.75
496.442	90.75
496.66	94.75
496.877	107.75
497.094	110.75
497.312	96.75
497.529	108.75
497.746	101.75
497.963	81.75
498.181	97.75
498.398	84.75
498.615	100.75
498.832	104.75
499.049	97.75
499.267	78.75
499.484	92.75
499.701	107.75
499.918	80.75
500.135	82.75
500.352	92.75
500.569	102.75
500.786	96.75
501.003	98.75
501.22	80.75
501.437	81.75
501.654	101.75
501.871	102.75
502.088	95.75
502.305	91.75
502.522	86.75
502.739	81.75
502.956	89.75
503.172	85.75
503.389	82.75
503.606	100.75
503.823	87.75
504.04	94.75
504.256	92.75
504.473	79.75
504.69	93.75
504.907	89.75
505.123	80.75
505.34	83.75
505.557	98.75
505.773	87.75
505.99	104.75
506.207	101.75
506.423	90.75
506.64	104.75
506.856	96.75
507.073	94.75
507.289	87.75
507.506	102.75
507.722	102.75
507.939	96.75
508.155	103.75
508.372	90.75
508.588	87.75
508.805	79.75
509.021	98.75
509.238	110.75
509.454	91.75
509.67	102.75
509.887	103.75
510.103	105.75
510.319	161.75
510.536	547.75
510.752	1572.75
510.968	460.75
511.184	123.75
511.401	111.75
511.617	80.75
511.833	95.75
512.049	99.75
512.265	100.75
512.481	88.75
512.698	90.75
512.914	94.75
513.13	96.75
513.346	106.75
513.562	100.75
513.778	100.75
513.994	96.75
514.21	96.75
514.426	94.75
514.642	127.75
514.858	116.75
515.074	143.75
