Data from Uncirc_1989_H10_HRD10591_00076.txt Node
Date: Wed Jan 03 11:57:50 EST 2024
User: Yrep
Spectrometer: HR+D1059
Trigger mode: 1
Integration Time (sec): 1.000000E-1
Scans to average: 1
Electric dark correction enabled: true
Nonlinearity correction enabled: false
Boxcar width: 0
XAxis mode: Wavelengths
Number of Pixels in Spectrum: 2048
>>>>>Begin Spectral Data<<<<<
223.165	-16.44
223.4	-16.44
223.635	-16.44
223.869	-30.44
224.104	-8.44
224.338	-25.44
224.573	-15.44
224.808	-27.44
225.042	-3.44
225.277	-1.44
225.511	-5.44
225.746	7.56
225.98	6.56
226.215	17.56
226.449	30.56
226.683	16.56
226.918	26.56
227.152	28.56
227.387	29.56
227.621	45.56
227.856	40.56
228.09	53.56
228.324	40.56
228.559	61.56
228.793	58.56
229.027	44.56
229.262	60.56
229.496	45.56
229.73	68.56
229.964	80.56
230.199	65.56
230.433	68.56
230.667	78.56
230.901	61.56
231.136	79.56
231.37	83.56
231.604	92.56
231.838	70.56
232.072	83.56
232.306	74.56
232.541	87.56
232.775	88.56
233.009	81.56
233.243	81.56
233.477	61.56
233.711	69.56
233.945	84.56
234.179	78.56
234.413	87.56
234.647	72.56
234.881	76.56
235.115	77.56
235.349	74.56
235.583	93.56
235.817	69.56
236.051	57.56
236.285	79.56
236.519	71.56
236.753	76.56
236.987	89.56
237.221	68.56
237.455	89.56
237.689	72.56
237.922	82.56
238.156	70.56
238.39	55.56
238.624	74.56
238.858	62.56
239.091	71.56
239.325	66.56
239.559	75.56
239.793	78.56
240.027	79.56
240.26	74.56
240.494	79.56
240.728	93.56
240.961	65.56
241.195	76.56
241.429	80.56
241.662	74.56
241.896	77.56
242.13	87.56
242.363	64.56
242.597	64.56
242.83	71.56
243.064	71.56
243.298	67.56
243.531	69.56
243.765	80.56
243.998	80.56
244.232	86.56
244.465	84.56
244.699	79.56
244.932	76.56
245.166	83.56
245.399	80.56
245.633	83.56
245.866	78.56
246.099	77.56
246.333	94.56
246.566	85.56
246.8	88.56
247.033	76.56
247.266	67.56
247.5	74.56
247.733	85.56
247.966	70.56
248.2	91.56
248.433	83.56
248.666	102.56
248.899	82.56
249.133	91.56
249.366	92.56
249.599	95.56
249.832	92.56
250.066	71.56
250.299	74.56
250.532	74.56
250.765	78.56
250.998	89.56
251.231	76.56
251.465	88.56
251.698	77.56
251.931	83.56
252.164	84.56
252.397	80.56
252.63	82.56
252.863	81.56
253.096	67.56
253.329	72.56
253.562	76.56
253.795	80.56
254.028	78.56
254.261	78.56
254.494	77.56
254.727	70.56
254.96	79.56
255.193	68.56
255.426	77.56
255.659	74.56
255.892	71.56
256.124	78.56
256.357	69.56
256.59	86.56
256.823	86.56
257.056	94.56
257.289	70.56
257.521	74.56
257.754	85.56
257.987	74.56
258.22	93.56
258.452	83.56
258.685	76.56
258.918	77.56
259.151	78.56
259.383	90.56
259.616	74.56
259.849	94.56
260.081	81.56
260.314	91.56
260.547	82.56
260.779	81.56
261.012	84.56
261.244	94.56
261.477	99.56
261.71	89.56
261.942	108.56
262.175	115.56
262.407	97.56
262.64	74.56
262.872	91.56
263.105	88.56
263.337	85.56
263.57	87.56
263.802	72.56
264.035	86.56
264.267	68.56
264.499	93.56
264.732	76.56
264.964	80.56
265.197	70.56
265.429	85.56
265.661	77.56
265.894	70.56
266.126	100.56
266.358	99.56
266.591	80.56
266.823	88.56
267.055	74.56
267.287	77.56
267.52	86.56
267.752	80.56
267.984	84.56
268.216	81.56
268.448	99.56
268.681	83.56
268.913	80.56
269.145	87.56
269.377	82.56
269.609	94.56
269.841	99.56
270.073	74.56
270.306	85.56
270.538	75.56
270.77	86.56
271.002	82.56
271.234	94.56
271.466	102.56
271.698	102.56
271.93	76.56
272.162	70.56
272.394	96.56
272.626	96.56
272.858	90.56
273.09	73.56
273.322	90.56
273.553	75.56
273.785	77.56
274.017	90.56
274.249	91.56
274.481	91.56
274.713	92.56
274.945	79.56
275.176	79.56
275.408	100.56
275.64	82.56
275.872	80.56
276.104	79.56
276.335	94.56
276.567	89.56
276.799	105.56
277.031	96.56
277.262	95.56
277.494	90.56
277.726	83.56
277.957	75.56
278.189	82.56
278.421	81.56
278.652	76.56
278.884	85.56
279.115	73.56
279.347	85.56
279.579	83.56
279.81	93.56
280.042	92.56
280.273	100.56
280.505	92.56
280.736	91.56
280.968	90.56
281.199	85.56
281.431	83.56
281.662	80.56
281.894	86.56
282.125	90.56
282.356	80.56
282.588	130.56
282.819	103.56
283.051	92.56
283.282	83.56
283.513	95.56
283.745	83.56
283.976	64.56
284.207	74.56
284.439	78.56
284.67	97.56
284.901	103.56
285.132	91.56
285.364	85.56
285.595	83.56
285.826	84.56
286.057	99.56
286.288	81.56
286.52	81.56
286.751	71.56
286.982	102.56
287.213	82.56
287.444	95.56
287.675	87.56
287.906	72.56
288.138	80.56
288.369	102.56
288.6	89.56
288.831	75.56
289.062	79.56
289.293	90.56
289.524	88.56
289.755	94.56
289.986	84.56
290.217	90.56
290.448	76.56
290.679	97.56
290.91	102.56
291.141	77.56
291.371	85.56
291.602	87.56
291.833	86.56
292.064	88.56
292.295	102.56
292.526	85.56
292.757	87.56
292.987	85.56
293.218	95.56
293.449	92.56
293.68	89.56
293.91	92.56
294.141	90.56
294.372	86.56
294.603	84.56
294.833	82.56
295.064	75.56
295.295	88.56
295.525	88.56
295.756	95.56
295.987	109.56
296.217	108.56
296.448	107.56
296.679	87.56
296.909	73.56
297.14	98.56
297.37	89.56
297.601	95.56
297.831	91.56
298.062	89.56
298.292	80.56
298.523	92.56
298.753	103.56
298.984	92.56
299.214	87.56
299.445	95.56
299.675	82.56
299.905	96.56
300.136	94.56
300.366	93.56
300.597	92.56
300.827	88.56
301.057	95.56
301.288	93.56
301.518	91.56
301.748	86.56
301.979	97.56
302.209	94.56
302.439	80.56
302.669	88.56
302.9	82.56
303.13	97.56
303.36	92.56
303.59	89.56
303.82	84.56
304.051	95.56
304.281	99.56
304.511	93.56
304.741	77.56
304.971	90.56
305.201	91.56
305.431	96.56
305.661	84.56
305.891	78.56
306.121	98.56
306.352	86.56
306.582	107.56
306.812	91.56
307.042	91.56
307.272	100.56
307.502	100.56
307.731	100.56
307.961	87.56
308.191	78.56
308.421	95.56
308.651	90.56
308.881	84.56
309.111	94.56
309.341	95.56
309.571	100.56
309.8	85.56
310.03	87.56
310.26	93.56
310.49	87.56
310.72	108.56
310.949	100.56
311.179	103.56
311.409	87.56
311.639	92.56
311.868	85.56
312.098	85.56
312.328	92.56
312.557	93.56
312.787	87.56
313.017	83.56
313.246	92.56
313.476	89.56
313.706	87.56
313.935	85.56
314.165	86.56
314.394	97.56
314.624	95.56
314.853	86.56
315.083	90.56
315.312	92.56
315.542	103.56
315.771	92.56
316.001	99.56
316.23	99.56
316.46	84.56
316.689	95.56
316.919	82.56
317.148	87.56
317.377	91.56
317.607	100.56
317.836	97.56
318.065	83.56
318.295	88.56
318.524	85.56
318.753	101.56
318.983	88.56
319.212	97.56
319.441	114.56
319.67	87.56
319.9	104.56
320.129	83.56
320.358	88.56
320.587	81.56
320.816	85.56
321.046	75.56
321.275	87.56
321.504	102.56
321.733	93.56
321.962	89.56
322.191	98.56
322.42	99.56
322.649	106.56
322.878	103.56
323.108	109.56
323.337	112.56
323.566	131.56
323.795	131.56
324.024	192.56
324.253	335.56
324.482	686.56
324.71	1430.56
324.939	1918.56
325.168	706.56
325.397	214.56
325.626	127.56
325.855	127.56
326.084	116.56
326.313	110.56
326.542	137.56
326.77	210.56
326.999	392.56
327.228	818.56
327.457	1527.56
327.686	1168.56
327.914	334.56
328.143	207.56
328.372	171.56
328.6	118.56
328.829	108.56
329.058	107.56
329.287	109.56
329.515	110.56
329.744	95.56
329.972	122.56
330.201	197.56
330.43	219.56
330.658	155.56
330.887	126.56
331.115	123.56
331.344	103.56
331.572	98.56
331.801	97.56
332.03	103.56
332.258	93.56
332.486	93.56
332.715	79.56
332.943	94.56
333.172	101.56
333.4	96.56
333.629	95.56
333.857	127.56
334.085	151.56
334.314	182.56
334.542	263.56
334.771	238.56
334.999	127.56
335.227	103.56
335.455	90.56
335.684	88.56
335.912	82.56
336.14	100.56
336.369	93.56
336.597	101.56
336.825	90.56
337.053	85.56
337.281	88.56
337.51	92.56
337.738	83.56
337.966	98.56
338.194	109.56
338.422	104.56
338.65	90.56
338.878	92.56
339.106	91.56
339.334	81.56
339.562	94.56
339.79	82.56
340.018	108.56
340.246	100.56
340.474	86.56
340.702	88.56
340.93	101.56
341.158	92.56
341.386	87.56
341.614	101.56
341.842	88.56
342.07	79.56
342.298	83.56
342.526	90.56
342.754	77.56
342.981	86.56
343.209	90.56
343.437	96.56
343.665	100.56
343.893	102.56
344.12	102.56
344.348	96.56
344.576	89.56
344.804	84.56
345.031	92.56
345.259	84.56
345.487	90.56
345.714	88.56
345.942	91.56
346.17	97.56
346.397	86.56
346.625	94.56
346.853	94.56
347.08	81.56
347.308	86.56
347.535	86.56
347.763	93.56
347.99	92.56
348.218	95.56
348.445	95.56
348.673	110.56
348.9	101.56
349.128	98.56
349.355	91.56
349.583	96.56
349.81	82.56
350.037	85.56
350.265	88.56
350.492	97.56
350.72	103.56
350.947	102.56
351.174	104.56
351.402	107.56
351.629	97.56
351.856	91.56
352.083	98.56
352.311	103.56
352.538	97.56
352.765	108.56
352.992	110.56
353.22	97.56
353.447	110.56
353.674	95.56
353.901	106.56
354.128	111.56
354.355	92.56
354.583	92.56
354.81	101.56
355.037	85.56
355.264	96.56
355.491	78.56
355.718	80.56
355.945	94.56
356.172	103.56
356.399	92.56
356.626	66.56
356.853	87.56
357.08	79.56
357.307	99.56
357.534	96.56
357.761	94.56
357.988	92.56
358.215	111.56
358.441	90.56
358.668	91.56
358.895	81.56
359.122	89.56
359.349	87.56
359.576	96.56
359.802	98.56
360.029	101.56
360.256	110.56
360.483	85.56
360.709	78.56
360.936	88.56
361.163	86.56
361.39	94.56
361.616	99.56
361.843	98.56
362.07	97.56
362.296	99.56
362.523	85.56
362.749	94.56
362.976	94.56
363.203	80.56
363.429	89.56
363.656	108.56
363.882	98.56
364.109	75.56
364.335	89.56
364.562	83.56
364.788	89.56
365.015	81.56
365.241	82.56
365.468	100.56
365.694	98.56
365.92	94.56
366.147	81.56
366.373	79.56
366.599	98.56
366.826	94.56
367.052	104.56
367.278	97.56
367.505	100.56
367.731	78.56
367.957	90.56
368.184	91.56
368.41	91.56
368.636	110.56
368.862	121.56
369.089	93.56
369.315	94.56
369.541	94.56
369.767	72.56
369.993	88.56
370.219	90.56
370.445	76.56
370.672	80.56
370.898	96.56
371.124	78.56
371.35	90.56
371.576	91.56
371.802	96.56
372.028	107.56
372.254	109.56
372.48	85.56
372.706	94.56
372.932	85.56
373.158	74.56
373.384	91.56
373.61	95.56
373.835	98.56
374.061	99.56
374.287	80.56
374.513	94.56
374.739	90.56
374.965	79.56
375.191	87.56
375.416	94.56
375.642	90.56
375.868	103.56
376.094	80.56
376.319	86.56
376.545	96.56
376.771	94.56
376.997	99.56
377.222	85.56
377.448	84.56
377.674	86.56
377.899	101.56
378.125	80.56
378.35	87.56
378.576	95.56
378.802	88.56
379.027	81.56
379.253	104.56
379.478	80.56
379.704	97.56
379.929	106.56
380.155	94.56
380.38	93.56
380.606	92.56
380.831	98.56
381.057	100.56
381.282	94.56
381.507	85.56
381.733	83.56
381.958	99.56
382.184	94.56
382.409	89.56
382.634	104.56
382.86	93.56
383.085	101.56
383.31	94.56
383.535	104.56
383.761	101.56
383.986	90.56
384.211	90.56
384.436	106.56
384.662	88.56
384.887	91.56
385.112	79.56
385.337	92.56
385.562	80.56
385.787	100.56
386.013	110.56
386.238	97.56
386.463	103.56
386.688	101.56
386.913	97.56
387.138	96.56
387.363	113.56
387.588	102.56
387.813	98.56
388.038	101.56
388.263	101.56
388.488	101.56
388.713	96.56
388.938	86.56
389.163	101.56
389.387	94.56
389.612	99.56
389.837	92.56
390.062	93.56
390.287	81.56
390.512	102.56
390.736	98.56
390.961	87.56
391.186	82.56
391.411	86.56
391.636	94.56
391.86	84.56
392.085	101.56
392.31	66.56
392.534	83.56
392.759	83.56
392.984	69.56
393.208	81.56
393.433	94.56
393.658	93.56
393.882	84.56
394.107	83.56
394.331	70.56
394.556	90.56
394.78	96.56
395.005	86.56
395.229	80.56
395.454	98.56
395.678	95.56
395.903	90.56
396.127	85.56
396.352	74.56
396.576	85.56
396.801	99.56
397.025	97.56
397.249	94.56
397.474	98.56
397.698	90.56
397.922	76.56
398.147	81.56
398.371	82.56
398.595	84.56
398.82	94.56
399.044	87.56
399.268	79.56
399.492	90.56
399.717	84.56
399.941	81.56
400.165	98.56
400.389	86.56
400.613	86.56
400.837	88.56
401.062	83.56
401.286	93.56
401.51	92.56
401.734	92.56
401.958	102.56
402.182	114.56
402.406	130.56
402.63	107.56
402.854	95.56
403.078	78.56
403.302	80.56
403.526	86.56
403.75	94.56
403.974	96.56
404.198	89.56
404.422	87.56
404.645	90.56
404.869	95.56
405.093	84.56
405.317	94.56
405.541	91.56
405.765	93.56
405.988	107.56
406.212	142.56
406.436	178.56
406.66	120.56
406.883	109.56
407.107	93.56
407.331	95.56
407.555	92.56
407.778	90.56
408.002	98.56
408.226	69.56
408.449	83.56
408.673	91.56
408.896	97.56
409.12	100.56
409.344	92.56
409.567	95.56
409.791	87.56
410.014	84.56
410.238	90.56
410.461	96.56
410.685	98.56
410.908	100.56
411.132	83.56
411.355	85.56
411.578	104.56
411.802	85.56
412.025	81.56
412.249	80.56
412.472	101.56
412.695	95.56
412.919	90.56
413.142	101.56
413.365	91.56
413.589	87.56
413.812	96.56
414.035	86.56
414.258	90.56
414.482	88.56
414.705	101.56
414.928	84.56
415.151	87.56
415.374	85.56
415.597	71.56
415.821	78.56
416.044	91.56
416.267	78.56
416.49	80.56
416.713	92.56
416.936	93.56
417.159	88.56
417.382	83.56
417.605	85.56
417.828	101.56
418.051	91.56
418.274	83.56
418.497	86.56
418.72	85.56
418.943	87.56
419.166	85.56
419.389	91.56
419.611	78.56
419.834	89.56
420.057	78.56
420.28	80.56
420.503	98.56
420.726	76.56
420.948	89.56
421.171	87.56
421.394	96.56
421.617	86.56
421.839	101.56
422.062	87.56
422.285	88.56
422.507	107.56
422.73	96.56
422.953	104.56
423.175	85.56
423.398	93.56
423.621	77.56
423.843	82.56
424.066	96.56
424.288	85.56
424.511	95.56
424.733	86.56
424.956	87.56
425.178	93.56
425.401	89.56
425.623	90.56
425.846	89.56
426.068	101.56
426.291	82.56
426.513	93.56
426.735	91.56
426.958	75.56
427.18	112.56
427.402	131.56
427.625	138.56
427.847	126.56
428.069	124.56
428.292	94.56
428.514	87.56
428.736	88.56
428.958	75.56
429.181	71.56
429.403	91.56
429.625	78.56
429.847	79.56
430.069	109.56
430.292	100.56
430.514	86.56
430.736	72.56
430.958	92.56
431.18	67.56
431.402	79.56
431.624	78.56
431.846	83.56
432.068	87.56
432.29	80.56
432.512	96.56
432.734	76.56
432.956	96.56
433.178	86.56
433.4	91.56
433.622	79.56
433.844	99.56
434.066	103.56
434.287	84.56
434.509	82.56
434.731	75.56
434.953	81.56
435.175	94.56
435.397	84.56
435.618	87.56
435.84	93.56
436.062	104.56
436.284	110.56
436.505	94.56
436.727	100.56
436.949	91.56
437.17	89.56
437.392	93.56
437.614	92.56
437.835	97.56
438.057	103.56
438.278	99.56
438.5	86.56
438.721	110.56
438.943	99.56
439.165	99.56
439.386	95.56
439.608	82.56
439.829	107.56
440.05	116.56
440.272	125.56
440.493	91.56
440.715	107.56
440.936	80.56
441.158	83.56
441.379	79.56
441.6	87.56
441.822	90.56
442.043	101.56
442.264	91.56
442.486	99.56
442.707	100.56
442.928	100.56
443.149	106.56
443.371	124.56
443.592	90.56
443.813	95.56
444.034	106.56
444.255	84.56
444.476	83.56
444.698	79.56
444.919	89.56
445.14	127.56
445.361	120.56
445.582	104.56
445.803	125.56
446.024	123.56
446.245	133.56
446.466	113.56
446.687	78.56
446.908	97.56
447.129	86.56
447.35	80.56
447.571	86.56
447.792	93.56
448.013	97.56
448.234	114.56
448.455	98.56
448.675	109.56
448.896	109.56
449.117	96.56
449.338	97.56
449.559	107.56
449.779	114.56
450	104.56
450.221	93.56
450.442	99.56
450.662	80.56
450.883	86.56
451.104	102.56
451.324	92.56
451.545	90.56
451.766	83.56
451.986	70.56
452.207	86.56
452.428	86.56
452.648	93.56
452.869	109.56
453.089	104.56
453.31	103.56
453.53	84.56
453.751	88.56
453.971	107.56
454.192	100.56
454.412	88.56
454.633	80.56
454.853	84.56
455.073	90.56
455.294	80.56
455.514	88.56
455.734	87.56
455.955	79.56
456.175	86.56
456.395	89.56
456.616	85.56
456.836	87.56
457.056	91.56
457.276	92.56
457.497	102.56
457.717	77.56
457.937	83.56
458.157	85.56
458.377	76.56
458.598	94.56
458.818	120.56
459.038	128.56
459.258	119.56
459.478	103.56
459.698	90.56
459.918	96.56
460.138	83.56
460.358	99.56
460.578	86.56
460.798	82.56
461.018	92.56
461.238	84.56
461.458	87.56
461.678	81.56
461.898	79.56
462.118	78.56
462.338	63.56
462.558	66.56
462.777	89.56
462.997	70.56
463.217	81.56
463.437	86.56
463.657	84.56
463.876	70.56
464.096	74.56
464.316	100.56
464.536	81.56
464.755	82.56
464.975	98.56
465.195	138.56
465.414	122.56
465.634	101.56
465.854	94.56
466.073	85.56
466.293	89.56
466.512	94.56
466.732	96.56
466.951	87.56
467.171	83.56
467.391	100.56
467.61	100.56
467.829	103.56
468.049	127.56
468.268	141.56
468.488	85.56
468.707	86.56
468.927	77.56
469.146	88.56
469.365	94.56
469.585	95.56
469.804	98.56
470.023	104.56
470.243	96.56
470.462	103.56
470.681	101.56
470.901	103.56
471.12	99.56
471.339	91.56
471.558	102.56
471.777	90.56
471.997	94.56
472.216	195.56
472.435	324.56
472.654	134.56
472.873	98.56
473.092	100.56
473.311	82.56
473.53	82.56
473.749	86.56
473.968	75.56
474.187	91.56
474.406	79.56
474.625	95.56
474.844	86.56
475.063	80.56
475.282	89.56
475.501	74.56
475.72	87.56
475.939	87.56
476.158	82.56
476.377	93.56
476.596	88.56
476.814	90.56
477.033	90.56
477.252	90.56
477.471	77.56
477.69	83.56
477.908	90.56
478.127	103.56
478.346	81.56
478.564	93.56
478.783	94.56
479.002	94.56
479.22	89.56
479.439	96.56
479.658	99.56
479.876	80.56
480.095	78.56
480.313	92.56
480.532	90.56
480.751	114.56
480.969	207.56
481.188	578.56
481.406	359.56
481.624	104.56
481.843	89.56
482.061	84.56
482.28	102.56
482.498	85.56
482.717	90.56
482.935	81.56
483.153	91.56
483.372	86.56
483.59	81.56
483.808	79.56
484.027	92.56
484.245	79.56
484.463	96.56
484.681	99.56
484.9	86.56
485.118	93.56
485.336	95.56
485.554	84.56
485.772	84.56
485.99	86.56
486.209	100.56
486.427	115.56
486.645	119.56
486.863	109.56
487.081	102.56
487.299	82.56
487.517	87.56
487.735	81.56
487.953	99.56
488.171	91.56
488.389	86.56
488.607	78.56
488.825	78.56
489.043	104.56
489.261	85.56
489.479	85.56
489.696	96.56
489.914	98.56
490.132	90.56
490.35	91.56
490.568	86.56
490.786	99.56
491.003	96.56
491.221	108.56
491.439	90.56
491.657	84.56
491.874	74.56
492.092	86.56
492.31	106.56
492.527	90.56
492.745	101.56
492.963	107.56
493.18	89.56
493.398	83.56
493.615	100.56
493.833	98.56
494.05	86.56
494.268	94.56
494.485	85.56
494.703	99.56
494.92	87.56
495.138	81.56
495.355	96.56
495.573	107.56
495.79	88.56
496.008	98.56
496.225	77.56
496.442	89.56
496.66	99.56
496.877	80.56
497.094	65.56
497.312	99.56
497.529	87.56
497.746	75.56
497.963	87.56
498.181	96.56
498.398	101.56
498.615	97.56
498.832	104.56
499.049	88.56
499.267	91.56
499.484	90.56
499.701	97.56
499.918	86.56
500.135	100.56
500.352	95.56
500.569	91.56
500.786	90.56
501.003	84.56
501.22	74.56
501.437	92.56
501.654	96.56
501.871	104.56
502.088	93.56
502.305	78.56
502.522	84.56
502.739	84.56
502.956	83.56
503.172	92.56
503.389	99.56
503.606	99.56
503.823	83.56
504.04	89.56
504.256	96.56
504.473	70.56
504.69	82.56
504.907	85.56
505.123	90.56
505.34	77.56
505.557	90.56
505.773	100.56
505.99	84.56
506.207	84.56
506.423	74.56
506.64	83.56
506.856	91.56
507.073	82.56
507.289	97.56
507.506	88.56
507.722	103.56
507.939	96.56
508.155	106.56
508.372	92.56
508.588	80.56
508.805	99.56
509.021	94.56
509.238	99.56
509.454	87.56
509.67	102.56
509.887	107.56
510.103	116.56
510.319	177.56
510.536	571.56
510.752	1760.56
510.968	487.56
511.184	141.56
511.401	101.56
511.617	103.56
511.833	99.56
512.049	69.56
512.265	88.56
512.481	94.56
512.698	84.56
512.914	83.56
513.13	90.56
513.346	86.56
513.562	90.56
513.778	83.56
513.994	90.56
514.21	74.56
514.426	108.56
514.642	119.56
514.858	122.56
515.074	165.56
515.29	346.56
515.506	1050.56
515.721	402.56
515.937	132.56
516.153	103.56
