Data from Uncirc_1989_H10_HRD10591_00054.txt Node
Date: Wed Jan 03 11:57:46 EST 2024
User: Yrep
Spectrometer: HR+D1059
Trigger mode: 1
Integration Time (sec): 1.000000E-1
Scans to average: 1
Electric dark correction enabled: true
Nonlinearity correction enabled: false
Boxcar width: 0
XAxis mode: Wavelengths
Number of Pixels in Spectrum: 2048
>>>>>Begin Spectral Data<<<<<
223.165	-34.19
223.4	-34.19
223.635	-34.19
223.869	-19.19
224.104	-23.19
224.338	-6.19
224.573	-11.19
224.808	-7.19
225.042	0.81
225.277	3.81
225.511	-10.19
225.746	-7.19
225.98	-3.19
226.215	22.81
226.449	15.81
226.683	22.81
226.918	18.81
227.152	36.81
227.387	34.81
227.621	53.81
227.856	45.81
228.09	41.81
228.324	49.81
228.559	65.81
228.793	66.81
229.027	63.81
229.262	60.81
229.496	67.81
229.73	79.81
229.964	69.81
230.199	76.81
230.433	71.81
230.667	75.81
230.901	60.81
231.136	73.81
231.37	87.81
231.604	84.81
231.838	78.81
232.072	69.81
232.306	67.81
232.541	79.81
232.775	84.81
233.009	72.81
233.243	93.81
233.477	85.81
233.711	94.81
233.945	80.81
234.179	90.81
234.413	93.81
234.647	88.81
234.881	80.81
235.115	80.81
235.349	77.81
235.583	58.81
235.817	89.81
236.051	72.81
236.285	80.81
236.519	96.81
236.753	81.81
236.987	82.81
237.221	89.81
237.455	87.81
237.689	86.81
237.922	81.81
238.156	70.81
238.39	80.81
238.624	76.81
238.858	80.81
239.091	80.81
239.325	77.81
239.559	75.81
239.793	81.81
240.027	77.81
240.26	77.81
240.494	82.81
240.728	57.81
240.961	83.81
241.195	63.81
241.429	85.81
241.662	79.81
241.896	73.81
242.13	69.81
242.363	68.81
242.597	73.81
242.83	60.81
243.064	88.81
243.298	90.81
243.531	79.81
243.765	85.81
243.998	82.81
244.232	93.81
244.465	85.81
244.699	80.81
244.932	85.81
245.166	72.81
245.399	91.81
245.633	83.81
245.866	73.81
246.099	86.81
246.333	68.81
246.566	72.81
246.8	78.81
247.033	80.81
247.266	86.81
247.5	82.81
247.733	76.81
247.966	85.81
248.2	97.81
248.433	76.81
248.666	74.81
248.899	80.81
249.133	84.81
249.366	97.81
249.599	81.81
249.832	72.81
250.066	82.81
250.299	93.81
250.532	59.81
250.765	57.81
250.998	73.81
251.231	68.81
251.465	85.81
251.698	87.81
251.931	67.81
252.164	68.81
252.397	86.81
252.63	64.81
252.863	87.81
253.096	76.81
253.329	79.81
253.562	66.81
253.795	73.81
254.028	83.81
254.261	78.81
254.494	70.81
254.727	73.81
254.96	66.81
255.193	71.81
255.426	81.81
255.659	85.81
255.892	93.81
256.124	82.81
256.357	73.81
256.59	74.81
256.823	92.81
257.056	80.81
257.289	82.81
257.521	80.81
257.754	84.81
257.987	89.81
258.22	84.81
258.452	92.81
258.685	78.81
258.918	90.81
259.151	69.81
259.383	80.81
259.616	76.81
259.849	82.81
260.081	81.81
260.314	79.81
260.547	77.81
260.779	83.81
261.012	96.81
261.244	76.81
261.477	81.81
261.71	80.81
261.942	102.81
262.175	90.81
262.407	97.81
262.64	85.81
262.872	83.81
263.105	89.81
263.337	87.81
263.57	88.81
263.802	81.81
264.035	86.81
264.267	86.81
264.499	81.81
264.732	88.81
264.964	70.81
265.197	86.81
265.429	89.81
265.661	81.81
265.894	72.81
266.126	76.81
266.358	88.81
266.591	89.81
266.823	87.81
267.055	86.81
267.287	78.81
267.52	84.81
267.752	81.81
267.984	91.81
268.216	93.81
268.448	75.81
268.681	76.81
268.913	79.81
269.145	77.81
269.377	84.81
269.609	85.81
269.841	83.81
270.073	96.81
270.306	82.81
270.538	82.81
270.77	104.81
271.002	87.81
271.234	71.81
271.466	90.81
271.698	94.81
271.93	95.81
272.162	77.81
272.394	85.81
272.626	105.81
272.858	88.81
273.09	85.81
273.322	69.81
273.553	80.81
273.785	72.81
274.017	89.81
274.249	72.81
274.481	72.81
274.713	98.81
274.945	82.81
275.176	98.81
275.408	87.81
275.64	84.81
275.872	89.81
276.104	85.81
276.335	85.81
276.567	96.81
276.799	108.81
277.031	99.81
277.262	91.81
277.494	90.81
277.726	89.81
277.957	84.81
278.189	78.81
278.421	96.81
278.652	79.81
278.884	84.81
279.115	84.81
279.347	95.81
279.579	80.81
279.81	97.81
280.042	89.81
280.273	88.81
280.505	94.81
280.736	71.81
280.968	82.81
281.199	98.81
281.431	99.81
281.662	98.81
281.894	81.81
282.125	88.81
282.356	113.81
282.588	124.81
282.819	112.81
283.051	80.81
283.282	91.81
283.513	92.81
283.745	70.81
283.976	77.81
284.207	87.81
284.439	70.81
284.67	82.81
284.901	80.81
285.132	89.81
285.364	89.81
285.595	89.81
285.826	80.81
286.057	88.81
286.288	90.81
286.52	85.81
286.751	88.81
286.982	80.81
287.213	87.81
287.444	68.81
287.675	88.81
287.906	76.81
288.138	76.81
288.369	82.81
288.6	86.81
288.831	82.81
289.062	98.81
289.293	80.81
289.524	86.81
289.755	88.81
289.986	83.81
290.217	82.81
290.448	86.81
290.679	92.81
290.91	94.81
291.141	100.81
291.371	97.81
291.602	78.81
291.833	85.81
292.064	90.81
292.295	88.81
292.526	86.81
292.757	92.81
292.987	94.81
293.218	88.81
293.449	99.81
293.68	79.81
293.91	76.81
294.141	86.81
294.372	82.81
294.603	78.81
294.833	84.81
295.064	85.81
295.295	91.81
295.525	82.81
295.756	86.81
295.987	91.81
296.217	121.81
296.448	115.81
296.679	108.81
296.909	103.81
297.14	87.81
297.37	97.81
297.601	84.81
297.831	90.81
298.062	82.81
298.292	92.81
298.523	97.81
298.753	84.81
298.984	91.81
299.214	79.81
299.445	97.81
299.675	103.81
299.905	82.81
300.136	76.81
300.366	96.81
300.597	109.81
300.827	111.81
301.057	99.81
301.288	97.81
301.518	81.81
301.748	105.81
301.979	101.81
302.209	96.81
302.439	97.81
302.669	85.81
302.9	88.81
303.13	79.81
303.36	103.81
303.59	90.81
303.82	103.81
304.051	102.81
304.281	88.81
304.511	100.81
304.741	91.81
304.971	104.81
305.201	85.81
305.431	88.81
305.661	82.81
305.891	93.81
306.121	97.81
306.352	101.81
306.582	100.81
306.812	90.81
307.042	95.81
307.272	101.81
307.502	91.81
307.731	88.81
307.961	98.81
308.191	94.81
308.421	90.81
308.651	84.81
308.881	97.81
309.111	96.81
309.341	102.81
309.571	98.81
309.8	92.81
310.03	99.81
310.26	92.81
310.49	110.81
310.72	106.81
310.949	91.81
311.179	105.81
311.409	94.81
311.639	90.81
311.868	100.81
312.098	85.81
312.328	97.81
312.557	100.81
312.787	99.81
313.017	99.81
313.246	101.81
313.476	84.81
313.706	91.81
313.935	86.81
314.165	101.81
314.394	87.81
314.624	106.81
314.853	106.81
315.083	101.81
315.312	68.81
315.542	83.81
315.771	89.81
316.001	94.81
316.23	96.81
316.46	99.81
316.689	92.81
316.919	79.81
317.148	100.81
317.377	83.81
317.607	87.81
317.836	88.81
318.065	91.81
318.295	96.81
318.524	103.81
318.753	81.81
318.983	99.81
319.212	87.81
319.441	101.81
319.67	118.81
319.9	97.81
320.129	103.81
320.358	105.81
320.587	91.81
320.816	95.81
321.046	99.81
321.275	96.81
321.504	100.81
321.733	101.81
321.962	96.81
322.191	93.81
322.42	111.81
322.649	111.81
322.878	111.81
323.108	126.81
323.337	125.81
323.566	109.81
323.795	132.81
324.024	178.81
324.253	351.81
324.482	725.81
324.71	1480.81
324.939	1960.81
325.168	698.81
325.397	227.81
325.626	146.81
325.855	119.81
326.084	120.81
326.313	128.81
326.542	141.81
326.77	193.81
326.999	423.81
327.228	850.81
327.457	1531.81
327.686	1196.81
327.914	335.81
328.143	195.81
328.372	170.81
328.6	126.81
328.829	130.81
329.058	129.81
329.287	129.81
329.515	94.81
329.744	117.81
329.972	132.81
330.201	164.81
330.43	206.81
330.658	165.81
330.887	143.81
331.115	121.81
331.344	119.81
331.572	99.81
331.801	95.81
332.03	95.81
332.258	96.81
332.486	112.81
332.715	100.81
332.943	99.81
333.172	90.81
333.4	96.81
333.629	104.81
333.857	113.81
334.085	125.81
334.314	167.81
334.542	232.81
334.771	226.81
334.999	128.81
335.227	91.81
335.455	108.81
335.684	98.81
335.912	114.81
336.14	101.81
336.369	104.81
336.597	96.81
336.825	105.81
337.053	101.81
337.281	96.81
337.51	88.81
337.738	96.81
337.966	86.81
338.194	81.81
338.422	89.81
338.65	91.81
338.878	98.81
339.106	101.81
339.334	101.81
339.562	94.81
339.79	98.81
340.018	94.81
340.246	96.81
340.474	95.81
340.702	101.81
340.93	98.81
341.158	96.81
341.386	94.81
341.614	98.81
341.842	90.81
342.07	82.81
342.298	101.81
342.526	92.81
342.754	88.81
342.981	90.81
343.209	89.81
343.437	97.81
343.665	89.81
343.893	92.81
344.12	98.81
344.348	92.81
344.576	99.81
344.804	91.81
345.031	81.81
345.259	87.81
345.487	95.81
345.714	80.81
345.942	81.81
346.17	86.81
346.397	81.81
346.625	102.81
346.853	101.81
347.08	94.81
347.308	97.81
347.535	89.81
347.763	94.81
347.99	106.81
348.218	101.81
348.445	94.81
348.673	88.81
348.9	86.81
349.128	97.81
349.355	92.81
349.583	79.81
349.81	94.81
350.037	99.81
350.265	94.81
350.492	93.81
350.72	103.81
350.947	100.81
351.174	109.81
351.402	116.81
351.629	105.81
351.856	96.81
352.083	102.81
352.311	96.81
352.538	104.81
352.765	115.81
352.992	117.81
353.22	103.81
353.447	103.81
353.674	95.81
353.901	111.81
354.128	104.81
354.355	97.81
354.583	96.81
354.81	101.81
355.037	102.81
355.264	96.81
355.491	100.81
355.718	87.81
355.945	83.81
356.172	85.81
356.399	107.81
356.626	88.81
356.853	100.81
357.08	90.81
357.307	100.81
357.534	101.81
357.761	102.81
357.988	100.81
358.215	78.81
358.441	98.81
358.668	104.81
358.895	83.81
359.122	68.81
359.349	86.81
359.576	97.81
359.802	89.81
360.029	97.81
360.256	114.81
360.483	101.81
360.709	101.81
360.936	97.81
361.163	90.81
361.39	96.81
361.616	86.81
361.843	81.81
362.07	101.81
362.296	90.81
362.523	88.81
362.749	93.81
362.976	98.81
363.203	89.81
363.429	93.81
363.656	80.81
363.882	80.81
364.109	84.81
364.335	104.81
364.562	82.81
364.788	88.81
365.015	90.81
365.241	96.81
365.468	100.81
365.694	116.81
365.92	93.81
366.147	86.81
366.373	90.81
366.599	90.81
366.826	81.81
367.052	97.81
367.278	80.81
367.505	97.81
367.731	78.81
367.957	95.81
368.184	85.81
368.41	90.81
368.636	105.81
368.862	98.81
369.089	101.81
369.315	80.81
369.541	88.81
369.767	101.81
369.993	82.81
370.219	105.81
370.445	93.81
370.672	95.81
370.898	92.81
371.124	80.81
371.35	81.81
371.576	100.81
371.802	79.81
372.028	66.81
372.254	88.81
372.48	96.81
372.706	96.81
372.932	97.81
373.158	113.81
373.384	81.81
373.61	72.81
373.835	94.81
374.061	94.81
374.287	95.81
374.513	96.81
374.739	89.81
374.965	93.81
375.191	99.81
375.416	92.81
375.642	97.81
375.868	94.81
376.094	99.81
376.319	98.81
376.545	90.81
376.771	90.81
376.997	100.81
377.222	90.81
377.448	88.81
377.674	85.81
377.899	86.81
378.125	83.81
378.35	96.81
378.576	94.81
378.802	87.81
379.027	87.81
379.253	94.81
379.478	101.81
379.704	103.81
379.929	90.81
380.155	95.81
380.38	93.81
380.606	97.81
380.831	101.81
381.057	101.81
381.282	95.81
381.507	93.81
381.733	84.81
381.958	99.81
382.184	85.81
382.409	106.81
382.634	89.81
382.86	98.81
383.085	99.81
383.31	96.81
383.535	100.81
383.761	101.81
383.986	101.81
384.211	109.81
384.436	88.81
384.662	111.81
384.887	103.81
385.112	105.81
385.337	98.81
385.562	93.81
385.787	80.81
386.013	99.81
386.238	110.81
386.463	98.81
386.688	114.81
386.913	92.81
387.138	109.81
387.363	87.81
387.588	103.81
387.813	89.81
388.038	92.81
388.263	120.81
388.488	99.81
388.713	85.81
388.938	94.81
389.163	104.81
389.387	108.81
389.612	104.81
389.837	86.81
390.062	97.81
390.287	107.81
390.512	88.81
390.736	87.81
390.961	104.81
391.186	91.81
391.411	96.81
391.636	91.81
391.86	84.81
392.085	94.81
392.31	97.81
392.534	85.81
392.759	88.81
392.984	98.81
393.208	93.81
393.433	105.81
393.658	87.81
393.882	88.81
394.107	82.81
394.331	91.81
394.556	92.81
394.78	96.81
395.005	94.81
395.229	94.81
395.454	87.81
395.678	74.81
395.903	87.81
396.127	80.81
396.352	81.81
396.576	80.81
396.801	89.81
397.025	104.81
397.249	90.81
397.474	71.81
397.698	89.81
397.922	86.81
398.147	93.81
398.371	80.81
398.595	98.81
398.82	96.81
399.044	87.81
399.268	85.81
399.492	68.81
399.717	95.81
399.941	86.81
400.165	86.81
400.389	99.81
400.613	91.81
400.837	94.81
401.062	97.81
401.286	89.81
401.51	95.81
401.734	88.81
401.958	92.81
402.182	119.81
402.406	150.81
402.63	128.81
402.854	108.81
403.078	94.81
403.302	85.81
403.526	80.81
403.75	87.81
403.974	93.81
404.198	100.81
404.422	89.81
404.645	95.81
404.869	84.81
405.093	90.81
405.317	100.81
405.541	98.81
405.765	102.81
405.988	117.81
406.212	148.81
406.436	204.81
406.66	132.81
406.883	98.81
407.107	92.81
407.331	97.81
407.555	89.81
407.778	97.81
408.002	86.81
408.226	89.81
408.449	94.81
408.673	88.81
408.896	81.81
409.12	72.81
409.344	89.81
409.567	96.81
409.791	101.81
410.014	84.81
410.238	91.81
410.461	90.81
410.685	82.81
410.908	101.81
411.132	105.81
411.355	90.81
411.578	91.81
411.802	99.81
412.025	105.81
412.249	99.81
412.472	90.81
412.695	93.81
412.919	102.81
413.142	92.81
413.365	96.81
413.589	95.81
413.812	86.81
414.035	83.81
414.258	76.81
414.482	95.81
414.705	100.81
414.928	85.81
415.151	91.81
415.374	103.81
415.597	96.81
415.821	83.81
416.044	96.81
416.267	105.81
416.49	89.81
416.713	92.81
416.936	96.81
417.159	81.81
417.382	86.81
417.605	101.81
417.828	114.81
418.051	84.81
418.274	95.81
418.497	88.81
418.72	100.81
418.943	100.81
419.166	84.81
419.389	89.81
419.611	99.81
419.834	83.81
420.057	93.81
420.28	83.81
420.503	76.81
420.726	80.81
420.948	91.81
421.171	81.81
421.394	97.81
421.617	90.81
421.839	93.81
422.062	100.81
422.285	101.81
422.507	99.81
422.73	98.81
422.953	97.81
423.175	88.81
423.398	84.81
423.621	82.81
423.843	80.81
424.066	90.81
424.288	76.81
424.511	83.81
424.733	95.81
424.956	96.81
425.178	87.81
425.401	93.81
425.623	89.81
425.846	93.81
426.068	109.81
426.291	86.81
426.513	86.81
426.735	83.81
426.958	100.81
427.18	97.81
427.402	125.81
427.625	142.81
427.847	135.81
428.069	118.81
428.292	92.81
428.514	80.81
428.736	82.81
428.958	73.81
429.181	72.81
429.403	94.81
429.625	91.81
429.847	84.81
430.069	88.81
430.292	95.81
430.514	69.81
430.736	90.81
430.958	81.81
431.18	89.81
431.402	101.81
431.624	86.81
431.846	93.81
432.068	87.81
432.29	88.81
432.512	99.81
432.734	94.81
432.956	89.81
433.178	98.81
433.4	101.81
433.622	85.81
433.844	97.81
434.066	86.81
434.287	92.81
434.509	96.81
434.731	81.81
434.953	90.81
435.175	101.81
435.397	93.81
435.618	83.81
435.84	97.81
436.062	117.81
436.284	103.81
436.505	107.81
436.727	89.81
436.949	90.81
437.17	95.81
437.392	74.81
437.614	89.81
437.835	121.81
438.057	98.81
438.278	92.81
438.5	109.81
438.721	116.81
438.943	95.81
439.165	90.81
439.386	84.81
439.608	90.81
439.829	100.81
440.05	110.81
440.272	120.81
440.493	87.81
440.715	83.81
440.936	84.81
441.158	89.81
441.379	98.81
441.6	96.81
441.822	84.81
442.043	83.81
442.264	90.81
442.486	103.81
442.707	92.81
442.928	101.81
443.149	117.81
443.371	131.81
443.592	120.81
443.813	97.81
444.034	92.81
444.255	83.81
444.476	80.81
444.698	78.81
444.919	90.81
445.14	144.81
445.361	105.81
445.582	103.81
445.803	127.81
446.024	111.81
446.245	130.81
446.466	108.81
446.687	79.81
446.908	89.81
447.129	89.81
447.35	88.81
447.571	105.81
447.792	100.81
448.013	97.81
448.234	93.81
448.455	93.81
448.675	102.81
448.896	103.81
449.117	110.81
449.338	106.81
449.559	110.81
449.779	121.81
450	97.81
450.221	68.81
450.442	80.81
450.662	84.81
450.883	85.81
451.104	105.81
451.324	96.81
451.545	82.81
451.766	80.81
451.986	79.81
452.207	60.81
452.428	86.81
452.648	97.81
452.869	117.81
453.089	99.81
453.31	112.81
453.53	103.81
453.751	84.81
453.971	109.81
454.192	92.81
454.412	88.81
454.633	79.81
454.853	94.81
455.073	76.81
455.294	98.81
455.514	102.81
455.734	88.81
455.955	73.81
456.175	93.81
456.395	106.81
456.616	92.81
456.836	83.81
457.056	74.81
457.276	86.81
457.497	80.81
457.717	73.81
457.937	94.81
458.157	93.81
458.377	84.81
458.598	104.81
458.818	138.81
459.038	132.81
459.258	102.81
459.478	92.81
459.698	94.81
459.918	89.81
460.138	87.81
460.358	81.81
460.578	72.81
460.798	73.81
461.018	98.81
461.238	91.81
461.458	96.81
461.678	77.81
461.898	79.81
462.118	81.81
462.338	89.81
462.558	96.81
462.777	81.81
462.997	92.81
463.217	94.81
463.437	87.81
463.657	86.81
463.876	86.81
464.096	93.81
464.316	90.81
464.536	109.81
464.755	93.81
464.975	106.81
465.195	135.81
465.414	145.81
465.634	78.81
465.854	80.81
466.073	88.81
466.293	95.81
466.512	93.81
466.732	84.81
466.951	79.81
467.171	102.81
467.391	98.81
467.61	92.81
467.829	112.81
468.049	121.81
468.268	145.81
468.488	92.81
468.707	83.81
468.927	93.81
469.146	91.81
469.365	84.81
469.585	79.81
469.804	85.81
470.023	98.81
470.243	86.81
470.462	100.81
470.681	109.81
470.901	85.81
471.12	94.81
471.339	87.81
471.558	96.81
471.777	102.81
471.997	105.81
472.216	182.81
472.435	328.81
472.654	130.81
472.873	88.81
473.092	86.81
473.311	84.81
473.53	84.81
473.749	77.81
473.968	92.81
474.187	93.81
474.406	74.81
474.625	96.81
474.844	90.81
475.063	85.81
475.282	70.81
475.501	98.81
475.72	86.81
475.939	88.81
476.158	92.81
476.377	84.81
476.596	76.81
476.814	85.81
477.033	90.81
477.252	96.81
477.471	88.81
477.69	97.81
477.908	96.81
478.127	89.81
478.346	77.81
478.564	100.81
478.783	96.81
479.002	95.81
479.22	98.81
479.439	84.81
479.658	109.81
479.876	111.81
480.095	89.81
480.313	81.81
480.532	90.81
480.751	111.81
480.969	178.81
481.188	463.81
481.406	306.81
481.624	114.81
481.843	92.81
482.061	96.81
482.28	88.81
482.498	77.81
482.717	85.81
482.935	87.81
483.153	81.81
483.372	81.81
483.59	84.81
483.808	81.81
484.027	99.81
484.245	94.81
484.463	94.81
484.681	99.81
484.9	90.81
485.118	95.81
485.336	92.81
485.554	87.81
485.772	98.81
485.99	92.81
486.209	117.81
486.427	112.81
486.645	105.81
486.863	97.81
487.081	95.81
487.299	105.81
487.517	94.81
487.735	87.81
487.953	100.81
488.171	93.81
488.389	114.81
488.607	84.81
488.825	82.81
489.043	89.81
489.261	103.81
489.479	85.81
489.696	72.81
489.914	96.81
490.132	82.81
490.35	91.81
490.568	96.81
490.786	89.81
491.003	100.81
491.221	93.81
491.439	90.81
491.657	97.81
491.874	97.81
492.092	97.81
492.31	92.81
492.527	92.81
492.745	96.81
492.963	96.81
493.18	90.81
493.398	91.81
493.615	83.81
493.833	98.81
494.05	93.81
494.268	86.81
494.485	90.81
494.703	105.81
494.92	82.81
495.138	88.81
495.355	90.81
495.573	99.81
495.79	86.81
496.008	92.81
496.225	95.81
496.442	90.81
496.66	99.81
496.877	93.81
497.094	85.81
497.312	78.81
497.529	101.81
497.746	95.81
497.963	93.81
498.181	91.81
498.398	90.81
498.615	102.81
498.832	88.81
499.049	84.81
499.267	82.81
499.484	91.81
499.701	93.81
499.918	69.81
500.135	72.81
500.352	89.81
500.569	103.81
500.786	97.81
501.003	96.81
501.22	91.81
501.437	91.81
501.654	97.81
501.871	101.81
502.088	86.81
502.305	84.81
502.522	99.81
502.739	84.81
502.956	97.81
503.172	81.81
503.389	99.81
503.606	103.81
503.823	90.81
504.04	90.81
504.256	84.81
504.473	89.81
504.69	82.81
504.907	100.81
505.123	95.81
505.34	87.81
505.557	106.81
505.773	92.81
505.99	90.81
506.207	76.81
506.423	95.81
506.64	94.81
506.856	98.81
507.073	96.81
507.289	83.81
507.506	95.81
507.722	107.81
507.939	100.81
508.155	110.81
508.372	76.81
508.588	97.81
508.805	99.81
509.021	100.81
509.238	87.81
509.454	103.81
509.67	104.81
509.887	107.81
510.103	122.81
510.319	193.81
510.536	659.81
510.752	1974.81
510.968	552.81
511.184	142.81
511.401	102.81
511.617	95.81
511.833	87.81
512.049	80.81
512.265	102.81
512.481	76.81
512.698	92.81
512.914	94.81
513.13	84.81
513.346	82.81
513.562	87.81
513.778	85.81
513.994	78.81
514.21	100.81
514.426	124.81
514.642	118.81
514.858	114.81
515.074	157.81
515.29	379.81
515.506	1278.81
515.721	472.81
