Data from Uncirc_1989_H10_HRD10591_00018.txt Node
Date: Wed Jan 03 11:57:39 EST 2024
User: Yrep
Spectrometer: HR+D1059
Trigger mode: 1
Integration Time (sec): 1.000000E-1
Scans to average: 1
Electric dark correction enabled: true
Nonlinearity correction enabled: false
Boxcar width: 0
XAxis mode: Wavelengths
Number of Pixels in Spectrum: 2048
>>>>>Begin Spectral Data<<<<<
223.165	-15.12
223.4	-15.12
223.635	-15.12
223.869	-15.12
224.104	-26.12
224.338	-15.12
224.573	-25.12
224.808	-11.12
225.042	-9.12
225.277	-12.12
225.511	-5.12
225.746	8.88
225.98	17.88
226.215	17.88
226.449	19.88
226.683	21.88
226.918	23.88
227.152	23.88
227.387	23.88
227.621	27.88
227.856	50.88
228.09	55.88
228.324	44.88
228.559	55.88
228.793	65.88
229.027	73.88
229.262	54.88
229.496	67.88
229.73	86.88
229.964	72.88
230.199	65.88
230.433	85.88
230.667	69.88
230.901	75.88
231.136	70.88
231.37	79.88
231.604	79.88
231.838	76.88
232.072	71.88
232.306	83.88
232.541	73.88
232.775	81.88
233.009	79.88
233.243	80.88
233.477	95.88
233.711	89.88
233.945	69.88
234.179	73.88
234.413	75.88
234.647	78.88
234.881	85.88
235.115	73.88
235.349	83.88
235.583	81.88
235.817	64.88
236.051	78.88
236.285	72.88
236.519	84.88
236.753	76.88
236.987	78.88
237.221	81.88
237.455	76.88
237.689	79.88
237.922	76.88
238.156	70.88
238.39	63.88
238.624	78.88
238.858	73.88
239.091	80.88
239.325	75.88
239.559	81.88
239.793	68.88
240.027	81.88
240.26	71.88
240.494	67.88
240.728	62.88
240.961	68.88
241.195	70.88
241.429	69.88
241.662	67.88
241.896	71.88
242.13	71.88
242.363	80.88
242.597	70.88
242.83	77.88
243.064	71.88
243.298	69.88
243.531	56.88
243.765	87.88
243.998	77.88
244.232	83.88
244.465	82.88
244.699	92.88
244.932	72.88
245.166	67.88
245.399	63.88
245.633	84.88
245.866	75.88
246.099	94.88
246.333	73.88
246.566	75.88
246.8	79.88
247.033	82.88
247.266	79.88
247.5	72.88
247.733	83.88
247.966	79.88
248.2	84.88
248.433	77.88
248.666	97.88
248.899	74.88
249.133	71.88
249.366	80.88
249.599	79.88
249.832	87.88
250.066	85.88
250.299	70.88
250.532	77.88
250.765	89.88
250.998	66.88
251.231	73.88
251.465	78.88
251.698	84.88
251.931	84.88
252.164	75.88
252.397	73.88
252.63	71.88
252.863	79.88
253.096	83.88
253.329	69.88
253.562	74.88
253.795	79.88
254.028	75.88
254.261	84.88
254.494	84.88
254.727	84.88
254.96	85.88
255.193	88.88
255.426	90.88
255.659	83.88
255.892	84.88
256.124	71.88
256.357	69.88
256.59	79.88
256.823	76.88
257.056	76.88
257.289	81.88
257.521	73.88
257.754	78.88
257.987	70.88
258.22	81.88
258.452	66.88
258.685	95.88
258.918	94.88
259.151	93.88
259.383	84.88
259.616	81.88
259.849	76.88
260.081	64.88
260.314	79.88
260.547	78.88
260.779	93.88
261.012	81.88
261.244	96.88
261.477	75.88
261.71	88.88
261.942	87.88
262.175	99.88
262.407	70.88
262.64	89.88
262.872	73.88
263.105	83.88
263.337	86.88
263.57	80.88
263.802	64.88
264.035	87.88
264.267	83.88
264.499	78.88
264.732	83.88
264.964	81.88
265.197	76.88
265.429	89.88
265.661	91.88
265.894	62.88
266.126	90.88
266.358	86.88
266.591	81.88
266.823	79.88
267.055	96.88
267.287	80.88
267.52	77.88
267.752	69.88
267.984	63.88
268.216	80.88
268.448	79.88
268.681	85.88
268.913	80.88
269.145	86.88
269.377	77.88
269.609	84.88
269.841	67.88
270.073	71.88
270.306	75.88
270.538	83.88
270.77	84.88
271.002	67.88
271.234	75.88
271.466	72.88
271.698	78.88
271.93	83.88
272.162	97.88
272.394	84.88
272.626	77.88
272.858	80.88
273.09	88.88
273.322	89.88
273.553	78.88
273.785	85.88
274.017	87.88
274.249	79.88
274.481	70.88
274.713	90.88
274.945	86.88
275.176	73.88
275.408	83.88
275.64	92.88
275.872	87.88
276.104	86.88
276.335	86.88
276.567	93.88
276.799	100.88
277.031	100.88
277.262	91.88
277.494	92.88
277.726	79.88
277.957	82.88
278.189	79.88
278.421	84.88
278.652	87.88
278.884	80.88
279.115	94.88
279.347	93.88
279.579	102.88
279.81	83.88
280.042	100.88
280.273	80.88
280.505	74.88
280.736	94.88
280.968	97.88
281.199	73.88
281.431	82.88
281.662	83.88
281.894	97.88
282.125	99.88
282.356	112.88
282.588	124.88
282.819	93.88
283.051	92.88
283.282	97.88
283.513	73.88
283.745	88.88
283.976	85.88
284.207	82.88
284.439	87.88
284.67	85.88
284.901	95.88
285.132	94.88
285.364	92.88
285.595	88.88
285.826	99.88
286.057	94.88
286.288	84.88
286.52	84.88
286.751	87.88
286.982	81.88
287.213	89.88
287.444	75.88
287.675	93.88
287.906	95.88
288.138	90.88
288.369	100.88
288.6	82.88
288.831	77.88
289.062	86.88
289.293	89.88
289.524	94.88
289.755	95.88
289.986	94.88
290.217	80.88
290.448	81.88
290.679	78.88
290.91	92.88
291.141	91.88
291.371	80.88
291.602	96.88
291.833	78.88
292.064	96.88
292.295	88.88
292.526	80.88
292.757	85.88
292.987	103.88
293.218	80.88
293.449	89.88
293.68	93.88
293.91	80.88
294.141	85.88
294.372	90.88
294.603	85.88
294.833	94.88
295.064	91.88
295.295	79.88
295.525	72.88
295.756	94.88
295.987	95.88
296.217	125.88
296.448	107.88
296.679	102.88
296.909	93.88
297.14	101.88
297.37	96.88
297.601	79.88
297.831	91.88
298.062	84.88
298.292	87.88
298.523	94.88
298.753	89.88
298.984	75.88
299.214	97.88
299.445	99.88
299.675	87.88
299.905	98.88
300.136	96.88
300.366	77.88
300.597	92.88
300.827	95.88
301.057	93.88
301.288	104.88
301.518	100.88
301.748	83.88
301.979	110.88
302.209	89.88
302.439	103.88
302.669	84.88
302.9	75.88
303.13	79.88
303.36	89.88
303.59	101.88
303.82	97.88
304.051	90.88
304.281	92.88
304.511	87.88
304.741	96.88
304.971	89.88
305.201	96.88
305.431	89.88
305.661	75.88
305.891	91.88
306.121	99.88
306.352	94.88
306.582	77.88
306.812	80.88
307.042	96.88
307.272	96.88
307.502	103.88
307.731	93.88
307.961	104.88
308.191	88.88
308.421	83.88
308.651	99.88
308.881	86.88
309.111	89.88
309.341	93.88
309.571	103.88
309.8	106.88
310.03	91.88
310.26	79.88
310.49	88.88
310.72	87.88
310.949	102.88
311.179	99.88
311.409	100.88
311.639	87.88
311.868	91.88
312.098	76.88
312.328	99.88
312.557	85.88
312.787	112.88
313.017	95.88
313.246	88.88
313.476	89.88
313.706	104.88
313.935	81.88
314.165	99.88
314.394	98.88
314.624	90.88
314.853	81.88
315.083	101.88
315.312	100.88
315.542	85.88
315.771	77.88
316.001	80.88
316.23	88.88
316.46	82.88
316.689	102.88
316.919	96.88
317.148	79.88
317.377	94.88
317.607	86.88
317.836	68.88
318.065	101.88
318.295	101.88
318.524	86.88
318.753	96.88
318.983	95.88
319.212	102.88
319.441	110.88
319.67	107.88
319.9	97.88
320.129	92.88
320.358	95.88
320.587	88.88
320.816	89.88
321.046	88.88
321.275	97.88
321.504	86.88
321.733	88.88
321.962	100.88
322.191	96.88
322.42	92.88
322.649	99.88
322.878	87.88
323.108	100.88
323.337	124.88
323.566	117.88
323.795	138.88
324.024	191.88
324.253	329.88
324.482	691.88
324.71	1425.88
324.939	1887.88
325.168	688.88
325.397	201.88
325.626	132.88
325.855	131.88
326.084	110.88
326.313	127.88
326.542	139.88
326.77	203.88
326.999	399.88
327.228	828.88
327.457	1462.88
327.686	1167.88
327.914	311.88
328.143	158.88
328.372	132.88
328.6	115.88
328.829	101.88
329.058	113.88
329.287	127.88
329.515	100.88
329.744	102.88
329.972	100.88
330.201	139.88
330.43	139.88
330.658	128.88
330.887	119.88
331.115	102.88
331.344	116.88
331.572	102.88
331.801	95.88
332.03	102.88
332.258	90.88
332.486	83.88
332.715	87.88
332.943	99.88
333.172	97.88
333.4	103.88
333.629	99.88
333.857	115.88
334.085	116.88
334.314	119.88
334.542	140.88
334.771	141.88
334.999	100.88
335.227	75.88
335.455	106.88
335.684	103.88
335.912	119.88
336.14	98.88
336.369	93.88
336.597	80.88
336.825	101.88
337.053	92.88
337.281	98.88
337.51	108.88
337.738	109.88
337.966	76.88
338.194	97.88
338.422	89.88
338.65	95.88
338.878	95.88
339.106	105.88
339.334	93.88
339.562	97.88
339.79	100.88
340.018	90.88
340.246	99.88
340.474	95.88
340.702	82.88
340.93	85.88
341.158	72.88
341.386	96.88
341.614	104.88
341.842	96.88
342.07	71.88
342.298	88.88
342.526	96.88
342.754	77.88
342.981	91.88
343.209	96.88
343.437	114.88
343.665	96.88
343.893	89.88
344.12	95.88
344.348	75.88
344.576	92.88
344.804	101.88
345.031	97.88
345.259	97.88
345.487	83.88
345.714	103.88
345.942	86.88
346.17	91.88
346.397	92.88
346.625	91.88
346.853	95.88
347.08	95.88
347.308	91.88
347.535	91.88
347.763	99.88
347.99	115.88
348.218	99.88
348.445	92.88
348.673	102.88
348.9	88.88
349.128	96.88
349.355	87.88
349.583	81.88
349.81	99.88
350.037	97.88
350.265	99.88
350.492	85.88
350.72	94.88
350.947	102.88
351.174	96.88
351.402	110.88
351.629	95.88
351.856	91.88
352.083	112.88
352.311	111.88
352.538	100.88
352.765	111.88
352.992	110.88
353.22	108.88
353.447	119.88
353.674	111.88
353.901	92.88
354.128	93.88
354.355	109.88
354.583	77.88
354.81	90.88
355.037	109.88
355.264	98.88
355.491	90.88
355.718	97.88
355.945	80.88
356.172	98.88
356.399	87.88
356.626	86.88
356.853	85.88
357.08	93.88
357.307	93.88
357.534	106.88
357.761	99.88
357.988	96.88
358.215	85.88
358.441	92.88
358.668	64.88
358.895	99.88
359.122	83.88
359.349	98.88
359.576	85.88
359.802	99.88
360.029	99.88
360.256	88.88
360.483	93.88
360.709	73.88
360.936	86.88
361.163	86.88
361.39	88.88
361.616	88.88
361.843	113.88
362.07	115.88
362.296	85.88
362.523	100.88
362.749	88.88
362.976	99.88
363.203	99.88
363.429	99.88
363.656	93.88
363.882	79.88
364.109	88.88
364.335	87.88
364.562	102.88
364.788	96.88
365.015	87.88
365.241	83.88
365.468	108.88
365.694	100.88
365.92	94.88
366.147	88.88
366.373	89.88
366.599	86.88
366.826	96.88
367.052	98.88
367.278	99.88
367.505	75.88
367.731	87.88
367.957	88.88
368.184	86.88
368.41	94.88
368.636	108.88
368.862	107.88
369.089	99.88
369.315	81.88
369.541	106.88
369.767	71.88
369.993	96.88
370.219	90.88
370.445	80.88
370.672	88.88
370.898	85.88
371.124	89.88
371.35	100.88
371.576	94.88
371.802	79.88
372.028	88.88
372.254	82.88
372.48	69.88
372.706	92.88
372.932	85.88
373.158	81.88
373.384	100.88
373.61	94.88
373.835	94.88
374.061	85.88
374.287	84.88
374.513	93.88
374.739	85.88
374.965	87.88
375.191	83.88
375.416	95.88
375.642	89.88
375.868	95.88
376.094	87.88
376.319	87.88
376.545	87.88
376.771	97.88
376.997	84.88
377.222	85.88
377.448	101.88
377.674	99.88
377.899	90.88
378.125	97.88
378.35	88.88
378.576	86.88
378.802	76.88
379.027	86.88
379.253	90.88
379.478	100.88
379.704	91.88
379.929	99.88
380.155	103.88
380.38	98.88
380.606	99.88
380.831	89.88
381.057	88.88
381.282	92.88
381.507	106.88
381.733	105.88
381.958	88.88
382.184	84.88
382.409	102.88
382.634	114.88
382.86	97.88
383.085	95.88
383.31	101.88
383.535	97.88
383.761	99.88
383.986	96.88
384.211	94.88
384.436	104.88
384.662	97.88
384.887	119.88
385.112	104.88
385.337	84.88
385.562	87.88
385.787	93.88
386.013	109.88
386.238	125.88
386.463	108.88
386.688	94.88
386.913	90.88
387.138	103.88
387.363	102.88
387.588	104.88
387.813	102.88
388.038	97.88
388.263	112.88
388.488	80.88
388.713	105.88
388.938	92.88
389.163	108.88
389.387	97.88
389.612	89.88
389.837	89.88
390.062	104.88
390.287	101.88
390.512	99.88
390.736	96.88
390.961	78.88
391.186	96.88
391.411	98.88
391.636	101.88
391.86	87.88
392.085	86.88
392.31	75.88
392.534	97.88
392.759	99.88
392.984	92.88
393.208	100.88
393.433	133.88
393.658	108.88
393.882	90.88
394.107	80.88
394.331	85.88
394.556	88.88
394.78	79.88
395.005	85.88
395.229	79.88
395.454	91.88
395.678	82.88
395.903	80.88
396.127	82.88
396.352	85.88
396.576	97.88
396.801	99.88
397.025	107.88
397.249	93.88
397.474	96.88
397.698	100.88
397.922	93.88
398.147	83.88
398.371	90.88
398.595	88.88
398.82	90.88
399.044	93.88
399.268	86.88
399.492	81.88
399.717	76.88
399.941	85.88
400.165	85.88
400.389	89.88
400.613	83.88
400.837	87.88
401.062	79.88
401.286	78.88
401.51	78.88
401.734	98.88
401.958	93.88
402.182	112.88
402.406	131.88
402.63	110.88
402.854	87.88
403.078	88.88
403.302	91.88
403.526	98.88
403.75	87.88
403.974	95.88
404.198	91.88
404.422	77.88
404.645	83.88
404.869	101.88
405.093	91.88
405.317	108.88
405.541	101.88
405.765	102.88
405.988	110.88
406.212	158.88
406.436	190.88
406.66	123.88
406.883	97.88
407.107	106.88
407.331	92.88
407.555	106.88
407.778	85.88
408.002	77.88
408.226	97.88
408.449	100.88
408.673	93.88
408.896	102.88
409.12	97.88
409.344	83.88
409.567	101.88
409.791	93.88
410.014	88.88
410.238	95.88
410.461	84.88
410.685	93.88
410.908	96.88
411.132	105.88
411.355	97.88
411.578	94.88
411.802	101.88
412.025	82.88
412.249	83.88
412.472	90.88
412.695	93.88
412.919	101.88
413.142	86.88
413.365	89.88
413.589	88.88
413.812	95.88
414.035	99.88
414.258	91.88
414.482	86.88
414.705	87.88
414.928	88.88
415.151	84.88
415.374	89.88
415.597	87.88
415.821	91.88
416.044	93.88
416.267	81.88
416.49	92.88
416.713	85.88
416.936	93.88
417.159	83.88
417.382	99.88
417.605	85.88
417.828	93.88
418.051	87.88
418.274	85.88
418.497	92.88
418.72	107.88
418.943	86.88
419.166	83.88
419.389	93.88
419.611	81.88
419.834	87.88
420.057	103.88
420.28	97.88
420.503	73.88
420.726	84.88
420.948	81.88
421.171	89.88
421.394	87.88
421.617	79.88
421.839	80.88
422.062	93.88
422.285	101.88
422.507	108.88
422.73	97.88
422.953	109.88
423.175	88.88
423.398	95.88
423.621	85.88
423.843	92.88
424.066	81.88
424.288	89.88
424.511	107.88
424.733	93.88
424.956	86.88
425.178	96.88
425.401	88.88
425.623	83.88
425.846	95.88
426.068	94.88
426.291	87.88
426.513	87.88
426.735	96.88
426.958	93.88
427.18	95.88
427.402	124.88
427.625	126.88
427.847	127.88
428.069	98.88
428.292	86.88
428.514	79.88
428.736	83.88
428.958	81.88
429.181	94.88
429.403	86.88
429.625	68.88
429.847	84.88
430.069	80.88
430.292	87.88
430.514	88.88
430.736	73.88
430.958	83.88
431.18	83.88
431.402	84.88
431.624	88.88
431.846	91.88
432.068	80.88
432.29	91.88
432.512	83.88
432.734	86.88
432.956	103.88
433.178	112.88
433.4	104.88
433.622	86.88
433.844	85.88
434.066	86.88
434.287	82.88
434.509	86.88
434.731	89.88
434.953	80.88
435.175	75.88
435.397	84.88
435.618	93.88
435.84	116.88
436.062	121.88
436.284	102.88
436.505	88.88
436.727	102.88
436.949	100.88
437.17	86.88
437.392	93.88
437.614	102.88
437.835	81.88
438.057	100.88
438.278	104.88
438.5	90.88
438.721	101.88
438.943	98.88
439.165	77.88
439.386	87.88
439.608	90.88
439.829	108.88
440.05	123.88
440.272	128.88
440.493	91.88
440.715	96.88
440.936	85.88
441.158	87.88
441.379	82.88
441.6	95.88
441.822	92.88
442.043	98.88
442.264	99.88
442.486	107.88
442.707	87.88
442.928	99.88
443.149	113.88
443.371	132.88
443.592	97.88
443.813	98.88
444.034	98.88
444.255	82.88
444.476	88.88
444.698	86.88
444.919	90.88
445.14	126.88
445.361	118.88
445.582	96.88
445.803	111.88
446.024	121.88
446.245	133.88
446.466	95.88
446.687	73.88
446.908	75.88
447.129	92.88
447.35	96.88
447.571	94.88
447.792	92.88
448.013	86.88
448.234	92.88
448.455	95.88
448.675	98.88
448.896	108.88
449.117	89.88
449.338	99.88
449.559	124.88
449.779	126.88
450	87.88
450.221	95.88
450.442	91.88
450.662	89.88
450.883	111.88
451.104	97.88
451.324	94.88
451.545	85.88
451.766	81.88
451.986	87.88
452.207	84.88
452.428	92.88
452.648	99.88
452.869	100.88
453.089	100.88
453.31	93.88
453.53	91.88
453.751	81.88
453.971	93.88
454.192	96.88
454.412	99.88
454.633	91.88
454.853	83.88
455.073	88.88
455.294	91.88
455.514	88.88
455.734	93.88
455.955	94.88
456.175	82.88
456.395	85.88
456.616	82.88
456.836	83.88
457.056	72.88
457.276	71.88
457.497	87.88
457.717	87.88
457.937	80.88
458.157	91.88
458.377	92.88
458.598	94.88
458.818	119.88
459.038	125.88
459.258	108.88
459.478	90.88
459.698	84.88
459.918	86.88
460.138	95.88
460.358	88.88
460.578	83.88
460.798	83.88
461.018	77.88
461.238	82.88
461.458	100.88
461.678	87.88
461.898	97.88
462.118	89.88
462.338	84.88
462.558	81.88
462.777	98.88
462.997	96.88
463.217	84.88
463.437	83.88
463.657	70.88
463.876	91.88
464.096	95.88
464.316	85.88
464.536	85.88
464.755	88.88
464.975	88.88
465.195	138.88
465.414	135.88
465.634	87.88
465.854	70.88
466.073	85.88
466.293	91.88
466.512	88.88
466.732	88.88
466.951	87.88
467.171	85.88
467.391	89.88
467.61	103.88
467.829	88.88
468.049	111.88
468.268	96.88
468.488	73.88
468.707	79.88
468.927	84.88
469.146	92.88
469.365	77.88
469.585	92.88
469.804	96.88
470.023	97.88
470.243	96.88
470.462	93.88
470.681	91.88
470.901	105.88
471.12	84.88
471.339	89.88
471.558	94.88
471.777	90.88
471.997	101.88
472.216	116.88
472.435	156.88
472.654	99.88
472.873	91.88
473.092	91.88
473.311	97.88
473.53	81.88
473.749	93.88
473.968	92.88
474.187	94.88
474.406	89.88
474.625	102.88
474.844	84.88
475.063	84.88
475.282	85.88
475.501	81.88
475.72	89.88
475.939	83.88
476.158	83.88
476.377	102.88
476.596	71.88
476.814	96.88
477.033	94.88
477.252	90.88
477.471	84.88
477.69	81.88
477.908	97.88
478.127	90.88
478.346	76.88
478.564	87.88
478.783	94.88
479.002	86.88
479.22	81.88
479.439	104.88
479.658	104.88
479.876	97.88
480.095	85.88
480.313	86.88
480.532	99.88
480.751	83.88
480.969	120.88
481.188	214.88
481.406	181.88
481.624	78.88
481.843	79.88
482.061	95.88
482.28	85.88
482.498	78.88
482.717	92.88
482.935	97.88
483.153	83.88
483.372	91.88
483.59	81.88
483.808	80.88
484.027	96.88
484.245	103.88
484.463	103.88
484.681	93.88
484.9	98.88
485.118	99.88
485.336	87.88
485.554	104.88
485.772	108.88
485.99	111.88
486.209	91.88
486.427	108.88
486.645	104.88
486.863	109.88
487.081	105.88
487.299	100.88
487.517	88.88
487.735	97.88
487.953	97.88
488.171	88.88
488.389	90.88
488.607	98.88
488.825	93.88
489.043	89.88
489.261	99.88
489.479	100.88
489.696	82.88
489.914	83.88
490.132	85.88
490.35	96.88
490.568	85.88
490.786	81.88
491.003	96.88
491.221	86.88
491.439	96.88
491.657	89.88
491.874	105.88
492.092	93.88
492.31	91.88
492.527	72.88
492.745	79.88
492.963	70.88
493.18	88.88
493.398	94.88
493.615	104.88
493.833	79.88
494.05	95.88
494.268	80.88
494.485	89.88
494.703	79.88
494.92	95.88
495.138	85.88
495.355	109.88
495.573	84.88
495.79	88.88
496.008	93.88
496.225	101.88
496.442	91.88
496.66	79.88
496.877	81.88
497.094	99.88
497.312	85.88
497.529	91.88
497.746	77.88
497.963	103.88
498.181	103.88
498.398	93.88
498.615	102.88
498.832	94.88
499.049	85.88
499.267	92.88
499.484	78.88
499.701	90.88
499.918	100.88
500.135	103.88
500.352	87.88
500.569	97.88
500.786	94.88
501.003	86.88
501.22	95.88
501.437	91.88
501.654	84.88
501.871	94.88
502.088	92.88
502.305	99.88
502.522	89.88
502.739	92.88
502.956	88.88
503.172	96.88
503.389	96.88
503.606	97.88
503.823	95.88
504.04	87.88
504.256	92.88
504.473	85.88
504.69	93.88
504.907	100.88
505.123	89.88
505.34	101.88
505.557	89.88
505.773	88.88
505.99	87.88
506.207	93.88
506.423	88.88
506.64	73.88
506.856	92.88
507.073	99.88
507.289	77.88
507.506	83.88
507.722	96.88
507.939	95.88
508.155	95.88
508.372	93.88
508.588	95.88
508.805	96.88
509.021	83.88
509.238	93.88
509.454	97.88
509.67	89.88
509.887	113.88
510.103	119.88
510.319	201.88
510.536	572.88
510.752	1728.88
510.968	494.88
511.184	145.88
511.401	98.88
511.617	99.88
511.833	82.88
512.049	81.88
512.265	79.88
512.481	93.88
512.698	96.88
512.914	84.88
513.13	117.88
513.346	109.88
513.562	87.88
513.778	98.88
513.994	96.88
514.21	87.88
514.426	116.88
514.642	132.88
514.858	109.88
515.074	135.88
515.29	342.88
515.506	1094.88
515.721	423.88
515.937	128.88
516.153	108.88
516.369	93.88
