Data from Uncirc_1989_H10_HRD10591_00094.txt Node
Date: Wed Jan 03 11:57:54 EST 2024
User: Yrep
Spectrometer: HR+D1059
Trigger mode: 1
Integration Time (sec): 1.000000E-1
Scans to average: 1
Electric dark correction enabled: true
Nonlinearity correction enabled: false
Boxcar width: 0
XAxis mode: Wavelengths
Number of Pixels in Spectrum: 2048
>>>>>Begin Spectral Data<<<<<
223.165	-8.69
223.4	-8.69
223.635	-8.69
223.869	-22.69
224.104	-20.69
224.338	-18.69
224.573	-9.69
224.808	-21.69
225.042	-20.69
225.277	-6.69
225.511	5.31
225.746	6.31
225.98	11.31
226.215	12.31
226.449	10.31
226.683	17.31
226.918	34.31
227.152	32.31
227.387	44.31
227.621	43.31
227.856	53.31
228.09	52.31
228.324	65.31
228.559	55.31
228.793	56.31
229.027	62.31
229.262	65.31
229.496	89.31
229.73	84.31
229.964	89.31
230.199	70.31
230.433	88.31
230.667	95.31
230.901	89.31
231.136	96.31
231.37	85.31
231.604	92.31
231.838	101.31
232.072	80.31
232.306	73.31
232.541	80.31
232.775	80.31
233.009	87.31
233.243	89.31
233.477	80.31
233.711	90.31
233.945	88.31
234.179	77.31
234.413	81.31
234.647	90.31
234.881	81.31
235.115	84.31
235.349	92.31
235.583	95.31
235.817	78.31
236.051	75.31
236.285	76.31
236.519	66.31
236.753	71.31
236.987	98.31
237.221	86.31
237.455	77.31
237.689	78.31
237.922	73.31
238.156	72.31
238.39	89.31
238.624	82.31
238.858	84.31
239.091	83.31
239.325	81.31
239.559	70.31
239.793	86.31
240.027	82.31
240.26	78.31
240.494	93.31
240.728	89.31
240.961	74.31
241.195	86.31
241.429	83.31
241.662	86.31
241.896	80.31
242.13	86.31
242.363	87.31
242.597	80.31
242.83	91.31
243.064	74.31
243.298	86.31
243.531	73.31
243.765	82.31
243.998	100.31
244.232	101.31
244.465	83.31
244.699	78.31
244.932	72.31
245.166	74.31
245.399	80.31
245.633	92.31
245.866	98.31
246.099	81.31
246.333	85.31
246.566	74.31
246.8	82.31
247.033	74.31
247.266	71.31
247.5	79.31
247.733	76.31
247.966	84.31
248.2	73.31
248.433	87.31
248.666	96.31
248.899	67.31
249.133	82.31
249.366	101.31
249.599	92.31
249.832	89.31
250.066	81.31
250.299	87.31
250.532	74.31
250.765	88.31
250.998	88.31
251.231	88.31
251.465	91.31
251.698	75.31
251.931	80.31
252.164	94.31
252.397	98.31
252.63	81.31
252.863	82.31
253.096	102.31
253.329	91.31
253.562	77.31
253.795	76.31
254.028	87.31
254.261	88.31
254.494	68.31
254.727	90.31
254.96	94.31
255.193	97.31
255.426	77.31
255.659	89.31
255.892	96.31
256.124	102.31
256.357	90.31
256.59	84.31
256.823	86.31
257.056	95.31
257.289	96.31
257.521	86.31
257.754	87.31
257.987	88.31
258.22	83.31
258.452	94.31
258.685	84.31
258.918	85.31
259.151	80.31
259.383	90.31
259.616	100.31
259.849	75.31
260.081	77.31
260.314	77.31
260.547	90.31
260.779	84.31
261.012	93.31
261.244	92.31
261.477	96.31
261.71	97.31
261.942	117.31
262.175	98.31
262.407	93.31
262.64	85.31
262.872	86.31
263.105	94.31
263.337	108.31
263.57	88.31
263.802	95.31
264.035	87.31
264.267	87.31
264.499	87.31
264.732	88.31
264.964	86.31
265.197	82.31
265.429	86.31
265.661	87.31
265.894	90.31
266.126	91.31
266.358	86.31
266.591	86.31
266.823	88.31
267.055	84.31
267.287	94.31
267.52	87.31
267.752	100.31
267.984	84.31
268.216	88.31
268.448	80.31
268.681	92.31
268.913	85.31
269.145	90.31
269.377	85.31
269.609	86.31
269.841	90.31
270.073	83.31
270.306	99.31
270.538	89.31
270.77	85.31
271.002	81.31
271.234	92.31
271.466	99.31
271.698	75.31
271.93	93.31
272.162	89.31
272.394	93.31
272.626	85.31
272.858	86.31
273.09	93.31
273.322	101.31
273.553	92.31
273.785	98.31
274.017	101.31
274.249	88.31
274.481	74.31
274.713	106.31
274.945	85.31
275.176	88.31
275.408	68.31
275.64	84.31
275.872	82.31
276.104	84.31
276.335	101.31
276.567	100.31
276.799	108.31
277.031	102.31
277.262	110.31
277.494	94.31
277.726	88.31
277.957	75.31
278.189	93.31
278.421	91.31
278.652	92.31
278.884	93.31
279.115	102.31
279.347	106.31
279.579	98.31
279.81	103.31
280.042	102.31
280.273	101.31
280.505	106.31
280.736	96.31
280.968	76.31
281.199	100.31
281.431	90.31
281.662	86.31
281.894	90.31
282.125	107.31
282.356	102.31
282.588	132.31
282.819	109.31
283.051	94.31
283.282	92.31
283.513	94.31
283.745	86.31
283.976	92.31
284.207	94.31
284.439	83.31
284.67	85.31
284.901	77.31
285.132	108.31
285.364	94.31
285.595	85.31
285.826	92.31
286.057	89.31
286.288	98.31
286.52	88.31
286.751	92.31
286.982	93.31
287.213	86.31
287.444	94.31
287.675	91.31
287.906	97.31
288.138	90.31
288.369	91.31
288.6	82.31
288.831	86.31
289.062	80.31
289.293	80.31
289.524	96.31
289.755	92.31
289.986	80.31
290.217	77.31
290.448	96.31
290.679	93.31
290.91	108.31
291.141	98.31
291.371	72.31
291.602	88.31
291.833	99.31
292.064	95.31
292.295	107.31
292.526	92.31
292.757	95.31
292.987	104.31
293.218	93.31
293.449	103.31
293.68	80.31
293.91	88.31
294.141	92.31
294.372	84.31
294.603	85.31
294.833	101.31
295.064	99.31
295.295	90.31
295.525	96.31
295.756	88.31
295.987	117.31
296.217	107.31
296.448	121.31
296.679	96.31
296.909	99.31
297.14	90.31
297.37	100.31
297.601	86.31
297.831	93.31
298.062	89.31
298.292	75.31
298.523	85.31
298.753	89.31
298.984	73.31
299.214	92.31
299.445	102.31
299.675	99.31
299.905	77.31
300.136	96.31
300.366	97.31
300.597	97.31
300.827	99.31
301.057	97.31
301.288	85.31
301.518	94.31
301.748	97.31
301.979	104.31
302.209	104.31
302.439	100.31
302.669	91.31
302.9	93.31
303.13	94.31
303.36	103.31
303.59	98.31
303.82	109.31
304.051	84.31
304.281	99.31
304.511	110.31
304.741	72.31
304.971	103.31
305.201	102.31
305.431	91.31
305.661	92.31
305.891	101.31
306.121	94.31
306.352	110.31
306.582	88.31
306.812	88.31
307.042	100.31
307.272	105.31
307.502	93.31
307.731	98.31
307.961	107.31
308.191	92.31
308.421	100.31
308.651	91.31
308.881	109.31
309.111	94.31
309.341	93.31
309.571	101.31
309.8	96.31
310.03	102.31
310.26	100.31
310.49	88.31
310.72	100.31
310.949	98.31
311.179	98.31
311.409	110.31
311.639	88.31
311.868	104.31
312.098	95.31
312.328	93.31
312.557	89.31
312.787	105.31
313.017	106.31
313.246	101.31
313.476	91.31
313.706	85.31
313.935	98.31
314.165	87.31
314.394	93.31
314.624	89.31
314.853	100.31
315.083	98.31
315.312	92.31
315.542	87.31
315.771	89.31
316.001	99.31
316.23	93.31
316.46	78.31
316.689	81.31
316.919	87.31
317.148	100.31
317.377	90.31
317.607	85.31
317.836	82.31
318.065	88.31
318.295	109.31
318.524	103.31
318.753	100.31
318.983	83.31
319.212	106.31
319.441	95.31
319.67	102.31
319.9	92.31
320.129	101.31
320.358	98.31
320.587	87.31
320.816	96.31
321.046	95.31
321.275	102.31
321.504	101.31
321.733	98.31
321.962	99.31
322.191	96.31
322.42	104.31
322.649	104.31
322.878	109.31
323.108	106.31
323.337	108.31
323.566	120.31
323.795	147.31
324.024	174.31
324.253	341.31
324.482	720.31
324.71	1446.31
324.939	1925.31
325.168	686.31
325.397	226.31
325.626	146.31
325.855	123.31
326.084	136.31
326.313	117.31
326.542	157.31
326.77	228.31
326.999	414.31
327.228	839.31
327.457	1523.31
327.686	1178.31
327.914	345.31
328.143	203.31
328.372	196.31
328.6	152.31
328.829	116.31
329.058	116.31
329.287	130.31
329.515	108.31
329.744	112.31
329.972	139.31
330.201	214.31
330.43	250.31
330.658	167.31
330.887	130.31
331.115	112.31
331.344	102.31
331.572	114.31
331.801	106.31
332.03	103.31
332.258	96.31
332.486	93.31
332.715	98.31
332.943	100.31
333.172	99.31
333.4	106.31
333.629	107.31
333.857	118.31
334.085	138.31
334.314	205.31
334.542	301.31
334.771	294.31
334.999	135.31
335.227	104.31
335.455	99.31
335.684	113.31
335.912	98.31
336.14	105.31
336.369	98.31
336.597	104.31
336.825	99.31
337.053	109.31
337.281	100.31
337.51	92.31
337.738	111.31
337.966	97.31
338.194	98.31
338.422	98.31
338.65	115.31
338.878	87.31
339.106	88.31
339.334	108.31
339.562	106.31
339.79	90.31
340.018	100.31
340.246	93.31
340.474	88.31
340.702	101.31
340.93	99.31
341.158	88.31
341.386	98.31
341.614	97.31
341.842	94.31
342.07	95.31
342.298	104.31
342.526	105.31
342.754	91.31
342.981	91.31
343.209	101.31
343.437	105.31
343.665	87.31
343.893	90.31
344.12	97.31
344.348	102.31
344.576	101.31
344.804	96.31
345.031	84.31
345.259	94.31
345.487	91.31
345.714	90.31
345.942	81.31
346.17	90.31
346.397	89.31
346.625	88.31
346.853	90.31
347.08	93.31
347.308	96.31
347.535	98.31
347.763	92.31
347.99	96.31
348.218	114.31
348.445	103.31
348.673	100.31
348.9	96.31
349.128	102.31
349.355	95.31
349.583	92.31
349.81	111.31
350.037	103.31
350.265	101.31
350.492	100.31
350.72	105.31
350.947	112.31
351.174	102.31
351.402	112.31
351.629	90.31
351.856	106.31
352.083	100.31
352.311	114.31
352.538	102.31
352.765	101.31
352.992	105.31
353.22	102.31
353.447	96.31
353.674	100.31
353.901	96.31
354.128	110.31
354.355	103.31
354.583	109.31
354.81	102.31
355.037	107.31
355.264	110.31
355.491	85.31
355.718	110.31
355.945	98.31
356.172	98.31
356.399	99.31
356.626	96.31
356.853	101.31
357.08	91.31
357.307	91.31
357.534	93.31
357.761	109.31
357.988	98.31
358.215	106.31
358.441	109.31
358.668	98.31
358.895	114.31
359.122	102.31
359.349	90.31
359.576	83.31
359.802	104.31
360.029	104.31
360.256	94.31
360.483	89.31
360.709	86.31
360.936	106.31
361.163	91.31
361.39	85.31
361.616	95.31
361.843	86.31
362.07	92.31
362.296	108.31
362.523	84.31
362.749	84.31
362.976	102.31
363.203	98.31
363.429	80.31
363.656	93.31
363.882	92.31
364.109	87.31
364.335	90.31
364.562	93.31
364.788	85.31
365.015	97.31
365.241	105.31
365.468	115.31
365.694	96.31
365.92	95.31
366.147	91.31
366.373	92.31
366.599	99.31
366.826	91.31
367.052	92.31
367.278	98.31
367.505	98.31
367.731	96.31
367.957	98.31
368.184	92.31
368.41	102.31
368.636	124.31
368.862	111.31
369.089	100.31
369.315	97.31
369.541	97.31
369.767	93.31
369.993	82.31
370.219	96.31
370.445	92.31
370.672	101.31
370.898	104.31
371.124	84.31
371.35	89.31
371.576	77.31
371.802	102.31
372.028	88.31
372.254	96.31
372.48	85.31
372.706	84.31
372.932	104.31
373.158	90.31
373.384	108.31
373.61	93.31
373.835	85.31
374.061	97.31
374.287	91.31
374.513	106.31
374.739	96.31
374.965	98.31
375.191	96.31
375.416	102.31
375.642	110.31
375.868	89.31
376.094	94.31
376.319	90.31
376.545	93.31
376.771	95.31
376.997	85.31
377.222	103.31
377.448	88.31
377.674	96.31
377.899	97.31
378.125	84.31
378.35	81.31
378.576	106.31
378.802	89.31
379.027	102.31
379.253	91.31
379.478	99.31
379.704	92.31
379.929	98.31
380.155	94.31
380.38	98.31
380.606	99.31
380.831	89.31
381.057	104.31
381.282	101.31
381.507	97.31
381.733	97.31
381.958	103.31
382.184	100.31
382.409	110.31
382.634	106.31
382.86	104.31
383.085	92.31
383.31	102.31
383.535	101.31
383.761	116.31
383.986	107.31
384.211	105.31
384.436	91.31
384.662	100.31
384.887	100.31
385.112	102.31
385.337	116.31
385.562	97.31
385.787	109.31
386.013	113.31
386.238	114.31
386.463	114.31
386.688	119.31
386.913	100.31
387.138	93.31
387.363	106.31
387.588	105.31
387.813	97.31
388.038	96.31
388.263	105.31
388.488	107.31
388.713	100.31
388.938	84.31
389.163	104.31
389.387	100.31
389.612	85.31
389.837	86.31
390.062	92.31
390.287	116.31
390.512	93.31
390.736	96.31
390.961	92.31
391.186	92.31
391.411	95.31
391.636	81.31
391.86	89.31
392.085	76.31
392.31	91.31
392.534	83.31
392.759	93.31
392.984	90.31
393.208	97.31
393.433	97.31
393.658	94.31
393.882	85.31
394.107	89.31
394.331	84.31
394.556	94.31
394.78	87.31
395.005	111.31
395.229	75.31
395.454	87.31
395.678	86.31
395.903	107.31
396.127	105.31
396.352	91.31
396.576	81.31
396.801	85.31
397.025	103.31
397.249	85.31
397.474	86.31
397.698	88.31
397.922	74.31
398.147	87.31
398.371	74.31
398.595	98.31
398.82	89.31
399.044	97.31
399.268	89.31
399.492	95.31
399.717	100.31
399.941	93.31
400.165	93.31
400.389	84.31
400.613	77.31
400.837	74.31
401.062	89.31
401.286	85.31
401.51	86.31
401.734	93.31
401.958	103.31
402.182	106.31
402.406	125.31
402.63	109.31
402.854	94.31
403.078	89.31
403.302	92.31
403.526	106.31
403.75	90.31
403.974	108.31
404.198	85.31
404.422	82.31
404.645	100.31
404.869	85.31
405.093	94.31
405.317	93.31
405.541	101.31
405.765	96.31
405.988	101.31
406.212	147.31
406.436	194.31
406.66	114.31
406.883	109.31
407.107	87.31
407.331	81.31
407.555	102.31
407.778	92.31
408.002	90.31
408.226	88.31
408.449	83.31
408.673	98.31
408.896	97.31
409.12	92.31
409.344	97.31
409.567	94.31
409.791	92.31
410.014	94.31
410.238	94.31
410.461	80.31
410.685	98.31
410.908	87.31
411.132	100.31
411.355	103.31
411.578	95.31
411.802	91.31
412.025	86.31
412.249	96.31
412.472	109.31
412.695	107.31
412.919	81.31
413.142	100.31
413.365	86.31
413.589	85.31
413.812	101.31
414.035	102.31
414.258	97.31
414.482	93.31
414.705	99.31
414.928	82.31
415.151	104.31
415.374	88.31
415.597	78.31
415.821	99.31
416.044	106.31
416.267	92.31
416.49	88.31
416.713	88.31
416.936	101.31
417.159	101.31
417.382	89.31
417.605	106.31
417.828	89.31
418.051	88.31
418.274	77.31
418.497	84.31
418.72	88.31
418.943	81.31
419.166	80.31
419.389	87.31
419.611	84.31
419.834	92.31
420.057	88.31
420.28	92.31
420.503	92.31
420.726	103.31
420.948	94.31
421.171	89.31
421.394	92.31
421.617	89.31
421.839	94.31
422.062	84.31
422.285	99.31
422.507	97.31
422.73	106.31
422.953	89.31
423.175	99.31
423.398	89.31
423.621	93.31
423.843	81.31
424.066	97.31
424.288	93.31
424.511	91.31
424.733	97.31
424.956	94.31
425.178	97.31
425.401	98.31
425.623	110.31
425.846	87.31
426.068	108.31
426.291	87.31
426.513	81.31
426.735	101.31
426.958	91.31
427.18	104.31
427.402	138.31
427.625	150.31
427.847	140.31
428.069	129.31
428.292	102.31
428.514	81.31
428.736	83.31
428.958	97.31
429.181	105.31
429.403	92.31
429.625	91.31
429.847	74.31
430.069	89.31
430.292	77.31
430.514	77.31
430.736	104.31
430.958	90.31
431.18	93.31
431.402	78.31
431.624	89.31
431.846	84.31
432.068	76.31
432.29	96.31
432.512	105.31
432.734	80.31
432.956	106.31
433.178	108.31
433.4	95.31
433.622	92.31
433.844	83.31
434.066	99.31
434.287	92.31
434.509	91.31
434.731	84.31
434.953	87.31
435.175	92.31
435.397	78.31
435.618	105.31
435.84	90.31
436.062	120.31
436.284	114.31
436.505	102.31
436.727	99.31
436.949	93.31
437.17	92.31
437.392	87.31
437.614	81.31
437.835	85.31
438.057	101.31
438.278	113.31
438.5	92.31
438.721	113.31
438.943	85.31
439.165	87.31
439.386	86.31
439.608	93.31
439.829	90.31
440.05	107.31
440.272	123.31
440.493	100.31
440.715	96.31
440.936	93.31
441.158	100.31
441.379	88.31
441.6	107.31
441.822	89.31
442.043	90.31
442.264	100.31
442.486	95.31
442.707	97.31
442.928	85.31
443.149	109.31
443.371	120.31
443.592	96.31
443.813	99.31
444.034	92.31
444.255	95.31
444.476	84.31
444.698	99.31
444.919	84.31
445.14	141.31
445.361	118.31
445.582	107.31
445.803	139.31
446.024	129.31
446.245	114.31
446.466	99.31
446.687	86.31
446.908	99.31
447.129	95.31
447.35	90.31
447.571	98.31
447.792	87.31
448.013	82.31
448.234	89.31
448.455	83.31
448.675	97.31
448.896	118.31
449.117	88.31
449.338	98.31
449.559	116.31
449.779	114.31
450	99.31
450.221	92.31
450.442	94.31
450.662	89.31
450.883	99.31
451.104	106.31
451.324	92.31
451.545	75.31
451.766	84.31
451.986	80.31
452.207	89.31
452.428	99.31
452.648	100.31
452.869	114.31
453.089	117.31
453.31	101.31
453.53	87.31
453.751	84.31
453.971	98.31
454.192	104.31
454.412	98.31
454.633	83.31
454.853	92.31
455.073	86.31
455.294	93.31
455.514	84.31
455.734	97.31
455.955	90.31
456.175	89.31
456.395	91.31
456.616	100.31
456.836	93.31
457.056	93.31
457.276	99.31
457.497	87.31
457.717	87.31
457.937	105.31
458.157	106.31
458.377	92.31
458.598	96.31
458.818	109.31
459.038	127.31
459.258	94.31
459.478	93.31
459.698	104.31
459.918	87.31
460.138	92.31
460.358	87.31
460.578	85.31
460.798	94.31
461.018	81.31
461.238	102.31
461.458	77.31
461.678	85.31
461.898	83.31
462.118	102.31
462.338	85.31
462.558	100.31
462.777	85.31
462.997	91.31
463.217	94.31
463.437	85.31
463.657	82.31
463.876	82.31
464.096	88.31
464.316	96.31
464.536	99.31
464.755	91.31
464.975	119.31
465.195	129.31
465.414	116.31
465.634	97.31
465.854	80.31
466.073	86.31
466.293	85.31
466.512	78.31
466.732	92.31
466.951	94.31
467.171	84.31
467.391	107.31
467.61	88.31
467.829	104.31
468.049	141.31
468.268	162.31
468.488	106.31
468.707	89.31
468.927	94.31
469.146	88.31
469.365	65.31
469.585	88.31
469.804	110.31
470.023	100.31
470.243	99.31
470.462	90.31
470.681	110.31
470.901	95.31
471.12	100.31
471.339	90.31
471.558	98.31
471.777	93.31
471.997	116.31
472.216	228.31
472.435	386.31
472.654	155.31
472.873	99.31
473.092	93.31
473.311	80.31
473.53	90.31
473.749	88.31
473.968	97.31
474.187	112.31
474.406	86.31
474.625	84.31
474.844	93.31
475.063	92.31
475.282	79.31
475.501	104.31
475.72	94.31
475.939	88.31
476.158	82.31
476.377	83.31
476.596	80.31
476.814	85.31
477.033	83.31
477.252	98.31
477.471	89.31
477.69	94.31
477.908	101.31
478.127	86.31
478.346	89.31
478.564	81.31
478.783	108.31
479.002	98.31
479.22	93.31
479.439	91.31
479.658	93.31
479.876	87.31
480.095	81.31
480.313	102.31
480.532	93.31
480.751	121.31
480.969	227.31
481.188	661.31
481.406	393.31
481.624	124.31
481.843	110.31
482.061	98.31
482.28	94.31
482.498	91.31
482.717	84.31
482.935	92.31
483.153	101.31
483.372	94.31
483.59	117.31
483.808	85.31
484.027	100.31
484.245	91.31
484.463	95.31
484.681	105.31
484.9	91.31
485.118	105.31
485.336	95.31
485.554	94.31
485.772	100.31
485.99	97.31
486.209	119.31
486.427	108.31
486.645	86.31
486.863	97.31
487.081	88.31
487.299	111.31
487.517	93.31
487.735	89.31
487.953	91.31
488.171	96.31
488.389	95.31
488.607	92.31
488.825	80.31
489.043	89.31
489.261	101.31
489.479	91.31
489.696	92.31
489.914	89.31
490.132	85.31
490.35	93.31
490.568	77.31
490.786	81.31
491.003	74.31
491.221	84.31
491.439	102.31
491.657	94.31
491.874	88.31
492.092	107.31
492.31	97.31
492.527	91.31
492.745	96.31
492.963	85.31
493.18	91.31
493.398	98.31
493.615	105.31
493.833	110.31
494.05	85.31
494.268	90.31
494.485	113.31
494.703	88.31
494.92	93.31
495.138	90.31
495.355	108.31
495.573	91.31
495.79	101.31
496.008	95.31
496.225	96.31
496.442	100.31
496.66	83.31
496.877	92.31
497.094	91.31
497.312	88.31
497.529	85.31
497.746	80.31
497.963	82.31
498.181	103.31
498.398	90.31
498.615	101.31
498.832	121.31
499.049	90.31
499.267	101.31
499.484	99.31
499.701	85.31
499.918	102.31
500.135	97.31
500.352	89.31
500.569	92.31
500.786	100.31
501.003	104.31
501.22	89.31
501.437	104.31
501.654	99.31
501.871	99.31
502.088	81.31
502.305	102.31
502.522	92.31
502.739	93.31
502.956	97.31
503.172	93.31
503.389	97.31
503.606	104.31
503.823	94.31
504.04	96.31
504.256	107.31
504.473	83.31
504.69	90.31
504.907	98.31
505.123	85.31
505.34	98.31
505.557	77.31
505.773	86.31
505.99	116.31
506.207	84.31
506.423	83.31
506.64	95.31
506.856	97.31
507.073	91.31
507.289	83.31
507.506	103.31
507.722	103.31
507.939	108.31
508.155	96.31
508.372	78.31
508.588	91.31
508.805	103.31
509.021	92.31
509.238	103.31
509.454	104.31
509.67	99.31
509.887	100.31
510.103	123.31
510.319	175.31
510.536	540.31
510.752	1560.31
510.968	468.31
511.184	130.31
511.401	92.31
511.617	96.31
511.833	102.31
512.049	105.31
512.265	97.31
512.481	109.31
512.698	85.31
512.914	76.31
513.13	86.31
513.346	97.31
513.562	107.31
513.778	102.31
513.994	102.31
514.21	110.31
514.426	116.31
