Data from Uncirc_1989_H10_HRD10591_00098.txt Node
Date: Wed Jan 03 11:57:55 EST 2024
User: Yrep
Spectrometer: HR+D1059
Trigger mode: 1
Integration Time (sec): 1.000000E-1
Scans to average: 1
Electric dark correction enabled: true
Nonlinearity correction enabled: false
Boxcar width: 0
XAxis mode: Wavelengths
Number of Pixels in Spectrum: 2048
>>>>>Begin Spectral Data<<<<<
223.165	-14.56
223.4	-14.56
223.635	-14.56
223.869	-22.56
224.104	-26.56
224.338	-14.56
224.573	-7.56
224.808	-14.56
225.042	-15.56
225.277	-1.56
225.511	4.44
225.746	-2.56
225.98	5.44
226.215	10.44
226.449	12.44
226.683	15.44
226.918	29.44
227.152	42.44
227.387	37.44
227.621	54.44
227.856	49.44
228.09	45.44
228.324	55.44
228.559	59.44
228.793	63.44
229.027	72.44
229.262	63.44
229.496	76.44
229.73	76.44
229.964	76.44
230.199	74.44
230.433	70.44
230.667	87.44
230.901	76.44
231.136	88.44
231.37	63.44
231.604	89.44
231.838	70.44
232.072	83.44
232.306	97.44
232.541	93.44
232.775	83.44
233.009	72.44
233.243	80.44
233.477	83.44
233.711	89.44
233.945	77.44
234.179	72.44
234.413	78.44
234.647	90.44
234.881	92.44
235.115	83.44
235.349	94.44
235.583	82.44
235.817	87.44
236.051	82.44
236.285	80.44
236.519	90.44
236.753	73.44
236.987	104.44
237.221	84.44
237.455	73.44
237.689	74.44
237.922	85.44
238.156	82.44
238.39	70.44
238.624	76.44
238.858	76.44
239.091	78.44
239.325	93.44
239.559	63.44
239.793	85.44
240.027	83.44
240.26	74.44
240.494	76.44
240.728	68.44
240.961	63.44
241.195	80.44
241.429	76.44
241.662	80.44
241.896	96.44
242.13	88.44
242.363	84.44
242.597	68.44
242.83	84.44
243.064	74.44
243.298	87.44
243.531	74.44
243.765	89.44
243.998	91.44
244.232	86.44
244.465	91.44
244.699	64.44
244.932	85.44
245.166	61.44
245.399	75.44
245.633	69.44
245.866	82.44
246.099	88.44
246.333	81.44
246.566	71.44
246.8	69.44
247.033	83.44
247.266	88.44
247.5	79.44
247.733	57.44
247.966	93.44
248.2	90.44
248.433	98.44
248.666	114.44
248.899	95.44
249.133	92.44
249.366	89.44
249.599	96.44
249.832	83.44
250.066	86.44
250.299	68.44
250.532	79.44
250.765	85.44
250.998	77.44
251.231	77.44
251.465	86.44
251.698	75.44
251.931	59.44
252.164	84.44
252.397	83.44
252.63	83.44
252.863	83.44
253.096	71.44
253.329	83.44
253.562	83.44
253.795	75.44
254.028	102.44
254.261	95.44
254.494	92.44
254.727	76.44
254.96	70.44
255.193	77.44
255.426	83.44
255.659	84.44
255.892	90.44
256.124	74.44
256.357	88.44
256.59	87.44
256.823	75.44
257.056	71.44
257.289	98.44
257.521	83.44
257.754	90.44
257.987	89.44
258.22	84.44
258.452	89.44
258.685	76.44
258.918	89.44
259.151	76.44
259.383	83.44
259.616	102.44
259.849	95.44
260.081	82.44
260.314	77.44
260.547	82.44
260.779	83.44
261.012	77.44
261.244	99.44
261.477	87.44
261.71	100.44
261.942	99.44
262.175	108.44
262.407	87.44
262.64	87.44
262.872	85.44
263.105	74.44
263.337	78.44
263.57	80.44
263.802	89.44
264.035	80.44
264.267	79.44
264.499	74.44
264.732	92.44
264.964	87.44
265.197	98.44
265.429	79.44
265.661	78.44
265.894	83.44
266.126	72.44
266.358	104.44
266.591	93.44
266.823	92.44
267.055	73.44
267.287	73.44
267.52	100.44
267.752	93.44
267.984	96.44
268.216	89.44
268.448	91.44
268.681	94.44
268.913	97.44
269.145	98.44
269.377	84.44
269.609	84.44
269.841	91.44
270.073	89.44
270.306	75.44
270.538	98.44
270.77	93.44
271.002	85.44
271.234	79.44
271.466	90.44
271.698	73.44
271.93	87.44
272.162	90.44
272.394	81.44
272.626	91.44
272.858	79.44
273.09	86.44
273.322	83.44
273.553	87.44
273.785	83.44
274.017	77.44
274.249	77.44
274.481	87.44
274.713	93.44
274.945	79.44
275.176	95.44
275.408	93.44
275.64	98.44
275.872	96.44
276.104	94.44
276.335	105.44
276.567	89.44
276.799	107.44
277.031	103.44
277.262	106.44
277.494	100.44
277.726	83.44
277.957	90.44
278.189	84.44
278.421	90.44
278.652	90.44
278.884	86.44
279.115	96.44
279.347	91.44
279.579	86.44
279.81	91.44
280.042	97.44
280.273	108.44
280.505	86.44
280.736	94.44
280.968	86.44
281.199	87.44
281.431	94.44
281.662	89.44
281.894	104.44
282.125	96.44
282.356	101.44
282.588	121.44
282.819	113.44
283.051	87.44
283.282	76.44
283.513	106.44
283.745	90.44
283.976	76.44
284.207	85.44
284.439	87.44
284.67	109.44
284.901	92.44
285.132	88.44
285.364	96.44
285.595	89.44
285.826	75.44
286.057	86.44
286.288	94.44
286.52	94.44
286.751	100.44
286.982	98.44
287.213	81.44
287.444	80.44
287.675	83.44
287.906	81.44
288.138	101.44
288.369	98.44
288.6	82.44
288.831	88.44
289.062	109.44
289.293	86.44
289.524	87.44
289.755	88.44
289.986	88.44
290.217	83.44
290.448	91.44
290.679	89.44
290.91	98.44
291.141	75.44
291.371	75.44
291.602	87.44
291.833	96.44
292.064	85.44
292.295	96.44
292.526	99.44
292.757	113.44
292.987	92.44
293.218	97.44
293.449	91.44
293.68	79.44
293.91	88.44
294.141	96.44
294.372	101.44
294.603	85.44
294.833	99.44
295.064	80.44
295.295	98.44
295.525	108.44
295.756	91.44
295.987	118.44
296.217	113.44
296.448	113.44
296.679	76.44
296.909	96.44
297.14	83.44
297.37	89.44
297.601	88.44
297.831	98.44
298.062	96.44
298.292	101.44
298.523	89.44
298.753	91.44
298.984	86.44
299.214	92.44
299.445	90.44
299.675	87.44
299.905	98.44
300.136	89.44
300.366	85.44
300.597	105.44
300.827	94.44
301.057	92.44
301.288	92.44
301.518	87.44
301.748	85.44
301.979	103.44
302.209	100.44
302.439	79.44
302.669	92.44
302.9	82.44
303.13	100.44
303.36	105.44
303.59	100.44
303.82	92.44
304.051	92.44
304.281	92.44
304.511	111.44
304.741	91.44
304.971	91.44
305.201	84.44
305.431	98.44
305.661	90.44
305.891	88.44
306.121	91.44
306.352	88.44
306.582	110.44
306.812	90.44
307.042	95.44
307.272	104.44
307.502	115.44
307.731	104.44
307.961	91.44
308.191	91.44
308.421	76.44
308.651	97.44
308.881	102.44
309.111	105.44
309.341	98.44
309.571	101.44
309.8	99.44
310.03	91.44
310.26	91.44
310.49	100.44
310.72	92.44
310.949	100.44
311.179	86.44
311.409	89.44
311.639	97.44
311.868	106.44
312.098	90.44
312.328	98.44
312.557	95.44
312.787	109.44
313.017	95.44
313.246	93.44
313.476	91.44
313.706	98.44
313.935	97.44
314.165	95.44
314.394	104.44
314.624	104.44
314.853	94.44
315.083	86.44
315.312	98.44
315.542	80.44
315.771	86.44
316.001	89.44
316.23	95.44
316.46	101.44
316.689	102.44
316.919	96.44
317.148	100.44
317.377	91.44
317.607	88.44
317.836	99.44
318.065	93.44
318.295	100.44
318.524	99.44
318.753	109.44
318.983	105.44
319.212	98.44
319.441	106.44
319.67	99.44
319.9	90.44
320.129	101.44
320.358	108.44
320.587	87.44
320.816	91.44
321.046	97.44
321.275	111.44
321.504	88.44
321.733	97.44
321.962	106.44
322.191	103.44
322.42	102.44
322.649	114.44
322.878	115.44
323.108	100.44
323.337	123.44
323.566	122.44
323.795	136.44
324.024	173.44
324.253	347.44
324.482	693.44
324.71	1439.44
324.939	1856.44
325.168	684.44
325.397	213.44
325.626	128.44
325.855	133.44
326.084	120.44
326.313	130.44
326.542	139.44
326.77	203.44
326.999	390.44
327.228	787.44
327.457	1451.44
327.686	1145.44
327.914	330.44
328.143	209.44
328.372	189.44
328.6	162.44
328.829	108.44
329.058	107.44
329.287	132.44
329.515	124.44
329.744	129.44
329.972	157.44
330.201	253.44
330.43	277.44
330.658	183.44
330.887	140.44
331.115	120.44
331.344	112.44
331.572	114.44
331.801	92.44
332.03	119.44
332.258	96.44
332.486	99.44
332.715	103.44
332.943	96.44
333.172	103.44
333.4	102.44
333.629	110.44
333.857	128.44
334.085	150.44
334.314	232.44
334.542	355.44
334.771	319.44
334.999	133.44
335.227	108.44
335.455	98.44
335.684	91.44
335.912	93.44
336.14	96.44
336.369	102.44
336.597	103.44
336.825	89.44
337.053	89.44
337.281	93.44
337.51	93.44
337.738	104.44
337.966	91.44
338.194	101.44
338.422	108.44
338.65	91.44
338.878	88.44
339.106	93.44
339.334	97.44
339.562	95.44
339.79	101.44
340.018	95.44
340.246	99.44
340.474	78.44
340.702	87.44
340.93	96.44
341.158	101.44
341.386	94.44
341.614	101.44
341.842	105.44
342.07	89.44
342.298	101.44
342.526	87.44
342.754	95.44
342.981	91.44
343.209	90.44
343.437	105.44
343.665	90.44
343.893	85.44
344.12	101.44
344.348	98.44
344.576	97.44
344.804	113.44
345.031	98.44
345.259	109.44
345.487	102.44
345.714	92.44
345.942	116.44
346.17	95.44
346.397	82.44
346.625	93.44
346.853	106.44
347.08	88.44
347.308	92.44
347.535	112.44
347.763	89.44
347.99	106.44
348.218	103.44
348.445	103.44
348.673	108.44
348.9	92.44
349.128	109.44
349.355	96.44
349.583	107.44
349.81	99.44
350.037	93.44
350.265	102.44
350.492	88.44
350.72	97.44
350.947	103.44
351.174	103.44
351.402	121.44
351.629	88.44
351.856	94.44
352.083	106.44
352.311	103.44
352.538	113.44
352.765	104.44
352.992	114.44
353.22	105.44
353.447	109.44
353.674	98.44
353.901	99.44
354.128	99.44
354.355	98.44
354.583	90.44
354.81	98.44
355.037	83.44
355.264	103.44
355.491	98.44
355.718	92.44
355.945	100.44
356.172	100.44
356.399	108.44
356.626	96.44
356.853	99.44
357.08	108.44
357.307	110.44
357.534	95.44
357.761	91.44
357.988	96.44
358.215	111.44
358.441	80.44
358.668	91.44
358.895	98.44
359.122	93.44
359.349	90.44
359.576	101.44
359.802	111.44
360.029	105.44
360.256	95.44
360.483	106.44
360.709	86.44
360.936	88.44
361.163	104.44
361.39	93.44
361.616	81.44
361.843	83.44
362.07	86.44
362.296	92.44
362.523	93.44
362.749	88.44
362.976	97.44
363.203	102.44
363.429	93.44
363.656	88.44
363.882	80.44
364.109	100.44
364.335	95.44
364.562	87.44
364.788	93.44
365.015	115.44
365.241	107.44
365.468	101.44
365.694	107.44
365.92	103.44
366.147	100.44
366.373	86.44
366.599	104.44
366.826	101.44
367.052	91.44
367.278	99.44
367.505	106.44
367.731	103.44
367.957	96.44
368.184	97.44
368.41	96.44
368.636	111.44
368.862	109.44
369.089	108.44
369.315	100.44
369.541	98.44
369.767	80.44
369.993	94.44
370.219	91.44
370.445	95.44
370.672	84.44
370.898	86.44
371.124	90.44
371.35	80.44
371.576	89.44
371.802	83.44
372.028	95.44
372.254	83.44
372.48	99.44
372.706	88.44
372.932	105.44
373.158	82.44
373.384	95.44
373.61	101.44
373.835	97.44
374.061	83.44
374.287	96.44
374.513	76.44
374.739	88.44
374.965	104.44
375.191	106.44
375.416	101.44
375.642	89.44
375.868	91.44
376.094	99.44
376.319	98.44
376.545	92.44
376.771	94.44
376.997	81.44
377.222	90.44
377.448	96.44
377.674	90.44
377.899	94.44
378.125	82.44
378.35	97.44
378.576	81.44
378.802	97.44
379.027	85.44
379.253	97.44
379.478	104.44
379.704	100.44
379.929	95.44
380.155	93.44
380.38	83.44
380.606	104.44
380.831	107.44
381.057	96.44
381.282	93.44
381.507	92.44
381.733	91.44
381.958	95.44
382.184	85.44
382.409	100.44
382.634	112.44
382.86	84.44
383.085	98.44
383.31	111.44
383.535	103.44
383.761	104.44
383.986	87.44
384.211	114.44
384.436	96.44
384.662	107.44
384.887	90.44
385.112	95.44
385.337	97.44
385.562	99.44
385.787	87.44
386.013	112.44
386.238	100.44
386.463	91.44
386.688	117.44
386.913	106.44
387.138	97.44
387.363	100.44
387.588	94.44
387.813	101.44
388.038	92.44
388.263	83.44
388.488	102.44
388.713	89.44
388.938	101.44
389.163	108.44
389.387	92.44
389.612	83.44
389.837	104.44
390.062	90.44
390.287	101.44
390.512	88.44
390.736	99.44
390.961	95.44
391.186	90.44
391.411	107.44
391.636	90.44
391.86	85.44
392.085	83.44
392.31	83.44
392.534	76.44
392.759	89.44
392.984	93.44
393.208	101.44
393.433	99.44
393.658	96.44
393.882	96.44
394.107	89.44
394.331	89.44
394.556	88.44
394.78	96.44
395.005	75.44
395.229	81.44
395.454	87.44
395.678	99.44
395.903	84.44
396.127	87.44
396.352	81.44
396.576	85.44
396.801	107.44
397.025	80.44
397.249	91.44
397.474	91.44
397.698	93.44
397.922	82.44
398.147	94.44
398.371	101.44
398.595	91.44
398.82	80.44
399.044	95.44
399.268	87.44
399.492	88.44
399.717	82.44
399.941	96.44
400.165	91.44
400.389	100.44
400.613	97.44
400.837	92.44
401.062	71.44
401.286	96.44
401.51	91.44
401.734	99.44
401.958	103.44
402.182	128.44
402.406	140.44
402.63	114.44
402.854	99.44
403.078	100.44
403.302	99.44
403.526	89.44
403.75	104.44
403.974	90.44
404.198	88.44
404.422	92.44
404.645	75.44
404.869	101.44
405.093	97.44
405.317	100.44
405.541	100.44
405.765	100.44
405.988	107.44
406.212	165.44
406.436	204.44
406.66	143.44
406.883	105.44
407.107	95.44
407.331	76.44
407.555	91.44
407.778	91.44
408.002	90.44
408.226	101.44
408.449	112.44
408.673	84.44
408.896	98.44
409.12	100.44
409.344	85.44
409.567	82.44
409.791	82.44
410.014	95.44
410.238	84.44
410.461	90.44
410.685	105.44
410.908	84.44
411.132	108.44
411.355	100.44
411.578	98.44
411.802	91.44
412.025	98.44
412.249	94.44
412.472	105.44
412.695	99.44
412.919	95.44
413.142	91.44
413.365	74.44
413.589	83.44
413.812	79.44
414.035	91.44
414.258	102.44
414.482	107.44
414.705	105.44
414.928	89.44
415.151	100.44
415.374	93.44
415.597	92.44
415.821	89.44
416.044	76.44
416.267	89.44
416.49	97.44
416.713	101.44
416.936	91.44
417.159	89.44
417.382	93.44
417.605	80.44
417.828	89.44
418.051	91.44
418.274	95.44
418.497	80.44
418.72	95.44
418.943	93.44
419.166	92.44
419.389	87.44
419.611	85.44
419.834	94.44
420.057	85.44
420.28	85.44
420.503	85.44
420.726	84.44
420.948	90.44
421.171	101.44
421.394	96.44
421.617	97.44
421.839	84.44
422.062	106.44
422.285	79.44
422.507	99.44
422.73	95.44
422.953	98.44
423.175	98.44
423.398	97.44
423.621	97.44
423.843	96.44
424.066	106.44
424.288	85.44
424.511	85.44
424.733	97.44
424.956	98.44
425.178	100.44
425.401	108.44
425.623	96.44
425.846	103.44
426.068	109.44
426.291	108.44
426.513	89.44
426.735	83.44
426.958	95.44
427.18	100.44
427.402	119.44
427.625	157.44
427.847	136.44
428.069	125.44
428.292	102.44
428.514	86.44
428.736	102.44
428.958	96.44
429.181	91.44
429.403	91.44
429.625	87.44
429.847	97.44
430.069	93.44
430.292	98.44
430.514	89.44
430.736	99.44
430.958	82.44
431.18	93.44
431.402	91.44
431.624	98.44
431.846	95.44
432.068	93.44
432.29	93.44
432.512	85.44
432.734	79.44
432.956	90.44
433.178	91.44
433.4	91.44
433.622	90.44
433.844	76.44
434.066	104.44
434.287	93.44
434.509	79.44
434.731	88.44
434.953	102.44
435.175	90.44
435.397	80.44
435.618	79.44
435.84	109.44
436.062	109.44
436.284	112.44
436.505	104.44
436.727	99.44
436.949	91.44
437.17	99.44
437.392	92.44
437.614	103.44
437.835	90.44
438.057	109.44
438.278	102.44
438.5	97.44
438.721	108.44
438.943	86.44
439.165	81.44
439.386	98.44
439.608	109.44
439.829	85.44
440.05	118.44
440.272	130.44
440.493	112.44
440.715	89.44
440.936	96.44
441.158	92.44
441.379	86.44
441.6	93.44
441.822	91.44
442.043	88.44
442.264	90.44
442.486	94.44
442.707	89.44
442.928	92.44
443.149	118.44
443.371	111.44
443.592	100.44
443.813	97.44
444.034	113.44
444.255	84.44
444.476	88.44
444.698	98.44
444.919	95.44
445.14	148.44
445.361	117.44
445.582	118.44
445.803	116.44
446.024	115.44
446.245	124.44
446.466	106.44
446.687	75.44
446.908	74.44
447.129	95.44
447.35	81.44
447.571	96.44
447.792	98.44
448.013	103.44
448.234	107.44
448.455	99.44
448.675	103.44
448.896	108.44
449.117	92.44
449.338	97.44
449.559	117.44
449.779	112.44
450	87.44
450.221	83.44
450.442	91.44
450.662	87.44
450.883	108.44
451.104	112.44
451.324	95.44
451.545	93.44
451.766	93.44
451.986	93.44
452.207	100.44
452.428	94.44
452.648	91.44
452.869	91.44
453.089	109.44
453.31	101.44
453.53	92.44
453.751	95.44
453.971	104.44
454.192	121.44
454.412	90.44
454.633	114.44
454.853	100.44
455.073	96.44
455.294	85.44
455.514	95.44
455.734	86.44
455.955	85.44
456.175	79.44
456.395	93.44
456.616	94.44
456.836	89.44
457.056	89.44
457.276	68.44
457.497	72.44
457.717	83.44
457.937	80.44
458.157	106.44
458.377	97.44
458.598	90.44
458.818	126.44
459.038	142.44
459.258	111.44
459.478	87.44
459.698	100.44
459.918	84.44
460.138	88.44
460.358	99.44
460.578	83.44
460.798	73.44
461.018	87.44
461.238	95.44
461.458	87.44
461.678	82.44
461.898	69.44
462.118	92.44
462.338	96.44
462.558	88.44
462.777	87.44
462.997	84.44
463.217	89.44
463.437	92.44
463.657	97.44
463.876	101.44
464.096	96.44
464.316	99.44
464.536	112.44
464.755	101.44
464.975	119.44
465.195	150.44
465.414	145.44
465.634	99.44
465.854	81.44
466.073	86.44
466.293	92.44
466.512	92.44
466.732	93.44
466.951	104.44
467.171	101.44
467.391	86.44
467.61	103.44
467.829	114.44
468.049	147.44
468.268	197.44
468.488	93.44
468.707	94.44
468.927	97.44
469.146	99.44
469.365	94.44
469.585	99.44
469.804	92.44
470.023	113.44
470.243	111.44
470.462	94.44
470.681	103.44
470.901	87.44
471.12	97.44
471.339	95.44
471.558	99.44
471.777	107.44
471.997	130.44
472.216	271.44
472.435	447.44
472.654	164.44
472.873	94.44
473.092	99.44
473.311	86.44
473.53	89.44
473.749	95.44
473.968	91.44
474.187	106.44
474.406	93.44
474.625	87.44
474.844	84.44
475.063	88.44
475.282	91.44
475.501	85.44
475.72	87.44
475.939	80.44
476.158	74.44
476.377	91.44
476.596	95.44
476.814	104.44
477.033	100.44
477.252	81.44
477.471	89.44
477.69	88.44
477.908	103.44
478.127	97.44
478.346	84.44
478.564	81.44
478.783	107.44
479.002	92.44
479.22	94.44
479.439	103.44
479.658	120.44
479.876	108.44
480.095	85.44
480.313	102.44
480.532	115.44
480.751	119.44
480.969	260.44
481.188	805.44
481.406	468.44
481.624	133.44
481.843	99.44
482.061	98.44
482.28	83.44
482.498	94.44
482.717	85.44
482.935	88.44
483.153	81.44
483.372	76.44
483.59	90.44
483.808	83.44
484.027	87.44
484.245	98.44
484.463	92.44
484.681	90.44
484.9	99.44
485.118	81.44
485.336	99.44
485.554	105.44
485.772	103.44
485.99	98.44
486.209	106.44
486.427	98.44
486.645	99.44
486.863	111.44
487.081	108.44
487.299	109.44
487.517	102.44
487.735	96.44
487.953	81.44
488.171	97.44
488.389	101.44
488.607	98.44
488.825	100.44
489.043	76.44
489.261	94.44
489.479	106.44
489.696	85.44
489.914	82.44
490.132	88.44
490.35	90.44
490.568	92.44
490.786	93.44
491.003	92.44
491.221	92.44
491.439	89.44
491.657	89.44
491.874	96.44
492.092	102.44
492.31	108.44
492.527	87.44
492.745	83.44
492.963	88.44
493.18	84.44
493.398	85.44
493.615	100.44
493.833	104.44
494.05	84.44
494.268	94.44
494.485	80.44
494.703	90.44
494.92	82.44
495.138	99.44
495.355	83.44
495.573	94.44
495.79	110.44
496.008	80.44
496.225	94.44
496.442	93.44
496.66	101.44
496.877	88.44
497.094	99.44
497.312	96.44
497.529	100.44
497.746	93.44
497.963	92.44
498.181	85.44
498.398	84.44
498.615	113.44
498.832	106.44
499.049	90.44
499.267	107.44
499.484	105.44
499.701	95.44
499.918	100.44
500.135	101.44
500.352	94.44
500.569	79.44
500.786	83.44
501.003	95.44
501.22	92.44
501.437	93.44
501.654	90.44
501.871	112.44
502.088	90.44
502.305	100.44
502.522	78.44
502.739	101.44
502.956	109.44
503.172	93.44
503.389	101.44
503.606	102.44
503.823	94.44
504.04	84.44
504.256	93.44
504.473	92.44
504.69	96.44
504.907	92.44
505.123	80.44
505.34	86.44
505.557	93.44
505.773	82.44
505.99	100.44
506.207	98.44
506.423	81.44
506.64	94.44
506.856	91.44
507.073	99.44
507.289	94.44
507.506	108.44
507.722	97.44
507.939	103.44
508.155	104.44
508.372	97.44
508.588	89.44
508.805	83.44
509.021	93.44
509.238	103.44
509.454	100.44
509.67	80.44
509.887	103.44
510.103	116.44
510.319	194.44
510.536	644.44
510.752	1897.44
510.968	547.44
511.184	145.44
511.401	101.44
511.617	76.44
511.833	85.44
512.049	96.44
512.265	94.44
512.481	91.44
512.698	83.44
512.914	85.44
513.13	97.44
513.346	91.44
513.562	92.44
513.778	106.44
513.994	111.44
514.21	94.44
514.426	110.44
514.642	120.44
