Data from Uncirc_1989_H10_HRD10591_00020.txt Node
Date: Wed Jan 03 11:57:39 EST 2024
User: Yrep
Spectrometer: HR+D1059
Trigger mode: 1
Integration Time (sec): 1.000000E-1
Scans to average: 1
Electric dark correction enabled: true
Nonlinearity correction enabled: false
Boxcar width: 0
XAxis mode: Wavelengths
Number of Pixels in Spectrum: 2048
>>>>>Begin Spectral Data<<<<<
223.165	-32.81
223.4	-32.81
223.635	-32.81
223.869	-14.81
224.104	-13.81
224.338	-17.81
224.573	-12.81
224.808	-7.81
225.042	-6.81
225.277	-13.81
225.511	-2.81
225.746	17.19
225.98	19.19
226.215	7.19
226.449	17.19
226.683	25.19
226.918	10.19
227.152	27.19
227.387	51.19
227.621	31.19
227.856	44.19
228.09	54.19
228.324	49.19
228.559	57.19
228.793	64.19
229.027	70.19
229.262	64.19
229.496	73.19
229.73	73.19
229.964	81.19
230.199	79.19
230.433	89.19
230.667	90.19
230.901	81.19
231.136	83.19
231.37	81.19
231.604	83.19
231.838	75.19
232.072	89.19
232.306	74.19
232.541	81.19
232.775	83.19
233.009	72.19
233.243	80.19
233.477	81.19
233.711	69.19
233.945	69.19
234.179	86.19
234.413	81.19
234.647	79.19
234.881	95.19
235.115	77.19
235.349	81.19
235.583	85.19
235.817	82.19
236.051	83.19
236.285	85.19
236.519	89.19
236.753	74.19
236.987	88.19
237.221	91.19
237.455	87.19
237.689	75.19
237.922	69.19
238.156	81.19
238.39	77.19
238.624	63.19
238.858	82.19
239.091	78.19
239.325	88.19
239.559	83.19
239.793	98.19
240.027	91.19
240.26	87.19
240.494	73.19
240.728	81.19
240.961	78.19
241.195	57.19
241.429	77.19
241.662	94.19
241.896	89.19
242.13	76.19
242.363	75.19
242.597	69.19
242.83	68.19
243.064	77.19
243.298	74.19
243.531	76.19
243.765	65.19
243.998	73.19
244.232	87.19
244.465	78.19
244.699	82.19
244.932	69.19
245.166	89.19
245.399	85.19
245.633	81.19
245.866	74.19
246.099	72.19
246.333	82.19
246.566	96.19
246.8	75.19
247.033	81.19
247.266	74.19
247.5	77.19
247.733	85.19
247.966	84.19
248.2	82.19
248.433	70.19
248.666	79.19
248.899	99.19
249.133	93.19
249.366	89.19
249.599	84.19
249.832	80.19
250.066	85.19
250.299	81.19
250.532	79.19
250.765	78.19
250.998	89.19
251.231	95.19
251.465	82.19
251.698	91.19
251.931	84.19
252.164	85.19
252.397	84.19
252.63	82.19
252.863	75.19
253.096	71.19
253.329	81.19
253.562	89.19
253.795	94.19
254.028	82.19
254.261	77.19
254.494	85.19
254.727	89.19
254.96	84.19
255.193	87.19
255.426	70.19
255.659	95.19
255.892	89.19
256.124	90.19
256.357	85.19
256.59	101.19
256.823	77.19
257.056	77.19
257.289	87.19
257.521	89.19
257.754	78.19
257.987	77.19
258.22	83.19
258.452	80.19
258.685	79.19
258.918	74.19
259.151	73.19
259.383	86.19
259.616	73.19
259.849	77.19
260.081	89.19
260.314	63.19
260.547	88.19
260.779	101.19
261.012	83.19
261.244	85.19
261.477	95.19
261.71	86.19
261.942	83.19
262.175	90.19
262.407	91.19
262.64	87.19
262.872	86.19
263.105	70.19
263.337	85.19
263.57	83.19
263.802	87.19
264.035	84.19
264.267	84.19
264.499	91.19
264.732	77.19
264.964	85.19
265.197	84.19
265.429	84.19
265.661	89.19
265.894	95.19
266.126	89.19
266.358	79.19
266.591	82.19
266.823	84.19
267.055	83.19
267.287	90.19
267.52	83.19
267.752	97.19
267.984	95.19
268.216	73.19
268.448	90.19
268.681	81.19
268.913	66.19
269.145	83.19
269.377	78.19
269.609	94.19
269.841	86.19
270.073	83.19
270.306	81.19
270.538	93.19
270.77	82.19
271.002	87.19
271.234	91.19
271.466	97.19
271.698	84.19
271.93	77.19
272.162	89.19
272.394	81.19
272.626	77.19
272.858	87.19
273.09	83.19
273.322	82.19
273.553	86.19
273.785	72.19
274.017	69.19
274.249	88.19
274.481	84.19
274.713	81.19
274.945	75.19
275.176	69.19
275.408	79.19
275.64	86.19
275.872	89.19
276.104	100.19
276.335	103.19
276.567	102.19
276.799	101.19
277.031	93.19
277.262	85.19
277.494	103.19
277.726	76.19
277.957	63.19
278.189	103.19
278.421	80.19
278.652	85.19
278.884	85.19
279.115	87.19
279.347	81.19
279.579	101.19
279.81	88.19
280.042	95.19
280.273	100.19
280.505	83.19
280.736	81.19
280.968	80.19
281.199	100.19
281.431	105.19
281.662	79.19
281.894	83.19
282.125	95.19
282.356	106.19
282.588	120.19
282.819	107.19
283.051	89.19
283.282	98.19
283.513	83.19
283.745	92.19
283.976	93.19
284.207	90.19
284.439	87.19
284.67	89.19
284.901	97.19
285.132	80.19
285.364	84.19
285.595	82.19
285.826	82.19
286.057	87.19
286.288	97.19
286.52	83.19
286.751	81.19
286.982	93.19
287.213	92.19
287.444	87.19
287.675	83.19
287.906	75.19
288.138	90.19
288.369	89.19
288.6	83.19
288.831	96.19
289.062	89.19
289.293	92.19
289.524	86.19
289.755	89.19
289.986	102.19
290.217	86.19
290.448	88.19
290.679	84.19
290.91	91.19
291.141	88.19
291.371	94.19
291.602	80.19
291.833	88.19
292.064	94.19
292.295	91.19
292.526	92.19
292.757	73.19
292.987	83.19
293.218	97.19
293.449	79.19
293.68	87.19
293.91	87.19
294.141	99.19
294.372	91.19
294.603	77.19
294.833	99.19
295.064	88.19
295.295	90.19
295.525	85.19
295.756	87.19
295.987	111.19
296.217	117.19
296.448	96.19
296.679	94.19
296.909	89.19
297.14	99.19
297.37	100.19
297.601	82.19
297.831	92.19
298.062	93.19
298.292	96.19
298.523	97.19
298.753	92.19
298.984	96.19
299.214	86.19
299.445	92.19
299.675	97.19
299.905	98.19
300.136	84.19
300.366	90.19
300.597	96.19
300.827	79.19
301.057	93.19
301.288	109.19
301.518	88.19
301.748	100.19
301.979	105.19
302.209	93.19
302.439	97.19
302.669	96.19
302.9	88.19
303.13	87.19
303.36	105.19
303.59	88.19
303.82	117.19
304.051	94.19
304.281	97.19
304.511	95.19
304.741	100.19
304.971	90.19
305.201	92.19
305.431	97.19
305.661	99.19
305.891	90.19
306.121	101.19
306.352	106.19
306.582	93.19
306.812	101.19
307.042	98.19
307.272	92.19
307.502	108.19
307.731	94.19
307.961	99.19
308.191	92.19
308.421	91.19
308.651	85.19
308.881	78.19
309.111	82.19
309.341	95.19
309.571	100.19
309.8	94.19
310.03	102.19
310.26	93.19
310.49	99.19
310.72	90.19
310.949	99.19
311.179	88.19
311.409	74.19
311.639	89.19
311.868	80.19
312.098	115.19
312.328	103.19
312.557	102.19
312.787	117.19
313.017	89.19
313.246	89.19
313.476	85.19
313.706	91.19
313.935	95.19
314.165	89.19
314.394	89.19
314.624	85.19
314.853	86.19
315.083	83.19
315.312	95.19
315.542	95.19
315.771	101.19
316.001	99.19
316.23	83.19
316.46	98.19
316.689	71.19
316.919	88.19
317.148	77.19
317.377	98.19
317.607	95.19
317.836	95.19
318.065	95.19
318.295	83.19
318.524	81.19
318.753	105.19
318.983	102.19
319.212	98.19
319.441	101.19
319.67	100.19
319.9	97.19
320.129	106.19
320.358	96.19
320.587	89.19
320.816	90.19
321.046	92.19
321.275	105.19
321.504	103.19
321.733	109.19
321.962	95.19
322.191	93.19
322.42	102.19
322.649	98.19
322.878	109.19
323.108	117.19
323.337	117.19
323.566	123.19
323.795	135.19
324.024	178.19
324.253	308.19
324.482	683.19
324.71	1303.19
324.939	1714.19
325.168	623.19
325.397	199.19
325.626	130.19
325.855	126.19
326.084	126.19
326.313	125.19
326.542	141.19
326.77	216.19
326.999	361.19
327.228	781.19
327.457	1366.19
327.686	1087.19
327.914	307.19
328.143	178.19
328.372	146.19
328.6	123.19
328.829	110.19
329.058	124.19
329.287	106.19
329.515	123.19
329.744	88.19
329.972	98.19
330.201	133.19
330.43	154.19
330.658	143.19
330.887	121.19
331.115	122.19
331.344	101.19
331.572	85.19
331.801	107.19
332.03	107.19
332.258	80.19
332.486	89.19
332.715	97.19
332.943	114.19
333.172	101.19
333.4	98.19
333.629	103.19
333.857	109.19
334.085	101.19
334.314	138.19
334.542	160.19
334.771	149.19
334.999	99.19
335.227	94.19
335.455	87.19
335.684	103.19
335.912	103.19
336.14	102.19
336.369	97.19
336.597	98.19
336.825	87.19
337.053	84.19
337.281	93.19
337.51	90.19
337.738	86.19
337.966	93.19
338.194	103.19
338.422	84.19
338.65	94.19
338.878	103.19
339.106	85.19
339.334	78.19
339.562	98.19
339.79	94.19
340.018	104.19
340.246	96.19
340.474	87.19
340.702	95.19
340.93	94.19
341.158	88.19
341.386	94.19
341.614	105.19
341.842	102.19
342.07	104.19
342.298	106.19
342.526	87.19
342.754	93.19
342.981	101.19
343.209	92.19
343.437	78.19
343.665	93.19
343.893	114.19
344.12	89.19
344.348	101.19
344.576	86.19
344.804	92.19
345.031	89.19
345.259	83.19
345.487	93.19
345.714	103.19
345.942	97.19
346.17	86.19
346.397	96.19
346.625	93.19
346.853	105.19
347.08	81.19
347.308	100.19
347.535	106.19
347.763	104.19
347.99	101.19
348.218	107.19
348.445	91.19
348.673	110.19
348.9	92.19
349.128	92.19
349.355	104.19
349.583	93.19
349.81	89.19
350.037	102.19
350.265	98.19
350.492	75.19
350.72	103.19
350.947	95.19
351.174	116.19
351.402	105.19
351.629	104.19
351.856	100.19
352.083	112.19
352.311	97.19
352.538	112.19
352.765	103.19
352.992	113.19
353.22	90.19
353.447	84.19
353.674	98.19
353.901	80.19
354.128	97.19
354.355	98.19
354.583	99.19
354.81	106.19
355.037	97.19
355.264	108.19
355.491	102.19
355.718	101.19
355.945	93.19
356.172	109.19
356.399	101.19
356.626	88.19
356.853	94.19
357.08	90.19
357.307	101.19
357.534	104.19
357.761	104.19
357.988	101.19
358.215	89.19
358.441	95.19
358.668	92.19
358.895	88.19
359.122	98.19
359.349	92.19
359.576	96.19
359.802	94.19
360.029	107.19
360.256	88.19
360.483	89.19
360.709	99.19
360.936	105.19
361.163	91.19
361.39	86.19
361.616	86.19
361.843	97.19
362.07	97.19
362.296	99.19
362.523	93.19
362.749	90.19
362.976	88.19
363.203	87.19
363.429	97.19
363.656	90.19
363.882	98.19
364.109	87.19
364.335	77.19
364.562	88.19
364.788	94.19
365.015	92.19
365.241	106.19
365.468	94.19
365.694	110.19
365.92	93.19
366.147	94.19
366.373	85.19
366.599	93.19
366.826	83.19
367.052	90.19
367.278	98.19
367.505	107.19
367.731	94.19
367.957	82.19
368.184	100.19
368.41	103.19
368.636	112.19
368.862	113.19
369.089	97.19
369.315	91.19
369.541	89.19
369.767	99.19
369.993	87.19
370.219	95.19
370.445	93.19
370.672	105.19
370.898	94.19
371.124	75.19
371.35	95.19
371.576	98.19
371.802	80.19
372.028	87.19
372.254	83.19
372.48	88.19
372.706	95.19
372.932	74.19
373.158	81.19
373.384	95.19
373.61	98.19
373.835	97.19
374.061	86.19
374.287	109.19
374.513	95.19
374.739	98.19
374.965	83.19
375.191	91.19
375.416	99.19
375.642	107.19
375.868	93.19
376.094	101.19
376.319	91.19
376.545	85.19
376.771	87.19
376.997	90.19
377.222	100.19
377.448	95.19
377.674	82.19
377.899	85.19
378.125	84.19
378.35	97.19
378.576	95.19
378.802	100.19
379.027	88.19
379.253	93.19
379.478	92.19
379.704	102.19
379.929	95.19
380.155	92.19
380.38	94.19
380.606	103.19
380.831	84.19
381.057	95.19
381.282	106.19
381.507	97.19
381.733	91.19
381.958	102.19
382.184	90.19
382.409	99.19
382.634	98.19
382.86	104.19
383.085	111.19
383.31	107.19
383.535	106.19
383.761	103.19
383.986	107.19
384.211	109.19
384.436	100.19
384.662	111.19
384.887	111.19
385.112	97.19
385.337	96.19
385.562	99.19
385.787	105.19
386.013	94.19
386.238	113.19
386.463	101.19
386.688	102.19
386.913	89.19
387.138	101.19
387.363	106.19
387.588	101.19
387.813	107.19
388.038	97.19
388.263	110.19
388.488	111.19
388.713	94.19
388.938	106.19
389.163	100.19
389.387	94.19
389.612	82.19
389.837	89.19
390.062	91.19
390.287	101.19
390.512	95.19
390.736	87.19
390.961	93.19
391.186	91.19
391.411	96.19
391.636	88.19
391.86	92.19
392.085	93.19
392.31	87.19
392.534	88.19
392.759	88.19
392.984	88.19
393.208	97.19
393.433	118.19
393.658	122.19
393.882	82.19
394.107	84.19
394.331	83.19
394.556	102.19
394.78	93.19
395.005	96.19
395.229	87.19
395.454	96.19
395.678	90.19
395.903	91.19
396.127	91.19
396.352	95.19
396.576	92.19
396.801	104.19
397.025	117.19
397.249	101.19
397.474	92.19
397.698	106.19
397.922	87.19
398.147	94.19
398.371	75.19
398.595	89.19
398.82	83.19
399.044	90.19
399.268	88.19
399.492	95.19
399.717	108.19
399.941	106.19
400.165	105.19
400.389	93.19
400.613	87.19
400.837	97.19
401.062	85.19
401.286	85.19
401.51	108.19
401.734	91.19
401.958	96.19
402.182	135.19
402.406	135.19
402.63	117.19
402.854	103.19
403.078	87.19
403.302	88.19
403.526	95.19
403.75	79.19
403.974	72.19
404.198	83.19
404.422	81.19
404.645	86.19
404.869	100.19
405.093	81.19
405.317	98.19
405.541	99.19
405.765	95.19
405.988	101.19
406.212	164.19
406.436	185.19
406.66	109.19
406.883	104.19
407.107	97.19
407.331	101.19
407.555	110.19
407.778	94.19
408.002	91.19
408.226	79.19
408.449	86.19
408.673	90.19
408.896	98.19
409.12	90.19
409.344	78.19
409.567	109.19
409.791	92.19
410.014	93.19
410.238	86.19
410.461	81.19
410.685	72.19
410.908	103.19
411.132	97.19
411.355	97.19
411.578	98.19
411.802	81.19
412.025	87.19
412.249	86.19
412.472	96.19
412.695	85.19
412.919	102.19
413.142	85.19
413.365	84.19
413.589	88.19
413.812	77.19
414.035	93.19
414.258	94.19
414.482	92.19
414.705	69.19
414.928	86.19
415.151	94.19
415.374	100.19
415.597	106.19
415.821	105.19
416.044	84.19
416.267	87.19
416.49	95.19
416.713	87.19
416.936	95.19
417.159	91.19
417.382	92.19
417.605	87.19
417.828	93.19
418.051	89.19
418.274	73.19
418.497	90.19
418.72	91.19
418.943	86.19
419.166	89.19
419.389	85.19
419.611	89.19
419.834	108.19
420.057	82.19
420.28	101.19
420.503	77.19
420.726	85.19
420.948	86.19
421.171	80.19
421.394	81.19
421.617	98.19
421.839	96.19
422.062	97.19
422.285	84.19
422.507	104.19
422.73	99.19
422.953	90.19
423.175	109.19
423.398	81.19
423.621	89.19
423.843	84.19
424.066	85.19
424.288	90.19
424.511	91.19
424.733	96.19
424.956	103.19
425.178	96.19
425.401	96.19
425.623	89.19
425.846	104.19
426.068	99.19
426.291	88.19
426.513	86.19
426.735	98.19
426.958	97.19
427.18	100.19
427.402	108.19
427.625	140.19
427.847	110.19
428.069	99.19
428.292	86.19
428.514	92.19
428.736	84.19
428.958	78.19
429.181	78.19
429.403	68.19
429.625	98.19
429.847	78.19
430.069	89.19
430.292	98.19
430.514	86.19
430.736	98.19
430.958	88.19
431.18	87.19
431.402	93.19
431.624	82.19
431.846	82.19
432.068	89.19
432.29	66.19
432.512	87.19
432.734	87.19
432.956	91.19
433.178	89.19
433.4	98.19
433.622	96.19
433.844	102.19
434.066	94.19
434.287	97.19
434.509	82.19
434.731	93.19
434.953	84.19
435.175	78.19
435.397	91.19
435.618	94.19
435.84	82.19
436.062	117.19
436.284	100.19
436.505	88.19
436.727	84.19
436.949	108.19
437.17	96.19
437.392	67.19
437.614	93.19
437.835	94.19
438.057	109.19
438.278	100.19
438.5	88.19
438.721	113.19
438.943	93.19
439.165	72.19
439.386	81.19
439.608	102.19
439.829	100.19
440.05	111.19
440.272	124.19
440.493	91.19
440.715	88.19
440.936	81.19
441.158	112.19
441.379	87.19
441.6	84.19
441.822	89.19
442.043	91.19
442.264	93.19
442.486	82.19
442.707	90.19
442.928	86.19
443.149	115.19
443.371	109.19
443.592	99.19
443.813	105.19
444.034	98.19
444.255	90.19
444.476	90.19
444.698	88.19
444.919	74.19
445.14	133.19
445.361	112.19
445.582	109.19
445.803	113.19
446.024	125.19
446.245	127.19
446.466	99.19
446.687	78.19
446.908	78.19
447.129	87.19
447.35	82.19
447.571	77.19
447.792	99.19
448.013	98.19
448.234	94.19
448.455	99.19
448.675	99.19
448.896	106.19
449.117	105.19
449.338	101.19
449.559	117.19
449.779	102.19
450	94.19
450.221	95.19
450.442	81.19
450.662	96.19
450.883	104.19
451.104	103.19
451.324	92.19
451.545	77.19
451.766	93.19
451.986	85.19
452.207	97.19
452.428	95.19
452.648	64.19
452.869	105.19
453.089	107.19
453.31	108.19
453.53	96.19
453.751	81.19
453.971	80.19
454.192	99.19
454.412	91.19
454.633	93.19
454.853	93.19
455.073	69.19
455.294	94.19
455.514	81.19
455.734	75.19
455.955	88.19
456.175	82.19
456.395	92.19
456.616	84.19
456.836	91.19
457.056	102.19
457.276	74.19
457.497	90.19
457.717	95.19
457.937	81.19
458.157	83.19
458.377	79.19
458.598	109.19
458.818	120.19
459.038	143.19
459.258	116.19
459.478	88.19
459.698	87.19
459.918	76.19
460.138	87.19
460.358	85.19
460.578	82.19
460.798	97.19
461.018	88.19
461.238	93.19
461.458	86.19
461.678	83.19
461.898	81.19
462.118	88.19
462.338	78.19
462.558	81.19
462.777	80.19
462.997	82.19
463.217	46.19
463.437	79.19
463.657	93.19
463.876	102.19
464.096	89.19
464.316	93.19
464.536	91.19
464.755	96.19
464.975	110.19
465.195	137.19
465.414	128.19
465.634	93.19
465.854	89.19
466.073	87.19
466.293	96.19
466.512	93.19
466.732	83.19
466.951	98.19
467.171	98.19
467.391	101.19
467.61	85.19
467.829	89.19
468.049	104.19
468.268	110.19
468.488	87.19
468.707	103.19
468.927	71.19
469.146	74.19
469.365	82.19
469.585	83.19
469.804	100.19
470.023	82.19
470.243	85.19
470.462	87.19
470.681	96.19
470.901	105.19
471.12	97.19
471.339	95.19
471.558	89.19
471.777	98.19
471.997	107.19
472.216	139.19
472.435	166.19
472.654	99.19
472.873	83.19
473.092	68.19
473.311	81.19
473.53	89.19
473.749	71.19
473.968	88.19
474.187	106.19
474.406	99.19
474.625	85.19
474.844	86.19
475.063	89.19
475.282	74.19
475.501	80.19
475.72	103.19
475.939	96.19
476.158	85.19
476.377	95.19
476.596	89.19
476.814	82.19
477.033	91.19
477.252	88.19
477.471	56.19
477.69	80.19
477.908	68.19
478.127	80.19
478.346	85.19
478.564	95.19
478.783	85.19
479.002	90.19
479.22	105.19
479.439	93.19
479.658	102.19
479.876	90.19
480.095	98.19
480.313	90.19
480.532	73.19
480.751	102.19
480.969	130.19
481.188	230.19
481.406	171.19
481.624	98.19
481.843	96.19
482.061	80.19
482.28	93.19
482.498	87.19
482.717	83.19
482.935	82.19
483.153	74.19
483.372	101.19
483.59	92.19
483.808	92.19
484.027	94.19
484.245	99.19
484.463	87.19
484.681	103.19
484.9	92.19
485.118	87.19
485.336	94.19
485.554	87.19
485.772	77.19
485.99	97.19
486.209	94.19
486.427	88.19
486.645	110.19
486.863	107.19
487.081	97.19
487.299	94.19
487.517	93.19
487.735	84.19
487.953	90.19
488.171	98.19
488.389	82.19
488.607	93.19
488.825	97.19
489.043	90.19
489.261	94.19
489.479	81.19
489.696	92.19
489.914	86.19
490.132	89.19
490.35	85.19
490.568	99.19
490.786	90.19
491.003	93.19
491.221	84.19
491.439	87.19
491.657	88.19
491.874	101.19
492.092	85.19
492.31	92.19
492.527	83.19
492.745	88.19
492.963	83.19
493.18	92.19
493.398	98.19
493.615	87.19
493.833	88.19
494.05	98.19
494.268	86.19
494.485	97.19
494.703	89.19
494.92	85.19
495.138	77.19
495.355	79.19
495.573	83.19
495.79	87.19
496.008	97.19
496.225	94.19
496.442	90.19
496.66	95.19
496.877	85.19
497.094	103.19
497.312	83.19
497.529	87.19
497.746	67.19
497.963	97.19
498.181	101.19
498.398	93.19
498.615	104.19
498.832	98.19
499.049	83.19
499.267	102.19
499.484	97.19
499.701	87.19
499.918	85.19
500.135	100.19
500.352	86.19
500.569	88.19
500.786	90.19
501.003	96.19
501.22	91.19
501.437	99.19
501.654	86.19
501.871	101.19
502.088	90.19
502.305	100.19
502.522	78.19
502.739	97.19
502.956	81.19
503.172	99.19
503.389	102.19
503.606	96.19
503.823	100.19
504.04	90.19
504.256	67.19
504.473	91.19
504.69	85.19
504.907	111.19
505.123	84.19
505.34	87.19
505.557	84.19
505.773	92.19
505.99	85.19
506.207	85.19
506.423	105.19
506.64	83.19
506.856	90.19
507.073	89.19
507.289	87.19
507.506	94.19
507.722	99.19
507.939	102.19
508.155	81.19
508.372	98.19
508.588	91.19
508.805	92.19
509.021	98.19
509.238	107.19
509.454	88.19
509.67	100.19
509.887	103.19
510.103	110.19
510.319	181.19
510.536	590.19
510.752	1662.19
510.968	463.19
511.184	133.19
511.401	101.19
511.617	89.19
511.833	101.19
512.049	97.19
512.265	91.19
512.481	75.19
512.698	92.19
512.914	81.19
513.13	93.19
513.346	89.19
513.562	102.19
513.778	95.19
513.994	104.19
514.21	87.19
514.426	111.19
514.642	114.19
514.858	103.19
515.074	134.19
515.29	352.19
515.506	1044.19
515.721	381.19
