Data from Uncirc_1989_H10_HRD10591_00002.txt Node
Date: Wed Jan 03 11:57:36 EST 2024
User: Yrep
Spectrometer: HR+D1059
Trigger mode: 1
Integration Time (sec): 1.000000E-1
Scans to average: 1
Electric dark correction enabled: true
Nonlinearity correction enabled: false
Boxcar width: 0
XAxis mode: Wavelengths
Number of Pixels in Spectrum: 2048
>>>>>Begin Spectral Data<<<<<
223.165	-19.44
223.4	-19.44
223.635	-19.44
223.869	-11.44
224.104	-7.44
224.338	-18.44
224.573	-11.44
224.808	-11.44
225.042	-6.44
225.277	-19.44
225.511	-4.44
225.746	-2.44
225.98	0.56
226.215	6.56
226.449	25.56
226.683	23.56
226.918	27.56
227.152	28.56
227.387	33.56
227.621	44.56
227.856	42.56
228.09	22.56
228.324	54.56
228.559	56.56
228.793	62.56
229.027	72.56
229.262	60.56
229.496	55.56
229.73	76.56
229.964	89.56
230.199	84.56
230.433	63.56
230.667	75.56
230.901	84.56
231.136	65.56
231.37	75.56
231.604	84.56
231.838	85.56
232.072	79.56
232.306	60.56
232.541	86.56
232.775	70.56
233.009	78.56
233.243	84.56
233.477	73.56
233.711	88.56
233.945	78.56
234.179	80.56
234.413	74.56
234.647	87.56
234.881	90.56
235.115	77.56
235.349	81.56
235.583	94.56
235.817	70.56
236.051	74.56
236.285	79.56
236.519	82.56
236.753	77.56
236.987	87.56
237.221	79.56
237.455	83.56
237.689	69.56
237.922	80.56
238.156	60.56
238.39	88.56
238.624	77.56
238.858	66.56
239.091	70.56
239.325	74.56
239.559	74.56
239.793	68.56
240.027	68.56
240.26	79.56
240.494	73.56
240.728	79.56
240.961	81.56
241.195	76.56
241.429	61.56
241.662	67.56
241.896	73.56
242.13	84.56
242.363	73.56
242.597	80.56
242.83	80.56
243.064	70.56
243.298	84.56
243.531	72.56
243.765	70.56
243.998	78.56
244.232	84.56
244.465	76.56
244.699	86.56
244.932	70.56
245.166	73.56
245.399	68.56
245.633	90.56
245.866	70.56
246.099	85.56
246.333	96.56
246.566	82.56
246.8	74.56
247.033	79.56
247.266	70.56
247.5	88.56
247.733	81.56
247.966	70.56
248.2	82.56
248.433	86.56
248.666	87.56
248.899	86.56
249.133	99.56
249.366	84.56
249.599	77.56
249.832	65.56
250.066	89.56
250.299	83.56
250.532	90.56
250.765	77.56
250.998	90.56
251.231	81.56
251.465	70.56
251.698	88.56
251.931	72.56
252.164	83.56
252.397	76.56
252.63	77.56
252.863	80.56
253.096	76.56
253.329	92.56
253.562	82.56
253.795	68.56
254.028	84.56
254.261	94.56
254.494	72.56
254.727	88.56
254.96	79.56
255.193	82.56
255.426	93.56
255.659	76.56
255.892	98.56
256.124	105.56
256.357	84.56
256.59	82.56
256.823	70.56
257.056	83.56
257.289	96.56
257.521	81.56
257.754	80.56
257.987	66.56
258.22	90.56
258.452	86.56
258.685	72.56
258.918	80.56
259.151	73.56
259.383	72.56
259.616	78.56
259.849	83.56
260.081	90.56
260.314	89.56
260.547	66.56
260.779	78.56
261.012	79.56
261.244	75.56
261.477	76.56
261.71	77.56
261.942	106.56
262.175	80.56
262.407	83.56
262.64	71.56
262.872	72.56
263.105	88.56
263.337	86.56
263.57	86.56
263.802	74.56
264.035	84.56
264.267	72.56
264.499	83.56
264.732	97.56
264.964	57.56
265.197	81.56
265.429	80.56
265.661	72.56
265.894	101.56
266.126	96.56
266.358	67.56
266.591	89.56
266.823	89.56
267.055	81.56
267.287	83.56
267.52	88.56
267.752	92.56
267.984	89.56
268.216	89.56
268.448	88.56
268.681	82.56
268.913	104.56
269.145	94.56
269.377	78.56
269.609	96.56
269.841	90.56
270.073	93.56
270.306	81.56
270.538	81.56
270.77	80.56
271.002	96.56
271.234	69.56
271.466	97.56
271.698	86.56
271.93	87.56
272.162	78.56
272.394	78.56
272.626	90.56
272.858	84.56
273.09	92.56
273.322	80.56
273.553	90.56
273.785	77.56
274.017	91.56
274.249	72.56
274.481	96.56
274.713	88.56
274.945	84.56
275.176	81.56
275.408	82.56
275.64	94.56
275.872	71.56
276.104	93.56
276.335	84.56
276.567	91.56
276.799	82.56
277.031	82.56
277.262	88.56
277.494	94.56
277.726	76.56
277.957	82.56
278.189	85.56
278.421	92.56
278.652	92.56
278.884	90.56
279.115	85.56
279.347	85.56
279.579	78.56
279.81	94.56
280.042	83.56
280.273	88.56
280.505	86.56
280.736	90.56
280.968	85.56
281.199	78.56
281.431	77.56
281.662	91.56
281.894	79.56
282.125	101.56
282.356	107.56
282.588	109.56
282.819	99.56
283.051	90.56
283.282	88.56
283.513	87.56
283.745	85.56
283.976	83.56
284.207	86.56
284.439	80.56
284.67	76.56
284.901	95.56
285.132	96.56
285.364	76.56
285.595	92.56
285.826	70.56
286.057	82.56
286.288	93.56
286.52	77.56
286.751	73.56
286.982	87.56
287.213	80.56
287.444	82.56
287.675	85.56
287.906	95.56
288.138	85.56
288.369	79.56
288.6	92.56
288.831	82.56
289.062	92.56
289.293	80.56
289.524	88.56
289.755	83.56
289.986	92.56
290.217	97.56
290.448	87.56
290.679	88.56
290.91	81.56
291.141	84.56
291.371	80.56
291.602	86.56
291.833	88.56
292.064	87.56
292.295	86.56
292.526	87.56
292.757	84.56
292.987	95.56
293.218	98.56
293.449	96.56
293.68	72.56
293.91	80.56
294.141	89.56
294.372	96.56
294.603	89.56
294.833	89.56
295.064	87.56
295.295	101.56
295.525	88.56
295.756	92.56
295.987	100.56
296.217	129.56
296.448	102.56
296.679	91.56
296.909	94.56
297.14	80.56
297.37	89.56
297.601	73.56
297.831	92.56
298.062	97.56
298.292	87.56
298.523	100.56
298.753	84.56
298.984	80.56
299.214	97.56
299.445	87.56
299.675	113.56
299.905	104.56
300.136	85.56
300.366	93.56
300.597	93.56
300.827	88.56
301.057	97.56
301.288	90.56
301.518	86.56
301.748	85.56
301.979	107.56
302.209	91.56
302.439	79.56
302.669	84.56
302.9	85.56
303.13	93.56
303.36	73.56
303.59	92.56
303.82	100.56
304.051	105.56
304.281	100.56
304.511	93.56
304.741	89.56
304.971	76.56
305.201	89.56
305.431	81.56
305.661	72.56
305.891	85.56
306.121	96.56
306.352	99.56
306.582	89.56
306.812	94.56
307.042	92.56
307.272	94.56
307.502	103.56
307.731	91.56
307.961	85.56
308.191	89.56
308.421	102.56
308.651	85.56
308.881	93.56
309.111	88.56
309.341	97.56
309.571	82.56
309.8	98.56
310.03	95.56
310.26	111.56
310.49	97.56
310.72	98.56
310.949	100.56
311.179	95.56
311.409	94.56
311.639	90.56
311.868	73.56
312.098	84.56
312.328	93.56
312.557	95.56
312.787	96.56
313.017	92.56
313.246	100.56
313.476	88.56
313.706	93.56
313.935	88.56
314.165	92.56
314.394	96.56
314.624	90.56
314.853	95.56
315.083	90.56
315.312	91.56
315.542	94.56
315.771	96.56
316.001	89.56
316.23	91.56
316.46	101.56
316.689	92.56
316.919	91.56
317.148	84.56
317.377	97.56
317.607	88.56
317.836	98.56
318.065	97.56
318.295	91.56
318.524	94.56
318.753	101.56
318.983	89.56
319.212	103.56
319.441	91.56
319.67	97.56
319.9	99.56
320.129	75.56
320.358	84.56
320.587	98.56
320.816	90.56
321.046	96.56
321.275	99.56
321.504	89.56
321.733	87.56
321.962	94.56
322.191	88.56
322.42	96.56
322.649	98.56
322.878	112.56
323.108	109.56
323.337	117.56
323.566	117.56
323.795	113.56
324.024	160.56
324.253	280.56
324.482	542.56
324.71	1054.56
324.939	1372.56
325.168	517.56
325.397	187.56
325.626	130.56
325.855	109.56
326.084	101.56
326.313	106.56
326.542	143.56
326.77	188.56
326.999	343.56
327.228	647.56
327.457	1110.56
327.686	902.56
327.914	255.56
328.143	147.56
328.372	126.56
328.6	107.56
328.829	91.56
329.058	107.56
329.287	102.56
329.515	95.56
329.744	84.56
329.972	99.56
330.201	97.56
330.43	105.56
330.658	114.56
330.887	119.56
331.115	108.56
331.344	82.56
331.572	98.56
331.801	86.56
332.03	95.56
332.258	110.56
332.486	97.56
332.715	90.56
332.943	100.56
333.172	91.56
333.4	90.56
333.629	93.56
333.857	103.56
334.085	100.56
334.314	111.56
334.542	114.56
334.771	97.56
334.999	103.56
335.227	102.56
335.455	84.56
335.684	90.56
335.912	92.56
336.14	104.56
336.369	99.56
336.597	100.56
336.825	100.56
337.053	85.56
337.281	100.56
337.51	105.56
337.738	80.56
337.966	102.56
338.194	90.56
338.422	85.56
338.65	100.56
338.878	84.56
339.106	91.56
339.334	97.56
339.562	85.56
339.79	92.56
340.018	96.56
340.246	88.56
340.474	109.56
340.702	93.56
340.93	95.56
341.158	87.56
341.386	89.56
341.614	94.56
341.842	86.56
342.07	90.56
342.298	81.56
342.526	85.56
342.754	94.56
342.981	110.56
343.209	93.56
343.437	112.56
343.665	99.56
343.893	100.56
344.12	91.56
344.348	94.56
344.576	102.56
344.804	110.56
345.031	106.56
345.259	99.56
345.487	96.56
345.714	93.56
345.942	85.56
346.17	79.56
346.397	97.56
346.625	105.56
346.853	80.56
347.08	111.56
347.308	93.56
347.535	94.56
347.763	97.56
347.99	94.56
348.218	98.56
348.445	91.56
348.673	95.56
348.9	76.56
349.128	92.56
349.355	111.56
349.583	108.56
349.81	97.56
350.037	92.56
350.265	105.56
350.492	90.56
350.72	99.56
350.947	97.56
351.174	110.56
351.402	103.56
351.629	96.56
351.856	110.56
352.083	102.56
352.311	105.56
352.538	98.56
352.765	113.56
352.992	117.56
353.22	105.56
353.447	111.56
353.674	109.56
353.901	98.56
354.128	112.56
354.355	101.56
354.583	105.56
354.81	114.56
355.037	102.56
355.264	94.56
355.491	93.56
355.718	81.56
355.945	82.56
356.172	92.56
356.399	89.56
356.626	97.56
356.853	90.56
357.08	94.56
357.307	86.56
357.534	99.56
357.761	97.56
357.988	102.56
358.215	108.56
358.441	84.56
358.668	88.56
358.895	90.56
359.122	93.56
359.349	104.56
359.576	84.56
359.802	84.56
360.029	98.56
360.256	96.56
360.483	102.56
360.709	87.56
360.936	89.56
361.163	101.56
361.39	108.56
361.616	91.56
361.843	98.56
362.07	100.56
362.296	81.56
362.523	96.56
362.749	87.56
362.976	97.56
363.203	90.56
363.429	92.56
363.656	83.56
363.882	89.56
364.109	80.56
364.335	90.56
364.562	79.56
364.788	85.56
365.015	95.56
365.241	91.56
365.468	110.56
365.694	99.56
365.92	86.56
366.147	76.56
366.373	95.56
366.599	80.56
366.826	79.56
367.052	89.56
367.278	96.56
367.505	83.56
367.731	90.56
367.957	77.56
368.184	105.56
368.41	94.56
368.636	101.56
368.862	102.56
369.089	104.56
369.315	81.56
369.541	98.56
369.767	92.56
369.993	78.56
370.219	94.56
370.445	92.56
370.672	90.56
370.898	88.56
371.124	90.56
371.35	81.56
371.576	81.56
371.802	91.56
372.028	92.56
372.254	90.56
372.48	83.56
372.706	88.56
372.932	89.56
373.158	90.56
373.384	94.56
373.61	76.56
373.835	94.56
374.061	98.56
374.287	86.56
374.513	109.56
374.739	86.56
374.965	92.56
375.191	77.56
375.416	102.56
375.642	87.56
375.868	96.56
376.094	88.56
376.319	93.56
376.545	95.56
376.771	95.56
376.997	97.56
377.222	95.56
377.448	105.56
377.674	90.56
377.899	87.56
378.125	84.56
378.35	73.56
378.576	92.56
378.802	94.56
379.027	96.56
379.253	89.56
379.478	98.56
379.704	96.56
379.929	93.56
380.155	104.56
380.38	92.56
380.606	98.56
380.831	101.56
381.057	91.56
381.282	97.56
381.507	92.56
381.733	91.56
381.958	102.56
382.184	103.56
382.409	107.56
382.634	119.56
382.86	96.56
383.085	105.56
383.31	98.56
383.535	100.56
383.761	97.56
383.986	105.56
384.211	100.56
384.436	106.56
384.662	90.56
384.887	98.56
385.112	101.56
385.337	111.56
385.562	105.56
385.787	105.56
386.013	98.56
386.238	113.56
386.463	115.56
386.688	111.56
386.913	93.56
387.138	108.56
387.363	121.56
387.588	102.56
387.813	100.56
388.038	110.56
388.263	121.56
388.488	114.56
388.713	109.56
388.938	109.56
389.163	100.56
389.387	92.56
389.612	104.56
389.837	100.56
390.062	97.56
390.287	101.56
390.512	96.56
390.736	96.56
390.961	92.56
391.186	96.56
391.411	106.56
391.636	105.56
391.86	91.56
392.085	85.56
392.31	96.56
392.534	71.56
392.759	91.56
392.984	94.56
393.208	109.56
393.433	115.56
393.658	106.56
393.882	89.56
394.107	97.56
394.331	82.56
394.556	77.56
394.78	89.56
395.005	87.56
395.229	78.56
395.454	98.56
395.678	96.56
395.903	103.56
396.127	96.56
396.352	92.56
396.576	96.56
396.801	98.56
397.025	106.56
397.249	105.56
397.474	93.56
397.698	109.56
397.922	106.56
398.147	94.56
398.371	101.56
398.595	92.56
398.82	97.56
399.044	93.56
399.268	74.56
399.492	83.56
399.717	95.56
399.941	87.56
400.165	77.56
400.389	88.56
400.613	84.56
400.837	85.56
401.062	95.56
401.286	94.56
401.51	97.56
401.734	96.56
401.958	101.56
402.182	112.56
402.406	114.56
402.63	106.56
402.854	107.56
403.078	80.56
403.302	98.56
403.526	100.56
403.75	95.56
403.974	73.56
404.198	88.56
404.422	82.56
404.645	101.56
404.869	80.56
405.093	72.56
405.317	100.56
405.541	90.56
405.765	92.56
405.988	101.56
406.212	115.56
406.436	156.56
406.66	113.56
406.883	93.56
407.107	94.56
407.331	99.56
407.555	93.56
407.778	93.56
408.002	95.56
408.226	91.56
408.449	97.56
408.673	91.56
408.896	104.56
409.12	112.56
409.344	85.56
409.567	66.56
409.791	92.56
410.014	101.56
410.238	87.56
410.461	87.56
410.685	103.56
410.908	95.56
411.132	114.56
411.355	93.56
411.578	86.56
411.802	90.56
412.025	88.56
412.249	87.56
412.472	93.56
412.695	96.56
412.919	101.56
413.142	84.56
413.365	85.56
413.589	80.56
413.812	69.56
414.035	78.56
414.258	92.56
414.482	105.56
414.705	85.56
414.928	104.56
415.151	97.56
415.374	99.56
415.597	97.56
415.821	98.56
416.044	90.56
416.267	93.56
416.49	86.56
416.713	92.56
416.936	101.56
417.159	90.56
417.382	75.56
417.605	97.56
417.828	92.56
418.051	95.56
418.274	91.56
418.497	82.56
418.72	77.56
418.943	81.56
419.166	84.56
419.389	87.56
419.611	88.56
419.834	87.56
420.057	82.56
420.28	87.56
420.503	101.56
420.726	93.56
420.948	91.56
421.171	94.56
421.394	104.56
421.617	76.56
421.839	103.56
422.062	100.56
422.285	99.56
422.507	84.56
422.73	103.56
422.953	100.56
423.175	79.56
423.398	100.56
423.621	96.56
423.843	83.56
424.066	82.56
424.288	97.56
424.511	85.56
424.733	78.56
424.956	90.56
425.178	90.56
425.401	86.56
425.623	101.56
425.846	99.56
426.068	93.56
426.291	103.56
426.513	104.56
426.735	94.56
426.958	103.56
427.18	96.56
427.402	104.56
427.625	133.56
427.847	113.56
428.069	108.56
428.292	99.56
428.514	96.56
428.736	92.56
428.958	99.56
429.181	85.56
429.403	80.56
429.625	88.56
429.847	90.56
430.069	100.56
430.292	78.56
430.514	93.56
430.736	90.56
430.958	90.56
431.18	97.56
431.402	90.56
431.624	100.56
431.846	103.56
432.068	95.56
432.29	87.56
432.512	80.56
432.734	69.56
432.956	96.56
433.178	84.56
433.4	100.56
433.622	84.56
433.844	99.56
434.066	92.56
434.287	82.56
434.509	74.56
434.731	92.56
434.953	94.56
435.175	87.56
435.397	80.56
435.618	95.56
435.84	110.56
436.062	113.56
436.284	107.56
436.505	100.56
436.727	93.56
436.949	108.56
437.17	104.56
437.392	80.56
437.614	74.56
437.835	87.56
438.057	105.56
438.278	89.56
438.5	104.56
438.721	107.56
438.943	87.56
439.165	85.56
439.386	96.56
439.608	96.56
439.829	94.56
440.05	108.56
440.272	115.56
440.493	93.56
440.715	91.56
440.936	88.56
441.158	71.56
441.379	78.56
441.6	95.56
441.822	97.56
442.043	97.56
442.264	89.56
442.486	93.56
442.707	88.56
442.928	102.56
443.149	104.56
443.371	118.56
443.592	103.56
443.813	115.56
444.034	102.56
444.255	83.56
444.476	88.56
444.698	82.56
444.919	93.56
445.14	131.56
445.361	105.56
445.582	86.56
445.803	114.56
446.024	123.56
446.245	111.56
446.466	88.56
446.687	82.56
446.908	92.56
447.129	99.56
447.35	87.56
447.571	101.56
447.792	100.56
448.013	90.56
448.234	94.56
448.455	96.56
448.675	98.56
448.896	87.56
449.117	99.56
449.338	98.56
449.559	115.56
449.779	119.56
450	91.56
450.221	100.56
450.442	86.56
450.662	94.56
450.883	100.56
451.104	99.56
451.324	95.56
451.545	100.56
451.766	77.56
451.986	72.56
452.207	78.56
452.428	94.56
452.648	97.56
452.869	94.56
453.089	102.56
453.31	86.56
453.53	82.56
453.751	95.56
453.971	100.56
454.192	84.56
454.412	92.56
454.633	94.56
454.853	81.56
455.073	89.56
455.294	95.56
455.514	93.56
455.734	86.56
455.955	92.56
456.175	89.56
456.395	81.56
456.616	73.56
456.836	94.56
457.056	87.56
457.276	87.56
457.497	89.56
457.717	87.56
457.937	94.56
458.157	88.56
458.377	88.56
458.598	93.56
458.818	105.56
459.038	112.56
459.258	106.56
459.478	87.56
459.698	80.56
459.918	89.56
460.138	72.56
460.358	84.56
460.578	82.56
460.798	75.56
461.018	85.56
461.238	83.56
461.458	96.56
461.678	87.56
461.898	94.56
462.118	97.56
462.338	83.56
462.558	79.56
462.777	82.56
462.997	91.56
463.217	96.56
463.437	88.56
463.657	82.56
463.876	94.56
464.096	96.56
464.316	103.56
464.536	85.56
464.755	104.56
464.975	97.56
465.195	121.56
465.414	100.56
465.634	86.56
465.854	97.56
466.073	94.56
466.293	101.56
466.512	86.56
466.732	78.56
466.951	88.56
467.171	98.56
467.391	100.56
467.61	98.56
467.829	91.56
468.049	109.56
468.268	92.56
468.488	77.56
468.707	73.56
468.927	80.56
469.146	84.56
469.365	94.56
469.585	74.56
469.804	82.56
470.023	94.56
470.243	78.56
470.462	98.56
470.681	107.56
470.901	82.56
471.12	98.56
471.339	85.56
471.558	87.56
471.777	93.56
471.997	88.56
472.216	107.56
472.435	97.56
472.654	86.56
472.873	77.56
473.092	88.56
473.311	90.56
473.53	92.56
473.749	97.56
473.968	100.56
474.187	99.56
474.406	94.56
474.625	101.56
474.844	72.56
475.063	82.56
475.282	78.56
475.501	76.56
475.72	98.56
475.939	104.56
476.158	96.56
476.377	81.56
476.596	84.56
476.814	79.56
477.033	87.56
477.252	100.56
477.471	80.56
477.69	70.56
477.908	83.56
478.127	86.56
478.346	93.56
478.564	87.56
478.783	88.56
479.002	82.56
479.22	86.56
479.439	84.56
479.658	86.56
479.876	84.56
480.095	86.56
480.313	82.56
480.532	88.56
480.751	96.56
480.969	101.56
481.188	125.56
481.406	115.56
481.624	92.56
481.843	106.56
482.061	86.56
482.28	101.56
482.498	79.56
482.717	88.56
482.935	88.56
483.153	88.56
483.372	96.56
483.59	87.56
483.808	108.56
484.027	90.56
484.245	88.56
484.463	81.56
484.681	101.56
484.9	92.56
485.118	92.56
485.336	100.56
485.554	96.56
485.772	120.56
485.99	114.56
486.209	89.56
486.427	102.56
486.645	115.56
486.863	98.56
487.081	105.56
487.299	97.56
487.517	88.56
487.735	95.56
487.953	93.56
488.171	100.56
488.389	86.56
488.607	82.56
488.825	91.56
489.043	89.56
489.261	101.56
489.479	81.56
489.696	68.56
489.914	82.56
490.132	88.56
490.35	83.56
490.568	82.56
490.786	93.56
491.003	91.56
491.221	78.56
491.439	104.56
491.657	104.56
491.874	103.56
492.092	96.56
492.31	96.56
492.527	84.56
492.745	88.56
492.963	82.56
493.18	96.56
493.398	104.56
493.615	89.56
493.833	94.56
494.05	84.56
494.268	85.56
494.485	94.56
494.703	78.56
494.92	93.56
495.138	97.56
495.355	94.56
495.573	90.56
495.79	87.56
496.008	93.56
496.225	100.56
496.442	80.56
496.66	84.56
496.877	88.56
497.094	92.56
497.312	86.56
497.529	104.56
497.746	77.56
497.963	101.56
498.181	98.56
498.398	87.56
498.615	88.56
498.832	90.56
499.049	86.56
499.267	89.56
499.484	86.56
499.701	99.56
499.918	92.56
500.135	77.56
500.352	98.56
500.569	79.56
500.786	101.56
501.003	79.56
501.22	83.56
501.437	86.56
501.654	90.56
501.871	106.56
502.088	92.56
502.305	102.56
502.522	91.56
502.739	90.56
502.956	83.56
503.172	91.56
503.389	88.56
503.606	86.56
503.823	92.56
504.04	77.56
504.256	85.56
504.473	93.56
504.69	85.56
504.907	84.56
505.123	85.56
505.34	86.56
505.557	83.56
505.773	100.56
505.99	82.56
506.207	89.56
506.423	81.56
506.64	78.56
506.856	94.56
507.073	88.56
507.289	89.56
507.506	92.56
507.722	88.56
507.939	83.56
508.155	94.56
508.372	87.56
508.588	93.56
508.805	95.56
509.021	93.56
509.238	92.56
509.454	73.56
509.67	100.56
509.887	96.56
510.103	98.56
510.319	152.56
510.536	435.56
510.752	1228.56
510.968	376.56
511.184	130.56
511.401	88.56
511.617	90.56
511.833	84.56
512.049	96.56
512.265	91.56
512.481	92.56
512.698	97.56
512.914	102.56
513.13	89.56
513.346	95.56
513.562	86.56
513.778	83.56
513.994	97.56
514.21	103.56
514.426	102.56
514.642	111.56
514.858	119.56
515.074	145.56
515.29	263.56
515.506	724.56
515.721	304.56
515.937	120.56
