Data from Uncirc_1989_H10_HRD10591_00014.txt Node
Date: Wed Jan 03 11:57:38 EST 2024
User: Yrep
Spectrometer: HR+D1059
Trigger mode: 1
Integration Time (sec): 1.000000E-1
Scans to average: 1
Electric dark correction enabled: true
Nonlinearity correction enabled: false
Boxcar width: 0
XAxis mode: Wavelengths
Number of Pixels in Spectrum: 2048
>>>>>Begin Spectral Data<<<<<
223.165	-14.56
223.4	-14.56
223.635	-14.56
223.869	-8.56
224.104	-25.56
224.338	-16.56
224.573	-11.56
224.808	-10.56
225.042	-10.56
225.277	0.44
225.511	-10.56
225.746	5.44
225.98	4.44
226.215	10.44
226.449	7.44
226.683	16.44
226.918	30.44
227.152	33.44
227.387	37.44
227.621	42.44
227.856	56.44
228.09	43.44
228.324	52.44
228.559	58.44
228.793	72.44
229.027	73.44
229.262	57.44
229.496	81.44
229.73	82.44
229.964	72.44
230.199	64.44
230.433	77.44
230.667	72.44
230.901	74.44
231.136	86.44
231.37	89.44
231.604	81.44
231.838	79.44
232.072	91.44
232.306	81.44
232.541	72.44
232.775	86.44
233.009	77.44
233.243	84.44
233.477	90.44
233.711	83.44
233.945	64.44
234.179	78.44
234.413	91.44
234.647	79.44
234.881	78.44
235.115	57.44
235.349	74.44
235.583	72.44
235.817	80.44
236.051	75.44
236.285	90.44
236.519	83.44
236.753	78.44
236.987	68.44
237.221	82.44
237.455	62.44
237.689	65.44
237.922	73.44
238.156	87.44
238.39	95.44
238.624	73.44
238.858	65.44
239.091	80.44
239.325	87.44
239.559	80.44
239.793	78.44
240.027	81.44
240.26	57.44
240.494	77.44
240.728	83.44
240.961	80.44
241.195	76.44
241.429	87.44
241.662	76.44
241.896	76.44
242.13	79.44
242.363	84.44
242.597	73.44
242.83	78.44
243.064	70.44
243.298	66.44
243.531	79.44
243.765	84.44
243.998	88.44
244.232	82.44
244.465	85.44
244.699	79.44
244.932	74.44
245.166	67.44
245.399	69.44
245.633	83.44
245.866	76.44
246.099	73.44
246.333	76.44
246.566	65.44
246.8	88.44
247.033	76.44
247.266	77.44
247.5	76.44
247.733	71.44
247.966	76.44
248.2	80.44
248.433	73.44
248.666	73.44
248.899	66.44
249.133	99.44
249.366	69.44
249.599	79.44
249.832	87.44
250.066	83.44
250.299	81.44
250.532	94.44
250.765	88.44
250.998	80.44
251.231	82.44
251.465	62.44
251.698	86.44
251.931	95.44
252.164	86.44
252.397	86.44
252.63	88.44
252.863	81.44
253.096	70.44
253.329	80.44
253.562	84.44
253.795	71.44
254.028	83.44
254.261	102.44
254.494	84.44
254.727	81.44
254.96	76.44
255.193	96.44
255.426	77.44
255.659	79.44
255.892	77.44
256.124	85.44
256.357	84.44
256.59	87.44
256.823	89.44
257.056	72.44
257.289	68.44
257.521	82.44
257.754	67.44
257.987	73.44
258.22	74.44
258.452	94.44
258.685	65.44
258.918	81.44
259.151	95.44
259.383	81.44
259.616	78.44
259.849	72.44
260.081	95.44
260.314	78.44
260.547	74.44
260.779	80.44
261.012	84.44
261.244	89.44
261.477	94.44
261.71	78.44
261.942	94.44
262.175	106.44
262.407	71.44
262.64	76.44
262.872	77.44
263.105	79.44
263.337	77.44
263.57	88.44
263.802	81.44
264.035	96.44
264.267	84.44
264.499	76.44
264.732	88.44
264.964	76.44
265.197	78.44
265.429	70.44
265.661	80.44
265.894	86.44
266.126	81.44
266.358	74.44
266.591	85.44
266.823	82.44
267.055	83.44
267.287	84.44
267.52	93.44
267.752	75.44
267.984	88.44
268.216	80.44
268.448	83.44
268.681	84.44
268.913	84.44
269.145	92.44
269.377	85.44
269.609	80.44
269.841	92.44
270.073	76.44
270.306	80.44
270.538	90.44
270.77	70.44
271.002	78.44
271.234	77.44
271.466	93.44
271.698	100.44
271.93	84.44
272.162	90.44
272.394	92.44
272.626	84.44
272.858	89.44
273.09	87.44
273.322	83.44
273.553	90.44
273.785	74.44
274.017	82.44
274.249	93.44
274.481	80.44
274.713	88.44
274.945	85.44
275.176	66.44
275.408	81.44
275.64	78.44
275.872	79.44
276.104	93.44
276.335	92.44
276.567	92.44
276.799	101.44
277.031	108.44
277.262	93.44
277.494	89.44
277.726	80.44
277.957	103.44
278.189	76.44
278.421	76.44
278.652	71.44
278.884	100.44
279.115	78.44
279.347	76.44
279.579	88.44
279.81	68.44
280.042	81.44
280.273	94.44
280.505	81.44
280.736	88.44
280.968	98.44
281.199	89.44
281.431	81.44
281.662	87.44
281.894	88.44
282.125	88.44
282.356	93.44
282.588	114.44
282.819	99.44
283.051	82.44
283.282	68.44
283.513	84.44
283.745	87.44
283.976	96.44
284.207	92.44
284.439	94.44
284.67	98.44
284.901	101.44
285.132	97.44
285.364	92.44
285.595	93.44
285.826	76.44
286.057	94.44
286.288	81.44
286.52	100.44
286.751	87.44
286.982	78.44
287.213	91.44
287.444	76.44
287.675	85.44
287.906	99.44
288.138	95.44
288.369	82.44
288.6	89.44
288.831	79.44
289.062	87.44
289.293	93.44
289.524	86.44
289.755	102.44
289.986	103.44
290.217	88.44
290.448	84.44
290.679	95.44
290.91	78.44
291.141	88.44
291.371	92.44
291.602	93.44
291.833	97.44
292.064	87.44
292.295	90.44
292.526	86.44
292.757	96.44
292.987	78.44
293.218	87.44
293.449	80.44
293.68	98.44
293.91	73.44
294.141	85.44
294.372	86.44
294.603	79.44
294.833	81.44
295.064	92.44
295.295	78.44
295.525	85.44
295.756	97.44
295.987	101.44
296.217	123.44
296.448	100.44
296.679	97.44
296.909	92.44
297.14	94.44
297.37	87.44
297.601	66.44
297.831	87.44
298.062	78.44
298.292	85.44
298.523	92.44
298.753	71.44
298.984	82.44
299.214	86.44
299.445	96.44
299.675	101.44
299.905	99.44
300.136	92.44
300.366	64.44
300.597	97.44
300.827	92.44
301.057	109.44
301.288	87.44
301.518	90.44
301.748	90.44
301.979	96.44
302.209	93.44
302.439	89.44
302.669	100.44
302.9	99.44
303.13	96.44
303.36	100.44
303.59	87.44
303.82	86.44
304.051	81.44
304.281	92.44
304.511	92.44
304.741	91.44
304.971	84.44
305.201	85.44
305.431	84.44
305.661	93.44
305.891	78.44
306.121	96.44
306.352	96.44
306.582	86.44
306.812	100.44
307.042	82.44
307.272	95.44
307.502	93.44
307.731	85.44
307.961	94.44
308.191	87.44
308.421	88.44
308.651	89.44
308.881	76.44
309.111	82.44
309.341	87.44
309.571	94.44
309.8	99.44
310.03	99.44
310.26	98.44
310.49	104.44
310.72	92.44
310.949	105.44
311.179	89.44
311.409	83.44
311.639	91.44
311.868	94.44
312.098	73.44
312.328	94.44
312.557	94.44
312.787	101.44
313.017	87.44
313.246	81.44
313.476	87.44
313.706	94.44
313.935	90.44
314.165	78.44
314.394	76.44
314.624	83.44
314.853	96.44
315.083	101.44
315.312	88.44
315.542	89.44
315.771	85.44
316.001	99.44
316.23	89.44
316.46	95.44
316.689	83.44
316.919	89.44
317.148	97.44
317.377	94.44
317.607	110.44
317.836	90.44
318.065	80.44
318.295	92.44
318.524	81.44
318.753	95.44
318.983	88.44
319.212	89.44
319.441	100.44
319.67	105.44
319.9	101.44
320.129	99.44
320.358	101.44
320.587	101.44
320.816	105.44
321.046	108.44
321.275	100.44
321.504	84.44
321.733	108.44
321.962	89.44
322.191	89.44
322.42	101.44
322.649	109.44
322.878	110.44
323.108	98.44
323.337	111.44
323.566	130.44
323.795	145.44
324.024	189.44
324.253	322.44
324.482	681.44
324.71	1351.44
324.939	1764.44
325.168	660.44
325.397	195.44
325.626	133.44
325.855	129.44
326.084	121.44
326.313	133.44
326.542	128.44
326.77	206.44
326.999	384.44
327.228	783.44
327.457	1425.44
327.686	1124.44
327.914	324.44
328.143	167.44
328.372	141.44
328.6	115.44
328.829	113.44
329.058	110.44
329.287	122.44
329.515	103.44
329.744	109.44
329.972	103.44
330.201	104.44
330.43	129.44
330.658	128.44
330.887	127.44
331.115	118.44
331.344	95.44
331.572	99.44
331.801	110.44
332.03	101.44
332.258	110.44
332.486	85.44
332.715	88.44
332.943	99.44
333.172	86.44
333.4	96.44
333.629	104.44
333.857	101.44
334.085	114.44
334.314	116.44
334.542	123.44
334.771	132.44
334.999	103.44
335.227	104.44
335.455	98.44
335.684	92.44
335.912	80.44
336.14	85.44
336.369	96.44
336.597	101.44
336.825	94.44
337.053	82.44
337.281	100.44
337.51	93.44
337.738	101.44
337.966	103.44
338.194	94.44
338.422	104.44
338.65	100.44
338.878	90.44
339.106	101.44
339.334	95.44
339.562	113.44
339.79	85.44
340.018	92.44
340.246	88.44
340.474	89.44
340.702	87.44
340.93	91.44
341.158	87.44
341.386	96.44
341.614	101.44
341.842	83.44
342.07	83.44
342.298	90.44
342.526	102.44
342.754	84.44
342.981	91.44
343.209	87.44
343.437	104.44
343.665	89.44
343.893	88.44
344.12	87.44
344.348	90.44
344.576	101.44
344.804	94.44
345.031	85.44
345.259	91.44
345.487	88.44
345.714	92.44
345.942	86.44
346.17	78.44
346.397	99.44
346.625	94.44
346.853	79.44
347.08	73.44
347.308	95.44
347.535	102.44
347.763	107.44
347.99	97.44
348.218	70.44
348.445	100.44
348.673	98.44
348.9	103.44
349.128	104.44
349.355	89.44
349.583	94.44
349.81	89.44
350.037	97.44
350.265	97.44
350.492	94.44
350.72	99.44
350.947	105.44
351.174	118.44
351.402	116.44
351.629	93.44
351.856	98.44
352.083	104.44
352.311	115.44
352.538	107.44
352.765	88.44
352.992	100.44
353.22	102.44
353.447	111.44
353.674	105.44
353.901	88.44
354.128	95.44
354.355	85.44
354.583	95.44
354.81	94.44
355.037	102.44
355.264	104.44
355.491	109.44
355.718	88.44
355.945	105.44
356.172	96.44
356.399	93.44
356.626	76.44
356.853	97.44
357.08	97.44
357.307	90.44
357.534	92.44
357.761	84.44
357.988	89.44
358.215	89.44
358.441	101.44
358.668	85.44
358.895	81.44
359.122	98.44
359.349	82.44
359.576	96.44
359.802	97.44
360.029	94.44
360.256	101.44
360.483	90.44
360.709	73.44
360.936	93.44
361.163	101.44
361.39	105.44
361.616	97.44
361.843	96.44
362.07	88.44
362.296	89.44
362.523	89.44
362.749	93.44
362.976	88.44
363.203	106.44
363.429	86.44
363.656	97.44
363.882	79.44
364.109	93.44
364.335	83.44
364.562	88.44
364.788	100.44
365.015	94.44
365.241	93.44
365.468	111.44
365.694	89.44
365.92	90.44
366.147	97.44
366.373	93.44
366.599	80.44
366.826	91.44
367.052	99.44
367.278	82.44
367.505	95.44
367.731	84.44
367.957	92.44
368.184	84.44
368.41	97.44
368.636	115.44
368.862	112.44
369.089	107.44
369.315	87.44
369.541	84.44
369.767	81.44
369.993	104.44
370.219	84.44
370.445	87.44
370.672	92.44
370.898	84.44
371.124	85.44
371.35	85.44
371.576	83.44
371.802	84.44
372.028	89.44
372.254	106.44
372.48	77.44
372.706	94.44
372.932	82.44
373.158	97.44
373.384	108.44
373.61	89.44
373.835	94.44
374.061	86.44
374.287	96.44
374.513	85.44
374.739	77.44
374.965	102.44
375.191	91.44
375.416	90.44
375.642	83.44
375.868	82.44
376.094	80.44
376.319	88.44
376.545	90.44
376.771	86.44
376.997	86.44
377.222	96.44
377.448	94.44
377.674	98.44
377.899	94.44
378.125	92.44
378.35	104.44
378.576	92.44
378.802	106.44
379.027	93.44
379.253	96.44
379.478	103.44
379.704	93.44
379.929	80.44
380.155	88.44
380.38	85.44
380.606	87.44
380.831	100.44
381.057	97.44
381.282	97.44
381.507	87.44
381.733	98.44
381.958	94.44
382.184	87.44
382.409	110.44
382.634	106.44
382.86	113.44
383.085	93.44
383.31	94.44
383.535	102.44
383.761	106.44
383.986	97.44
384.211	100.44
384.436	96.44
384.662	100.44
384.887	95.44
385.112	87.44
385.337	94.44
385.562	104.44
385.787	101.44
386.013	114.44
386.238	106.44
386.463	108.44
386.688	108.44
386.913	101.44
387.138	111.44
387.363	107.44
387.588	102.44
387.813	112.44
388.038	96.44
388.263	108.44
388.488	105.44
388.713	104.44
388.938	88.44
389.163	103.44
389.387	97.44
389.612	105.44
389.837	100.44
390.062	90.44
390.287	80.44
390.512	101.44
390.736	84.44
390.961	86.44
391.186	105.44
391.411	95.44
391.636	84.44
391.86	80.44
392.085	97.44
392.31	83.44
392.534	94.44
392.759	95.44
392.984	92.44
393.208	109.44
393.433	130.44
393.658	109.44
393.882	91.44
394.107	84.44
394.331	88.44
394.556	85.44
394.78	98.44
395.005	94.44
395.229	90.44
395.454	96.44
395.678	83.44
395.903	80.44
396.127	93.44
396.352	93.44
396.576	97.44
396.801	100.44
397.025	116.44
397.249	98.44
397.474	99.44
397.698	90.44
397.922	93.44
398.147	76.44
398.371	92.44
398.595	83.44
398.82	97.44
399.044	89.44
399.268	87.44
399.492	88.44
399.717	82.44
399.941	87.44
400.165	96.44
400.389	86.44
400.613	97.44
400.837	83.44
401.062	97.44
401.286	86.44
401.51	98.44
401.734	83.44
401.958	91.44
402.182	134.44
402.406	136.44
402.63	105.44
402.854	96.44
403.078	92.44
403.302	89.44
403.526	90.44
403.75	100.44
403.974	92.44
404.198	84.44
404.422	88.44
404.645	83.44
404.869	88.44
405.093	79.44
405.317	96.44
405.541	99.44
405.765	99.44
405.988	107.44
406.212	160.44
406.436	172.44
406.66	129.44
406.883	100.44
407.107	86.44
407.331	90.44
407.555	84.44
407.778	92.44
408.002	73.44
408.226	92.44
408.449	85.44
408.673	96.44
408.896	88.44
409.12	101.44
409.344	92.44
409.567	87.44
409.791	83.44
410.014	98.44
410.238	101.44
410.461	98.44
410.685	88.44
410.908	100.44
411.132	111.44
411.355	108.44
411.578	84.44
411.802	70.44
412.025	89.44
412.249	82.44
412.472	93.44
412.695	93.44
412.919	84.44
413.142	82.44
413.365	86.44
413.589	84.44
413.812	87.44
414.035	96.44
414.258	102.44
414.482	93.44
414.705	89.44
414.928	87.44
415.151	80.44
415.374	105.44
415.597	92.44
415.821	86.44
416.044	86.44
416.267	90.44
416.49	89.44
416.713	94.44
416.936	89.44
417.159	82.44
417.382	90.44
417.605	98.44
417.828	94.44
418.051	102.44
418.274	82.44
418.497	89.44
418.72	100.44
418.943	84.44
419.166	85.44
419.389	79.44
419.611	96.44
419.834	89.44
420.057	98.44
420.28	88.44
420.503	86.44
420.726	85.44
420.948	80.44
421.171	98.44
421.394	96.44
421.617	99.44
421.839	86.44
422.062	96.44
422.285	92.44
422.507	87.44
422.73	93.44
422.953	83.44
423.175	93.44
423.398	87.44
423.621	94.44
423.843	99.44
424.066	95.44
424.288	84.44
424.511	97.44
424.733	86.44
424.956	100.44
425.178	98.44
425.401	95.44
425.623	106.44
425.846	100.44
426.068	93.44
426.291	76.44
426.513	89.44
426.735	107.44
426.958	97.44
427.18	95.44
427.402	124.44
427.625	151.44
427.847	114.44
428.069	108.44
428.292	89.44
428.514	90.44
428.736	90.44
428.958	86.44
429.181	89.44
429.403	89.44
429.625	96.44
429.847	104.44
430.069	103.44
430.292	82.44
430.514	99.44
430.736	68.44
430.958	87.44
431.18	82.44
431.402	84.44
431.624	86.44
431.846	82.44
432.068	81.44
432.29	82.44
432.512	90.44
432.734	81.44
432.956	82.44
433.178	90.44
433.4	96.44
433.622	85.44
433.844	92.44
434.066	99.44
434.287	69.44
434.509	94.44
434.731	106.44
434.953	85.44
435.175	92.44
435.397	84.44
435.618	90.44
435.84	105.44
436.062	104.44
436.284	105.44
436.505	86.44
436.727	87.44
436.949	78.44
437.17	102.44
437.392	96.44
437.614	89.44
437.835	100.44
438.057	110.44
438.278	105.44
438.5	92.44
438.721	106.44
438.943	84.44
439.165	88.44
439.386	86.44
439.608	90.44
439.829	103.44
440.05	111.44
440.272	126.44
440.493	84.44
440.715	90.44
440.936	94.44
441.158	91.44
441.379	88.44
441.6	84.44
441.822	92.44
442.043	94.44
442.264	77.44
442.486	90.44
442.707	101.44
442.928	104.44
443.149	123.44
443.371	108.44
443.592	96.44
443.813	110.44
444.034	110.44
444.255	102.44
444.476	81.44
444.698	92.44
444.919	83.44
445.14	130.44
445.361	118.44
445.582	108.44
445.803	118.44
446.024	107.44
446.245	119.44
446.466	107.44
446.687	98.44
446.908	95.44
447.129	83.44
447.35	95.44
447.571	86.44
447.792	86.44
448.013	82.44
448.234	100.44
448.455	100.44
448.675	99.44
448.896	97.44
449.117	103.44
449.338	98.44
449.559	116.44
449.779	116.44
450	92.44
450.221	89.44
450.442	84.44
450.662	86.44
450.883	74.44
451.104	115.44
451.324	98.44
451.545	72.44
451.766	78.44
451.986	80.44
452.207	74.44
452.428	101.44
452.648	94.44
452.869	102.44
453.089	104.44
453.31	100.44
453.53	90.44
453.751	90.44
453.971	109.44
454.192	100.44
454.412	76.44
454.633	101.44
454.853	71.44
455.073	75.44
455.294	89.44
455.514	97.44
455.734	94.44
455.955	89.44
456.175	88.44
456.395	80.44
456.616	84.44
456.836	90.44
457.056	78.44
457.276	77.44
457.497	72.44
457.717	96.44
457.937	78.44
458.157	86.44
458.377	88.44
458.598	105.44
458.818	133.44
459.038	146.44
459.258	112.44
459.478	87.44
459.698	87.44
459.918	85.44
460.138	85.44
460.358	78.44
460.578	88.44
460.798	100.44
461.018	86.44
461.238	88.44
461.458	96.44
461.678	80.44
461.898	84.44
462.118	95.44
462.338	71.44
462.558	87.44
462.777	85.44
462.997	77.44
463.217	82.44
463.437	77.44
463.657	71.44
463.876	71.44
464.096	91.44
464.316	98.44
464.536	96.44
464.755	88.44
464.975	101.44
465.195	136.44
465.414	126.44
465.634	93.44
465.854	82.44
466.073	100.44
466.293	105.44
466.512	83.44
466.732	82.44
466.951	96.44
467.171	100.44
467.391	85.44
467.61	102.44
467.829	96.44
468.049	99.44
468.268	92.44
468.488	94.44
468.707	77.44
468.927	70.44
469.146	86.44
469.365	89.44
469.585	94.44
469.804	84.44
470.023	94.44
470.243	84.44
470.462	104.44
470.681	106.44
470.901	91.44
471.12	89.44
471.339	90.44
471.558	96.44
471.777	82.44
471.997	104.44
472.216	119.44
472.435	148.44
472.654	100.44
472.873	84.44
473.092	74.44
473.311	84.44
473.53	89.44
473.749	94.44
473.968	83.44
474.187	107.44
474.406	101.44
474.625	88.44
474.844	82.44
475.063	91.44
475.282	76.44
475.501	90.44
475.72	87.44
475.939	84.44
476.158	88.44
476.377	92.44
476.596	76.44
476.814	88.44
477.033	99.44
477.252	87.44
477.471	78.44
477.69	78.44
477.908	70.44
478.127	104.44
478.346	92.44
478.564	96.44
478.783	103.44
479.002	90.44
479.22	79.44
479.439	95.44
479.658	99.44
479.876	93.44
480.095	77.44
480.313	74.44
480.532	87.44
480.751	89.44
480.969	102.44
481.188	212.44
481.406	141.44
481.624	87.44
481.843	84.44
482.061	94.44
482.28	103.44
482.498	81.44
482.717	89.44
482.935	96.44
483.153	96.44
483.372	91.44
483.59	78.44
483.808	106.44
484.027	82.44
484.245	87.44
484.463	87.44
484.681	93.44
484.9	100.44
485.118	78.44
485.336	95.44
485.554	106.44
485.772	98.44
485.99	98.44
486.209	95.44
486.427	99.44
486.645	101.44
486.863	103.44
487.081	90.44
487.299	97.44
487.517	82.44
487.735	79.44
487.953	105.44
488.171	100.44
488.389	99.44
488.607	98.44
488.825	98.44
489.043	77.44
489.261	88.44
489.479	92.44
489.696	99.44
489.914	97.44
490.132	93.44
490.35	91.44
490.568	88.44
490.786	81.44
491.003	95.44
491.221	101.44
491.439	97.44
491.657	90.44
491.874	102.44
492.092	110.44
492.31	95.44
492.527	74.44
492.745	90.44
492.963	90.44
493.18	93.44
493.398	86.44
493.615	99.44
493.833	92.44
494.05	84.44
494.268	98.44
494.485	80.44
494.703	93.44
494.92	82.44
495.138	95.44
495.355	91.44
495.573	91.44
495.79	85.44
496.008	92.44
496.225	99.44
496.442	94.44
496.66	103.44
496.877	102.44
497.094	87.44
497.312	89.44
497.529	87.44
497.746	94.44
497.963	91.44
498.181	91.44
498.398	83.44
498.615	104.44
498.832	104.44
499.049	83.44
499.267	95.44
499.484	97.44
499.701	76.44
499.918	93.44
500.135	104.44
500.352	83.44
500.569	93.44
500.786	96.44
501.003	86.44
501.22	80.44
501.437	105.44
501.654	93.44
501.871	111.44
502.088	93.44
502.305	94.44
502.522	86.44
502.739	96.44
502.956	90.44
503.172	98.44
503.389	89.44
503.606	99.44
503.823	105.44
504.04	88.44
504.256	85.44
504.473	101.44
504.69	91.44
504.907	90.44
505.123	98.44
505.34	99.44
505.557	96.44
505.773	87.44
505.99	89.44
506.207	85.44
506.423	85.44
506.64	85.44
506.856	80.44
507.073	85.44
507.289	86.44
507.506	98.44
507.722	98.44
507.939	98.44
508.155	91.44
508.372	89.44
508.588	88.44
508.805	87.44
509.021	105.44
509.238	109.44
509.454	100.44
509.67	95.44
509.887	105.44
510.103	118.44
510.319	185.44
510.536	600.44
510.752	1748.44
510.968	526.44
511.184	150.44
511.401	93.44
511.617	104.44
511.833	90.44
512.049	86.44
512.265	78.44
512.481	95.44
512.698	88.44
512.914	77.44
513.13	100.44
513.346	82.44
513.562	83.44
513.778	96.44
513.994	107.44
514.21	105.44
514.426	117.44
514.642	129.44
514.858	113.44
515.074	166.44
515.29	342.44
515.506	1092.44
515.721	398.44
515.937	134.44
