Data from Uncirc_1989_H10_HRD10591_00024.txt Node
Date: Wed Jan 03 11:57:40 EST 2024
User: Yrep
Spectrometer: HR+D1059
Trigger mode: 1
Integration Time (sec): 1.000000E-1
Scans to average: 1
Electric dark correction enabled: true
Nonlinearity correction enabled: false
Boxcar width: 0
XAxis mode: Wavelengths
Number of Pixels in Spectrum: 2048
>>>>>Begin Spectral Data<<<<<
223.165	-25.25
223.4	-25.25
223.635	-25.25
223.869	-27.25
224.104	-11.25
224.338	-20.25
224.573	-0.25
224.808	-9.25
225.042	-4.25
225.277	-10.25
225.511	-10.25
225.746	-6.25
225.98	5.75
226.215	19.75
226.449	13.75
226.683	20.75
226.918	22.75
227.152	41.75
227.387	34.75
227.621	37.75
227.856	40.75
228.09	38.75
228.324	52.75
228.559	47.75
228.793	54.75
229.027	63.75
229.262	76.75
229.496	73.75
229.73	80.75
229.964	70.75
230.199	58.75
230.433	62.75
230.667	76.75
230.901	70.75
231.136	78.75
231.37	100.75
231.604	77.75
231.838	80.75
232.072	76.75
232.306	74.75
232.541	78.75
232.775	79.75
233.009	85.75
233.243	58.75
233.477	73.75
233.711	77.75
233.945	80.75
234.179	84.75
234.413	67.75
234.647	74.75
234.881	81.75
235.115	74.75
235.349	69.75
235.583	75.75
235.817	76.75
236.051	57.75
236.285	61.75
236.519	61.75
236.753	66.75
236.987	77.75
237.221	69.75
237.455	80.75
237.689	81.75
237.922	70.75
238.156	61.75
238.39	75.75
238.624	72.75
238.858	83.75
239.091	75.75
239.325	81.75
239.559	80.75
239.793	74.75
240.027	51.75
240.26	56.75
240.494	79.75
240.728	58.75
240.961	57.75
241.195	76.75
241.429	74.75
241.662	63.75
241.896	89.75
242.13	67.75
242.363	76.75
242.597	82.75
242.83	54.75
243.064	57.75
243.298	72.75
243.531	80.75
243.765	80.75
243.998	64.75
244.232	69.75
244.465	75.75
244.699	77.75
244.932	66.75
245.166	64.75
245.399	82.75
245.633	77.75
245.866	62.75
246.099	76.75
246.333	81.75
246.566	78.75
246.8	76.75
247.033	64.75
247.266	64.75
247.5	78.75
247.733	76.75
247.966	75.75
248.2	66.75
248.433	84.75
248.666	69.75
248.899	97.75
249.133	78.75
249.366	83.75
249.599	91.75
249.832	74.75
250.066	84.75
250.299	75.75
250.532	79.75
250.765	78.75
250.998	80.75
251.231	78.75
251.465	92.75
251.698	63.75
251.931	88.75
252.164	84.75
252.397	80.75
252.63	76.75
252.863	88.75
253.096	70.75
253.329	81.75
253.562	68.75
253.795	74.75
254.028	58.75
254.261	77.75
254.494	69.75
254.727	90.75
254.96	73.75
255.193	62.75
255.426	86.75
255.659	76.75
255.892	77.75
256.124	81.75
256.357	64.75
256.59	81.75
256.823	81.75
257.056	87.75
257.289	78.75
257.521	80.75
257.754	80.75
257.987	78.75
258.22	81.75
258.452	75.75
258.685	64.75
258.918	79.75
259.151	78.75
259.383	80.75
259.616	89.75
259.849	82.75
260.081	88.75
260.314	85.75
260.547	73.75
260.779	83.75
261.012	70.75
261.244	79.75
261.477	78.75
261.71	93.75
261.942	86.75
262.175	99.75
262.407	80.75
262.64	77.75
262.872	81.75
263.105	67.75
263.337	78.75
263.57	85.75
263.802	73.75
264.035	89.75
264.267	86.75
264.499	86.75
264.732	76.75
264.964	78.75
265.197	91.75
265.429	72.75
265.661	82.75
265.894	82.75
266.126	81.75
266.358	74.75
266.591	77.75
266.823	75.75
267.055	88.75
267.287	72.75
267.52	75.75
267.752	84.75
267.984	80.75
268.216	92.75
268.448	69.75
268.681	69.75
268.913	78.75
269.145	86.75
269.377	81.75
269.609	85.75
269.841	81.75
270.073	77.75
270.306	77.75
270.538	73.75
270.77	84.75
271.002	79.75
271.234	80.75
271.466	83.75
271.698	82.75
271.93	103.75
272.162	87.75
272.394	80.75
272.626	81.75
272.858	83.75
273.09	78.75
273.322	78.75
273.553	80.75
273.785	88.75
274.017	89.75
274.249	88.75
274.481	75.75
274.713	82.75
274.945	74.75
275.176	81.75
275.408	90.75
275.64	77.75
275.872	98.75
276.104	85.75
276.335	95.75
276.567	87.75
276.799	92.75
277.031	85.75
277.262	80.75
277.494	68.75
277.726	85.75
277.957	89.75
278.189	99.75
278.421	87.75
278.652	84.75
278.884	82.75
279.115	75.75
279.347	73.75
279.579	77.75
279.81	85.75
280.042	93.75
280.273	88.75
280.505	82.75
280.736	79.75
280.968	89.75
281.199	87.75
281.431	85.75
281.662	93.75
281.894	75.75
282.125	91.75
282.356	97.75
282.588	126.75
282.819	92.75
283.051	85.75
283.282	76.75
283.513	85.75
283.745	94.75
283.976	77.75
284.207	90.75
284.439	94.75
284.67	82.75
284.901	95.75
285.132	78.75
285.364	88.75
285.595	82.75
285.826	87.75
286.057	72.75
286.288	78.75
286.52	93.75
286.751	87.75
286.982	88.75
287.213	84.75
287.444	80.75
287.675	91.75
287.906	102.75
288.138	82.75
288.369	78.75
288.6	78.75
288.831	91.75
289.062	78.75
289.293	90.75
289.524	96.75
289.755	102.75
289.986	95.75
290.217	79.75
290.448	84.75
290.679	88.75
290.91	77.75
291.141	74.75
291.371	89.75
291.602	90.75
291.833	84.75
292.064	83.75
292.295	93.75
292.526	77.75
292.757	86.75
292.987	106.75
293.218	81.75
293.449	90.75
293.68	90.75
293.91	81.75
294.141	79.75
294.372	86.75
294.603	89.75
294.833	91.75
295.064	87.75
295.295	76.75
295.525	91.75
295.756	87.75
295.987	95.75
296.217	128.75
296.448	101.75
296.679	81.75
296.909	106.75
297.14	94.75
297.37	88.75
297.601	96.75
297.831	88.75
298.062	89.75
298.292	77.75
298.523	84.75
298.753	90.75
298.984	81.75
299.214	92.75
299.445	88.75
299.675	96.75
299.905	89.75
300.136	86.75
300.366	85.75
300.597	80.75
300.827	100.75
301.057	103.75
301.288	92.75
301.518	94.75
301.748	85.75
301.979	98.75
302.209	68.75
302.439	83.75
302.669	84.75
302.9	83.75
303.13	89.75
303.36	71.75
303.59	92.75
303.82	115.75
304.051	84.75
304.281	78.75
304.511	87.75
304.741	84.75
304.971	83.75
305.201	88.75
305.431	82.75
305.661	77.75
305.891	98.75
306.121	93.75
306.352	100.75
306.582	89.75
306.812	82.75
307.042	79.75
307.272	92.75
307.502	105.75
307.731	91.75
307.961	86.75
308.191	81.75
308.421	78.75
308.651	77.75
308.881	93.75
309.111	91.75
309.341	78.75
309.571	84.75
309.8	89.75
310.03	88.75
310.26	78.75
310.49	97.75
310.72	86.75
310.949	92.75
311.179	97.75
311.409	79.75
311.639	87.75
311.868	100.75
312.098	86.75
312.328	95.75
312.557	92.75
312.787	104.75
313.017	97.75
313.246	101.75
313.476	87.75
313.706	78.75
313.935	89.75
314.165	84.75
314.394	94.75
314.624	94.75
314.853	91.75
315.083	96.75
315.312	96.75
315.542	72.75
315.771	94.75
316.001	90.75
316.23	89.75
316.46	76.75
316.689	99.75
316.919	82.75
317.148	92.75
317.377	101.75
317.607	83.75
317.836	81.75
318.065	93.75
318.295	97.75
318.524	89.75
318.753	81.75
318.983	86.75
319.212	88.75
319.441	105.75
319.67	80.75
319.9	103.75
320.129	86.75
320.358	95.75
320.587	88.75
320.816	105.75
321.046	112.75
321.275	88.75
321.504	99.75
321.733	98.75
321.962	82.75
322.191	95.75
322.42	92.75
322.649	97.75
322.878	100.75
323.108	109.75
323.337	113.75
323.566	116.75
323.795	129.75
324.024	167.75
324.253	310.75
324.482	653.75
324.71	1242.75
324.939	1663.75
325.168	610.75
325.397	178.75
325.626	118.75
325.855	120.75
326.084	99.75
326.313	120.75
326.542	139.75
326.77	197.75
326.999	359.75
327.228	707.75
327.457	1273.75
327.686	1049.75
327.914	297.75
328.143	169.75
328.372	142.75
328.6	105.75
328.829	97.75
329.058	107.75
329.287	113.75
329.515	114.75
329.744	117.75
329.972	108.75
330.201	125.75
330.43	127.75
330.658	113.75
330.887	109.75
331.115	108.75
331.344	87.75
331.572	100.75
331.801	97.75
332.03	104.75
332.258	83.75
332.486	92.75
332.715	92.75
332.943	92.75
333.172	89.75
333.4	106.75
333.629	101.75
333.857	102.75
334.085	105.75
334.314	122.75
334.542	165.75
334.771	155.75
334.999	95.75
335.227	85.75
335.455	94.75
335.684	85.75
335.912	101.75
336.14	86.75
336.369	73.75
336.597	113.75
336.825	89.75
337.053	86.75
337.281	79.75
337.51	88.75
337.738	91.75
337.966	67.75
338.194	89.75
338.422	94.75
338.65	90.75
338.878	82.75
339.106	70.75
339.334	74.75
339.562	96.75
339.79	84.75
340.018	91.75
340.246	88.75
340.474	87.75
340.702	99.75
340.93	74.75
341.158	91.75
341.386	84.75
341.614	83.75
341.842	86.75
342.07	81.75
342.298	98.75
342.526	81.75
342.754	81.75
342.981	88.75
343.209	87.75
343.437	94.75
343.665	65.75
343.893	89.75
344.12	89.75
344.348	80.75
344.576	94.75
344.804	101.75
345.031	110.75
345.259	93.75
345.487	93.75
345.714	70.75
345.942	67.75
346.17	80.75
346.397	96.75
346.625	79.75
346.853	94.75
347.08	88.75
347.308	87.75
347.535	92.75
347.763	98.75
347.99	97.75
348.218	97.75
348.445	90.75
348.673	94.75
348.9	102.75
349.128	99.75
349.355	78.75
349.583	92.75
349.81	93.75
350.037	84.75
350.265	97.75
350.492	106.75
350.72	110.75
350.947	102.75
351.174	93.75
351.402	103.75
351.629	102.75
351.856	90.75
352.083	93.75
352.311	102.75
352.538	97.75
352.765	95.75
352.992	102.75
353.22	97.75
353.447	105.75
353.674	85.75
353.901	83.75
354.128	101.75
354.355	101.75
354.583	101.75
354.81	91.75
355.037	81.75
355.264	95.75
355.491	82.75
355.718	89.75
355.945	85.75
356.172	78.75
356.399	97.75
356.626	86.75
356.853	77.75
357.08	86.75
357.307	84.75
357.534	75.75
357.761	98.75
357.988	90.75
358.215	90.75
358.441	76.75
358.668	97.75
358.895	99.75
359.122	95.75
359.349	80.75
359.576	82.75
359.802	93.75
360.029	124.75
360.256	98.75
360.483	92.75
360.709	97.75
360.936	90.75
361.163	80.75
361.39	84.75
361.616	89.75
361.843	89.75
362.07	92.75
362.296	99.75
362.523	85.75
362.749	87.75
362.976	86.75
363.203	89.75
363.429	79.75
363.656	81.75
363.882	75.75
364.109	84.75
364.335	90.75
364.562	94.75
364.788	82.75
365.015	90.75
365.241	80.75
365.468	110.75
365.694	101.75
365.92	89.75
366.147	95.75
366.373	79.75
366.599	82.75
366.826	72.75
367.052	90.75
367.278	93.75
367.505	57.75
367.731	80.75
367.957	85.75
368.184	86.75
368.41	88.75
368.636	102.75
368.862	96.75
369.089	93.75
369.315	84.75
369.541	75.75
369.767	94.75
369.993	73.75
370.219	92.75
370.445	74.75
370.672	74.75
370.898	72.75
371.124	90.75
371.35	101.75
371.576	73.75
371.802	76.75
372.028	75.75
372.254	90.75
372.48	77.75
372.706	84.75
372.932	74.75
373.158	100.75
373.384	82.75
373.61	92.75
373.835	85.75
374.061	88.75
374.287	79.75
374.513	90.75
374.739	74.75
374.965	72.75
375.191	75.75
375.416	81.75
375.642	88.75
375.868	85.75
376.094	90.75
376.319	86.75
376.545	78.75
376.771	88.75
376.997	79.75
377.222	81.75
377.448	86.75
377.674	92.75
377.899	82.75
378.125	99.75
378.35	95.75
378.576	93.75
378.802	85.75
379.027	72.75
379.253	86.75
379.478	97.75
379.704	99.75
379.929	90.75
380.155	97.75
380.38	79.75
380.606	76.75
380.831	86.75
381.057	96.75
381.282	94.75
381.507	90.75
381.733	85.75
381.958	83.75
382.184	82.75
382.409	104.75
382.634	96.75
382.86	84.75
383.085	85.75
383.31	92.75
383.535	85.75
383.761	85.75
383.986	85.75
384.211	94.75
384.436	77.75
384.662	97.75
384.887	107.75
385.112	94.75
385.337	104.75
385.562	90.75
385.787	96.75
386.013	98.75
386.238	100.75
386.463	84.75
386.688	97.75
386.913	90.75
387.138	95.75
387.363	89.75
387.588	84.75
387.813	100.75
388.038	103.75
388.263	97.75
388.488	97.75
388.713	87.75
388.938	94.75
389.163	87.75
389.387	75.75
389.612	88.75
389.837	77.75
390.062	79.75
390.287	107.75
390.512	83.75
390.736	86.75
390.961	74.75
391.186	79.75
391.411	69.75
391.636	82.75
391.86	87.75
392.085	86.75
392.31	70.75
392.534	86.75
392.759	79.75
392.984	89.75
393.208	97.75
393.433	117.75
393.658	110.75
393.882	81.75
394.107	96.75
394.331	80.75
394.556	80.75
394.78	88.75
395.005	64.75
395.229	88.75
395.454	93.75
395.678	90.75
395.903	91.75
396.127	84.75
396.352	86.75
396.576	83.75
396.801	83.75
397.025	97.75
397.249	101.75
397.474	79.75
397.698	85.75
397.922	82.75
398.147	81.75
398.371	85.75
398.595	90.75
398.82	78.75
399.044	76.75
399.268	82.75
399.492	92.75
399.717	82.75
399.941	82.75
400.165	86.75
400.389	84.75
400.613	80.75
400.837	76.75
401.062	82.75
401.286	86.75
401.51	84.75
401.734	68.75
401.958	91.75
402.182	112.75
402.406	131.75
402.63	102.75
402.854	83.75
403.078	89.75
403.302	73.75
403.526	73.75
403.75	77.75
403.974	81.75
404.198	81.75
404.422	84.75
404.645	93.75
404.869	84.75
405.093	92.75
405.317	85.75
405.541	77.75
405.765	74.75
405.988	96.75
406.212	145.75
406.436	172.75
406.66	125.75
406.883	97.75
407.107	64.75
407.331	87.75
407.555	78.75
407.778	80.75
408.002	79.75
408.226	83.75
408.449	81.75
408.673	92.75
408.896	96.75
409.12	97.75
409.344	85.75
409.567	83.75
409.791	87.75
410.014	84.75
410.238	85.75
410.461	79.75
410.685	94.75
410.908	100.75
411.132	96.75
411.355	90.75
411.578	89.75
411.802	85.75
412.025	100.75
412.249	93.75
412.472	95.75
412.695	96.75
412.919	95.75
413.142	82.75
413.365	90.75
413.589	81.75
413.812	81.75
414.035	83.75
414.258	86.75
414.482	84.75
414.705	91.75
414.928	84.75
415.151	94.75
415.374	80.75
415.597	78.75
415.821	78.75
416.044	94.75
416.267	80.75
416.49	98.75
416.713	89.75
416.936	82.75
417.159	73.75
417.382	85.75
417.605	87.75
417.828	72.75
418.051	76.75
418.274	78.75
418.497	93.75
418.72	86.75
418.943	74.75
419.166	77.75
419.389	85.75
419.611	85.75
419.834	88.75
420.057	87.75
420.28	83.75
420.503	76.75
420.726	71.75
420.948	86.75
421.171	81.75
421.394	93.75
421.617	89.75
421.839	65.75
422.062	77.75
422.285	92.75
422.507	99.75
422.73	91.75
422.953	91.75
423.175	88.75
423.398	94.75
423.621	78.75
423.843	84.75
424.066	88.75
424.288	90.75
424.511	96.75
424.733	83.75
424.956	91.75
425.178	88.75
425.401	69.75
425.623	81.75
425.846	93.75
426.068	80.75
426.291	88.75
426.513	82.75
426.735	97.75
426.958	91.75
427.18	106.75
427.402	113.75
427.625	121.75
427.847	114.75
428.069	88.75
428.292	82.75
428.514	90.75
428.736	74.75
428.958	84.75
429.181	80.75
429.403	86.75
429.625	81.75
429.847	87.75
430.069	92.75
430.292	79.75
430.514	79.75
430.736	73.75
430.958	84.75
431.18	81.75
431.402	84.75
431.624	92.75
431.846	92.75
432.068	73.75
432.29	78.75
432.512	80.75
432.734	96.75
432.956	79.75
433.178	81.75
433.4	89.75
433.622	94.75
433.844	73.75
434.066	90.75
434.287	84.75
434.509	76.75
434.731	98.75
434.953	88.75
435.175	88.75
435.397	76.75
435.618	84.75
435.84	77.75
436.062	103.75
436.284	111.75
436.505	78.75
436.727	89.75
436.949	90.75
437.17	83.75
437.392	91.75
437.614	93.75
437.835	97.75
438.057	106.75
438.278	88.75
438.5	87.75
438.721	105.75
438.943	91.75
439.165	93.75
439.386	88.75
439.608	98.75
439.829	97.75
440.05	120.75
440.272	109.75
440.493	82.75
440.715	89.75
440.936	82.75
441.158	95.75
441.379	77.75
441.6	78.75
441.822	83.75
442.043	91.75
442.264	74.75
442.486	99.75
442.707	91.75
442.928	96.75
443.149	114.75
443.371	102.75
443.592	96.75
443.813	104.75
444.034	90.75
444.255	75.75
444.476	95.75
444.698	85.75
444.919	74.75
445.14	122.75
445.361	111.75
445.582	106.75
445.803	122.75
446.024	108.75
446.245	113.75
446.466	92.75
446.687	96.75
446.908	82.75
447.129	89.75
447.35	91.75
447.571	86.75
447.792	81.75
448.013	80.75
448.234	99.75
448.455	97.75
448.675	102.75
448.896	99.75
449.117	90.75
449.338	87.75
449.559	111.75
449.779	128.75
450	78.75
450.221	88.75
450.442	77.75
450.662	81.75
450.883	104.75
451.104	85.75
451.324	84.75
451.545	83.75
451.766	74.75
451.986	90.75
452.207	88.75
452.428	74.75
452.648	91.75
452.869	101.75
453.089	86.75
453.31	102.75
453.53	89.75
453.751	68.75
453.971	80.75
454.192	92.75
454.412	81.75
454.633	90.75
454.853	76.75
455.073	74.75
455.294	77.75
455.514	81.75
455.734	76.75
455.955	80.75
456.175	74.75
456.395	82.75
456.616	92.75
456.836	96.75
457.056	75.75
457.276	74.75
457.497	94.75
457.717	84.75
457.937	94.75
458.157	85.75
458.377	73.75
458.598	102.75
458.818	114.75
459.038	120.75
459.258	109.75
459.478	67.75
459.698	60.75
459.918	89.75
460.138	67.75
460.358	81.75
460.578	90.75
460.798	92.75
461.018	79.75
461.238	67.75
461.458	97.75
461.678	97.75
461.898	88.75
462.118	95.75
462.338	76.75
462.558	82.75
462.777	87.75
462.997	76.75
463.217	92.75
463.437	72.75
463.657	79.75
463.876	83.75
464.096	93.75
464.316	81.75
464.536	82.75
464.755	76.75
464.975	91.75
465.195	128.75
465.414	140.75
465.634	100.75
465.854	78.75
466.073	82.75
466.293	94.75
466.512	75.75
466.732	88.75
466.951	97.75
467.171	81.75
467.391	81.75
467.61	93.75
467.829	85.75
468.049	85.75
468.268	105.75
468.488	91.75
468.707	85.75
468.927	76.75
469.146	62.75
469.365	74.75
469.585	94.75
469.804	88.75
470.023	68.75
470.243	85.75
470.462	104.75
470.681	112.75
470.901	94.75
471.12	85.75
471.339	104.75
471.558	80.75
471.777	81.75
471.997	82.75
472.216	119.75
472.435	171.75
472.654	108.75
472.873	78.75
473.092	79.75
473.311	78.75
473.53	65.75
473.749	78.75
473.968	77.75
474.187	92.75
474.406	88.75
474.625	79.75
474.844	85.75
475.063	88.75
475.282	84.75
475.501	90.75
475.72	88.75
475.939	78.75
476.158	85.75
476.377	73.75
476.596	73.75
476.814	91.75
477.033	88.75
477.252	82.75
477.471	88.75
477.69	92.75
477.908	90.75
478.127	85.75
478.346	88.75
478.564	88.75
478.783	84.75
479.002	81.75
479.22	85.75
479.439	97.75
479.658	92.75
479.876	95.75
480.095	99.75
480.313	81.75
480.532	73.75
480.751	97.75
480.969	120.75
481.188	240.75
481.406	180.75
481.624	97.75
481.843	90.75
482.061	86.75
482.28	92.75
482.498	75.75
482.717	92.75
482.935	88.75
483.153	86.75
483.372	78.75
483.59	88.75
483.808	72.75
484.027	102.75
484.245	99.75
484.463	93.75
484.681	98.75
484.9	77.75
485.118	88.75
485.336	89.75
485.554	83.75
485.772	82.75
485.99	94.75
486.209	95.75
486.427	96.75
486.645	107.75
486.863	108.75
487.081	107.75
487.299	102.75
487.517	90.75
487.735	84.75
487.953	85.75
488.171	89.75
488.389	92.75
488.607	106.75
488.825	86.75
489.043	74.75
489.261	88.75
489.479	82.75
489.696	79.75
489.914	87.75
490.132	81.75
490.35	83.75
490.568	92.75
490.786	85.75
491.003	88.75
491.221	83.75
491.439	80.75
491.657	69.75
491.874	89.75
492.092	82.75
492.31	95.75
492.527	81.75
492.745	92.75
492.963	78.75
493.18	84.75
493.398	90.75
493.615	89.75
493.833	98.75
494.05	74.75
494.268	85.75
494.485	86.75
494.703	74.75
494.92	75.75
495.138	72.75
495.355	88.75
495.573	92.75
495.79	81.75
496.008	88.75
496.225	91.75
496.442	75.75
496.66	76.75
496.877	96.75
497.094	96.75
497.312	79.75
497.529	84.75
497.746	86.75
497.963	93.75
498.181	80.75
498.398	92.75
498.615	92.75
498.832	97.75
499.049	82.75
499.267	81.75
499.484	91.75
499.701	77.75
499.918	93.75
500.135	89.75
500.352	89.75
500.569	89.75
500.786	89.75
501.003	86.75
501.22	88.75
501.437	84.75
501.654	81.75
501.871	90.75
502.088	87.75
502.305	98.75
502.522	72.75
502.739	96.75
502.956	95.75
503.172	92.75
503.389	85.75
503.606	102.75
503.823	88.75
504.04	90.75
504.256	81.75
504.473	87.75
504.69	96.75
504.907	101.75
505.123	85.75
505.34	97.75
505.557	89.75
505.773	82.75
505.99	84.75
506.207	84.75
506.423	89.75
506.64	94.75
506.856	77.75
507.073	84.75
507.289	76.75
507.506	101.75
507.722	98.75
507.939	90.75
508.155	98.75
508.372	95.75
508.588	84.75
508.805	86.75
509.021	89.75
509.238	85.75
509.454	102.75
509.67	97.75
509.887	109.75
510.103	116.75
510.319	164.75
510.536	557.75
510.752	1678.75
510.968	472.75
511.184	130.75
511.401	87.75
511.617	98.75
511.833	86.75
512.049	95.75
512.265	95.75
512.481	87.75
512.698	74.75
512.914	88.75
513.13	78.75
513.346	90.75
513.562	82.75
513.778	87.75
513.994	80.75
514.21	79.75
514.426	114.75
514.642	96.75
514.858	115.75
515.074	127.75
515.29	338.75
515.506	1025.75
515.721	373.75
515.937	121.75
516.153	108.75
516.369	98.75
516.585	94.75
516.801	83.75
517.016	103.75
517.232	85.75
517.448	87.75
517.664	93.75
