Data from Uncirc_1989_H10_HRD10591_00036.txt Node
Date: Wed Jan 03 11:57:42 EST 2024
User: Yrep
Spectrometer: HR+D1059
Trigger mode: 1
Integration Time (sec): 1.000000E-1
Scans to average: 1
Electric dark correction enabled: true
Nonlinearity correction enabled: false
Boxcar width: 0
XAxis mode: Wavelengths
Number of Pixels in Spectrum: 2048
>>>>>Begin Spectral Data<<<<<
223.165	-18
223.4	-18
223.635	-18
223.869	-27
224.104	-9
224.338	-10
224.573	-9
224.808	-4
225.042	5
225.277	-22
225.511	-19
225.746	12
225.98	9
226.215	18
226.449	13
226.683	9
226.918	31
227.152	21
227.387	34
227.621	34
227.856	48
228.09	33
228.324	50
228.559	58
228.793	60
229.027	68
229.262	64
229.496	69
229.73	87
229.964	85
230.199	87
230.433	72
230.667	79
230.901	80
231.136	82
231.37	96
231.604	86
231.838	79
232.072	94
232.306	69
232.541	78
232.775	85
233.009	77
233.243	83
233.477	72
233.711	78
233.945	81
234.179	79
234.413	76
234.647	89
234.881	91
235.115	88
235.349	81
235.583	90
235.817	78
236.051	73
236.285	68
236.519	72
236.753	82
236.987	67
237.221	82
237.455	79
237.689	78
237.922	78
238.156	76
238.39	76
238.624	77
238.858	77
239.091	86
239.325	87
239.559	64
239.793	65
240.027	87
240.26	73
240.494	92
240.728	76
240.961	86
241.195	81
241.429	86
241.662	79
241.896	59
242.13	87
242.363	83
242.597	74
242.83	89
243.064	89
243.298	72
243.531	83
243.765	76
243.998	86
244.232	79
244.465	94
244.699	93
244.932	81
245.166	92
245.399	86
245.633	78
245.866	83
246.099	58
246.333	72
246.566	73
246.8	68
247.033	78
247.266	73
247.5	78
247.733	76
247.966	81
248.2	80
248.433	70
248.666	55
248.899	79
249.133	84
249.366	81
249.599	88
249.832	76
250.066	68
250.299	72
250.532	85
250.765	74
250.998	85
251.231	72
251.465	86
251.698	74
251.931	82
252.164	83
252.397	69
252.63	91
252.863	88
253.096	71
253.329	86
253.562	76
253.795	92
254.028	78
254.261	77
254.494	73
254.727	87
254.96	84
255.193	76
255.426	76
255.659	85
255.892	101
256.124	80
256.357	100
256.59	86
256.823	90
257.056	89
257.289	80
257.521	85
257.754	93
257.987	72
258.22	99
258.452	81
258.685	77
258.918	82
259.151	81
259.383	87
259.616	84
259.849	83
260.081	75
260.314	95
260.547	96
260.779	77
261.012	88
261.244	78
261.477	112
261.71	96
261.942	114
262.175	113
262.407	96
262.64	71
262.872	86
263.105	77
263.337	93
263.57	79
263.802	93
264.035	96
264.267	87
264.499	83
264.732	73
264.964	87
265.197	86
265.429	88
265.661	92
265.894	79
266.126	76
266.358	83
266.591	81
266.823	71
267.055	80
267.287	87
267.52	80
267.752	82
267.984	94
268.216	81
268.448	93
268.681	87
268.913	92
269.145	85
269.377	93
269.609	85
269.841	97
270.073	92
270.306	88
270.538	80
270.77	73
271.002	90
271.234	100
271.466	86
271.698	84
271.93	88
272.162	100
272.394	94
272.626	73
272.858	80
273.09	84
273.322	79
273.553	83
273.785	82
274.017	104
274.249	85
274.481	76
274.713	101
274.945	92
275.176	90
275.408	95
275.64	92
275.872	87
276.104	106
276.335	96
276.567	102
276.799	98
277.031	90
277.262	82
277.494	73
277.726	88
277.957	85
278.189	99
278.421	92
278.652	87
278.884	94
279.115	88
279.347	88
279.579	85
279.81	96
280.042	110
280.273	98
280.505	90
280.736	99
280.968	96
281.199	88
281.431	85
281.662	96
281.894	84
282.125	100
282.356	106
282.588	120
282.819	101
283.051	90
283.282	92
283.513	92
283.745	88
283.976	88
284.207	82
284.439	96
284.67	95
284.901	92
285.132	88
285.364	83
285.595	82
285.826	79
286.057	93
286.288	78
286.52	84
286.751	81
286.982	67
287.213	72
287.444	82
287.675	77
287.906	97
288.138	101
288.369	106
288.6	93
288.831	88
289.062	84
289.293	106
289.524	90
289.755	104
289.986	84
290.217	90
290.448	94
290.679	74
290.91	101
291.141	78
291.371	84
291.602	82
291.833	101
292.064	89
292.295	100
292.526	82
292.757	87
292.987	78
293.218	97
293.449	93
293.68	90
293.91	92
294.141	85
294.372	91
294.603	84
294.833	82
295.064	86
295.295	86
295.525	92
295.756	96
295.987	104
296.217	128
296.448	124
296.679	90
296.909	90
297.14	102
297.37	86
297.601	93
297.831	93
298.062	95
298.292	101
298.523	96
298.753	76
298.984	91
299.214	82
299.445	85
299.675	87
299.905	92
300.136	97
300.366	87
300.597	89
300.827	57
301.057	84
301.288	102
301.518	89
301.748	84
301.979	98
302.209	102
302.439	96
302.669	92
302.9	87
303.13	91
303.36	97
303.59	96
303.82	96
304.051	114
304.281	101
304.511	96
304.741	92
304.971	94
305.201	88
305.431	98
305.661	84
305.891	96
306.121	97
306.352	100
306.582	94
306.812	92
307.042	90
307.272	108
307.502	93
307.731	107
307.961	94
308.191	94
308.421	86
308.651	114
308.881	88
309.111	89
309.341	89
309.571	88
309.8	95
310.03	92
310.26	93
310.49	106
310.72	96
310.949	89
311.179	100
311.409	90
311.639	97
311.868	93
312.098	95
312.328	85
312.557	103
312.787	105
313.017	88
313.246	83
313.476	86
313.706	97
313.935	88
314.165	96
314.394	82
314.624	96
314.853	82
315.083	97
315.312	83
315.542	94
315.771	101
316.001	102
316.23	90
316.46	90
316.689	93
316.919	97
317.148	94
317.377	97
317.607	96
317.836	89
318.065	93
318.295	71
318.524	84
318.753	100
318.983	94
319.212	84
319.441	103
319.67	111
319.9	93
320.129	96
320.358	107
320.587	95
320.816	95
321.046	105
321.275	94
321.504	101
321.733	101
321.962	91
322.191	100
322.42	103
322.649	106
322.878	109
323.108	107
323.337	112
323.566	124
323.795	145
324.024	194
324.253	332
324.482	696
324.71	1416
324.939	1908
325.168	697
325.397	214
325.626	142
325.855	143
326.084	131
326.313	126
326.542	132
326.77	213
326.999	370
327.228	818
327.457	1498
327.686	1202
327.914	346
328.143	189
328.372	169
328.6	121
328.829	114
329.058	123
329.287	124
329.515	110
329.744	109
329.972	124
330.201	144
330.43	182
330.658	137
330.887	138
331.115	117
331.344	103
331.572	92
331.801	92
332.03	97
332.258	82
332.486	99
332.715	88
332.943	93
333.172	108
333.4	96
333.629	116
333.857	103
334.085	117
334.314	158
334.542	178
334.771	185
334.999	121
335.227	100
335.455	105
335.684	97
335.912	95
336.14	100
336.369	95
336.597	118
336.825	104
337.053	97
337.281	86
337.51	97
337.738	84
337.966	97
338.194	94
338.422	96
338.65	89
338.878	93
339.106	101
339.334	90
339.562	90
339.79	90
340.018	98
340.246	94
340.474	95
340.702	92
340.93	111
341.158	92
341.386	86
341.614	96
341.842	83
342.07	91
342.298	94
342.526	91
342.754	90
342.981	86
343.209	93
343.437	100
343.665	86
343.893	97
344.12	101
344.348	88
344.576	95
344.804	102
345.031	89
345.259	84
345.487	79
345.714	86
345.942	102
346.17	96
346.397	107
346.625	109
346.853	84
347.08	99
347.308	65
347.535	88
347.763	110
347.99	100
348.218	119
348.445	103
348.673	103
348.9	81
349.128	85
349.355	80
349.583	85
349.81	89
350.037	92
350.265	104
350.492	96
350.72	109
350.947	93
351.174	106
351.402	98
351.629	108
351.856	96
352.083	93
352.311	102
352.538	95
352.765	105
352.992	103
353.22	98
353.447	104
353.674	102
353.901	96
354.128	103
354.355	105
354.583	105
354.81	108
355.037	109
355.264	93
355.491	88
355.718	88
355.945	97
356.172	98
356.399	96
356.626	98
356.853	100
357.08	77
357.307	87
357.534	98
357.761	103
357.988	110
358.215	113
358.441	99
358.668	94
358.895	100
359.122	89
359.349	98
359.576	102
359.802	83
360.029	118
360.256	101
360.483	91
360.709	87
360.936	103
361.163	96
361.39	94
361.616	94
361.843	104
362.07	106
362.296	85
362.523	88
362.749	96
362.976	109
363.203	88
363.429	75
363.656	87
363.882	86
364.109	89
364.335	103
364.562	89
364.788	89
365.015	92
365.241	101
365.468	98
365.694	95
365.92	104
366.147	89
366.373	83
366.599	87
366.826	88
367.052	90
367.278	87
367.505	93
367.731	89
367.957	79
368.184	104
368.41	99
368.636	111
368.862	119
369.089	102
369.315	95
369.541	93
369.767	93
369.993	89
370.219	87
370.445	86
370.672	80
370.898	103
371.124	81
371.35	92
371.576	84
371.802	90
372.028	95
372.254	87
372.48	88
372.706	92
372.932	94
373.158	87
373.384	84
373.61	107
373.835	88
374.061	87
374.287	95
374.513	93
374.739	87
374.965	86
375.191	74
375.416	108
375.642	86
375.868	96
376.094	98
376.319	106
376.545	87
376.771	90
376.997	100
377.222	78
377.448	89
377.674	89
377.899	91
378.125	95
378.35	94
378.576	90
378.802	85
379.027	82
379.253	90
379.478	102
379.704	90
379.929	81
380.155	83
380.38	83
380.606	84
380.831	106
381.057	96
381.282	92
381.507	96
381.733	85
381.958	87
382.184	107
382.409	113
382.634	100
382.86	85
383.085	89
383.31	103
383.535	103
383.761	97
383.986	101
384.211	89
384.436	102
384.662	83
384.887	100
385.112	95
385.337	95
385.562	101
385.787	105
386.013	105
386.238	112
386.463	115
386.688	105
386.913	95
387.138	94
387.363	104
387.588	106
387.813	102
388.038	94
388.263	111
388.488	109
388.713	81
388.938	106
389.163	84
389.387	97
389.612	88
389.837	80
390.062	81
390.287	85
390.512	91
390.736	84
390.961	98
391.186	81
391.411	93
391.636	94
391.86	91
392.085	87
392.31	90
392.534	96
392.759	97
392.984	103
393.208	101
393.433	118
393.658	103
393.882	90
394.107	81
394.331	82
394.556	98
394.78	80
395.005	76
395.229	84
395.454	92
395.678	87
395.903	83
396.127	100
396.352	94
396.576	91
396.801	112
397.025	106
397.249	88
397.474	93
397.698	86
397.922	101
398.147	84
398.371	95
398.595	76
398.82	76
399.044	90
399.268	94
399.492	86
399.717	76
399.941	91
400.165	93
400.389	102
400.613	97
400.837	88
401.062	96
401.286	92
401.51	91
401.734	85
401.958	97
402.182	120
402.406	132
402.63	118
402.854	83
403.078	71
403.302	91
403.526	94
403.75	89
403.974	91
404.198	76
404.422	93
404.645	99
404.869	80
405.093	81
405.317	95
405.541	114
405.765	107
405.988	103
406.212	150
406.436	206
406.66	142
406.883	97
407.107	87
407.331	93
407.555	86
407.778	97
408.002	93
408.226	89
408.449	93
408.673	86
408.896	80
409.12	98
409.344	89
409.567	86
409.791	93
410.014	96
410.238	82
410.461	97
410.685	87
410.908	93
411.132	89
411.355	89
411.578	101
411.802	95
412.025	84
412.249	100
412.472	97
412.695	79
412.919	91
413.142	96
413.365	93
413.589	88
413.812	81
414.035	90
414.258	89
414.482	83
414.705	83
414.928	92
415.151	101
415.374	87
415.597	100
415.821	90
416.044	101
416.267	88
416.49	92
416.713	93
416.936	77
417.159	80
417.382	100
417.605	84
417.828	95
418.051	95
418.274	78
418.497	83
418.72	94
418.943	93
419.166	86
419.389	90
419.611	96
419.834	88
420.057	82
420.28	99
420.503	82
420.726	86
420.948	81
421.171	95
421.394	90
421.617	93
421.839	84
422.062	94
422.285	95
422.507	91
422.73	97
422.953	89
423.175	92
423.398	83
423.621	88
423.843	93
424.066	88
424.288	95
424.511	100
424.733	92
424.956	101
425.178	99
425.401	105
425.623	101
425.846	90
426.068	83
426.291	88
426.513	79
426.735	80
426.958	88
427.18	94
427.402	110
427.625	128
427.847	124
428.069	116
428.292	110
428.514	83
428.736	85
428.958	83
429.181	88
429.403	70
429.625	82
429.847	90
430.069	78
430.292	100
430.514	95
430.736	95
430.958	92
431.18	83
431.402	80
431.624	82
431.846	93
432.068	90
432.29	78
432.512	93
432.734	86
432.956	87
433.178	90
433.4	104
433.622	95
433.844	107
434.066	98
434.287	89
434.509	72
434.731	88
434.953	83
435.175	87
435.397	94
435.618	89
435.84	88
436.062	115
436.284	113
436.505	95
436.727	94
436.949	87
437.17	86
437.392	95
437.614	77
437.835	98
438.057	107
438.278	86
438.5	112
438.721	118
438.943	99
439.165	98
439.386	85
439.608	83
439.829	86
440.05	106
440.272	129
440.493	97
440.715	86
440.936	90
441.158	100
441.379	81
441.6	78
441.822	94
442.043	94
442.264	91
442.486	94
442.707	88
442.928	101
443.149	118
443.371	123
443.592	110
443.813	106
444.034	96
444.255	82
444.476	89
444.698	88
444.919	89
445.14	129
445.361	116
445.582	96
445.803	133
446.024	131
446.245	129
446.466	110
446.687	78
446.908	66
447.129	85
447.35	89
447.571	94
447.792	84
448.013	102
448.234	95
448.455	96
448.675	120
448.896	103
449.117	98
449.338	96
449.559	116
449.779	110
450	94
450.221	76
450.442	99
450.662	98
450.883	100
451.104	116
451.324	102
451.545	89
451.766	72
451.986	73
452.207	89
452.428	88
452.648	95
452.869	106
453.089	85
453.31	100
453.53	101
453.751	102
453.971	103
454.192	101
454.412	110
454.633	101
454.853	90
455.073	91
455.294	94
455.514	94
455.734	80
455.955	86
456.175	86
456.395	74
456.616	94
456.836	92
457.056	81
457.276	95
457.497	83
457.717	88
457.937	77
458.157	86
458.377	106
458.598	117
458.818	147
459.038	153
459.258	103
459.478	80
459.698	85
459.918	91
460.138	83
460.358	88
460.578	89
460.798	80
461.018	83
461.238	89
461.458	103
461.678	86
461.898	99
462.118	89
462.338	80
462.558	80
462.777	97
462.997	103
463.217	91
463.437	89
463.657	81
463.876	88
464.096	87
464.316	84
464.536	109
464.755	94
464.975	101
465.195	157
465.414	130
465.634	99
465.854	95
466.073	80
466.293	85
466.512	85
466.732	73
466.951	94
467.171	112
467.391	107
467.61	104
467.829	96
468.049	115
468.268	118
468.488	89
468.707	73
468.927	83
469.146	74
469.365	86
469.585	78
469.804	97
470.023	99
470.243	86
470.462	87
470.681	93
470.901	85
471.12	85
471.339	97
471.558	95
471.777	89
471.997	96
472.216	153
472.435	222
472.654	119
472.873	98
473.092	74
473.311	73
473.53	80
473.749	90
473.968	80
474.187	101
474.406	82
474.625	96
474.844	78
475.063	70
475.282	98
475.501	96
475.72	98
475.939	97
476.158	94
476.377	87
476.596	84
476.814	92
477.033	82
477.252	87
477.471	93
477.69	98
477.908	86
478.127	83
478.346	105
478.564	64
478.783	100
479.002	92
479.22	99
479.439	95
479.658	109
479.876	100
480.095	92
480.313	92
480.532	100
480.751	105
480.969	152
481.188	345
481.406	215
481.624	103
481.843	102
482.061	92
482.28	101
482.498	88
482.717	90
482.935	94
483.153	76
483.372	90
483.59	94
483.808	97
484.027	101
484.245	88
484.463	89
484.681	100
484.9	89
485.118	109
485.336	104
485.554	86
485.772	101
485.99	93
486.209	103
486.427	110
486.645	106
486.863	111
487.081	102
487.299	102
487.517	99
487.735	96
487.953	99
488.171	97
488.389	91
488.607	94
488.825	87
489.043	92
489.261	88
489.479	83
489.696	96
489.914	97
490.132	87
490.35	80
490.568	77
490.786	91
491.003	81
491.221	84
491.439	108
491.657	95
491.874	100
492.092	84
492.31	101
492.527	88
492.745	88
492.963	92
493.18	101
493.398	89
493.615	98
493.833	93
494.05	95
494.268	89
494.485	89
494.703	79
494.92	96
495.138	96
495.355	91
495.573	95
495.79	92
496.008	89
496.225	86
496.442	69
496.66	112
496.877	94
497.094	88
497.312	87
497.529	97
497.746	89
497.963	95
498.181	90
498.398	100
498.615	95
498.832	106
499.049	91
499.267	94
499.484	88
499.701	95
499.918	104
500.135	77
500.352	85
500.569	101
500.786	101
501.003	87
501.22	84
501.437	94
501.654	101
501.871	104
502.088	86
502.305	96
502.522	95
502.739	97
502.956	87
503.172	86
503.389	89
503.606	100
503.823	98
504.04	89
504.256	101
504.473	86
504.69	88
504.907	88
505.123	96
505.34	83
505.557	79
505.773	84
505.99	84
506.207	96
506.423	89
506.64	95
506.856	87
507.073	102
507.289	103
507.506	92
507.722	79
507.939	96
508.155	82
508.372	89
508.588	94
508.805	94
509.021	90
509.238	108
509.454	105
509.67	100
509.887	112
510.103	118
510.319	199
510.536	631
510.752	1909
510.968	534
511.184	146
511.401	107
511.617	101
511.833	88
512.049	100
512.265	96
512.481	92
512.698	94
512.914	86
513.13	106
513.346	86
513.562	88
513.778	89
513.994	107
514.21	102
514.426	111
514.642	124
514.858	119
515.074	136
515.29	384
515.506	1229
515.721	458
515.937	146
516.153	119
516.369	111
516.585	97
516.801	87
517.016	90
517.232	95
517.448	87
517.664	94
517.879	89
518.095	82
518.311	83
518.527	85
518.742	94
518.958	97
519.173	106
519.389	92
519.605	98
519.82	88
520.036	102
520.251	112
520.467	107
520.682	94
520.898	104
521.113	112
521.329	129
521.544	185
521.76	468
521.975	2011
522.19	1210
522.406	276
522.621	126
522.836	112
523.052	89
523.267	97
523.482	89
523.698	111
523.913	115
524.128	100
524.343	91
524.559	96
524.774	99
524.989	82
525.204	101
525.419	87
525.634	89
525.849	86
526.064	94
526.28	99
526.495	85
526.71	83
526.925	94
527.14	89
527.355	92
527.57	100
527.785	93
527.999	92
528.214	83
528.429	99
528.644	81
528.859	90
529.074	105
529.289	117
529.503	162
529.718	117
529.933	89
530.148	74
530.363	78
530.577	92
530.792	81
531.007	89
531.221	88
531.436	102
531.651	99
531.865	89
532.08	93
532.295	90
532.509	106
532.724	90
532.938	83
533.153	95
533.367	91
533.582	93
533.796	90
534.011	89
534.225	98
534.44	107
534.654	103
534.868	87
535.083	97
535.297	100
535.511	89
535.726	81
535.94	97
536.154	77
536.369	83
536.583	89
536.797	88
537.011	97
537.225	90
537.44	90
537.654	82
537.868	94
538.082	94
538.296	100
538.51	85
538.724	80
538.938	98
539.153	112
539.367	109
539.581	84
539.795	79
540.009	108
540.222	102
540.436	100
540.65	81
540.864	85
541.078	104
541.292	88
541.506	86
541.72	95
541.934	94
542.147	87
542.361	83
542.575	80
542.789	87
543.002	98
543.216	96
543.43	100
543.644	90
543.857	95
544.071	90
544.285	116
544.498	84
544.712	92
544.925	92
545.139	85
545.352	78
545.566	84
545.779	106
545.993	101
546.206	99
546.42	92
546.633	85
546.847	91
547.06	80
547.274	80
547.487	87
547.7	90
547.914	82
548.127	88
548.34	104
548.554	92
548.767	104
548.98	98
549.193	86
549.407	96
549.62	93
549.833	95
550.046	99
550.259	86
550.473	97
550.686	86
550.899	90
551.112	89
551.325	79
551.538	85
551.751	80
551.964	89
552.177	87
552.39	98
552.603	83
552.816	90
553.029	88
553.242	78
553.455	98
553.667	99
553.88	102
554.093	86
554.306	102
554.519	102
554.732	91
554.944	84
555.157	83
555.37	81
555.583	103
555.795	89
556.008	95
556.221	93
556.433	84
556.646	82
556.859	87
557.071	91
557.284	88
557.496	76
557.709	94
557.921	93
558.134	93
558.346	81
558.559	85
558.771	88
558.984	79
559.196	116
559.409	91
559.621	78
559.833	92
560.046	77
560.258	95
560.47	94
560.683	81
560.895	75
561.107	100
561.32	83
561.532	96
561.744	85
561.956	83
562.168	91
562.381	85
562.593	98
562.805	111
563.017	101
563.229	88
563.441	97
563.653	82
563.865	100
564.077	98
564.289	104
564.501	100
564.713	94
564.925	101
565.137	106
565.349	88
565.561	91
565.773	82
565.985	70
566.197	79
566.408	82
566.62	87
566.832	84
567.044	88
567.255	93
567.467	80
567.679	89
567.891	89
568.102	98
568.314	76
568.526	89
568.737	87
568.949	70
569.161	86
569.372	84
569.584	78
569.795	95
570.007	102
570.218	228
570.43	119
570.641	90
570.853	93
571.064	97
571.276	93
571.487	79
571.698	101
571.91	88
572.121	79
572.333	95
572.544	93
572.755	94
572.966	89
573.178	80
573.389	83
573.6	92
573.811	87
574.023	94
574.234	69
574.445	88
574.656	85
574.867	84
575.078	84
575.289	86
575.501	97
575.712	95
575.923	90
576.134	79
576.345	85
576.556	103
576.767	94
576.978	102
577.188	90
577.399	101
577.61	98
577.821	103
578.032	105
578.243	250
578.454	655
578.665	197
578.875	100
579.086	89
579.297	88
579.508	84
579.718	90
579.929	94
580.14	86
580.35	80
580.561	100
580.772	108
580.982	95
581.193	101
581.403	88
581.614	84
581.825	82
582.035	86
582.246	82
582.456	88
582.667	79
582.877	89
583.087	98
583.298	93
583.508	94
583.719	96
