Data from Uncirc_1989_H10_HRD10591_00037.txt Node
Date: Wed Jan 03 11:57:43 EST 2024
User: Yrep
Spectrometer: HR+D1059
Trigger mode: 1
Integration Time (sec): 1.000000E-1
Scans to average: 1
Electric dark correction enabled: true
Nonlinearity correction enabled: false
Boxcar width: 0
XAxis mode: Wavelengths
Number of Pixels in Spectrum: 2048
>>>>>Begin Spectral Data<<<<<
223.165	-14.31
223.4	-14.31
223.635	-14.31
223.869	-20.31
224.104	-8.31
224.338	-16.31
224.573	-11.31
224.808	-3.31
225.042	-10.31
225.277	-0.31
225.511	-2.31
225.746	-3.31
225.98	6.69
226.215	11.69
226.449	15.69
226.683	3.69
226.918	30.69
227.152	21.69
227.387	27.69
227.621	27.69
227.856	36.69
228.09	54.69
228.324	45.69
228.559	60.69
228.793	73.69
229.027	68.69
229.262	57.69
229.496	69.69
229.73	81.69
229.964	88.69
230.199	78.69
230.433	64.69
230.667	95.69
230.901	74.69
231.136	72.69
231.37	84.69
231.604	76.69
231.838	84.69
232.072	69.69
232.306	79.69
232.541	88.69
232.775	76.69
233.009	79.69
233.243	81.69
233.477	80.69
233.711	84.69
233.945	69.69
234.179	86.69
234.413	68.69
234.647	76.69
234.881	85.69
235.115	74.69
235.349	75.69
235.583	76.69
235.817	71.69
236.051	70.69
236.285	65.69
236.519	84.69
236.753	73.69
236.987	90.69
237.221	80.69
237.455	80.69
237.689	70.69
237.922	75.69
238.156	73.69
238.39	75.69
238.624	76.69
238.858	74.69
239.091	85.69
239.325	69.69
239.559	66.69
239.793	91.69
240.027	69.69
240.26	79.69
240.494	90.69
240.728	68.69
240.961	71.69
241.195	75.69
241.429	80.69
241.662	68.69
241.896	71.69
242.13	67.69
242.363	71.69
242.597	77.69
242.83	79.69
243.064	92.69
243.298	67.69
243.531	66.69
243.765	79.69
243.998	94.69
244.232	63.69
244.465	76.69
244.699	53.69
244.932	64.69
245.166	81.69
245.399	90.69
245.633	70.69
245.866	83.69
246.099	65.69
246.333	80.69
246.566	75.69
246.8	88.69
247.033	68.69
247.266	78.69
247.5	78.69
247.733	80.69
247.966	86.69
248.2	73.69
248.433	62.69
248.666	84.69
248.899	82.69
249.133	92.69
249.366	84.69
249.599	99.69
249.832	88.69
250.066	87.69
250.299	79.69
250.532	75.69
250.765	86.69
250.998	76.69
251.231	82.69
251.465	89.69
251.698	88.69
251.931	79.69
252.164	86.69
252.397	85.69
252.63	65.69
252.863	91.69
253.096	81.69
253.329	80.69
253.562	81.69
253.795	69.69
254.028	73.69
254.261	83.69
254.494	86.69
254.727	94.69
254.96	75.69
255.193	76.69
255.426	65.69
255.659	76.69
255.892	75.69
256.124	83.69
256.357	84.69
256.59	82.69
256.823	67.69
257.056	58.69
257.289	98.69
257.521	96.69
257.754	95.69
257.987	84.69
258.22	77.69
258.452	94.69
258.685	78.69
258.918	78.69
259.151	75.69
259.383	76.69
259.616	59.69
259.849	80.69
260.081	87.69
260.314	78.69
260.547	88.69
260.779	99.69
261.012	87.69
261.244	91.69
261.477	100.69
261.71	89.69
261.942	103.69
262.175	112.69
262.407	87.69
262.64	78.69
262.872	79.69
263.105	76.69
263.337	84.69
263.57	71.69
263.802	80.69
264.035	88.69
264.267	86.69
264.499	72.69
264.732	82.69
264.964	76.69
265.197	97.69
265.429	67.69
265.661	81.69
265.894	76.69
266.126	69.69
266.358	80.69
266.591	79.69
266.823	70.69
267.055	80.69
267.287	81.69
267.52	80.69
267.752	69.69
267.984	73.69
268.216	83.69
268.448	82.69
268.681	97.69
268.913	91.69
269.145	90.69
269.377	92.69
269.609	83.69
269.841	99.69
270.073	72.69
270.306	86.69
270.538	82.69
270.77	92.69
271.002	83.69
271.234	90.69
271.466	72.69
271.698	93.69
271.93	68.69
272.162	100.69
272.394	84.69
272.626	76.69
272.858	84.69
273.09	93.69
273.322	82.69
273.553	78.69
273.785	89.69
274.017	97.69
274.249	90.69
274.481	82.69
274.713	95.69
274.945	100.69
275.176	75.69
275.408	72.69
275.64	79.69
275.872	86.69
276.104	100.69
276.335	90.69
276.567	89.69
276.799	108.69
277.031	96.69
277.262	87.69
277.494	97.69
277.726	80.69
277.957	85.69
278.189	89.69
278.421	95.69
278.652	108.69
278.884	88.69
279.115	85.69
279.347	93.69
279.579	83.69
279.81	100.69
280.042	94.69
280.273	103.69
280.505	116.69
280.736	75.69
280.968	82.69
281.199	78.69
281.431	84.69
281.662	91.69
281.894	90.69
282.125	95.69
282.356	110.69
282.588	108.69
282.819	104.69
283.051	94.69
283.282	94.69
283.513	79.69
283.745	81.69
283.976	81.69
284.207	87.69
284.439	96.69
284.67	92.69
284.901	93.69
285.132	81.69
285.364	86.69
285.595	77.69
285.826	76.69
286.057	96.69
286.288	81.69
286.52	91.69
286.751	87.69
286.982	94.69
287.213	91.69
287.444	87.69
287.675	86.69
287.906	70.69
288.138	87.69
288.369	95.69
288.6	95.69
288.831	92.69
289.062	87.69
289.293	68.69
289.524	89.69
289.755	82.69
289.986	109.69
290.217	75.69
290.448	87.69
290.679	81.69
290.91	95.69
291.141	84.69
291.371	93.69
291.602	99.69
291.833	79.69
292.064	71.69
292.295	85.69
292.526	89.69
292.757	96.69
292.987	77.69
293.218	91.69
293.449	81.69
293.68	81.69
293.91	98.69
294.141	96.69
294.372	89.69
294.603	87.69
294.833	86.69
295.064	87.69
295.295	100.69
295.525	96.69
295.756	93.69
295.987	98.69
296.217	125.69
296.448	110.69
296.679	97.69
296.909	84.69
297.14	97.69
297.37	95.69
297.601	89.69
297.831	90.69
298.062	70.69
298.292	80.69
298.523	81.69
298.753	93.69
298.984	87.69
299.214	77.69
299.445	94.69
299.675	96.69
299.905	102.69
300.136	90.69
300.366	82.69
300.597	89.69
300.827	87.69
301.057	88.69
301.288	84.69
301.518	96.69
301.748	93.69
301.979	92.69
302.209	80.69
302.439	84.69
302.669	91.69
302.9	88.69
303.13	75.69
303.36	91.69
303.59	105.69
303.82	96.69
304.051	85.69
304.281	70.69
304.511	79.69
304.741	94.69
304.971	87.69
305.201	91.69
305.431	94.69
305.661	101.69
305.891	82.69
306.121	88.69
306.352	95.69
306.582	114.69
306.812	98.69
307.042	87.69
307.272	83.69
307.502	108.69
307.731	92.69
307.961	87.69
308.191	93.69
308.421	88.69
308.651	89.69
308.881	99.69
309.111	100.69
309.341	93.69
309.571	120.69
309.8	95.69
310.03	95.69
310.26	97.69
310.49	96.69
310.72	84.69
310.949	89.69
311.179	99.69
311.409	90.69
311.639	82.69
311.868	80.69
312.098	98.69
312.328	91.69
312.557	100.69
312.787	113.69
313.017	108.69
313.246	97.69
313.476	99.69
313.706	92.69
313.935	104.69
314.165	101.69
314.394	88.69
314.624	89.69
314.853	87.69
315.083	99.69
315.312	91.69
315.542	92.69
315.771	91.69
316.001	91.69
316.23	73.69
316.46	86.69
316.689	85.69
316.919	91.69
317.148	92.69
317.377	91.69
317.607	112.69
317.836	92.69
318.065	102.69
318.295	83.69
318.524	97.69
318.753	98.69
318.983	96.69
319.212	105.69
319.441	111.69
319.67	102.69
319.9	97.69
320.129	88.69
320.358	91.69
320.587	94.69
320.816	87.69
321.046	102.69
321.275	87.69
321.504	85.69
321.733	98.69
321.962	104.69
322.191	97.69
322.42	105.69
322.649	116.69
322.878	119.69
323.108	104.69
323.337	116.69
323.566	119.69
323.795	127.69
324.024	178.69
324.253	347.69
324.482	697.69
324.71	1385.69
324.939	1809.69
325.168	671.69
325.397	209.69
325.626	155.69
325.855	123.69
326.084	121.69
326.313	123.69
326.542	147.69
326.77	202.69
326.999	389.69
327.228	797.69
327.457	1432.69
327.686	1158.69
327.914	313.69
328.143	179.69
328.372	164.69
328.6	121.69
328.829	125.69
329.058	125.69
329.287	126.69
329.515	111.69
329.744	102.69
329.972	102.69
330.201	150.69
330.43	173.69
330.658	128.69
330.887	126.69
331.115	115.69
331.344	97.69
331.572	104.69
331.801	94.69
332.03	87.69
332.258	102.69
332.486	113.69
332.715	100.69
332.943	111.69
333.172	96.69
333.4	99.69
333.629	104.69
333.857	112.69
334.085	126.69
334.314	159.69
334.542	212.69
334.771	190.69
334.999	116.69
335.227	92.69
335.455	101.69
335.684	90.69
335.912	101.69
336.14	97.69
336.369	88.69
336.597	96.69
336.825	92.69
337.053	99.69
337.281	75.69
337.51	88.69
337.738	92.69
337.966	86.69
338.194	91.69
338.422	94.69
338.65	92.69
338.878	81.69
339.106	84.69
339.334	79.69
339.562	88.69
339.79	96.69
340.018	79.69
340.246	73.69
340.474	98.69
340.702	96.69
340.93	84.69
341.158	86.69
341.386	100.69
341.614	80.69
341.842	95.69
342.07	87.69
342.298	87.69
342.526	105.69
342.754	85.69
342.981	94.69
343.209	95.69
343.437	95.69
343.665	84.69
343.893	88.69
344.12	88.69
344.348	92.69
344.576	72.69
344.804	84.69
345.031	81.69
345.259	98.69
345.487	85.69
345.714	88.69
345.942	91.69
346.17	90.69
346.397	97.69
346.625	94.69
346.853	85.69
347.08	79.69
347.308	91.69
347.535	97.69
347.763	76.69
347.99	95.69
348.218	107.69
348.445	104.69
348.673	102.69
348.9	88.69
349.128	95.69
349.355	88.69
349.583	95.69
349.81	96.69
350.037	97.69
350.265	92.69
350.492	79.69
350.72	81.69
350.947	93.69
351.174	100.69
351.402	104.69
351.629	90.69
351.856	86.69
352.083	100.69
352.311	102.69
352.538	94.69
352.765	108.69
352.992	108.69
353.22	109.69
353.447	97.69
353.674	87.69
353.901	83.69
354.128	104.69
354.355	97.69
354.583	102.69
354.81	86.69
355.037	94.69
355.264	93.69
355.491	95.69
355.718	94.69
355.945	91.69
356.172	96.69
356.399	92.69
356.626	86.69
356.853	84.69
357.08	100.69
357.307	82.69
357.534	94.69
357.761	94.69
357.988	108.69
358.215	86.69
358.441	99.69
358.668	71.69
358.895	78.69
359.122	92.69
359.349	95.69
359.576	83.69
359.802	97.69
360.029	95.69
360.256	93.69
360.483	101.69
360.709	86.69
360.936	95.69
361.163	86.69
361.39	100.69
361.616	87.69
361.843	94.69
362.07	81.69
362.296	91.69
362.523	93.69
362.749	92.69
362.976	77.69
363.203	95.69
363.429	91.69
363.656	80.69
363.882	89.69
364.109	84.69
364.335	96.69
364.562	93.69
364.788	92.69
365.015	79.69
365.241	90.69
365.468	125.69
365.694	88.69
365.92	91.69
366.147	89.69
366.373	77.69
366.599	90.69
366.826	87.69
367.052	86.69
367.278	72.69
367.505	86.69
367.731	91.69
367.957	103.69
368.184	95.69
368.41	99.69
368.636	91.69
368.862	102.69
369.089	106.69
369.315	83.69
369.541	82.69
369.767	86.69
369.993	93.69
370.219	80.69
370.445	78.69
370.672	94.69
370.898	89.69
371.124	83.69
371.35	88.69
371.576	101.69
371.802	73.69
372.028	95.69
372.254	84.69
372.48	77.69
372.706	87.69
372.932	78.69
373.158	85.69
373.384	93.69
373.61	99.69
373.835	91.69
374.061	78.69
374.287	107.69
374.513	97.69
374.739	97.69
374.965	98.69
375.191	87.69
375.416	95.69
375.642	84.69
375.868	94.69
376.094	96.69
376.319	82.69
376.545	85.69
376.771	75.69
376.997	99.69
377.222	82.69
377.448	100.69
377.674	89.69
377.899	94.69
378.125	88.69
378.35	103.69
378.576	96.69
378.802	95.69
379.027	104.69
379.253	94.69
379.478	83.69
379.704	81.69
379.929	87.69
380.155	81.69
380.38	78.69
380.606	107.69
380.831	96.69
381.057	101.69
381.282	92.69
381.507	97.69
381.733	100.69
381.958	87.69
382.184	100.69
382.409	109.69
382.634	111.69
382.86	92.69
383.085	104.69
383.31	95.69
383.535	85.69
383.761	96.69
383.986	100.69
384.211	100.69
384.436	86.69
384.662	92.69
384.887	112.69
385.112	99.69
385.337	104.69
385.562	92.69
385.787	109.69
386.013	108.69
386.238	105.69
386.463	115.69
386.688	104.69
386.913	107.69
387.138	110.69
387.363	103.69
387.588	95.69
387.813	98.69
388.038	108.69
388.263	118.69
388.488	99.69
388.713	88.69
388.938	85.69
389.163	96.69
389.387	91.69
389.612	80.69
389.837	79.69
390.062	92.69
390.287	79.69
390.512	91.69
390.736	104.69
390.961	87.69
391.186	100.69
391.411	95.69
391.636	87.69
391.86	91.69
392.085	84.69
392.31	88.69
392.534	79.69
392.759	84.69
392.984	83.69
393.208	95.69
393.433	119.69
393.658	109.69
393.882	81.69
394.107	92.69
394.331	84.69
394.556	77.69
394.78	86.69
395.005	95.69
395.229	78.69
395.454	73.69
395.678	79.69
395.903	78.69
396.127	88.69
396.352	98.69
396.576	91.69
396.801	93.69
397.025	95.69
397.249	81.69
397.474	81.69
397.698	88.69
397.922	87.69
398.147	60.69
398.371	66.69
398.595	76.69
398.82	78.69
399.044	73.69
399.268	76.69
399.492	88.69
399.717	93.69
399.941	93.69
400.165	97.69
400.389	100.69
400.613	84.69
400.837	104.69
401.062	73.69
401.286	77.69
401.51	86.69
401.734	75.69
401.958	96.69
402.182	121.69
402.406	147.69
402.63	89.69
402.854	96.69
403.078	89.69
403.302	77.69
403.526	89.69
403.75	90.69
403.974	65.69
404.198	87.69
404.422	93.69
404.645	99.69
404.869	84.69
405.093	88.69
405.317	96.69
405.541	96.69
405.765	105.69
405.988	101.69
406.212	167.69
406.436	187.69
406.66	128.69
406.883	93.69
407.107	95.69
407.331	84.69
407.555	101.69
407.778	96.69
408.002	89.69
408.226	97.69
408.449	89.69
408.673	86.69
408.896	95.69
409.12	102.69
409.344	94.69
409.567	92.69
409.791	96.69
410.014	103.69
410.238	90.69
410.461	99.69
410.685	94.69
410.908	88.69
411.132	94.69
411.355	89.69
411.578	80.69
411.802	76.69
412.025	89.69
412.249	96.69
412.472	96.69
412.695	98.69
412.919	97.69
413.142	88.69
413.365	81.69
413.589	87.69
413.812	86.69
414.035	78.69
414.258	81.69
414.482	106.69
414.705	93.69
414.928	93.69
415.151	87.69
415.374	89.69
415.597	89.69
415.821	94.69
416.044	92.69
416.267	77.69
416.49	92.69
416.713	78.69
416.936	96.69
417.159	94.69
417.382	76.69
417.605	93.69
417.828	113.69
418.051	99.69
418.274	88.69
418.497	78.69
418.72	86.69
418.943	94.69
419.166	86.69
419.389	92.69
419.611	83.69
419.834	90.69
420.057	86.69
420.28	88.69
420.503	104.69
420.726	85.69
420.948	90.69
421.171	87.69
421.394	88.69
421.617	84.69
421.839	81.69
422.062	89.69
422.285	102.69
422.507	99.69
422.73	96.69
422.953	107.69
423.175	102.69
423.398	89.69
423.621	85.69
423.843	88.69
424.066	84.69
424.288	87.69
424.511	77.69
424.733	97.69
424.956	115.69
425.178	95.69
425.401	90.69
425.623	85.69
425.846	86.69
426.068	83.69
426.291	95.69
426.513	88.69
426.735	87.69
426.958	104.69
427.18	111.69
427.402	127.69
427.625	141.69
427.847	134.69
428.069	123.69
428.292	91.69
428.514	92.69
428.736	90.69
428.958	79.69
429.181	87.69
429.403	87.69
429.625	82.69
429.847	86.69
430.069	96.69
430.292	93.69
430.514	94.69
430.736	95.69
430.958	98.69
431.18	94.69
431.402	85.69
431.624	75.69
431.846	79.69
432.068	85.69
432.29	75.69
432.512	82.69
432.734	89.69
432.956	82.69
433.178	110.69
433.4	97.69
433.622	98.69
433.844	86.69
434.066	85.69
434.287	104.69
434.509	89.69
434.731	97.69
434.953	80.69
435.175	94.69
435.397	103.69
435.618	90.69
435.84	109.69
436.062	121.69
436.284	109.69
436.505	94.69
436.727	89.69
436.949	99.69
437.17	82.69
437.392	83.69
437.614	91.69
437.835	89.69
438.057	105.69
438.278	91.69
438.5	95.69
438.721	103.69
438.943	98.69
439.165	92.69
439.386	81.69
439.608	94.69
439.829	97.69
440.05	102.69
440.272	134.69
440.493	81.69
440.715	102.69
440.936	83.69
441.158	88.69
441.379	99.69
441.6	81.69
441.822	96.69
442.043	84.69
442.264	88.69
442.486	103.69
442.707	96.69
442.928	108.69
443.149	134.69
443.371	116.69
443.592	98.69
443.813	102.69
444.034	100.69
444.255	92.69
444.476	89.69
444.698	74.69
444.919	70.69
445.14	141.69
445.361	117.69
445.582	118.69
445.803	114.69
446.024	133.69
446.245	111.69
446.466	100.69
446.687	96.69
446.908	91.69
447.129	80.69
447.35	75.69
447.571	103.69
447.792	87.69
448.013	85.69
448.234	98.69
448.455	86.69
448.675	91.69
448.896	103.69
449.117	113.69
449.338	120.69
449.559	118.69
449.779	112.69
450	89.69
450.221	93.69
450.442	92.69
450.662	82.69
450.883	104.69
451.104	105.69
451.324	91.69
451.545	79.69
451.766	93.69
451.986	95.69
452.207	79.69
452.428	91.69
452.648	91.69
452.869	106.69
453.089	112.69
453.31	127.69
453.53	84.69
453.751	73.69
453.971	94.69
454.192	101.69
454.412	91.69
454.633	99.69
454.853	82.69
455.073	85.69
455.294	101.69
455.514	90.69
455.734	79.69
455.955	72.69
456.175	88.69
456.395	87.69
456.616	94.69
456.836	83.69
457.056	83.69
457.276	79.69
457.497	87.69
457.717	85.69
457.937	81.69
458.157	87.69
458.377	77.69
458.598	103.69
458.818	133.69
459.038	138.69
459.258	93.69
459.478	87.69
459.698	84.69
459.918	90.69
460.138	67.69
460.358	83.69
460.578	88.69
460.798	93.69
461.018	71.69
461.238	91.69
461.458	75.69
461.678	87.69
461.898	77.69
462.118	84.69
462.338	84.69
462.558	88.69
462.777	90.69
462.997	82.69
463.217	82.69
463.437	88.69
463.657	82.69
463.876	82.69
464.096	84.69
464.316	83.69
464.536	81.69
464.755	100.69
464.975	98.69
465.195	144.69
465.414	136.69
465.634	85.69
465.854	89.69
466.073	105.69
466.293	84.69
466.512	75.69
466.732	82.69
466.951	101.69
467.171	93.69
467.391	95.69
467.61	115.69
467.829	96.69
468.049	117.69
468.268	119.69
468.488	107.69
468.707	94.69
468.927	87.69
469.146	92.69
469.365	92.69
469.585	89.69
469.804	95.69
470.023	99.69
470.243	98.69
470.462	111.69
470.681	113.69
470.901	94.69
471.12	80.69
471.339	82.69
471.558	102.69
471.777	90.69
471.997	100.69
472.216	155.69
472.435	254.69
472.654	103.69
472.873	89.69
473.092	89.69
473.311	90.69
473.53	75.69
473.749	72.69
473.968	77.69
474.187	101.69
474.406	87.69
474.625	97.69
474.844	75.69
475.063	79.69
475.282	71.69
475.501	102.69
475.72	86.69
475.939	91.69
476.158	77.69
476.377	100.69
476.596	88.69
476.814	89.69
477.033	95.69
477.252	78.69
477.471	95.69
477.69	101.69
477.908	82.69
478.127	70.69
478.346	83.69
478.564	92.69
478.783	84.69
479.002	89.69
479.22	77.69
479.439	104.69
479.658	108.69
479.876	87.69
480.095	81.69
480.313	98.69
480.532	89.69
480.751	105.69
480.969	160.69
481.188	381.69
481.406	243.69
481.624	81.69
481.843	80.69
482.061	90.69
482.28	90.69
482.498	76.69
482.717	96.69
482.935	101.69
483.153	97.69
483.372	92.69
483.59	93.69
483.808	89.69
484.027	95.69
484.245	89.69
484.463	97.69
484.681	97.69
484.9	88.69
485.118	96.69
485.336	96.69
485.554	96.69
485.772	108.69
485.99	103.69
486.209	103.69
486.427	95.69
486.645	99.69
486.863	105.69
487.081	96.69
487.299	104.69
487.517	104.69
487.735	93.69
487.953	85.69
488.171	101.69
488.389	90.69
488.607	88.69
488.825	83.69
489.043	79.69
489.261	93.69
489.479	86.69
489.696	99.69
489.914	87.69
490.132	93.69
490.35	95.69
490.568	94.69
490.786	97.69
491.003	97.69
491.221	93.69
491.439	101.69
491.657	86.69
491.874	69.69
492.092	88.69
492.31	87.69
492.527	75.69
492.745	89.69
492.963	82.69
493.18	92.69
493.398	102.69
493.615	97.69
493.833	83.69
494.05	94.69
494.268	83.69
494.485	86.69
494.703	83.69
494.92	88.69
495.138	94.69
495.355	91.69
495.573	100.69
495.79	92.69
496.008	91.69
496.225	101.69
496.442	77.69
496.66	89.69
496.877	88.69
497.094	109.69
497.312	86.69
497.529	104.69
497.746	78.69
497.963	93.69
498.181	99.69
498.398	82.69
498.615	88.69
498.832	103.69
499.049	83.69
499.267	81.69
499.484	80.69
499.701	86.69
499.918	87.69
500.135	101.69
500.352	89.69
500.569	93.69
500.786	110.69
501.003	91.69
501.22	89.69
501.437	105.69
501.654	89.69
501.871	97.69
502.088	100.69
502.305	85.69
502.522	91.69
502.739	90.69
502.956	84.69
503.172	85.69
503.389	101.69
503.606	112.69
503.823	102.69
504.04	84.69
504.256	80.69
504.473	82.69
504.69	95.69
504.907	88.69
505.123	89.69
505.34	80.69
505.557	91.69
505.773	82.69
505.99	98.69
506.207	86.69
506.423	88.69
506.64	87.69
506.856	79.69
507.073	78.69
507.289	104.69
507.506	95.69
507.722	105.69
507.939	104.69
508.155	106.69
508.372	86.69
508.588	101.69
508.805	83.69
509.021	94.69
509.238	90.69
509.454	88.69
509.67	77.69
509.887	108.69
510.103	127.69
510.319	207.69
510.536	625.69
510.752	1857.69
510.968	549.69
511.184	129.69
511.401	95.69
511.617	90.69
511.833	87.69
512.049	81.69
512.265	95.69
512.481	95.69
512.698	88.69
512.914	107.69
513.13	96.69
513.346	77.69
513.562	84.69
513.778	105.69
513.994	104.69
514.21	100.69
514.426	115.69
514.642	133.69
514.858	109.69
515.074	137.69
515.29	369.69
515.506	1194.69
515.721	428.69
515.937	133.69
516.153	111.69
