Data from Uncirc_1989_H10_HRD10591_00065.txt Node
Date: Wed Jan 03 11:57:48 EST 2024
User: Yrep
Spectrometer: HR+D1059
Trigger mode: 1
Integration Time (sec): 1.000000E-1
Scans to average: 1
Electric dark correction enabled: true
Nonlinearity correction enabled: false
Boxcar width: 0
XAxis mode: Wavelengths
Number of Pixels in Spectrum: 2048
>>>>>Begin Spectral Data<<<<<
223.165	-14.44
223.4	-14.44
223.635	-14.44
223.869	-16.44
224.104	-23.44
224.338	-10.44
224.573	-9.44
224.808	-15.44
225.042	-14.44
225.277	-5.44
225.511	-8.44
225.746	1.56
225.98	2.56
226.215	22.56
226.449	17.56
226.683	24.56
226.918	24.56
227.152	24.56
227.387	30.56
227.621	33.56
227.856	48.56
228.09	59.56
228.324	48.56
228.559	47.56
228.793	40.56
229.027	55.56
229.262	67.56
229.496	53.56
229.73	90.56
229.964	95.56
230.199	86.56
230.433	66.56
230.667	80.56
230.901	89.56
231.136	94.56
231.37	81.56
231.604	81.56
231.838	87.56
232.072	82.56
232.306	79.56
232.541	93.56
232.775	87.56
233.009	78.56
233.243	78.56
233.477	93.56
233.711	76.56
233.945	80.56
234.179	78.56
234.413	76.56
234.647	88.56
234.881	94.56
235.115	69.56
235.349	82.56
235.583	74.56
235.817	84.56
236.051	84.56
236.285	80.56
236.519	71.56
236.753	63.56
236.987	81.56
237.221	82.56
237.455	74.56
237.689	82.56
237.922	69.56
238.156	70.56
238.39	75.56
238.624	65.56
238.858	74.56
239.091	84.56
239.325	80.56
239.559	78.56
239.793	60.56
240.027	92.56
240.26	64.56
240.494	76.56
240.728	79.56
240.961	77.56
241.195	84.56
241.429	93.56
241.662	72.56
241.896	88.56
242.13	86.56
242.363	70.56
242.597	81.56
242.83	90.56
243.064	77.56
243.298	72.56
243.531	81.56
243.765	67.56
243.998	65.56
244.232	76.56
244.465	78.56
244.699	74.56
244.932	71.56
245.166	75.56
245.399	77.56
245.633	77.56
245.866	66.56
246.099	88.56
246.333	89.56
246.566	68.56
246.8	70.56
247.033	80.56
247.266	87.56
247.5	77.56
247.733	74.56
247.966	70.56
248.2	68.56
248.433	72.56
248.666	64.56
248.899	75.56
249.133	80.56
249.366	95.56
249.599	86.56
249.832	75.56
250.066	78.56
250.299	74.56
250.532	89.56
250.765	77.56
250.998	61.56
251.231	80.56
251.465	67.56
251.698	74.56
251.931	86.56
252.164	95.56
252.397	85.56
252.63	77.56
252.863	78.56
253.096	76.56
253.329	83.56
253.562	90.56
253.795	74.56
254.028	95.56
254.261	87.56
254.494	75.56
254.727	96.56
254.96	76.56
255.193	76.56
255.426	71.56
255.659	77.56
255.892	81.56
256.124	78.56
256.357	96.56
256.59	76.56
256.823	91.56
257.056	78.56
257.289	87.56
257.521	79.56
257.754	87.56
257.987	100.56
258.22	88.56
258.452	83.56
258.685	64.56
258.918	74.56
259.151	70.56
259.383	74.56
259.616	76.56
259.849	72.56
260.081	72.56
260.314	83.56
260.547	77.56
260.779	71.56
261.012	90.56
261.244	94.56
261.477	83.56
261.71	87.56
261.942	100.56
262.175	104.56
262.407	86.56
262.64	78.56
262.872	72.56
263.105	91.56
263.337	91.56
263.57	78.56
263.802	88.56
264.035	78.56
264.267	89.56
264.499	74.56
264.732	78.56
264.964	81.56
265.197	85.56
265.429	87.56
265.661	76.56
265.894	75.56
266.126	88.56
266.358	69.56
266.591	85.56
266.823	78.56
267.055	79.56
267.287	91.56
267.52	82.56
267.752	71.56
267.984	92.56
268.216	88.56
268.448	92.56
268.681	80.56
268.913	74.56
269.145	91.56
269.377	83.56
269.609	78.56
269.841	82.56
270.073	83.56
270.306	75.56
270.538	76.56
270.77	88.56
271.002	91.56
271.234	85.56
271.466	80.56
271.698	84.56
271.93	78.56
272.162	95.56
272.394	83.56
272.626	79.56
272.858	87.56
273.09	93.56
273.322	84.56
273.553	80.56
273.785	79.56
274.017	85.56
274.249	78.56
274.481	102.56
274.713	95.56
274.945	80.56
275.176	98.56
275.408	99.56
275.64	91.56
275.872	88.56
276.104	92.56
276.335	86.56
276.567	98.56
276.799	99.56
277.031	86.56
277.262	106.56
277.494	91.56
277.726	79.56
277.957	95.56
278.189	95.56
278.421	81.56
278.652	96.56
278.884	90.56
279.115	76.56
279.347	99.56
279.579	99.56
279.81	94.56
280.042	94.56
280.273	95.56
280.505	100.56
280.736	92.56
280.968	86.56
281.199	76.56
281.431	71.56
281.662	71.56
281.894	86.56
282.125	91.56
282.356	96.56
282.588	139.56
282.819	116.56
283.051	99.56
283.282	76.56
283.513	104.56
283.745	99.56
283.976	87.56
284.207	93.56
284.439	93.56
284.67	91.56
284.901	90.56
285.132	86.56
285.364	78.56
285.595	83.56
285.826	82.56
286.057	95.56
286.288	92.56
286.52	83.56
286.751	81.56
286.982	84.56
287.213	79.56
287.444	76.56
287.675	95.56
287.906	90.56
288.138	86.56
288.369	98.56
288.6	96.56
288.831	78.56
289.062	90.56
289.293	100.56
289.524	84.56
289.755	90.56
289.986	100.56
290.217	74.56
290.448	74.56
290.679	83.56
290.91	95.56
291.141	72.56
291.371	90.56
291.602	89.56
291.833	84.56
292.064	93.56
292.295	92.56
292.526	84.56
292.757	94.56
292.987	79.56
293.218	84.56
293.449	92.56
293.68	82.56
293.91	89.56
294.141	99.56
294.372	100.56
294.603	95.56
294.833	88.56
295.064	91.56
295.295	72.56
295.525	92.56
295.756	103.56
295.987	108.56
296.217	116.56
296.448	108.56
296.679	106.56
296.909	98.56
297.14	95.56
297.37	80.56
297.601	91.56
297.831	78.56
298.062	100.56
298.292	79.56
298.523	78.56
298.753	97.56
298.984	95.56
299.214	91.56
299.445	77.56
299.675	95.56
299.905	82.56
300.136	90.56
300.366	84.56
300.597	84.56
300.827	98.56
301.057	89.56
301.288	101.56
301.518	94.56
301.748	91.56
301.979	114.56
302.209	101.56
302.439	98.56
302.669	104.56
302.9	90.56
303.13	96.56
303.36	93.56
303.59	95.56
303.82	102.56
304.051	98.56
304.281	97.56
304.511	88.56
304.741	83.56
304.971	78.56
305.201	77.56
305.431	96.56
305.661	82.56
305.891	84.56
306.121	95.56
306.352	94.56
306.582	88.56
306.812	86.56
307.042	94.56
307.272	88.56
307.502	95.56
307.731	106.56
307.961	80.56
308.191	92.56
308.421	85.56
308.651	87.56
308.881	82.56
309.111	94.56
309.341	80.56
309.571	86.56
309.8	93.56
310.03	105.56
310.26	85.56
310.49	87.56
310.72	99.56
310.949	98.56
311.179	103.56
311.409	91.56
311.639	87.56
311.868	88.56
312.098	102.56
312.328	91.56
312.557	101.56
312.787	105.56
313.017	85.56
313.246	98.56
313.476	86.56
313.706	90.56
313.935	86.56
314.165	93.56
314.394	108.56
314.624	111.56
314.853	101.56
315.083	98.56
315.312	95.56
315.542	98.56
315.771	87.56
316.001	94.56
316.23	84.56
316.46	95.56
316.689	105.56
316.919	92.56
317.148	86.56
317.377	100.56
317.607	82.56
317.836	94.56
318.065	91.56
318.295	89.56
318.524	84.56
318.753	78.56
318.983	97.56
319.212	85.56
319.441	112.56
319.67	100.56
319.9	105.56
320.129	93.56
320.358	78.56
320.587	92.56
320.816	93.56
321.046	94.56
321.275	98.56
321.504	90.56
321.733	85.56
321.962	85.56
322.191	79.56
322.42	96.56
322.649	99.56
322.878	123.56
323.108	112.56
323.337	126.56
323.566	117.56
323.795	142.56
324.024	183.56
324.253	375.56
324.482	748.56
324.71	1517.56
324.939	2016.56
325.168	721.56
325.397	211.56
325.626	146.56
325.855	123.56
326.084	114.56
326.313	138.56
326.542	152.56
326.77	210.56
326.999	394.56
327.228	850.56
327.457	1527.56
327.686	1238.56
327.914	344.56
328.143	231.56
328.372	175.56
328.6	141.56
328.829	125.56
329.058	119.56
329.287	120.56
329.515	128.56
329.744	110.56
329.972	145.56
330.201	190.56
330.43	228.56
330.658	160.56
330.887	134.56
331.115	114.56
331.344	99.56
331.572	100.56
331.801	109.56
332.03	96.56
332.258	87.56
332.486	84.56
332.715	96.56
332.943	95.56
333.172	97.56
333.4	100.56
333.629	117.56
333.857	130.56
334.085	136.56
334.314	192.56
334.542	269.56
334.771	247.56
334.999	137.56
335.227	90.56
335.455	95.56
335.684	98.56
335.912	88.56
336.14	93.56
336.369	108.56
336.597	97.56
336.825	107.56
337.053	82.56
337.281	79.56
337.51	97.56
337.738	92.56
337.966	99.56
338.194	98.56
338.422	84.56
338.65	88.56
338.878	92.56
339.106	83.56
339.334	76.56
339.562	93.56
339.79	87.56
340.018	90.56
340.246	79.56
340.474	95.56
340.702	88.56
340.93	87.56
341.158	97.56
341.386	94.56
341.614	103.56
341.842	89.56
342.07	83.56
342.298	86.56
342.526	82.56
342.754	88.56
342.981	85.56
343.209	108.56
343.437	99.56
343.665	85.56
343.893	90.56
344.12	88.56
344.348	88.56
344.576	94.56
344.804	94.56
345.031	87.56
345.259	98.56
345.487	109.56
345.714	85.56
345.942	79.56
346.17	96.56
346.397	100.56
346.625	81.56
346.853	101.56
347.08	90.56
347.308	107.56
347.535	90.56
347.763	93.56
347.99	98.56
348.218	81.56
348.445	118.56
348.673	102.56
348.9	110.56
349.128	99.56
349.355	97.56
349.583	76.56
349.81	89.56
350.037	88.56
350.265	74.56
350.492	90.56
350.72	100.56
350.947	98.56
351.174	119.56
351.402	101.56
351.629	97.56
351.856	99.56
352.083	93.56
352.311	117.56
352.538	99.56
352.765	101.56
352.992	121.56
353.22	108.56
353.447	104.56
353.674	85.56
353.901	95.56
354.128	101.56
354.355	102.56
354.583	91.56
354.81	93.56
355.037	94.56
355.264	86.56
355.491	88.56
355.718	92.56
355.945	102.56
356.172	88.56
356.399	103.56
356.626	96.56
356.853	94.56
357.08	94.56
357.307	89.56
357.534	90.56
357.761	92.56
357.988	88.56
358.215	94.56
358.441	87.56
358.668	106.56
358.895	93.56
359.122	87.56
359.349	78.56
359.576	85.56
359.802	90.56
360.029	104.56
360.256	106.56
360.483	86.56
360.709	103.56
360.936	95.56
361.163	97.56
361.39	92.56
361.616	82.56
361.843	80.56
362.07	92.56
362.296	100.56
362.523	80.56
362.749	93.56
362.976	88.56
363.203	92.56
363.429	83.56
363.656	90.56
363.882	88.56
364.109	94.56
364.335	82.56
364.562	91.56
364.788	93.56
365.015	84.56
365.241	84.56
365.468	100.56
365.694	94.56
365.92	97.56
366.147	78.56
366.373	96.56
366.599	84.56
366.826	88.56
367.052	85.56
367.278	91.56
367.505	94.56
367.731	92.56
367.957	87.56
368.184	105.56
368.41	98.56
368.636	117.56
368.862	110.56
369.089	113.56
369.315	91.56
369.541	93.56
369.767	109.56
369.993	91.56
370.219	94.56
370.445	86.56
370.672	99.56
370.898	98.56
371.124	88.56
371.35	84.56
371.576	78.56
371.802	88.56
372.028	86.56
372.254	93.56
372.48	104.56
372.706	67.56
372.932	84.56
373.158	85.56
373.384	89.56
373.61	98.56
373.835	101.56
374.061	85.56
374.287	96.56
374.513	98.56
374.739	83.56
374.965	83.56
375.191	90.56
375.416	92.56
375.642	88.56
375.868	93.56
376.094	91.56
376.319	90.56
376.545	93.56
376.771	93.56
376.997	98.56
377.222	88.56
377.448	102.56
377.674	67.56
377.899	67.56
378.125	98.56
378.35	103.56
378.576	78.56
378.802	84.56
379.027	78.56
379.253	88.56
379.478	95.56
379.704	91.56
379.929	87.56
380.155	83.56
380.38	93.56
380.606	89.56
380.831	101.56
381.057	90.56
381.282	86.56
381.507	78.56
381.733	81.56
381.958	89.56
382.184	86.56
382.409	98.56
382.634	93.56
382.86	100.56
383.085	102.56
383.31	100.56
383.535	106.56
383.761	90.56
383.986	107.56
384.211	93.56
384.436	99.56
384.662	92.56
384.887	80.56
385.112	83.56
385.337	112.56
385.562	100.56
385.787	100.56
386.013	102.56
386.238	102.56
386.463	104.56
386.688	114.56
386.913	94.56
387.138	104.56
387.363	98.56
387.588	109.56
387.813	94.56
388.038	96.56
388.263	96.56
388.488	104.56
388.713	91.56
388.938	99.56
389.163	89.56
389.387	75.56
389.612	85.56
389.837	98.56
390.062	107.56
390.287	88.56
390.512	83.56
390.736	90.56
390.961	82.56
391.186	100.56
391.411	92.56
391.636	85.56
391.86	93.56
392.085	93.56
392.31	82.56
392.534	92.56
392.759	78.56
392.984	81.56
393.208	90.56
393.433	107.56
393.658	94.56
393.882	76.56
394.107	86.56
394.331	85.56
394.556	90.56
394.78	80.56
395.005	89.56
395.229	82.56
395.454	73.56
395.678	99.56
395.903	70.56
396.127	86.56
396.352	89.56
396.576	78.56
396.801	96.56
397.025	82.56
397.249	78.56
397.474	83.56
397.698	96.56
397.922	92.56
398.147	83.56
398.371	85.56
398.595	79.56
398.82	77.56
399.044	71.56
399.268	79.56
399.492	86.56
399.717	91.56
399.941	86.56
400.165	98.56
400.389	81.56
400.613	72.56
400.837	76.56
401.062	90.56
401.286	86.56
401.51	90.56
401.734	88.56
401.958	109.56
402.182	124.56
402.406	150.56
402.63	112.56
402.854	94.56
403.078	86.56
403.302	68.56
403.526	82.56
403.75	82.56
403.974	75.56
404.198	80.56
404.422	87.56
404.645	84.56
404.869	81.56
405.093	91.56
405.317	106.56
405.541	89.56
405.765	98.56
405.988	101.56
406.212	157.56
406.436	197.56
406.66	132.56
406.883	97.56
407.107	83.56
407.331	94.56
407.555	103.56
407.778	100.56
408.002	68.56
408.226	83.56
408.449	81.56
408.673	92.56
408.896	85.56
409.12	99.56
409.344	93.56
409.567	92.56
409.791	93.56
410.014	90.56
410.238	74.56
410.461	83.56
410.685	87.56
410.908	98.56
411.132	106.56
411.355	104.56
411.578	88.56
411.802	95.56
412.025	83.56
412.249	94.56
412.472	86.56
412.695	91.56
412.919	86.56
413.142	84.56
413.365	81.56
413.589	96.56
413.812	80.56
414.035	87.56
414.258	92.56
414.482	96.56
414.705	77.56
414.928	92.56
415.151	86.56
415.374	80.56
415.597	103.56
415.821	78.56
416.044	84.56
416.267	91.56
416.49	78.56
416.713	71.56
416.936	83.56
417.159	92.56
417.382	85.56
417.605	87.56
417.828	84.56
418.051	81.56
418.274	81.56
418.497	83.56
418.72	83.56
418.943	84.56
419.166	87.56
419.389	79.56
419.611	84.56
419.834	93.56
420.057	93.56
420.28	84.56
420.503	94.56
420.726	93.56
420.948	83.56
421.171	78.56
421.394	76.56
421.617	83.56
421.839	84.56
422.062	79.56
422.285	100.56
422.507	87.56
422.73	87.56
422.953	97.56
423.175	94.56
423.398	97.56
423.621	92.56
423.843	93.56
424.066	104.56
424.288	85.56
424.511	89.56
424.733	84.56
424.956	84.56
425.178	90.56
425.401	95.56
425.623	96.56
425.846	87.56
426.068	74.56
426.291	74.56
426.513	95.56
426.735	93.56
426.958	85.56
427.18	109.56
427.402	136.56
427.625	142.56
427.847	128.56
428.069	129.56
428.292	74.56
428.514	88.56
428.736	77.56
428.958	77.56
429.181	89.56
429.403	67.56
429.625	86.56
429.847	98.56
430.069	86.56
430.292	99.56
430.514	65.56
430.736	76.56
430.958	74.56
431.18	90.56
431.402	78.56
431.624	78.56
431.846	86.56
432.068	92.56
432.29	74.56
432.512	100.56
432.734	91.56
432.956	84.56
433.178	87.56
433.4	108.56
433.622	82.56
433.844	100.56
434.066	92.56
434.287	87.56
434.509	82.56
434.731	74.56
434.953	66.56
435.175	87.56
435.397	89.56
435.618	86.56
435.84	94.56
436.062	112.56
436.284	97.56
436.505	103.56
436.727	98.56
436.949	87.56
437.17	80.56
437.392	80.56
437.614	93.56
437.835	108.56
438.057	110.56
438.278	102.56
438.5	89.56
438.721	92.56
438.943	101.56
439.165	78.56
439.386	87.56
439.608	79.56
439.829	105.56
440.05	118.56
440.272	133.56
440.493	92.56
440.715	97.56
440.936	85.56
441.158	80.56
441.379	83.56
441.6	93.56
441.822	94.56
442.043	92.56
442.264	96.56
442.486	94.56
442.707	83.56
442.928	101.56
443.149	128.56
443.371	127.56
443.592	104.56
443.813	99.56
444.034	87.56
444.255	95.56
444.476	83.56
444.698	87.56
444.919	72.56
445.14	133.56
445.361	131.56
445.582	110.56
445.803	124.56
446.024	136.56
446.245	112.56
446.466	101.56
446.687	75.56
446.908	78.56
447.129	66.56
447.35	97.56
447.571	86.56
447.792	85.56
448.013	99.56
448.234	102.56
448.455	99.56
448.675	107.56
448.896	112.56
449.117	100.56
449.338	99.56
449.559	110.56
449.779	115.56
450	98.56
450.221	86.56
450.442	99.56
450.662	94.56
450.883	94.56
451.104	99.56
451.324	104.56
451.545	82.56
451.766	80.56
451.986	75.56
452.207	91.56
452.428	95.56
452.648	93.56
452.869	101.56
453.089	123.56
453.31	118.56
453.53	90.56
453.751	93.56
453.971	104.56
454.192	96.56
454.412	81.56
454.633	82.56
454.853	91.56
455.073	84.56
455.294	88.56
455.514	104.56
455.734	87.56
455.955	87.56
456.175	98.56
456.395	90.56
456.616	94.56
456.836	90.56
457.056	81.56
457.276	95.56
457.497	92.56
457.717	74.56
457.937	91.56
458.157	66.56
458.377	99.56
458.598	111.56
458.818	150.56
459.038	147.56
459.258	117.56
459.478	91.56
459.698	78.56
459.918	70.56
460.138	87.56
460.358	87.56
460.578	85.56
460.798	92.56
461.018	60.56
461.238	85.56
461.458	80.56
461.678	72.56
461.898	83.56
462.118	81.56
462.338	92.56
462.558	85.56
462.777	82.56
462.997	90.56
463.217	93.56
463.437	94.56
463.657	70.56
463.876	74.56
464.096	85.56
464.316	71.56
464.536	78.56
464.755	93.56
464.975	101.56
465.195	142.56
465.414	150.56
465.634	100.56
465.854	76.56
466.073	89.56
466.293	74.56
466.512	80.56
466.732	89.56
466.951	95.56
467.171	97.56
467.391	94.56
467.61	100.56
467.829	90.56
468.049	127.56
468.268	154.56
468.488	90.56
468.707	91.56
468.927	76.56
469.146	70.56
469.365	84.56
469.585	91.56
469.804	87.56
470.023	101.56
470.243	80.56
470.462	90.56
470.681	99.56
470.901	83.56
471.12	94.56
471.339	84.56
471.558	92.56
471.777	81.56
471.997	117.56
472.216	198.56
472.435	350.56
472.654	124.56
472.873	94.56
473.092	88.56
473.311	82.56
473.53	95.56
473.749	88.56
473.968	93.56
474.187	94.56
474.406	82.56
474.625	91.56
474.844	101.56
475.063	76.56
475.282	72.56
475.501	84.56
475.72	85.56
475.939	95.56
476.158	87.56
476.377	74.56
476.596	82.56
476.814	93.56
477.033	76.56
477.252	76.56
477.471	74.56
477.69	101.56
477.908	89.56
478.127	78.56
478.346	83.56
478.564	91.56
478.783	87.56
479.002	84.56
479.22	100.56
479.439	93.56
479.658	113.56
479.876	101.56
480.095	96.56
480.313	94.56
480.532	98.56
480.751	107.56
480.969	200.56
481.188	573.56
481.406	372.56
481.624	138.56
481.843	101.56
482.061	94.56
482.28	86.56
482.498	86.56
482.717	90.56
482.935	83.56
483.153	96.56
483.372	92.56
483.59	70.56
483.808	74.56
484.027	77.56
484.245	91.56
484.463	82.56
484.681	99.56
484.9	91.56
485.118	96.56
485.336	100.56
485.554	97.56
485.772	110.56
485.99	93.56
486.209	99.56
486.427	94.56
486.645	100.56
486.863	104.56
487.081	95.56
487.299	89.56
487.517	103.56
487.735	102.56
487.953	87.56
488.171	93.56
488.389	90.56
488.607	99.56
488.825	80.56
489.043	94.56
489.261	84.56
489.479	84.56
489.696	93.56
489.914	94.56
490.132	78.56
490.35	86.56
490.568	75.56
490.786	90.56
491.003	94.56
491.221	94.56
491.439	72.56
491.657	86.56
491.874	99.56
492.092	96.56
492.31	92.56
492.527	79.56
492.745	76.56
492.963	82.56
493.18	96.56
493.398	83.56
493.615	102.56
493.833	90.56
494.05	83.56
494.268	84.56
494.485	97.56
494.703	79.56
494.92	94.56
495.138	92.56
495.355	92.56
495.573	98.56
495.79	92.56
496.008	98.56
496.225	85.56
496.442	91.56
496.66	91.56
496.877	91.56
497.094	94.56
497.312	89.56
497.529	93.56
497.746	99.56
497.963	98.56
498.181	88.56
498.398	92.56
498.615	98.56
498.832	99.56
499.049	94.56
499.267	100.56
499.484	76.56
499.701	80.56
499.918	89.56
500.135	90.56
500.352	94.56
500.569	102.56
500.786	92.56
501.003	79.56
501.22	93.56
501.437	81.56
501.654	96.56
501.871	105.56
502.088	86.56
502.305	77.56
502.522	87.56
502.739	96.56
502.956	92.56
503.172	83.56
503.389	92.56
503.606	102.56
503.823	91.56
504.04	90.56
504.256	101.56
504.473	87.56
504.69	90.56
504.907	93.56
505.123	80.56
505.34	83.56
505.557	89.56
505.773	95.56
505.99	80.56
506.207	82.56
506.423	89.56
506.64	94.56
506.856	96.56
507.073	96.56
507.289	93.56
507.506	87.56
507.722	112.56
507.939	107.56
508.155	101.56
508.372	96.56
508.588	91.56
508.805	88.56
509.021	99.56
509.238	94.56
509.454	105.56
509.67	98.56
509.887	100.56
510.103	117.56
510.319	192.56
510.536	648.56
510.752	2023.56
510.968	560.56
511.184	142.56
511.401	104.56
511.617	86.56
511.833	92.56
512.049	84.56
512.265	100.56
512.481	93.56
512.698	69.56
512.914	91.56
513.13	88.56
513.346	88.56
513.562	101.56
513.778	103.56
513.994	88.56
514.21	103.56
514.426	101.56
514.642	126.56
514.858	121.56
515.074	150.56
515.29	394.56
515.506	1248.56
515.721	478.56
515.937	139.56
516.153	111.56
516.369	94.56
