Data from Uncirc_1989_H10_HRD10591_00029.txt Node
Date: Wed Jan 03 11:57:41 EST 2024
User: Yrep
Spectrometer: HR+D1059
Trigger mode: 1
Integration Time (sec): 1.000000E-1
Scans to average: 1
Electric dark correction enabled: true
Nonlinearity correction enabled: false
Boxcar width: 0
XAxis mode: Wavelengths
Number of Pixels in Spectrum: 2048
>>>>>Begin Spectral Data<<<<<
223.165	-1.19
223.4	-1.19
223.635	-1.19
223.869	-18.19
224.104	-38.19
224.338	0.81
224.573	-3.19
224.808	-13.19
225.042	-10.19
225.277	-2.19
225.511	-19.19
225.746	0.81
225.98	7.81
226.215	15.81
226.449	5.81
226.683	2.81
226.918	38.81
227.152	32.81
227.387	42.81
227.621	54.81
227.856	57.81
228.09	49.81
228.324	38.81
228.559	52.81
228.793	63.81
229.027	71.81
229.262	64.81
229.496	68.81
229.73	90.81
229.964	86.81
230.199	67.81
230.433	70.81
230.667	71.81
230.901	91.81
231.136	86.81
231.37	83.81
231.604	85.81
231.838	93.81
232.072	79.81
232.306	77.81
232.541	72.81
232.775	64.81
233.009	83.81
233.243	82.81
233.477	88.81
233.711	80.81
233.945	77.81
234.179	66.81
234.413	79.81
234.647	81.81
234.881	72.81
235.115	88.81
235.349	91.81
235.583	68.81
235.817	71.81
236.051	80.81
236.285	87.81
236.519	82.81
236.753	83.81
236.987	76.81
237.221	92.81
237.455	90.81
237.689	92.81
237.922	86.81
238.156	70.81
238.39	84.81
238.624	84.81
238.858	72.81
239.091	71.81
239.325	85.81
239.559	77.81
239.793	73.81
240.027	76.81
240.26	71.81
240.494	68.81
240.728	74.81
240.961	84.81
241.195	76.81
241.429	64.81
241.662	90.81
241.896	80.81
242.13	78.81
242.363	78.81
242.597	80.81
242.83	69.81
243.064	71.81
243.298	90.81
243.531	72.81
243.765	74.81
243.998	72.81
244.232	80.81
244.465	88.81
244.699	76.81
244.932	92.81
245.166	79.81
245.399	80.81
245.633	82.81
245.866	91.81
246.099	76.81
246.333	85.81
246.566	93.81
246.8	102.81
247.033	83.81
247.266	73.81
247.5	66.81
247.733	80.81
247.966	81.81
248.2	74.81
248.433	81.81
248.666	84.81
248.899	83.81
249.133	77.81
249.366	104.81
249.599	88.81
249.832	82.81
250.066	80.81
250.299	69.81
250.532	85.81
250.765	74.81
250.998	79.81
251.231	86.81
251.465	82.81
251.698	87.81
251.931	77.81
252.164	84.81
252.397	80.81
252.63	65.81
252.863	67.81
253.096	86.81
253.329	73.81
253.562	93.81
253.795	76.81
254.028	77.81
254.261	83.81
254.494	94.81
254.727	86.81
254.96	96.81
255.193	79.81
255.426	84.81
255.659	81.81
255.892	89.81
256.124	79.81
256.357	74.81
256.59	92.81
256.823	83.81
257.056	81.81
257.289	87.81
257.521	73.81
257.754	87.81
257.987	80.81
258.22	81.81
258.452	80.81
258.685	79.81
258.918	93.81
259.151	79.81
259.383	80.81
259.616	83.81
259.849	71.81
260.081	89.81
260.314	81.81
260.547	85.81
260.779	83.81
261.012	68.81
261.244	71.81
261.477	93.81
261.71	88.81
261.942	99.81
262.175	102.81
262.407	91.81
262.64	83.81
262.872	92.81
263.105	80.81
263.337	82.81
263.57	84.81
263.802	70.81
264.035	85.81
264.267	77.81
264.499	81.81
264.732	86.81
264.964	84.81
265.197	90.81
265.429	89.81
265.661	74.81
265.894	83.81
266.126	81.81
266.358	87.81
266.591	80.81
266.823	84.81
267.055	88.81
267.287	88.81
267.52	97.81
267.752	87.81
267.984	81.81
268.216	77.81
268.448	81.81
268.681	102.81
268.913	76.81
269.145	78.81
269.377	87.81
269.609	68.81
269.841	70.81
270.073	82.81
270.306	88.81
270.538	79.81
270.77	80.81
271.002	74.81
271.234	86.81
271.466	73.81
271.698	85.81
271.93	90.81
272.162	95.81
272.394	86.81
272.626	86.81
272.858	84.81
273.09	78.81
273.322	88.81
273.553	78.81
273.785	81.81
274.017	72.81
274.249	78.81
274.481	86.81
274.713	88.81
274.945	80.81
275.176	80.81
275.408	77.81
275.64	81.81
275.872	80.81
276.104	87.81
276.335	84.81
276.567	97.81
276.799	105.81
277.031	73.81
277.262	85.81
277.494	90.81
277.726	84.81
277.957	92.81
278.189	81.81
278.421	92.81
278.652	84.81
278.884	89.81
279.115	79.81
279.347	89.81
279.579	79.81
279.81	93.81
280.042	94.81
280.273	103.81
280.505	90.81
280.736	92.81
280.968	78.81
281.199	92.81
281.431	94.81
281.662	89.81
281.894	90.81
282.125	101.81
282.356	114.81
282.588	122.81
282.819	102.81
283.051	84.81
283.282	80.81
283.513	84.81
283.745	91.81
283.976	88.81
284.207	95.81
284.439	94.81
284.67	80.81
284.901	95.81
285.132	87.81
285.364	80.81
285.595	88.81
285.826	77.81
286.057	80.81
286.288	98.81
286.52	80.81
286.751	84.81
286.982	81.81
287.213	82.81
287.444	81.81
287.675	87.81
287.906	78.81
288.138	84.81
288.369	88.81
288.6	91.81
288.831	85.81
289.062	94.81
289.293	77.81
289.524	102.81
289.755	82.81
289.986	76.81
290.217	84.81
290.448	86.81
290.679	104.81
290.91	96.81
291.141	82.81
291.371	95.81
291.602	82.81
291.833	97.81
292.064	98.81
292.295	99.81
292.526	84.81
292.757	89.81
292.987	90.81
293.218	84.81
293.449	76.81
293.68	81.81
293.91	88.81
294.141	87.81
294.372	89.81
294.603	92.81
294.833	103.81
295.064	89.81
295.295	98.81
295.525	89.81
295.756	104.81
295.987	101.81
296.217	119.81
296.448	117.81
296.679	96.81
296.909	72.81
297.14	96.81
297.37	81.81
297.601	77.81
297.831	81.81
298.062	87.81
298.292	102.81
298.523	100.81
298.753	90.81
298.984	78.81
299.214	94.81
299.445	94.81
299.675	97.81
299.905	100.81
300.136	112.81
300.366	91.81
300.597	80.81
300.827	80.81
301.057	94.81
301.288	89.81
301.518	99.81
301.748	94.81
301.979	92.81
302.209	97.81
302.439	87.81
302.669	95.81
302.9	88.81
303.13	92.81
303.36	82.81
303.59	95.81
303.82	96.81
304.051	95.81
304.281	102.81
304.511	96.81
304.741	79.81
304.971	82.81
305.201	88.81
305.431	90.81
305.661	88.81
305.891	92.81
306.121	94.81
306.352	112.81
306.582	104.81
306.812	96.81
307.042	88.81
307.272	97.81
307.502	93.81
307.731	86.81
307.961	90.81
308.191	86.81
308.421	88.81
308.651	85.81
308.881	89.81
309.111	99.81
309.341	95.81
309.571	95.81
309.8	96.81
310.03	106.81
310.26	90.81
310.49	85.81
310.72	98.81
310.949	97.81
311.179	94.81
311.409	97.81
311.639	97.81
311.868	98.81
312.098	86.81
312.328	100.81
312.557	99.81
312.787	84.81
313.017	92.81
313.246	85.81
313.476	82.81
313.706	97.81
313.935	99.81
314.165	91.81
314.394	85.81
314.624	109.81
314.853	90.81
315.083	86.81
315.312	88.81
315.542	87.81
315.771	82.81
316.001	98.81
316.23	104.81
316.46	87.81
316.689	83.81
316.919	89.81
317.148	89.81
317.377	86.81
317.607	101.81
317.836	93.81
318.065	83.81
318.295	86.81
318.524	101.81
318.753	85.81
318.983	88.81
319.212	91.81
319.441	93.81
319.67	100.81
319.9	106.81
320.129	99.81
320.358	98.81
320.587	86.81
320.816	98.81
321.046	98.81
321.275	78.81
321.504	98.81
321.733	82.81
321.962	93.81
322.191	94.81
322.42	99.81
322.649	104.81
322.878	89.81
323.108	108.81
323.337	110.81
323.566	126.81
323.795	136.81
324.024	174.81
324.253	308.81
324.482	672.81
324.71	1346.81
324.939	1781.81
325.168	666.81
325.397	210.81
325.626	143.81
325.855	125.81
326.084	116.81
326.313	124.81
326.542	155.81
326.77	198.81
326.999	400.81
327.228	808.81
327.457	1431.81
327.686	1118.81
327.914	300.81
328.143	169.81
328.372	130.81
328.6	130.81
328.829	127.81
329.058	111.81
329.287	116.81
329.515	111.81
329.744	102.81
329.972	99.81
330.201	133.81
330.43	149.81
330.658	118.81
330.887	140.81
331.115	113.81
331.344	97.81
331.572	93.81
331.801	112.81
332.03	92.81
332.258	92.81
332.486	82.81
332.715	80.81
332.943	94.81
333.172	95.81
333.4	94.81
333.629	109.81
333.857	126.81
334.085	124.81
334.314	117.81
334.542	162.81
334.771	173.81
334.999	117.81
335.227	89.81
335.455	110.81
335.684	99.81
335.912	86.81
336.14	99.81
336.369	92.81
336.597	97.81
336.825	101.81
337.053	90.81
337.281	94.81
337.51	93.81
337.738	95.81
337.966	101.81
338.194	93.81
338.422	110.81
338.65	91.81
338.878	99.81
339.106	98.81
339.334	73.81
339.562	94.81
339.79	102.81
340.018	87.81
340.246	91.81
340.474	95.81
340.702	93.81
340.93	93.81
341.158	106.81
341.386	98.81
341.614	82.81
341.842	94.81
342.07	98.81
342.298	95.81
342.526	101.81
342.754	94.81
342.981	85.81
343.209	82.81
343.437	99.81
343.665	85.81
343.893	100.81
344.12	101.81
344.348	78.81
344.576	88.81
344.804	95.81
345.031	79.81
345.259	104.81
345.487	88.81
345.714	84.81
345.942	87.81
346.17	95.81
346.397	99.81
346.625	90.81
346.853	82.81
347.08	85.81
347.308	96.81
347.535	103.81
347.763	85.81
347.99	89.81
348.218	93.81
348.445	100.81
348.673	96.81
348.9	96.81
349.128	95.81
349.355	100.81
349.583	92.81
349.81	88.81
350.037	91.81
350.265	92.81
350.492	87.81
350.72	93.81
350.947	93.81
351.174	98.81
351.402	112.81
351.629	106.81
351.856	85.81
352.083	97.81
352.311	101.81
352.538	108.81
352.765	124.81
352.992	110.81
353.22	104.81
353.447	95.81
353.674	97.81
353.901	104.81
354.128	89.81
354.355	99.81
354.583	100.81
354.81	96.81
355.037	89.81
355.264	96.81
355.491	92.81
355.718	99.81
355.945	90.81
356.172	76.81
356.399	88.81
356.626	74.81
356.853	93.81
357.08	94.81
357.307	75.81
357.534	96.81
357.761	77.81
357.988	86.81
358.215	95.81
358.441	98.81
358.668	95.81
358.895	90.81
359.122	105.81
359.349	89.81
359.576	96.81
359.802	99.81
360.029	106.81
360.256	89.81
360.483	96.81
360.709	80.81
360.936	91.81
361.163	100.81
361.39	83.81
361.616	81.81
361.843	80.81
362.07	94.81
362.296	87.81
362.523	94.81
362.749	82.81
362.976	84.81
363.203	99.81
363.429	94.81
363.656	92.81
363.882	78.81
364.109	97.81
364.335	95.81
364.562	87.81
364.788	92.81
365.015	94.81
365.241	97.81
365.468	101.81
365.694	106.81
365.92	90.81
366.147	96.81
366.373	98.81
366.599	92.81
366.826	81.81
367.052	87.81
367.278	84.81
367.505	86.81
367.731	98.81
367.957	87.81
368.184	82.81
368.41	106.81
368.636	89.81
368.862	108.81
369.089	108.81
369.315	85.81
369.541	86.81
369.767	96.81
369.993	81.81
370.219	83.81
370.445	100.81
370.672	81.81
370.898	95.81
371.124	78.81
371.35	82.81
371.576	77.81
371.802	87.81
372.028	98.81
372.254	92.81
372.48	78.81
372.706	97.81
372.932	74.81
373.158	86.81
373.384	96.81
373.61	94.81
373.835	84.81
374.061	78.81
374.287	97.81
374.513	96.81
374.739	81.81
374.965	93.81
375.191	96.81
375.416	83.81
375.642	90.81
375.868	88.81
376.094	89.81
376.319	102.81
376.545	98.81
376.771	89.81
376.997	96.81
377.222	76.81
377.448	93.81
377.674	88.81
377.899	86.81
378.125	97.81
378.35	95.81
378.576	101.81
378.802	89.81
379.027	90.81
379.253	77.81
379.478	80.81
379.704	103.81
379.929	79.81
380.155	85.81
380.38	86.81
380.606	98.81
380.831	76.81
381.057	94.81
381.282	81.81
381.507	94.81
381.733	71.81
381.958	98.81
382.184	93.81
382.409	80.81
382.634	109.81
382.86	82.81
383.085	85.81
383.31	94.81
383.535	93.81
383.761	84.81
383.986	97.81
384.211	105.81
384.436	92.81
384.662	107.81
384.887	86.81
385.112	97.81
385.337	89.81
385.562	98.81
385.787	95.81
386.013	107.81
386.238	89.81
386.463	104.81
386.688	115.81
386.913	101.81
387.138	114.81
387.363	112.81
387.588	111.81
387.813	102.81
388.038	89.81
388.263	114.81
388.488	100.81
388.713	103.81
388.938	91.81
389.163	95.81
389.387	102.81
389.612	83.81
389.837	101.81
390.062	98.81
390.287	98.81
390.512	92.81
390.736	97.81
390.961	90.81
391.186	105.81
391.411	96.81
391.636	97.81
391.86	86.81
392.085	98.81
392.31	78.81
392.534	82.81
392.759	99.81
392.984	98.81
393.208	105.81
393.433	126.81
393.658	108.81
393.882	81.81
394.107	101.81
394.331	84.81
394.556	91.81
394.78	77.81
395.005	91.81
395.229	77.81
395.454	87.81
395.678	76.81
395.903	83.81
396.127	90.81
396.352	95.81
396.576	101.81
396.801	118.81
397.025	106.81
397.249	92.81
397.474	101.81
397.698	100.81
397.922	62.81
398.147	89.81
398.371	83.81
398.595	94.81
398.82	97.81
399.044	82.81
399.268	85.81
399.492	100.81
399.717	102.81
399.941	91.81
400.165	72.81
400.389	80.81
400.613	92.81
400.837	70.81
401.062	80.81
401.286	98.81
401.51	96.81
401.734	88.81
401.958	100.81
402.182	110.81
402.406	131.81
402.63	101.81
402.854	82.81
403.078	88.81
403.302	85.81
403.526	89.81
403.75	85.81
403.974	94.81
404.198	76.81
404.422	80.81
404.645	87.81
404.869	95.81
405.093	98.81
405.317	85.81
405.541	83.81
405.765	88.81
405.988	107.81
406.212	156.81
406.436	192.81
406.66	131.81
406.883	89.81
407.107	92.81
407.331	98.81
407.555	93.81
407.778	91.81
408.002	85.81
408.226	86.81
408.449	80.81
408.673	95.81
408.896	85.81
409.12	79.81
409.344	89.81
409.567	88.81
409.791	99.81
410.014	88.81
410.238	82.81
410.461	92.81
410.685	85.81
410.908	97.81
411.132	102.81
411.355	80.81
411.578	88.81
411.802	92.81
412.025	85.81
412.249	84.81
412.472	110.81
412.695	99.81
412.919	92.81
413.142	90.81
413.365	100.81
413.589	92.81
413.812	89.81
414.035	96.81
414.258	86.81
414.482	94.81
414.705	85.81
414.928	75.81
415.151	102.81
415.374	92.81
415.597	87.81
415.821	104.81
416.044	97.81
416.267	95.81
416.49	89.81
416.713	94.81
416.936	98.81
417.159	91.81
417.382	80.81
417.605	97.81
417.828	89.81
418.051	86.81
418.274	87.81
418.497	92.81
418.72	78.81
418.943	86.81
419.166	93.81
419.389	82.81
419.611	88.81
419.834	99.81
420.057	97.81
420.28	92.81
420.503	80.81
420.726	88.81
420.948	77.81
421.171	80.81
421.394	101.81
421.617	90.81
421.839	94.81
422.062	88.81
422.285	79.81
422.507	97.81
422.73	104.81
422.953	92.81
423.175	83.81
423.398	90.81
423.621	102.81
423.843	94.81
424.066	107.81
424.288	82.81
424.511	87.81
424.733	97.81
424.956	93.81
425.178	91.81
425.401	102.81
425.623	100.81
425.846	93.81
426.068	99.81
426.291	81.81
426.513	90.81
426.735	86.81
426.958	94.81
427.18	79.81
427.402	124.81
427.625	140.81
427.847	120.81
428.069	120.81
428.292	84.81
428.514	83.81
428.736	82.81
428.958	84.81
429.181	73.81
429.403	82.81
429.625	78.81
429.847	93.81
430.069	93.81
430.292	102.81
430.514	84.81
430.736	85.81
430.958	79.81
431.18	84.81
431.402	82.81
431.624	90.81
431.846	81.81
432.068	92.81
432.29	85.81
432.512	88.81
432.734	88.81
432.956	79.81
433.178	106.81
433.4	95.81
433.622	93.81
433.844	97.81
434.066	93.81
434.287	89.81
434.509	80.81
434.731	93.81
434.953	84.81
435.175	86.81
435.397	92.81
435.618	102.81
435.84	111.81
436.062	116.81
436.284	126.81
436.505	94.81
436.727	92.81
436.949	77.81
437.17	78.81
437.392	94.81
437.614	87.81
437.835	102.81
438.057	98.81
438.278	96.81
438.5	87.81
438.721	96.81
438.943	97.81
439.165	93.81
439.386	88.81
439.608	89.81
439.829	101.81
440.05	99.81
440.272	131.81
440.493	98.81
440.715	78.81
440.936	90.81
441.158	88.81
441.379	90.81
441.6	83.81
441.822	107.81
442.043	91.81
442.264	97.81
442.486	103.81
442.707	89.81
442.928	101.81
443.149	115.81
443.371	111.81
443.592	102.81
443.813	96.81
444.034	96.81
444.255	92.81
444.476	96.81
444.698	88.81
444.919	84.81
445.14	136.81
445.361	118.81
445.582	115.81
445.803	110.81
446.024	112.81
446.245	117.81
446.466	103.81
446.687	95.81
446.908	89.81
447.129	102.81
447.35	81.81
447.571	96.81
447.792	76.81
448.013	104.81
448.234	110.81
448.455	97.81
448.675	113.81
448.896	98.81
449.117	105.81
449.338	99.81
449.559	112.81
449.779	106.81
450	84.81
450.221	79.81
450.442	83.81
450.662	97.81
450.883	90.81
451.104	116.81
451.324	92.81
451.545	98.81
451.766	86.81
451.986	82.81
452.207	92.81
452.428	85.81
452.648	71.81
452.869	100.81
453.089	98.81
453.31	101.81
453.53	106.81
453.751	85.81
453.971	106.81
454.192	104.81
454.412	74.81
454.633	84.81
454.853	69.81
455.073	90.81
455.294	76.81
455.514	99.81
455.734	99.81
455.955	89.81
456.175	92.81
456.395	89.81
456.616	91.81
456.836	74.81
457.056	92.81
457.276	87.81
457.497	82.81
457.717	80.81
457.937	81.81
458.157	73.81
458.377	97.81
458.598	92.81
458.818	135.81
459.038	137.81
459.258	96.81
459.478	100.81
459.698	94.81
459.918	99.81
460.138	76.81
460.358	94.81
460.578	87.81
460.798	90.81
461.018	93.81
461.238	72.81
461.458	90.81
461.678	86.81
461.898	85.81
462.118	88.81
462.338	106.81
462.558	85.81
462.777	96.81
462.997	89.81
463.217	84.81
463.437	76.81
463.657	71.81
463.876	72.81
464.096	93.81
464.316	93.81
464.536	97.81
464.755	106.81
464.975	102.81
465.195	134.81
465.414	126.81
465.634	89.81
465.854	83.81
466.073	78.81
466.293	87.81
466.512	84.81
466.732	85.81
466.951	85.81
467.171	89.81
467.391	89.81
467.61	102.81
467.829	100.81
468.049	103.81
468.268	103.81
468.488	92.81
468.707	99.81
468.927	90.81
469.146	89.81
469.365	73.81
469.585	95.81
469.804	82.81
470.023	105.81
470.243	101.81
470.462	92.81
470.681	100.81
470.901	90.81
471.12	93.81
471.339	92.81
471.558	79.81
471.777	87.81
471.997	97.81
472.216	132.81
472.435	188.81
472.654	116.81
472.873	67.81
473.092	68.81
473.311	82.81
473.53	84.81
473.749	88.81
473.968	97.81
474.187	89.81
474.406	90.81
474.625	94.81
474.844	83.81
475.063	80.81
475.282	89.81
475.501	102.81
475.72	88.81
475.939	76.81
476.158	104.81
476.377	77.81
476.596	79.81
476.814	106.81
477.033	94.81
477.252	92.81
477.471	89.81
477.69	85.81
477.908	77.81
478.127	87.81
478.346	85.81
478.564	88.81
478.783	88.81
479.002	92.81
479.22	86.81
479.439	97.81
479.658	99.81
479.876	83.81
480.095	91.81
480.313	102.81
480.532	88.81
480.751	78.81
480.969	133.81
481.188	282.81
481.406	206.81
481.624	105.81
481.843	90.81
482.061	80.81
482.28	95.81
482.498	85.81
482.717	88.81
482.935	84.81
483.153	92.81
483.372	88.81
483.59	105.81
483.808	73.81
484.027	95.81
484.245	76.81
484.463	98.81
484.681	82.81
484.9	105.81
485.118	89.81
485.336	101.81
485.554	93.81
485.772	94.81
485.99	103.81
486.209	102.81
486.427	96.81
486.645	106.81
486.863	109.81
487.081	113.81
487.299	95.81
487.517	102.81
487.735	101.81
487.953	87.81
488.171	88.81
488.389	100.81
488.607	90.81
488.825	85.81
489.043	88.81
489.261	103.81
489.479	99.81
489.696	96.81
489.914	100.81
490.132	90.81
490.35	84.81
490.568	97.81
490.786	84.81
491.003	92.81
491.221	100.81
491.439	81.81
491.657	96.81
491.874	92.81
492.092	100.81
492.31	81.81
492.527	87.81
492.745	89.81
492.963	92.81
493.18	101.81
493.398	95.81
493.615	101.81
493.833	101.81
494.05	76.81
494.268	82.81
494.485	97.81
494.703	88.81
494.92	98.81
495.138	92.81
495.355	93.81
495.573	109.81
495.79	98.81
496.008	101.81
496.225	86.81
496.442	85.81
496.66	92.81
496.877	95.81
497.094	96.81
497.312	97.81
497.529	77.81
497.746	94.81
497.963	78.81
498.181	89.81
498.398	89.81
498.615	113.81
498.832	103.81
499.049	89.81
499.267	104.81
499.484	78.81
499.701	77.81
499.918	98.81
500.135	84.81
500.352	86.81
500.569	87.81
500.786	78.81
501.003	84.81
501.22	91.81
501.437	93.81
501.654	107.81
501.871	109.81
502.088	96.81
502.305	93.81
502.522	85.81
502.739	88.81
502.956	84.81
503.172	88.81
503.389	97.81
503.606	101.81
503.823	97.81
504.04	88.81
504.256	91.81
504.473	84.81
504.69	87.81
504.907	90.81
505.123	85.81
505.34	85.81
505.557	78.81
505.773	89.81
505.99	94.81
506.207	94.81
506.423	93.81
506.64	97.81
506.856	86.81
507.073	102.81
507.289	96.81
507.506	100.81
507.722	96.81
507.939	99.81
508.155	93.81
508.372	102.81
508.588	84.81
508.805	113.81
509.021	95.81
509.238	88.81
509.454	92.81
509.67	92.81
509.887	102.81
510.103	115.81
510.319	189.81
510.536	600.81
510.752	1857.81
510.968	512.81
511.184	133.81
511.401	93.81
511.617	92.81
511.833	85.81
512.049	101.81
512.265	101.81
512.481	96.81
512.698	105.81
512.914	101.81
513.13	100.81
513.346	75.81
513.562	83.81
513.778	86.81
513.994	115.81
514.21	98.81
514.426	112.81
514.642	120.81
514.858	117.81
515.074	131.81
515.29	393.81
515.506	1149.81
515.721	406.81
515.937	127.81
516.153	103.81
