Data from Uncirc_1989_H10_HRD10591_00056.txt Node
Date: Wed Jan 03 11:57:46 EST 2024
User: Yrep
Spectrometer: HR+D1059
Trigger mode: 1
Integration Time (sec): 1.000000E-1
Scans to average: 1
Electric dark correction enabled: true
Nonlinearity correction enabled: false
Boxcar width: 0
XAxis mode: Wavelengths
Number of Pixels in Spectrum: 2048
>>>>>Begin Spectral Data<<<<<
223.165	-22.06
223.4	-22.06
223.635	-22.06
223.869	-29.06
224.104	-8.06
224.338	-7.06
224.573	-6.06
224.808	7.94
225.042	-2.06
225.277	-3.06
225.511	-22.06
225.746	1.94
225.98	12.94
226.215	2.94
226.449	9.94
226.683	18.94
226.918	24.94
227.152	19.94
227.387	33.94
227.621	35.94
227.856	54.94
228.09	55.94
228.324	52.94
228.559	68.94
228.793	65.94
229.027	74.94
229.262	70.94
229.496	70.94
229.73	75.94
229.964	74.94
230.199	62.94
230.433	82.94
230.667	72.94
230.901	73.94
231.136	74.94
231.37	84.94
231.604	88.94
231.838	74.94
232.072	80.94
232.306	66.94
232.541	87.94
232.775	77.94
233.009	77.94
233.243	92.94
233.477	89.94
233.711	80.94
233.945	65.94
234.179	79.94
234.413	84.94
234.647	73.94
234.881	84.94
235.115	87.94
235.349	76.94
235.583	83.94
235.817	74.94
236.051	69.94
236.285	72.94
236.519	76.94
236.753	90.94
236.987	79.94
237.221	84.94
237.455	76.94
237.689	68.94
237.922	78.94
238.156	73.94
238.39	72.94
238.624	73.94
238.858	88.94
239.091	77.94
239.325	78.94
239.559	76.94
239.793	77.94
240.027	94.94
240.26	75.94
240.494	73.94
240.728	60.94
240.961	71.94
241.195	61.94
241.429	65.94
241.662	79.94
241.896	82.94
242.13	65.94
242.363	82.94
242.597	70.94
242.83	81.94
243.064	86.94
243.298	78.94
243.531	70.94
243.765	92.94
243.998	67.94
244.232	71.94
244.465	94.94
244.699	78.94
244.932	73.94
245.166	76.94
245.399	82.94
245.633	72.94
245.866	69.94
246.099	73.94
246.333	78.94
246.566	80.94
246.8	70.94
247.033	76.94
247.266	73.94
247.5	76.94
247.733	76.94
247.966	73.94
248.2	84.94
248.433	68.94
248.666	78.94
248.899	77.94
249.133	82.94
249.366	90.94
249.599	95.94
249.832	84.94
250.066	78.94
250.299	82.94
250.532	84.94
250.765	82.94
250.998	87.94
251.231	74.94
251.465	70.94
251.698	82.94
251.931	86.94
252.164	93.94
252.397	88.94
252.63	66.94
252.863	84.94
253.096	76.94
253.329	100.94
253.562	73.94
253.795	80.94
254.028	86.94
254.261	88.94
254.494	84.94
254.727	67.94
254.96	88.94
255.193	80.94
255.426	79.94
255.659	82.94
255.892	92.94
256.124	85.94
256.357	79.94
256.59	84.94
256.823	73.94
257.056	80.94
257.289	77.94
257.521	89.94
257.754	80.94
257.987	93.94
258.22	84.94
258.452	84.94
258.685	78.94
258.918	82.94
259.151	93.94
259.383	90.94
259.616	78.94
259.849	80.94
260.081	94.94
260.314	81.94
260.547	71.94
260.779	81.94
261.012	88.94
261.244	95.94
261.477	78.94
261.71	78.94
261.942	104.94
262.175	102.94
262.407	82.94
262.64	90.94
262.872	71.94
263.105	90.94
263.337	87.94
263.57	86.94
263.802	77.94
264.035	79.94
264.267	78.94
264.499	82.94
264.732	86.94
264.964	106.94
265.197	77.94
265.429	78.94
265.661	82.94
265.894	82.94
266.126	94.94
266.358	89.94
266.591	80.94
266.823	82.94
267.055	80.94
267.287	79.94
267.52	82.94
267.752	85.94
267.984	84.94
268.216	84.94
268.448	92.94
268.681	78.94
268.913	88.94
269.145	65.94
269.377	83.94
269.609	84.94
269.841	84.94
270.073	94.94
270.306	81.94
270.538	88.94
270.77	93.94
271.002	78.94
271.234	97.94
271.466	80.94
271.698	70.94
271.93	90.94
272.162	83.94
272.394	92.94
272.626	78.94
272.858	85.94
273.09	76.94
273.322	76.94
273.553	79.94
273.785	84.94
274.017	88.94
274.249	77.94
274.481	87.94
274.713	83.94
274.945	87.94
275.176	88.94
275.408	96.94
275.64	87.94
275.872	91.94
276.104	87.94
276.335	92.94
276.567	100.94
276.799	109.94
277.031	103.94
277.262	98.94
277.494	84.94
277.726	100.94
277.957	90.94
278.189	77.94
278.421	89.94
278.652	84.94
278.884	100.94
279.115	86.94
279.347	98.94
279.579	85.94
279.81	100.94
280.042	105.94
280.273	94.94
280.505	88.94
280.736	84.94
280.968	92.94
281.199	78.94
281.431	94.94
281.662	90.94
281.894	86.94
282.125	93.94
282.356	111.94
282.588	117.94
282.819	101.94
283.051	86.94
283.282	73.94
283.513	94.94
283.745	90.94
283.976	83.94
284.207	98.94
284.439	88.94
284.67	95.94
284.901	67.94
285.132	76.94
285.364	81.94
285.595	87.94
285.826	79.94
286.057	94.94
286.288	86.94
286.52	86.94
286.751	84.94
286.982	89.94
287.213	85.94
287.444	87.94
287.675	81.94
287.906	90.94
288.138	90.94
288.369	95.94
288.6	84.94
288.831	91.94
289.062	71.94
289.293	69.94
289.524	92.94
289.755	99.94
289.986	84.94
290.217	97.94
290.448	80.94
290.679	96.94
290.91	105.94
291.141	80.94
291.371	98.94
291.602	84.94
291.833	87.94
292.064	94.94
292.295	98.94
292.526	100.94
292.757	98.94
292.987	95.94
293.218	96.94
293.449	87.94
293.68	95.94
293.91	76.94
294.141	92.94
294.372	90.94
294.603	91.94
294.833	84.94
295.064	70.94
295.295	96.94
295.525	86.94
295.756	101.94
295.987	122.94
296.217	120.94
296.448	127.94
296.679	103.94
296.909	89.94
297.14	86.94
297.37	90.94
297.601	87.94
297.831	83.94
298.062	90.94
298.292	82.94
298.523	95.94
298.753	77.94
298.984	88.94
299.214	92.94
299.445	92.94
299.675	98.94
299.905	106.94
300.136	100.94
300.366	78.94
300.597	88.94
300.827	102.94
301.057	95.94
301.288	109.94
301.518	89.94
301.748	94.94
301.979	80.94
302.209	95.94
302.439	80.94
302.669	85.94
302.9	100.94
303.13	95.94
303.36	92.94
303.59	88.94
303.82	84.94
304.051	104.94
304.281	100.94
304.511	92.94
304.741	102.94
304.971	96.94
305.201	93.94
305.431	87.94
305.661	101.94
305.891	92.94
306.121	99.94
306.352	104.94
306.582	97.94
306.812	107.94
307.042	98.94
307.272	91.94
307.502	109.94
307.731	101.94
307.961	103.94
308.191	78.94
308.421	95.94
308.651	100.94
308.881	100.94
309.111	86.94
309.341	95.94
309.571	102.94
309.8	87.94
310.03	96.94
310.26	82.94
310.49	97.94
310.72	94.94
310.949	101.94
311.179	101.94
311.409	97.94
311.639	88.94
311.868	106.94
312.098	98.94
312.328	105.94
312.557	107.94
312.787	114.94
313.017	104.94
313.246	87.94
313.476	87.94
313.706	97.94
313.935	99.94
314.165	82.94
314.394	104.94
314.624	106.94
314.853	87.94
315.083	91.94
315.312	80.94
315.542	97.94
315.771	86.94
316.001	103.94
316.23	96.94
316.46	85.94
316.689	95.94
316.919	94.94
317.148	77.94
317.377	101.94
317.607	84.94
317.836	105.94
318.065	91.94
318.295	94.94
318.524	104.94
318.753	92.94
318.983	79.94
319.212	103.94
319.441	103.94
319.67	103.94
319.9	101.94
320.129	107.94
320.358	91.94
320.587	92.94
320.816	100.94
321.046	116.94
321.275	92.94
321.504	89.94
321.733	82.94
321.962	105.94
322.191	98.94
322.42	99.94
322.649	117.94
322.878	110.94
323.108	114.94
323.337	102.94
323.566	122.94
323.795	157.94
324.024	187.94
324.253	356.94
324.482	725.94
324.71	1469.94
324.939	1954.94
325.168	702.94
325.397	215.94
325.626	127.94
325.855	119.94
326.084	128.94
326.313	121.94
326.542	137.94
326.77	209.94
326.999	417.94
327.228	832.94
327.457	1536.94
327.686	1203.94
327.914	334.94
328.143	199.94
328.372	178.94
328.6	120.94
328.829	116.94
329.058	112.94
329.287	113.94
329.515	105.94
329.744	120.94
329.972	138.94
330.201	160.94
330.43	192.94
330.658	146.94
330.887	126.94
331.115	96.94
331.344	95.94
331.572	103.94
331.801	104.94
332.03	91.94
332.258	95.94
332.486	95.94
332.715	104.94
332.943	84.94
333.172	98.94
333.4	92.94
333.629	116.94
333.857	106.94
334.085	144.94
334.314	166.94
334.542	240.94
334.771	218.94
334.999	114.94
335.227	88.94
335.455	104.94
335.684	95.94
335.912	71.94
336.14	83.94
336.369	98.94
336.597	97.94
336.825	102.94
337.053	94.94
337.281	87.94
337.51	95.94
337.738	96.94
337.966	96.94
338.194	98.94
338.422	98.94
338.65	92.94
338.878	96.94
339.106	86.94
339.334	97.94
339.562	92.94
339.79	98.94
340.018	93.94
340.246	92.94
340.474	105.94
340.702	87.94
340.93	100.94
341.158	95.94
341.386	96.94
341.614	98.94
341.842	112.94
342.07	98.94
342.298	86.94
342.526	96.94
342.754	89.94
342.981	82.94
343.209	100.94
343.437	86.94
343.665	95.94
343.893	88.94
344.12	81.94
344.348	86.94
344.576	94.94
344.804	82.94
345.031	99.94
345.259	96.94
345.487	86.94
345.714	98.94
345.942	101.94
346.17	93.94
346.397	101.94
346.625	89.94
346.853	97.94
347.08	96.94
347.308	88.94
347.535	95.94
347.763	100.94
347.99	91.94
348.218	93.94
348.445	100.94
348.673	92.94
348.9	109.94
349.128	89.94
349.355	77.94
349.583	101.94
349.81	92.94
350.037	92.94
350.265	92.94
350.492	85.94
350.72	90.94
350.947	96.94
351.174	100.94
351.402	115.94
351.629	105.94
351.856	99.94
352.083	99.94
352.311	116.94
352.538	105.94
352.765	103.94
352.992	122.94
353.22	100.94
353.447	105.94
353.674	106.94
353.901	98.94
354.128	96.94
354.355	94.94
354.583	88.94
354.81	86.94
355.037	101.94
355.264	96.94
355.491	96.94
355.718	102.94
355.945	93.94
356.172	82.94
356.399	82.94
356.626	95.94
356.853	101.94
357.08	96.94
357.307	87.94
357.534	86.94
357.761	100.94
357.988	105.94
358.215	91.94
358.441	83.94
358.668	77.94
358.895	86.94
359.122	90.94
359.349	76.94
359.576	94.94
359.802	88.94
360.029	110.94
360.256	96.94
360.483	88.94
360.709	93.94
360.936	113.94
361.163	93.94
361.39	102.94
361.616	90.94
361.843	95.94
362.07	95.94
362.296	94.94
362.523	91.94
362.749	86.94
362.976	78.94
363.203	90.94
363.429	81.94
363.656	90.94
363.882	104.94
364.109	84.94
364.335	96.94
364.562	91.94
364.788	102.94
365.015	94.94
365.241	103.94
365.468	90.94
365.694	105.94
365.92	88.94
366.147	100.94
366.373	85.94
366.599	96.94
366.826	97.94
367.052	89.94
367.278	95.94
367.505	88.94
367.731	90.94
367.957	96.94
368.184	89.94
368.41	99.94
368.636	103.94
368.862	97.94
369.089	85.94
369.315	86.94
369.541	87.94
369.767	92.94
369.993	103.94
370.219	88.94
370.445	87.94
370.672	77.94
370.898	87.94
371.124	68.94
371.35	85.94
371.576	90.94
371.802	82.94
372.028	92.94
372.254	97.94
372.48	93.94
372.706	91.94
372.932	99.94
373.158	86.94
373.384	94.94
373.61	89.94
373.835	93.94
374.061	85.94
374.287	86.94
374.513	83.94
374.739	77.94
374.965	94.94
375.191	92.94
375.416	83.94
375.642	102.94
375.868	80.94
376.094	85.94
376.319	73.94
376.545	92.94
376.771	94.94
376.997	76.94
377.222	68.94
377.448	88.94
377.674	84.94
377.899	76.94
378.125	97.94
378.35	105.94
378.576	100.94
378.802	92.94
379.027	98.94
379.253	92.94
379.478	99.94
379.704	106.94
379.929	90.94
380.155	93.94
380.38	86.94
380.606	83.94
380.831	95.94
381.057	100.94
381.282	81.94
381.507	91.94
381.733	88.94
381.958	92.94
382.184	78.94
382.409	95.94
382.634	106.94
382.86	99.94
383.085	111.94
383.31	105.94
383.535	102.94
383.761	92.94
383.986	100.94
384.211	99.94
384.436	88.94
384.662	105.94
384.887	93.94
385.112	105.94
385.337	97.94
385.562	91.94
385.787	110.94
386.013	92.94
386.238	105.94
386.463	95.94
386.688	105.94
386.913	107.94
387.138	92.94
387.363	106.94
387.588	93.94
387.813	98.94
388.038	98.94
388.263	113.94
388.488	102.94
388.713	97.94
388.938	89.94
389.163	100.94
389.387	107.94
389.612	110.94
389.837	88.94
390.062	96.94
390.287	92.94
390.512	87.94
390.736	93.94
390.961	94.94
391.186	98.94
391.411	92.94
391.636	94.94
391.86	86.94
392.085	86.94
392.31	64.94
392.534	88.94
392.759	89.94
392.984	92.94
393.208	79.94
393.433	94.94
393.658	92.94
393.882	92.94
394.107	79.94
394.331	86.94
394.556	85.94
394.78	95.94
395.005	88.94
395.229	81.94
395.454	75.94
395.678	100.94
395.903	91.94
396.127	88.94
396.352	93.94
396.576	97.94
396.801	94.94
397.025	95.94
397.249	92.94
397.474	92.94
397.698	93.94
397.922	86.94
398.147	97.94
398.371	75.94
398.595	90.94
398.82	89.94
399.044	84.94
399.268	89.94
399.492	87.94
399.717	80.94
399.941	85.94
400.165	86.94
400.389	87.94
400.613	74.94
400.837	88.94
401.062	89.94
401.286	79.94
401.51	94.94
401.734	104.94
401.958	104.94
402.182	114.94
402.406	137.94
402.63	98.94
402.854	97.94
403.078	94.94
403.302	92.94
403.526	94.94
403.75	91.94
403.974	84.94
404.198	87.94
404.422	79.94
404.645	83.94
404.869	76.94
405.093	95.94
405.317	98.94
405.541	93.94
405.765	81.94
405.988	113.94
406.212	156.94
406.436	208.94
406.66	116.94
406.883	100.94
407.107	102.94
407.331	100.94
407.555	81.94
407.778	98.94
408.002	82.94
408.226	86.94
408.449	88.94
408.673	96.94
408.896	92.94
409.12	104.94
409.344	93.94
409.567	72.94
409.791	96.94
410.014	97.94
410.238	90.94
410.461	88.94
410.685	83.94
410.908	96.94
411.132	117.94
411.355	101.94
411.578	85.94
411.802	86.94
412.025	92.94
412.249	91.94
412.472	88.94
412.695	97.94
412.919	94.94
413.142	92.94
413.365	88.94
413.589	79.94
413.812	85.94
414.035	90.94
414.258	90.94
414.482	99.94
414.705	90.94
414.928	90.94
415.151	97.94
415.374	101.94
415.597	90.94
415.821	82.94
416.044	73.94
416.267	90.94
416.49	72.94
416.713	92.94
416.936	90.94
417.159	97.94
417.382	86.94
417.605	89.94
417.828	111.94
418.051	85.94
418.274	80.94
418.497	84.94
418.72	85.94
418.943	81.94
419.166	79.94
419.389	90.94
419.611	93.94
419.834	91.94
420.057	76.94
420.28	89.94
420.503	94.94
420.726	95.94
420.948	81.94
421.171	94.94
421.394	94.94
421.617	89.94
421.839	86.94
422.062	99.94
422.285	87.94
422.507	109.94
422.73	89.94
422.953	87.94
423.175	93.94
423.398	85.94
423.621	89.94
423.843	97.94
424.066	77.94
424.288	96.94
424.511	99.94
424.733	91.94
424.956	84.94
425.178	100.94
425.401	94.94
425.623	81.94
425.846	82.94
426.068	89.94
426.291	82.94
426.513	86.94
426.735	92.94
426.958	97.94
427.18	89.94
427.402	124.94
427.625	144.94
427.847	131.94
428.069	112.94
428.292	76.94
428.514	98.94
428.736	88.94
428.958	82.94
429.181	89.94
429.403	79.94
429.625	93.94
429.847	89.94
430.069	95.94
430.292	76.94
430.514	79.94
430.736	94.94
430.958	79.94
431.18	80.94
431.402	81.94
431.624	98.94
431.846	87.94
432.068	84.94
432.29	80.94
432.512	96.94
432.734	87.94
432.956	97.94
433.178	107.94
433.4	93.94
433.622	105.94
433.844	78.94
434.066	85.94
434.287	86.94
434.509	97.94
434.731	99.94
434.953	93.94
435.175	71.94
435.397	90.94
435.618	93.94
435.84	94.94
436.062	100.94
436.284	101.94
436.505	110.94
436.727	108.94
436.949	92.94
437.17	70.94
437.392	92.94
437.614	97.94
437.835	89.94
438.057	116.94
438.278	98.94
438.5	99.94
438.721	107.94
438.943	92.94
439.165	91.94
439.386	84.94
439.608	103.94
439.829	85.94
440.05	106.94
440.272	123.94
440.493	97.94
440.715	105.94
440.936	79.94
441.158	95.94
441.379	103.94
441.6	106.94
441.822	90.94
442.043	92.94
442.264	94.94
442.486	85.94
442.707	83.94
442.928	93.94
443.149	122.94
443.371	130.94
443.592	94.94
443.813	101.94
444.034	108.94
444.255	86.94
444.476	99.94
444.698	85.94
444.919	69.94
445.14	157.94
445.361	114.94
445.582	100.94
445.803	104.94
446.024	129.94
446.245	131.94
446.466	99.94
446.687	100.94
446.908	84.94
447.129	85.94
447.35	81.94
447.571	85.94
447.792	68.94
448.013	103.94
448.234	107.94
448.455	92.94
448.675	105.94
448.896	106.94
449.117	102.94
449.338	98.94
449.559	115.94
449.779	108.94
450	84.94
450.221	78.94
450.442	95.94
450.662	101.94
450.883	100.94
451.104	111.94
451.324	80.94
451.545	92.94
451.766	94.94
451.986	95.94
452.207	91.94
452.428	97.94
452.648	88.94
452.869	105.94
453.089	110.94
453.31	110.94
453.53	99.94
453.751	88.94
453.971	106.94
454.192	97.94
454.412	91.94
454.633	85.94
454.853	104.94
455.073	95.94
455.294	90.94
455.514	94.94
455.734	91.94
455.955	90.94
456.175	92.94
456.395	78.94
456.616	85.94
456.836	84.94
457.056	95.94
457.276	78.94
457.497	89.94
457.717	89.94
457.937	85.94
458.157	101.94
458.377	96.94
458.598	94.94
458.818	137.94
459.038	148.94
459.258	118.94
459.478	92.94
459.698	81.94
459.918	90.94
460.138	92.94
460.358	80.94
460.578	74.94
460.798	76.94
461.018	80.94
461.238	90.94
461.458	87.94
461.678	86.94
461.898	82.94
462.118	85.94
462.338	98.94
462.558	92.94
462.777	88.94
462.997	89.94
463.217	78.94
463.437	82.94
463.657	89.94
463.876	85.94
464.096	92.94
464.316	85.94
464.536	81.94
464.755	92.94
464.975	103.94
465.195	156.94
465.414	150.94
465.634	96.94
465.854	86.94
466.073	90.94
466.293	96.94
466.512	98.94
466.732	90.94
466.951	99.94
467.171	88.94
467.391	79.94
467.61	95.94
467.829	93.94
468.049	118.94
468.268	158.94
468.488	101.94
468.707	105.94
468.927	87.94
469.146	86.94
469.365	78.94
469.585	86.94
469.804	93.94
470.023	96.94
470.243	80.94
470.462	105.94
470.681	120.94
470.901	102.94
471.12	89.94
471.339	76.94
471.558	94.94
471.777	88.94
471.997	115.94
472.216	176.94
472.435	279.94
472.654	129.94
472.873	100.94
473.092	92.94
473.311	81.94
473.53	90.94
473.749	87.94
473.968	101.94
474.187	100.94
474.406	104.94
474.625	92.94
474.844	86.94
475.063	85.94
475.282	94.94
475.501	86.94
475.72	92.94
475.939	96.94
476.158	102.94
476.377	94.94
476.596	78.94
476.814	87.94
477.033	97.94
477.252	83.94
477.471	90.94
477.69	83.94
477.908	85.94
478.127	90.94
478.346	90.94
478.564	95.94
478.783	99.94
479.002	90.94
479.22	95.94
479.439	90.94
479.658	98.94
479.876	98.94
480.095	84.94
480.313	95.94
480.532	91.94
480.751	101.94
480.969	204.94
481.188	483.94
481.406	298.94
481.624	110.94
481.843	90.94
482.061	103.94
482.28	70.94
482.498	96.94
482.717	93.94
482.935	100.94
483.153	101.94
483.372	89.94
483.59	89.94
483.808	94.94
484.027	90.94
484.245	85.94
484.463	101.94
484.681	89.94
484.9	100.94
485.118	94.94
485.336	114.94
485.554	94.94
485.772	90.94
485.99	103.94
486.209	92.94
486.427	98.94
486.645	99.94
486.863	93.94
487.081	101.94
487.299	100.94
487.517	90.94
487.735	96.94
487.953	92.94
488.171	102.94
488.389	106.94
488.607	110.94
488.825	95.94
489.043	87.94
489.261	89.94
489.479	87.94
489.696	89.94
489.914	90.94
490.132	87.94
490.35	84.94
490.568	79.94
490.786	102.94
491.003	102.94
491.221	82.94
491.439	88.94
491.657	94.94
491.874	107.94
492.092	86.94
492.31	103.94
492.527	86.94
492.745	90.94
492.963	96.94
493.18	99.94
493.398	92.94
493.615	95.94
493.833	91.94
494.05	104.94
494.268	86.94
494.485	84.94
494.703	98.94
494.92	82.94
495.138	88.94
495.355	81.94
495.573	84.94
495.79	85.94
496.008	75.94
496.225	92.94
496.442	80.94
496.66	90.94
496.877	96.94
497.094	87.94
497.312	89.94
497.529	83.94
497.746	73.94
497.963	90.94
498.181	88.94
498.398	100.94
498.615	99.94
498.832	105.94
499.049	95.94
499.267	93.94
499.484	99.94
499.701	77.94
499.918	88.94
500.135	78.94
500.352	94.94
500.569	94.94
500.786	96.94
501.003	92.94
501.22	92.94
501.437	98.94
501.654	77.94
501.871	99.94
502.088	86.94
502.305	98.94
502.522	84.94
502.739	95.94
502.956	90.94
503.172	84.94
503.389	96.94
503.606	110.94
503.823	103.94
504.04	94.94
504.256	93.94
504.473	101.94
504.69	93.94
504.907	91.94
505.123	85.94
505.34	91.94
505.557	73.94
505.773	80.94
505.99	80.94
506.207	88.94
506.423	90.94
506.64	97.94
506.856	90.94
507.073	76.94
507.289	91.94
507.506	97.94
507.722	99.94
507.939	108.94
508.155	86.94
508.372	87.94
508.588	106.94
508.805	95.94
509.021	100.94
509.238	106.94
509.454	99.94
509.67	97.94
509.887	93.94
510.103	124.94
510.319	189.94
510.536	637.94
510.752	1922.94
510.968	529.94
511.184	142.94
511.401	101.94
511.617	89.94
511.833	70.94
512.049	98.94
512.265	105.94
512.481	90.94
512.698	85.94
512.914	95.94
513.13	96.94
513.346	76.94
513.562	95.94
513.778	111.94
513.994	95.94
514.21	103.94
514.426	116.94
514.642	135.94
514.858	118.94
515.074	143.94
515.29	403.94
515.506	1240.94
515.721	446.94
515.937	130.94
