Data from Uncirc_1989_H10_HRD10591_00089.txt Node
Date: Wed Jan 03 11:57:53 EST 2024
User: Yrep
Spectrometer: HR+D1059
Trigger mode: 1
Integration Time (sec): 1.000000E-1
Scans to average: 1
Electric dark correction enabled: true
Nonlinearity correction enabled: false
Boxcar width: 0
XAxis mode: Wavelengths
Number of Pixels in Spectrum: 2048
>>>>>Begin Spectral Data<<<<<
223.165	-26.56
223.4	-26.56
223.635	-26.56
223.869	-19.56
224.104	-24.56
224.338	-13.56
224.573	-5.56
224.808	-15.56
225.042	-20.56
225.277	-7.56
225.511	-7.56
225.746	0.44
225.98	7.44
226.215	9.44
226.449	30.44
226.683	23.44
226.918	30.44
227.152	39.44
227.387	40.44
227.621	36.44
227.856	45.44
228.09	39.44
228.324	56.44
228.559	63.44
228.793	58.44
229.027	54.44
229.262	66.44
229.496	72.44
229.73	86.44
229.964	81.44
230.199	73.44
230.433	79.44
230.667	74.44
230.901	69.44
231.136	82.44
231.37	77.44
231.604	65.44
231.838	65.44
232.072	88.44
232.306	78.44
232.541	71.44
232.775	74.44
233.009	73.44
233.243	69.44
233.477	72.44
233.711	79.44
233.945	73.44
234.179	82.44
234.413	89.44
234.647	95.44
234.881	67.44
235.115	83.44
235.349	55.44
235.583	79.44
235.817	79.44
236.051	85.44
236.285	78.44
236.519	74.44
236.753	77.44
236.987	77.44
237.221	87.44
237.455	68.44
237.689	83.44
237.922	77.44
238.156	71.44
238.39	75.44
238.624	88.44
238.858	77.44
239.091	74.44
239.325	79.44
239.559	63.44
239.793	83.44
240.027	81.44
240.26	84.44
240.494	73.44
240.728	63.44
240.961	80.44
241.195	100.44
241.429	79.44
241.662	83.44
241.896	91.44
242.13	85.44
242.363	75.44
242.597	78.44
242.83	83.44
243.064	87.44
243.298	88.44
243.531	80.44
243.765	79.44
243.998	82.44
244.232	79.44
244.465	97.44
244.699	84.44
244.932	79.44
245.166	68.44
245.399	74.44
245.633	68.44
245.866	77.44
246.099	81.44
246.333	86.44
246.566	76.44
246.8	96.44
247.033	81.44
247.266	69.44
247.5	79.44
247.733	82.44
247.966	84.44
248.2	77.44
248.433	74.44
248.666	89.44
248.899	77.44
249.133	80.44
249.366	95.44
249.599	104.44
249.832	93.44
250.066	93.44
250.299	78.44
250.532	72.44
250.765	78.44
250.998	70.44
251.231	78.44
251.465	69.44
251.698	85.44
251.931	79.44
252.164	80.44
252.397	79.44
252.63	85.44
252.863	82.44
253.096	93.44
253.329	72.44
253.562	81.44
253.795	86.44
254.028	70.44
254.261	95.44
254.494	87.44
254.727	71.44
254.96	96.44
255.193	75.44
255.426	89.44
255.659	85.44
255.892	86.44
256.124	99.44
256.357	87.44
256.59	97.44
256.823	82.44
257.056	80.44
257.289	86.44
257.521	71.44
257.754	79.44
257.987	86.44
258.22	80.44
258.452	81.44
258.685	94.44
258.918	85.44
259.151	86.44
259.383	89.44
259.616	79.44
259.849	84.44
260.081	82.44
260.314	77.44
260.547	65.44
260.779	89.44
261.012	77.44
261.244	80.44
261.477	95.44
261.71	106.44
261.942	107.44
262.175	107.44
262.407	98.44
262.64	79.44
262.872	85.44
263.105	96.44
263.337	88.44
263.57	78.44
263.802	86.44
264.035	82.44
264.267	77.44
264.499	79.44
264.732	86.44
264.964	80.44
265.197	94.44
265.429	67.44
265.661	70.44
265.894	84.44
266.126	75.44
266.358	71.44
266.591	82.44
266.823	90.44
267.055	100.44
267.287	81.44
267.52	70.44
267.752	84.44
267.984	91.44
268.216	65.44
268.448	86.44
268.681	79.44
268.913	89.44
269.145	73.44
269.377	82.44
269.609	84.44
269.841	89.44
270.073	89.44
270.306	93.44
270.538	82.44
270.77	84.44
271.002	77.44
271.234	81.44
271.466	85.44
271.698	83.44
271.93	85.44
272.162	98.44
272.394	81.44
272.626	88.44
272.858	102.44
273.09	84.44
273.322	78.44
273.553	65.44
273.785	93.44
274.017	78.44
274.249	89.44
274.481	85.44
274.713	80.44
274.945	88.44
275.176	89.44
275.408	91.44
275.64	99.44
275.872	82.44
276.104	98.44
276.335	105.44
276.567	106.44
276.799	96.44
277.031	79.44
277.262	96.44
277.494	88.44
277.726	96.44
277.957	83.44
278.189	98.44
278.421	77.44
278.652	92.44
278.884	89.44
279.115	90.44
279.347	93.44
279.579	87.44
279.81	90.44
280.042	87.44
280.273	101.44
280.505	89.44
280.736	90.44
280.968	93.44
281.199	78.44
281.431	92.44
281.662	84.44
281.894	83.44
282.125	101.44
282.356	94.44
282.588	130.44
282.819	101.44
283.051	70.44
283.282	79.44
283.513	88.44
283.745	84.44
283.976	91.44
284.207	83.44
284.439	96.44
284.67	87.44
284.901	72.44
285.132	89.44
285.364	92.44
285.595	86.44
285.826	81.44
286.057	84.44
286.288	95.44
286.52	81.44
286.751	89.44
286.982	85.44
287.213	82.44
287.444	88.44
287.675	72.44
287.906	85.44
288.138	93.44
288.369	90.44
288.6	72.44
288.831	95.44
289.062	98.44
289.293	84.44
289.524	96.44
289.755	96.44
289.986	89.44
290.217	80.44
290.448	90.44
290.679	80.44
290.91	98.44
291.141	88.44
291.371	81.44
291.602	85.44
291.833	88.44
292.064	83.44
292.295	88.44
292.526	77.44
292.757	77.44
292.987	86.44
293.218	103.44
293.449	85.44
293.68	89.44
293.91	88.44
294.141	86.44
294.372	95.44
294.603	93.44
294.833	87.44
295.064	98.44
295.295	87.44
295.525	87.44
295.756	103.44
295.987	107.44
296.217	115.44
296.448	117.44
296.679	103.44
296.909	77.44
297.14	82.44
297.37	88.44
297.601	82.44
297.831	81.44
298.062	86.44
298.292	91.44
298.523	82.44
298.753	82.44
298.984	91.44
299.214	87.44
299.445	90.44
299.675	96.44
299.905	101.44
300.136	88.44
300.366	87.44
300.597	89.44
300.827	92.44
301.057	106.44
301.288	74.44
301.518	87.44
301.748	87.44
301.979	95.44
302.209	104.44
302.439	96.44
302.669	95.44
302.9	77.44
303.13	67.44
303.36	101.44
303.59	88.44
303.82	108.44
304.051	82.44
304.281	93.44
304.511	96.44
304.741	95.44
304.971	91.44
305.201	90.44
305.431	86.44
305.661	93.44
305.891	94.44
306.121	95.44
306.352	114.44
306.582	93.44
306.812	96.44
307.042	96.44
307.272	97.44
307.502	107.44
307.731	102.44
307.961	90.44
308.191	90.44
308.421	86.44
308.651	105.44
308.881	80.44
309.111	93.44
309.341	93.44
309.571	100.44
309.8	84.44
310.03	96.44
310.26	90.44
310.49	101.44
310.72	94.44
310.949	95.44
311.179	114.44
311.409	95.44
311.639	85.44
311.868	86.44
312.098	116.44
312.328	103.44
312.557	94.44
312.787	107.44
313.017	88.44
313.246	93.44
313.476	90.44
313.706	87.44
313.935	80.44
314.165	99.44
314.394	90.44
314.624	94.44
314.853	94.44
315.083	97.44
315.312	94.44
315.542	101.44
315.771	95.44
316.001	91.44
316.23	105.44
316.46	90.44
316.689	94.44
316.919	83.44
317.148	105.44
317.377	103.44
317.607	94.44
317.836	114.44
318.065	94.44
318.295	85.44
318.524	99.44
318.753	91.44
318.983	89.44
319.212	89.44
319.441	106.44
319.67	97.44
319.9	91.44
320.129	90.44
320.358	101.44
320.587	91.44
320.816	94.44
321.046	102.44
321.275	93.44
321.504	91.44
321.733	91.44
321.962	90.44
322.191	98.44
322.42	107.44
322.649	111.44
322.878	113.44
323.108	105.44
323.337	120.44
323.566	117.44
323.795	140.44
324.024	190.44
324.253	347.44
324.482	703.44
324.71	1411.44
324.939	1832.44
325.168	679.44
325.397	216.44
325.626	138.44
325.855	128.44
326.084	111.44
326.313	123.44
326.542	143.44
326.77	205.44
326.999	402.44
327.228	800.44
327.457	1431.44
327.686	1150.44
327.914	317.44
328.143	193.44
328.372	196.44
328.6	144.44
328.829	123.44
329.058	122.44
329.287	126.44
329.515	118.44
329.744	114.44
329.972	160.44
330.201	211.44
330.43	247.44
330.658	178.44
330.887	137.44
331.115	113.44
331.344	89.44
331.572	88.44
331.801	111.44
332.03	100.44
332.258	90.44
332.486	84.44
332.715	109.44
332.943	107.44
333.172	88.44
333.4	106.44
333.629	100.44
333.857	114.44
334.085	145.44
334.314	202.44
334.542	305.44
334.771	281.44
334.999	139.44
335.227	84.44
335.455	92.44
335.684	97.44
335.912	97.44
336.14	106.44
336.369	91.44
336.597	96.44
336.825	90.44
337.053	91.44
337.281	106.44
337.51	77.44
337.738	90.44
337.966	86.44
338.194	85.44
338.422	91.44
338.65	101.44
338.878	106.44
339.106	103.44
339.334	99.44
339.562	90.44
339.79	95.44
340.018	91.44
340.246	90.44
340.474	95.44
340.702	96.44
340.93	103.44
341.158	86.44
341.386	86.44
341.614	89.44
341.842	103.44
342.07	98.44
342.298	73.44
342.526	78.44
342.754	86.44
342.981	87.44
343.209	95.44
343.437	106.44
343.665	66.44
343.893	93.44
344.12	96.44
344.348	93.44
344.576	94.44
344.804	90.44
345.031	96.44
345.259	89.44
345.487	95.44
345.714	88.44
345.942	88.44
346.17	90.44
346.397	93.44
346.625	101.44
346.853	91.44
347.08	79.44
347.308	95.44
347.535	97.44
347.763	107.44
347.99	96.44
348.218	94.44
348.445	93.44
348.673	115.44
348.9	109.44
349.128	106.44
349.355	90.44
349.583	97.44
349.81	89.44
350.037	100.44
350.265	121.44
350.492	95.44
350.72	97.44
350.947	95.44
351.174	105.44
351.402	102.44
351.629	105.44
351.856	97.44
352.083	88.44
352.311	99.44
352.538	111.44
352.765	102.44
352.992	107.44
353.22	103.44
353.447	94.44
353.674	94.44
353.901	102.44
354.128	88.44
354.355	99.44
354.583	93.44
354.81	112.44
355.037	102.44
355.264	95.44
355.491	81.44
355.718	97.44
355.945	96.44
356.172	103.44
356.399	90.44
356.626	91.44
356.853	74.44
357.08	92.44
357.307	83.44
357.534	87.44
357.761	88.44
357.988	98.44
358.215	86.44
358.441	95.44
358.668	91.44
358.895	115.44
359.122	83.44
359.349	89.44
359.576	82.44
359.802	97.44
360.029	102.44
360.256	105.44
360.483	97.44
360.709	101.44
360.936	93.44
361.163	94.44
361.39	110.44
361.616	101.44
361.843	98.44
362.07	97.44
362.296	106.44
362.523	87.44
362.749	86.44
362.976	94.44
363.203	103.44
363.429	94.44
363.656	95.44
363.882	89.44
364.109	83.44
364.335	92.44
364.562	82.44
364.788	86.44
365.015	86.44
365.241	82.44
365.468	110.44
365.694	108.44
365.92	90.44
366.147	84.44
366.373	90.44
366.599	99.44
366.826	93.44
367.052	101.44
367.278	83.44
367.505	94.44
367.731	86.44
367.957	94.44
368.184	90.44
368.41	97.44
368.636	113.44
368.862	117.44
369.089	101.44
369.315	88.44
369.541	93.44
369.767	93.44
369.993	105.44
370.219	93.44
370.445	97.44
370.672	102.44
370.898	98.44
371.124	105.44
371.35	99.44
371.576	82.44
371.802	93.44
372.028	82.44
372.254	85.44
372.48	104.44
372.706	85.44
372.932	85.44
373.158	96.44
373.384	68.44
373.61	84.44
373.835	92.44
374.061	85.44
374.287	94.44
374.513	85.44
374.739	93.44
374.965	92.44
375.191	81.44
375.416	84.44
375.642	97.44
375.868	98.44
376.094	105.44
376.319	96.44
376.545	82.44
376.771	95.44
376.997	106.44
377.222	81.44
377.448	97.44
377.674	94.44
377.899	98.44
378.125	78.44
378.35	86.44
378.576	96.44
378.802	88.44
379.027	91.44
379.253	95.44
379.478	99.44
379.704	97.44
379.929	91.44
380.155	106.44
380.38	92.44
380.606	92.44
380.831	90.44
381.057	83.44
381.282	101.44
381.507	93.44
381.733	84.44
381.958	99.44
382.184	95.44
382.409	90.44
382.634	101.44
382.86	93.44
383.085	106.44
383.31	100.44
383.535	105.44
383.761	104.44
383.986	102.44
384.211	96.44
384.436	88.44
384.662	106.44
384.887	95.44
385.112	86.44
385.337	105.44
385.562	100.44
385.787	107.44
386.013	120.44
386.238	104.44
386.463	104.44
386.688	107.44
386.913	106.44
387.138	82.44
387.363	104.44
387.588	85.44
387.813	96.44
388.038	112.44
388.263	100.44
388.488	117.44
388.713	82.44
388.938	83.44
389.163	108.44
389.387	101.44
389.612	104.44
389.837	86.44
390.062	85.44
390.287	104.44
390.512	90.44
390.736	78.44
390.961	86.44
391.186	86.44
391.411	101.44
391.636	99.44
391.86	103.44
392.085	84.44
392.31	99.44
392.534	88.44
392.759	95.44
392.984	95.44
393.208	95.44
393.433	87.44
393.658	101.44
393.882	96.44
394.107	91.44
394.331	79.44
394.556	96.44
394.78	96.44
395.005	97.44
395.229	78.44
395.454	76.44
395.678	81.44
395.903	99.44
396.127	92.44
396.352	79.44
396.576	84.44
396.801	85.44
397.025	90.44
397.249	87.44
397.474	94.44
397.698	99.44
397.922	92.44
398.147	81.44
398.371	87.44
398.595	103.44
398.82	99.44
399.044	95.44
399.268	66.44
399.492	113.44
399.717	99.44
399.941	86.44
400.165	71.44
400.389	85.44
400.613	89.44
400.837	98.44
401.062	96.44
401.286	88.44
401.51	94.44
401.734	84.44
401.958	103.44
402.182	110.44
402.406	134.44
402.63	104.44
402.854	85.44
403.078	98.44
403.302	85.44
403.526	79.44
403.75	96.44
403.974	93.44
404.198	81.44
404.422	97.44
404.645	87.44
404.869	88.44
405.093	99.44
405.317	107.44
405.541	101.44
405.765	104.44
405.988	111.44
406.212	145.44
406.436	171.44
406.66	116.44
406.883	83.44
407.107	80.44
407.331	89.44
407.555	99.44
407.778	93.44
408.002	73.44
408.226	81.44
408.449	99.44
408.673	94.44
408.896	93.44
409.12	95.44
409.344	97.44
409.567	88.44
409.791	97.44
410.014	107.44
410.238	100.44
410.461	103.44
410.685	105.44
410.908	96.44
411.132	101.44
411.355	95.44
411.578	80.44
411.802	79.44
412.025	98.44
412.249	98.44
412.472	96.44
412.695	101.44
412.919	93.44
413.142	86.44
413.365	96.44
413.589	103.44
413.812	90.44
414.035	101.44
414.258	79.44
414.482	84.44
414.705	97.44
414.928	84.44
415.151	97.44
415.374	79.44
415.597	84.44
415.821	89.44
416.044	89.44
416.267	87.44
416.49	88.44
416.713	94.44
416.936	101.44
417.159	97.44
417.382	85.44
417.605	107.44
417.828	90.44
418.051	103.44
418.274	82.44
418.497	94.44
418.72	83.44
418.943	79.44
419.166	96.44
419.389	93.44
419.611	87.44
419.834	90.44
420.057	94.44
420.28	85.44
420.503	88.44
420.726	90.44
420.948	105.44
421.171	93.44
421.394	79.44
421.617	91.44
421.839	84.44
422.062	80.44
422.285	101.44
422.507	90.44
422.73	84.44
422.953	83.44
423.175	89.44
423.398	91.44
423.621	78.44
423.843	81.44
424.066	88.44
424.288	90.44
424.511	90.44
424.733	104.44
424.956	104.44
425.178	87.44
425.401	96.44
425.623	104.44
425.846	83.44
426.068	97.44
426.291	96.44
426.513	81.44
426.735	90.44
426.958	79.44
427.18	101.44
427.402	124.44
427.625	144.44
427.847	118.44
428.069	138.44
428.292	100.44
428.514	92.44
428.736	81.44
428.958	91.44
429.181	86.44
429.403	81.44
429.625	92.44
429.847	79.44
430.069	104.44
430.292	76.44
430.514	80.44
430.736	80.44
430.958	91.44
431.18	81.44
431.402	79.44
431.624	82.44
431.846	75.44
432.068	62.44
432.29	77.44
432.512	93.44
432.734	85.44
432.956	85.44
433.178	80.44
433.4	90.44
433.622	89.44
433.844	91.44
434.066	94.44
434.287	98.44
434.509	90.44
434.731	91.44
434.953	93.44
435.175	92.44
435.397	89.44
435.618	92.44
435.84	101.44
436.062	105.44
436.284	101.44
436.505	82.44
436.727	85.44
436.949	93.44
437.17	92.44
437.392	82.44
437.614	91.44
437.835	91.44
438.057	111.44
438.278	90.44
438.5	105.44
438.721	101.44
438.943	90.44
439.165	99.44
439.386	82.44
439.608	84.44
439.829	108.44
440.05	112.44
440.272	137.44
440.493	103.44
440.715	89.44
440.936	98.44
441.158	91.44
441.379	93.44
441.6	88.44
441.822	89.44
442.043	87.44
442.264	113.44
442.486	98.44
442.707	90.44
442.928	118.44
443.149	118.44
443.371	117.44
443.592	102.44
443.813	101.44
444.034	95.44
444.255	91.44
444.476	85.44
444.698	96.44
444.919	80.44
445.14	146.44
445.361	122.44
445.582	126.44
445.803	101.44
446.024	125.44
446.245	112.44
446.466	95.44
446.687	90.44
446.908	85.44
447.129	105.44
447.35	83.44
447.571	103.44
447.792	91.44
448.013	97.44
448.234	113.44
448.455	104.44
448.675	106.44
448.896	118.44
449.117	110.44
449.338	96.44
449.559	107.44
449.779	107.44
450	92.44
450.221	93.44
450.442	82.44
450.662	83.44
450.883	113.44
451.104	92.44
451.324	93.44
451.545	86.44
451.766	95.44
451.986	99.44
452.207	93.44
452.428	101.44
452.648	86.44
452.869	104.44
453.089	103.44
453.31	113.44
453.53	87.44
453.751	97.44
453.971	88.44
454.192	106.44
454.412	96.44
454.633	95.44
454.853	91.44
455.073	92.44
455.294	99.44
455.514	86.44
455.734	87.44
455.955	99.44
456.175	81.44
456.395	96.44
456.616	103.44
456.836	83.44
457.056	93.44
457.276	90.44
457.497	87.44
457.717	83.44
457.937	89.44
458.157	86.44
458.377	92.44
458.598	97.44
458.818	119.44
459.038	141.44
459.258	88.44
459.478	69.44
459.698	91.44
459.918	93.44
460.138	92.44
460.358	87.44
460.578	89.44
460.798	93.44
461.018	91.44
461.238	88.44
461.458	85.44
461.678	94.44
461.898	95.44
462.118	82.44
462.338	89.44
462.558	86.44
462.777	73.44
462.997	77.44
463.217	97.44
463.437	94.44
463.657	95.44
463.876	92.44
464.096	97.44
464.316	81.44
464.536	90.44
464.755	82.44
464.975	96.44
465.195	147.44
465.414	128.44
465.634	79.44
465.854	89.44
466.073	99.44
466.293	101.44
466.512	92.44
466.732	84.44
466.951	89.44
467.171	89.44
467.391	104.44
467.61	104.44
467.829	102.44
468.049	134.44
468.268	169.44
468.488	99.44
468.707	101.44
468.927	88.44
469.146	79.44
469.365	82.44
469.585	93.44
469.804	94.44
470.023	102.44
470.243	101.44
470.462	103.44
470.681	103.44
470.901	102.44
471.12	84.44
471.339	86.44
471.558	92.44
471.777	79.44
471.997	116.44
472.216	232.44
472.435	387.44
472.654	147.44
472.873	98.44
473.092	110.44
473.311	86.44
473.53	83.44
473.749	101.44
473.968	105.44
474.187	91.44
474.406	92.44
474.625	81.44
474.844	87.44
475.063	77.44
475.282	90.44
475.501	77.44
475.72	89.44
475.939	85.44
476.158	88.44
476.377	97.44
476.596	101.44
476.814	86.44
477.033	83.44
477.252	86.44
477.471	89.44
477.69	106.44
477.908	91.44
478.127	96.44
478.346	91.44
478.564	97.44
478.783	83.44
479.002	82.44
479.22	88.44
479.439	93.44
479.658	107.44
479.876	107.44
480.095	95.44
480.313	100.44
480.532	96.44
480.751	105.44
480.969	226.44
481.188	689.44
481.406	415.44
481.624	138.44
481.843	89.44
482.061	102.44
482.28	95.44
482.498	81.44
482.717	87.44
482.935	85.44
483.153	86.44
483.372	95.44
483.59	82.44
483.808	99.44
484.027	79.44
484.245	90.44
484.463	97.44
484.681	96.44
484.9	96.44
485.118	101.44
485.336	103.44
485.554	83.44
485.772	93.44
485.99	103.44
486.209	99.44
486.427	114.44
486.645	101.44
486.863	101.44
487.081	119.44
487.299	93.44
487.517	102.44
487.735	89.44
487.953	99.44
488.171	99.44
488.389	92.44
488.607	111.44
488.825	99.44
489.043	93.44
489.261	104.44
489.479	90.44
489.696	92.44
489.914	86.44
490.132	101.44
490.35	102.44
490.568	86.44
490.786	95.44
491.003	90.44
491.221	91.44
491.439	82.44
491.657	107.44
491.874	98.44
492.092	75.44
492.31	91.44
492.527	96.44
492.745	96.44
492.963	107.44
493.18	90.44
493.398	91.44
493.615	109.44
493.833	97.44
494.05	97.44
494.268	102.44
494.485	86.44
494.703	88.44
494.92	91.44
495.138	87.44
495.355	83.44
495.573	90.44
495.79	91.44
496.008	91.44
496.225	85.44
496.442	88.44
496.66	95.44
496.877	89.44
497.094	102.44
497.312	89.44
497.529	95.44
497.746	106.44
497.963	88.44
498.181	89.44
498.398	96.44
498.615	97.44
498.832	88.44
499.049	104.44
499.267	109.44
499.484	87.44
499.701	99.44
499.918	85.44
500.135	87.44
500.352	97.44
500.569	101.44
500.786	92.44
501.003	93.44
501.22	80.44
501.437	95.44
501.654	85.44
501.871	99.44
502.088	98.44
502.305	103.44
502.522	91.44
502.739	93.44
502.956	77.44
503.172	94.44
503.389	107.44
503.606	125.44
503.823	107.44
504.04	105.44
504.256	93.44
504.473	86.44
504.69	85.44
504.907	95.44
505.123	71.44
505.34	89.44
505.557	82.44
505.773	93.44
505.99	95.44
506.207	94.44
506.423	95.44
506.64	89.44
506.856	100.44
507.073	92.44
507.289	101.44
507.506	93.44
507.722	93.44
507.939	99.44
508.155	84.44
508.372	87.44
508.588	96.44
508.805	101.44
509.021	91.44
509.238	88.44
509.454	93.44
509.67	98.44
509.887	95.44
510.103	118.44
510.319	175.44
510.536	577.44
510.752	1720.44
510.968	485.44
511.184	130.44
511.401	107.44
511.617	106.44
511.833	99.44
512.049	97.44
512.265	83.44
512.481	88.44
512.698	90.44
512.914	99.44
513.13	94.44
513.346	92.44
513.562	102.44
513.778	101.44
513.994	89.44
514.21	97.44
514.426	98.44
514.642	123.44
514.858	115.44
515.074	120.44
515.29	328.44
515.506	1059.44
