Data from Uncirc_1989_H10_HRD10591_00069.txt Node
Date: Wed Jan 03 11:57:49 EST 2024
User: Yrep
Spectrometer: HR+D1059
Trigger mode: 1
Integration Time (sec): 1.000000E-1
Scans to average: 1
Electric dark correction enabled: true
Nonlinearity correction enabled: false
Boxcar width: 0
XAxis mode: Wavelengths
Number of Pixels in Spectrum: 2048
>>>>>Begin Spectral Data<<<<<
223.165	-17.38
223.4	-17.38
223.635	-17.38
223.869	-17.38
224.104	-13.38
224.338	-17.38
224.573	-23.38
224.808	-15.38
225.042	-2.38
225.277	-6.38
225.511	2.62
225.746	17.62
225.98	-13.38
226.215	9.62
226.449	-2.38
226.683	30.62
226.918	30.62
227.152	37.62
227.387	51.62
227.621	49.62
227.856	47.62
228.09	50.62
228.324	57.62
228.559	56.62
228.793	56.62
229.027	56.62
229.262	84.62
229.496	70.62
229.73	82.62
229.964	85.62
230.199	74.62
230.433	68.62
230.667	83.62
230.901	95.62
231.136	90.62
231.37	83.62
231.604	85.62
231.838	85.62
232.072	87.62
232.306	97.62
232.541	72.62
232.775	91.62
233.009	70.62
233.243	82.62
233.477	93.62
233.711	105.62
233.945	80.62
234.179	88.62
234.413	73.62
234.647	78.62
234.881	81.62
235.115	70.62
235.349	82.62
235.583	89.62
235.817	89.62
236.051	75.62
236.285	87.62
236.519	70.62
236.753	72.62
236.987	79.62
237.221	90.62
237.455	93.62
237.689	87.62
237.922	77.62
238.156	89.62
238.39	75.62
238.624	63.62
238.858	79.62
239.091	93.62
239.325	69.62
239.559	71.62
239.793	82.62
240.027	71.62
240.26	86.62
240.494	75.62
240.728	77.62
240.961	64.62
241.195	79.62
241.429	85.62
241.662	83.62
241.896	74.62
242.13	73.62
242.363	71.62
242.597	70.62
242.83	82.62
243.064	78.62
243.298	78.62
243.531	79.62
243.765	70.62
243.998	77.62
244.232	81.62
244.465	95.62
244.699	78.62
244.932	66.62
245.166	73.62
245.399	75.62
245.633	85.62
245.866	85.62
246.099	72.62
246.333	87.62
246.566	85.62
246.8	77.62
247.033	90.62
247.266	67.62
247.5	84.62
247.733	77.62
247.966	74.62
248.2	81.62
248.433	69.62
248.666	82.62
248.899	85.62
249.133	81.62
249.366	87.62
249.599	90.62
249.832	101.62
250.066	89.62
250.299	82.62
250.532	83.62
250.765	79.62
250.998	69.62
251.231	75.62
251.465	80.62
251.698	77.62
251.931	83.62
252.164	72.62
252.397	81.62
252.63	73.62
252.863	79.62
253.096	73.62
253.329	89.62
253.562	86.62
253.795	85.62
254.028	85.62
254.261	73.62
254.494	83.62
254.727	86.62
254.96	80.62
255.193	70.62
255.426	83.62
255.659	67.62
255.892	92.62
256.124	73.62
256.357	93.62
256.59	91.62
256.823	86.62
257.056	90.62
257.289	84.62
257.521	77.62
257.754	100.62
257.987	85.62
258.22	89.62
258.452	71.62
258.685	83.62
258.918	88.62
259.151	83.62
259.383	77.62
259.616	83.62
259.849	98.62
260.081	93.62
260.314	95.62
260.547	89.62
260.779	73.62
261.012	82.62
261.244	90.62
261.477	86.62
261.71	86.62
261.942	97.62
262.175	103.62
262.407	91.62
262.64	78.62
262.872	85.62
263.105	83.62
263.337	85.62
263.57	89.62
263.802	91.62
264.035	86.62
264.267	83.62
264.499	95.62
264.732	83.62
264.964	85.62
265.197	79.62
265.429	98.62
265.661	94.62
265.894	88.62
266.126	87.62
266.358	94.62
266.591	83.62
266.823	85.62
267.055	80.62
267.287	81.62
267.52	89.62
267.752	88.62
267.984	77.62
268.216	87.62
268.448	83.62
268.681	84.62
268.913	85.62
269.145	89.62
269.377	73.62
269.609	90.62
269.841	79.62
270.073	92.62
270.306	77.62
270.538	102.62
270.77	85.62
271.002	93.62
271.234	93.62
271.466	94.62
271.698	90.62
271.93	98.62
272.162	89.62
272.394	87.62
272.626	87.62
272.858	78.62
273.09	92.62
273.322	93.62
273.553	77.62
273.785	84.62
274.017	83.62
274.249	85.62
274.481	87.62
274.713	91.62
274.945	94.62
275.176	84.62
275.408	85.62
275.64	100.62
275.872	97.62
276.104	89.62
276.335	78.62
276.567	84.62
276.799	102.62
277.031	103.62
277.262	88.62
277.494	93.62
277.726	77.62
277.957	82.62
278.189	75.62
278.421	84.62
278.652	98.62
278.884	87.62
279.115	101.62
279.347	86.62
279.579	83.62
279.81	93.62
280.042	100.62
280.273	100.62
280.505	83.62
280.736	85.62
280.968	82.62
281.199	82.62
281.431	88.62
281.662	97.62
281.894	82.62
282.125	92.62
282.356	106.62
282.588	123.62
282.819	95.62
283.051	85.62
283.282	91.62
283.513	95.62
283.745	102.62
283.976	98.62
284.207	85.62
284.439	80.62
284.67	87.62
284.901	87.62
285.132	84.62
285.364	81.62
285.595	95.62
285.826	82.62
286.057	91.62
286.288	93.62
286.52	98.62
286.751	86.62
286.982	69.62
287.213	81.62
287.444	95.62
287.675	89.62
287.906	106.62
288.138	95.62
288.369	100.62
288.6	90.62
288.831	68.62
289.062	93.62
289.293	97.62
289.524	98.62
289.755	91.62
289.986	80.62
290.217	87.62
290.448	85.62
290.679	90.62
290.91	87.62
291.141	81.62
291.371	83.62
291.602	85.62
291.833	74.62
292.064	81.62
292.295	69.62
292.526	79.62
292.757	83.62
292.987	81.62
293.218	75.62
293.449	85.62
293.68	97.62
293.91	88.62
294.141	96.62
294.372	85.62
294.603	94.62
294.833	88.62
295.064	91.62
295.295	96.62
295.525	75.62
295.756	89.62
295.987	121.62
296.217	138.62
296.448	114.62
296.679	93.62
296.909	95.62
297.14	91.62
297.37	83.62
297.601	82.62
297.831	66.62
298.062	75.62
298.292	90.62
298.523	83.62
298.753	89.62
298.984	89.62
299.214	92.62
299.445	96.62
299.675	103.62
299.905	86.62
300.136	100.62
300.366	86.62
300.597	88.62
300.827	90.62
301.057	103.62
301.288	111.62
301.518	96.62
301.748	94.62
301.979	101.62
302.209	90.62
302.439	80.62
302.669	81.62
302.9	74.62
303.13	83.62
303.36	108.62
303.59	106.62
303.82	83.62
304.051	99.62
304.281	91.62
304.511	86.62
304.741	83.62
304.971	94.62
305.201	92.62
305.431	84.62
305.661	92.62
305.891	90.62
306.121	90.62
306.352	106.62
306.582	101.62
306.812	93.62
307.042	97.62
307.272	92.62
307.502	111.62
307.731	99.62
307.961	94.62
308.191	81.62
308.421	100.62
308.651	84.62
308.881	95.62
309.111	95.62
309.341	98.62
309.571	86.62
309.8	106.62
310.03	90.62
310.26	87.62
310.49	100.62
310.72	101.62
310.949	94.62
311.179	90.62
311.409	95.62
311.639	96.62
311.868	97.62
312.098	90.62
312.328	104.62
312.557	105.62
312.787	94.62
313.017	91.62
313.246	84.62
313.476	88.62
313.706	78.62
313.935	96.62
314.165	85.62
314.394	97.62
314.624	78.62
314.853	96.62
315.083	91.62
315.312	93.62
315.542	93.62
315.771	80.62
316.001	94.62
316.23	81.62
316.46	98.62
316.689	97.62
316.919	96.62
317.148	80.62
317.377	101.62
317.607	92.62
317.836	86.62
318.065	103.62
318.295	99.62
318.524	101.62
318.753	83.62
318.983	72.62
319.212	104.62
319.441	102.62
319.67	91.62
319.9	93.62
320.129	85.62
320.358	87.62
320.587	98.62
320.816	83.62
321.046	85.62
321.275	93.62
321.504	93.62
321.733	90.62
321.962	103.62
322.191	105.62
322.42	93.62
322.649	100.62
322.878	110.62
323.108	90.62
323.337	117.62
323.566	122.62
323.795	144.62
324.024	179.62
324.253	322.62
324.482	671.62
324.71	1387.62
324.939	1832.62
325.168	663.62
325.397	212.62
325.626	150.62
325.855	129.62
326.084	109.62
326.313	115.62
326.542	149.62
326.77	209.62
326.999	407.62
327.228	803.62
327.457	1433.62
327.686	1115.62
327.914	318.62
328.143	185.62
328.372	179.62
328.6	128.62
328.829	110.62
329.058	116.62
329.287	116.62
329.515	109.62
329.744	99.62
329.972	148.62
330.201	176.62
330.43	224.62
330.658	157.62
330.887	131.62
331.115	100.62
331.344	104.62
331.572	105.62
331.801	103.62
332.03	102.62
332.258	84.62
332.486	94.62
332.715	98.62
332.943	102.62
333.172	106.62
333.4	113.62
333.629	106.62
333.857	103.62
334.085	125.62
334.314	177.62
334.542	253.62
334.771	253.62
334.999	134.62
335.227	116.62
335.455	105.62
335.684	100.62
335.912	92.62
336.14	107.62
336.369	85.62
336.597	95.62
336.825	93.62
337.053	107.62
337.281	86.62
337.51	93.62
337.738	95.62
337.966	102.62
338.194	89.62
338.422	94.62
338.65	94.62
338.878	96.62
339.106	82.62
339.334	86.62
339.562	101.62
339.79	95.62
340.018	83.62
340.246	82.62
340.474	95.62
340.702	81.62
340.93	89.62
341.158	85.62
341.386	107.62
341.614	95.62
341.842	101.62
342.07	94.62
342.298	89.62
342.526	90.62
342.754	91.62
342.981	90.62
343.209	95.62
343.437	97.62
343.665	85.62
343.893	89.62
344.12	98.62
344.348	97.62
344.576	86.62
344.804	74.62
345.031	89.62
345.259	98.62
345.487	80.62
345.714	106.62
345.942	83.62
346.17	96.62
346.397	89.62
346.625	89.62
346.853	99.62
347.08	87.62
347.308	97.62
347.535	85.62
347.763	96.62
347.99	115.62
348.218	99.62
348.445	93.62
348.673	88.62
348.9	90.62
349.128	104.62
349.355	97.62
349.583	94.62
349.81	86.62
350.037	91.62
350.265	92.62
350.492	88.62
350.72	98.62
350.947	101.62
351.174	117.62
351.402	109.62
351.629	93.62
351.856	91.62
352.083	107.62
352.311	110.62
352.538	95.62
352.765	105.62
352.992	105.62
353.22	101.62
353.447	105.62
353.674	94.62
353.901	93.62
354.128	102.62
354.355	90.62
354.583	110.62
354.81	98.62
355.037	89.62
355.264	84.62
355.491	96.62
355.718	93.62
355.945	88.62
356.172	101.62
356.399	84.62
356.626	88.62
356.853	89.62
357.08	103.62
357.307	89.62
357.534	94.62
357.761	97.62
357.988	96.62
358.215	98.62
358.441	73.62
358.668	95.62
358.895	82.62
359.122	88.62
359.349	94.62
359.576	90.62
359.802	90.62
360.029	102.62
360.256	105.62
360.483	105.62
360.709	84.62
360.936	101.62
361.163	81.62
361.39	89.62
361.616	100.62
361.843	89.62
362.07	82.62
362.296	91.62
362.523	91.62
362.749	91.62
362.976	103.62
363.203	98.62
363.429	103.62
363.656	93.62
363.882	86.62
364.109	81.62
364.335	95.62
364.562	84.62
364.788	90.62
365.015	85.62
365.241	99.62
365.468	99.62
365.694	83.62
365.92	104.62
366.147	99.62
366.373	90.62
366.599	94.62
366.826	94.62
367.052	86.62
367.278	88.62
367.505	79.62
367.731	99.62
367.957	82.62
368.184	96.62
368.41	92.62
368.636	109.62
368.862	92.62
369.089	112.62
369.315	98.62
369.541	104.62
369.767	96.62
369.993	94.62
370.219	98.62
370.445	106.62
370.672	103.62
370.898	94.62
371.124	87.62
371.35	82.62
371.576	70.62
371.802	91.62
372.028	93.62
372.254	95.62
372.48	98.62
372.706	93.62
372.932	94.62
373.158	88.62
373.384	93.62
373.61	98.62
373.835	81.62
374.061	72.62
374.287	82.62
374.513	103.62
374.739	90.62
374.965	91.62
375.191	87.62
375.416	89.62
375.642	93.62
375.868	96.62
376.094	98.62
376.319	98.62
376.545	85.62
376.771	94.62
376.997	85.62
377.222	91.62
377.448	95.62
377.674	92.62
377.899	83.62
378.125	91.62
378.35	93.62
378.576	96.62
378.802	69.62
379.027	85.62
379.253	104.62
379.478	88.62
379.704	99.62
379.929	101.62
380.155	101.62
380.38	85.62
380.606	95.62
380.831	95.62
381.057	95.62
381.282	101.62
381.507	93.62
381.733	88.62
381.958	81.62
382.184	86.62
382.409	91.62
382.634	79.62
382.86	96.62
383.085	111.62
383.31	85.62
383.535	90.62
383.761	103.62
383.986	90.62
384.211	92.62
384.436	101.62
384.662	91.62
384.887	106.62
385.112	103.62
385.337	101.62
385.562	104.62
385.787	92.62
386.013	116.62
386.238	105.62
386.463	105.62
386.688	114.62
386.913	99.62
387.138	114.62
387.363	82.62
387.588	89.62
387.813	101.62
388.038	113.62
388.263	115.62
388.488	117.62
388.713	83.62
388.938	86.62
389.163	85.62
389.387	92.62
389.612	91.62
389.837	114.62
390.062	99.62
390.287	98.62
390.512	87.62
390.736	87.62
390.961	89.62
391.186	91.62
391.411	77.62
391.636	100.62
391.86	91.62
392.085	87.62
392.31	84.62
392.534	82.62
392.759	83.62
392.984	91.62
393.208	99.62
393.433	94.62
393.658	108.62
393.882	96.62
394.107	92.62
394.331	99.62
394.556	87.62
394.78	91.62
395.005	87.62
395.229	93.62
395.454	96.62
395.678	97.62
395.903	87.62
396.127	101.62
396.352	99.62
396.576	79.62
396.801	94.62
397.025	99.62
397.249	93.62
397.474	87.62
397.698	96.62
397.922	103.62
398.147	83.62
398.371	98.62
398.595	90.62
398.82	81.62
399.044	83.62
399.268	97.62
399.492	102.62
399.717	71.62
399.941	91.62
400.165	90.62
400.389	84.62
400.613	92.62
400.837	85.62
401.062	86.62
401.286	95.62
401.51	95.62
401.734	80.62
401.958	98.62
402.182	115.62
402.406	139.62
402.63	116.62
402.854	97.62
403.078	74.62
403.302	72.62
403.526	95.62
403.75	81.62
403.974	87.62
404.198	85.62
404.422	101.62
404.645	99.62
404.869	101.62
405.093	96.62
405.317	119.62
405.541	92.62
405.765	86.62
405.988	113.62
406.212	156.62
406.436	191.62
406.66	132.62
406.883	77.62
407.107	89.62
407.331	103.62
407.555	96.62
407.778	85.62
408.002	86.62
408.226	95.62
408.449	85.62
408.673	96.62
408.896	83.62
409.12	82.62
409.344	89.62
409.567	98.62
409.791	93.62
410.014	81.62
410.238	91.62
410.461	83.62
410.685	93.62
410.908	102.62
411.132	104.62
411.355	109.62
411.578	92.62
411.802	99.62
412.025	77.62
412.249	79.62
412.472	86.62
412.695	100.62
412.919	105.62
413.142	104.62
413.365	93.62
413.589	85.62
413.812	85.62
414.035	101.62
414.258	89.62
414.482	97.62
414.705	79.62
414.928	98.62
415.151	82.62
415.374	82.62
415.597	96.62
415.821	86.62
416.044	89.62
416.267	90.62
416.49	93.62
416.713	94.62
416.936	83.62
417.159	89.62
417.382	82.62
417.605	94.62
417.828	96.62
418.051	88.62
418.274	89.62
418.497	90.62
418.72	81.62
418.943	99.62
419.166	98.62
419.389	86.62
419.611	74.62
419.834	86.62
420.057	87.62
420.28	79.62
420.503	91.62
420.726	83.62
420.948	89.62
421.171	103.62
421.394	84.62
421.617	92.62
421.839	98.62
422.062	93.62
422.285	92.62
422.507	90.62
422.73	99.62
422.953	87.62
423.175	74.62
423.398	102.62
423.621	89.62
423.843	96.62
424.066	96.62
424.288	92.62
424.511	96.62
424.733	93.62
424.956	104.62
425.178	96.62
425.401	95.62
425.623	85.62
425.846	82.62
426.068	105.62
426.291	78.62
426.513	86.62
426.735	94.62
426.958	102.62
427.18	94.62
427.402	118.62
427.625	130.62
427.847	136.62
428.069	118.62
428.292	86.62
428.514	85.62
428.736	91.62
428.958	92.62
429.181	85.62
429.403	81.62
429.625	69.62
429.847	99.62
430.069	87.62
430.292	88.62
430.514	99.62
430.736	95.62
430.958	91.62
431.18	87.62
431.402	87.62
431.624	83.62
431.846	94.62
432.068	96.62
432.29	79.62
432.512	92.62
432.734	80.62
432.956	86.62
433.178	95.62
433.4	96.62
433.622	81.62
433.844	93.62
434.066	100.62
434.287	98.62
434.509	88.62
434.731	91.62
434.953	80.62
435.175	93.62
435.397	78.62
435.618	101.62
435.84	98.62
436.062	103.62
436.284	113.62
436.505	91.62
436.727	104.62
436.949	91.62
437.17	88.62
437.392	102.62
437.614	95.62
437.835	102.62
438.057	112.62
438.278	106.62
438.5	98.62
438.721	117.62
438.943	91.62
439.165	92.62
439.386	89.62
439.608	109.62
439.829	88.62
440.05	125.62
440.272	137.62
440.493	77.62
440.715	82.62
440.936	94.62
441.158	83.62
441.379	100.62
441.6	101.62
441.822	90.62
442.043	100.62
442.264	103.62
442.486	88.62
442.707	95.62
442.928	98.62
443.149	122.62
443.371	129.62
443.592	101.62
443.813	105.62
444.034	94.62
444.255	94.62
444.476	84.62
444.698	96.62
444.919	85.62
445.14	149.62
445.361	124.62
445.582	122.62
445.803	133.62
446.024	117.62
446.245	126.62
446.466	99.62
446.687	73.62
446.908	90.62
447.129	89.62
447.35	82.62
447.571	90.62
447.792	98.62
448.013	115.62
448.234	102.62
448.455	84.62
448.675	106.62
448.896	98.62
449.117	115.62
449.338	99.62
449.559	112.62
449.779	128.62
450	93.62
450.221	93.62
450.442	86.62
450.662	93.62
450.883	106.62
451.104	88.62
451.324	111.62
451.545	85.62
451.766	90.62
451.986	95.62
452.207	107.62
452.428	84.62
452.648	110.62
452.869	94.62
453.089	118.62
453.31	102.62
453.53	81.62
453.751	77.62
453.971	86.62
454.192	114.62
454.412	98.62
454.633	94.62
454.853	86.62
455.073	91.62
455.294	88.62
455.514	104.62
455.734	83.62
455.955	89.62
456.175	89.62
456.395	79.62
456.616	78.62
456.836	73.62
457.056	84.62
457.276	91.62
457.497	92.62
457.717	91.62
457.937	102.62
458.157	80.62
458.377	86.62
458.598	106.62
458.818	119.62
459.038	144.62
459.258	99.62
459.478	99.62
459.698	90.62
459.918	81.62
460.138	79.62
460.358	82.62
460.578	78.62
460.798	101.62
461.018	110.62
461.238	89.62
461.458	89.62
461.678	85.62
461.898	100.62
462.118	93.62
462.338	83.62
462.558	82.62
462.777	104.62
462.997	88.62
463.217	72.62
463.437	89.62
463.657	62.62
463.876	92.62
464.096	86.62
464.316	88.62
464.536	77.62
464.755	91.62
464.975	91.62
465.195	159.62
465.414	138.62
465.634	97.62
465.854	91.62
466.073	86.62
466.293	86.62
466.512	88.62
466.732	91.62
466.951	85.62
467.171	88.62
467.391	79.62
467.61	102.62
467.829	112.62
468.049	134.62
468.268	146.62
468.488	93.62
468.707	90.62
468.927	93.62
469.146	72.62
469.365	81.62
469.585	101.62
469.804	93.62
470.023	98.62
470.243	91.62
470.462	94.62
470.681	124.62
470.901	91.62
471.12	79.62
471.339	88.62
471.558	110.62
471.777	91.62
471.997	110.62
472.216	196.62
472.435	351.62
472.654	131.62
472.873	92.62
473.092	91.62
473.311	88.62
473.53	79.62
473.749	84.62
473.968	98.62
474.187	104.62
474.406	101.62
474.625	96.62
474.844	93.62
475.063	90.62
475.282	85.62
475.501	75.62
475.72	69.62
475.939	95.62
476.158	81.62
476.377	87.62
476.596	91.62
476.814	92.62
477.033	93.62
477.252	85.62
477.471	95.62
477.69	88.62
477.908	103.62
478.127	101.62
478.346	86.62
478.564	90.62
478.783	102.62
479.002	88.62
479.22	97.62
479.439	106.62
479.658	99.62
479.876	92.62
480.095	89.62
480.313	89.62
480.532	103.62
480.751	107.62
480.969	207.62
481.188	556.62
481.406	357.62
481.624	126.62
481.843	93.62
482.061	81.62
482.28	89.62
482.498	96.62
482.717	106.62
482.935	86.62
483.153	88.62
483.372	88.62
483.59	94.62
483.808	94.62
484.027	94.62
484.245	90.62
484.463	89.62
484.681	85.62
484.9	94.62
485.118	83.62
485.336	95.62
485.554	103.62
485.772	107.62
485.99	103.62
486.209	111.62
486.427	89.62
486.645	107.62
486.863	97.62
487.081	104.62
487.299	94.62
487.517	85.62
487.735	106.62
487.953	89.62
488.171	83.62
488.389	87.62
488.607	93.62
488.825	109.62
489.043	82.62
489.261	103.62
489.479	98.62
489.696	88.62
489.914	79.62
490.132	78.62
490.35	98.62
490.568	84.62
490.786	95.62
491.003	79.62
491.221	87.62
491.439	80.62
491.657	80.62
491.874	94.62
492.092	86.62
492.31	87.62
492.527	85.62
492.745	85.62
492.963	79.62
493.18	87.62
493.398	94.62
493.615	105.62
493.833	90.62
494.05	83.62
494.268	97.62
494.485	81.62
494.703	93.62
494.92	86.62
495.138	80.62
495.355	100.62
495.573	97.62
495.79	87.62
496.008	97.62
496.225	85.62
496.442	78.62
496.66	94.62
496.877	100.62
497.094	94.62
497.312	90.62
497.529	95.62
497.746	77.62
497.963	83.62
498.181	90.62
498.398	83.62
498.615	98.62
498.832	102.62
499.049	91.62
499.267	82.62
499.484	91.62
499.701	85.62
499.918	81.62
500.135	102.62
500.352	102.62
500.569	88.62
500.786	85.62
501.003	85.62
501.22	95.62
501.437	102.62
501.654	91.62
501.871	97.62
502.088	103.62
502.305	97.62
502.522	97.62
502.739	102.62
502.956	109.62
503.172	94.62
503.389	89.62
503.606	94.62
503.823	91.62
504.04	101.62
504.256	90.62
504.473	93.62
504.69	86.62
504.907	102.62
505.123	98.62
505.34	95.62
505.557	86.62
505.773	85.62
505.99	90.62
506.207	77.62
506.423	95.62
506.64	92.62
506.856	88.62
507.073	85.62
507.289	95.62
507.506	84.62
507.722	112.62
507.939	107.62
508.155	84.62
508.372	77.62
508.588	80.62
508.805	87.62
509.021	96.62
509.238	97.62
509.454	98.62
509.67	95.62
509.887	102.62
510.103	118.62
510.319	189.62
510.536	595.62
510.752	1759.62
510.968	506.62
511.184	139.62
511.401	114.62
511.617	104.62
511.833	98.62
512.049	114.62
512.265	109.62
512.481	97.62
512.698	100.62
512.914	84.62
513.13	101.62
513.346	96.62
513.562	88.62
513.778	106.62
513.994	102.62
514.21	99.62
514.426	108.62
514.642	117.62
514.858	119.62
515.074	153.62
515.29	353.62
515.506	1067.62
515.721	421.62
