Data from Uncirc_1989_H10_HRD10591_00048.txt Node
Date: Wed Jan 03 11:57:45 EST 2024
User: Yrep
Spectrometer: HR+D1059
Trigger mode: 1
Integration Time (sec): 1.000000E-1
Scans to average: 1
Electric dark correction enabled: true
Nonlinearity correction enabled: false
Boxcar width: 0
XAxis mode: Wavelengths
Number of Pixels in Spectrum: 2048
>>>>>Begin Spectral Data<<<<<
223.165	-38.12
223.4	-38.12
223.635	-38.12
223.869	-29.12
224.104	-21.12
224.338	-1.12
224.573	-14.12
224.808	-18.12
225.042	1.88
225.277	-13.12
225.511	0.88
225.746	7.88
225.98	20.88
226.215	22.88
226.449	6.88
226.683	24.88
226.918	22.88
227.152	25.88
227.387	28.88
227.621	41.88
227.856	34.88
228.09	50.88
228.324	52.88
228.559	64.88
228.793	60.88
229.027	76.88
229.262	51.88
229.496	86.88
229.73	68.88
229.964	73.88
230.199	76.88
230.433	74.88
230.667	70.88
230.901	77.88
231.136	90.88
231.37	71.88
231.604	104.88
231.838	72.88
232.072	86.88
232.306	88.88
232.541	94.88
232.775	93.88
233.009	95.88
233.243	89.88
233.477	82.88
233.711	69.88
233.945	73.88
234.179	82.88
234.413	87.88
234.647	74.88
234.881	73.88
235.115	84.88
235.349	82.88
235.583	78.88
235.817	95.88
236.051	57.88
236.285	73.88
236.519	93.88
236.753	85.88
236.987	84.88
237.221	97.88
237.455	83.88
237.689	84.88
237.922	84.88
238.156	80.88
238.39	69.88
238.624	79.88
238.858	80.88
239.091	77.88
239.325	76.88
239.559	74.88
239.793	78.88
240.027	81.88
240.26	72.88
240.494	79.88
240.728	92.88
240.961	81.88
241.195	79.88
241.429	72.88
241.662	71.88
241.896	77.88
242.13	82.88
242.363	68.88
242.597	81.88
242.83	80.88
243.064	81.88
243.298	83.88
243.531	85.88
243.765	84.88
243.998	88.88
244.232	77.88
244.465	85.88
244.699	81.88
244.932	81.88
245.166	78.88
245.399	93.88
245.633	89.88
245.866	87.88
246.099	65.88
246.333	80.88
246.566	80.88
246.8	87.88
247.033	82.88
247.266	68.88
247.5	70.88
247.733	92.88
247.966	80.88
248.2	69.88
248.433	86.88
248.666	76.88
248.899	87.88
249.133	82.88
249.366	110.88
249.599	94.88
249.832	80.88
250.066	79.88
250.299	82.88
250.532	72.88
250.765	80.88
250.998	64.88
251.231	84.88
251.465	78.88
251.698	81.88
251.931	89.88
252.164	72.88
252.397	80.88
252.63	69.88
252.863	78.88
253.096	86.88
253.329	81.88
253.562	71.88
253.795	92.88
254.028	88.88
254.261	79.88
254.494	78.88
254.727	84.88
254.96	77.88
255.193	78.88
255.426	79.88
255.659	89.88
255.892	80.88
256.124	57.88
256.357	84.88
256.59	83.88
256.823	72.88
257.056	86.88
257.289	79.88
257.521	85.88
257.754	87.88
257.987	89.88
258.22	71.88
258.452	84.88
258.685	78.88
258.918	84.88
259.151	82.88
259.383	80.88
259.616	87.88
259.849	85.88
260.081	85.88
260.314	65.88
260.547	88.88
260.779	87.88
261.012	95.88
261.244	77.88
261.477	80.88
261.71	86.88
261.942	102.88
262.175	101.88
262.407	73.88
262.64	85.88
262.872	89.88
263.105	75.88
263.337	90.88
263.57	88.88
263.802	81.88
264.035	74.88
264.267	71.88
264.499	86.88
264.732	91.88
264.964	84.88
265.197	93.88
265.429	82.88
265.661	88.88
265.894	90.88
266.126	88.88
266.358	96.88
266.591	94.88
266.823	85.88
267.055	80.88
267.287	84.88
267.52	80.88
267.752	90.88
267.984	80.88
268.216	80.88
268.448	88.88
268.681	78.88
268.913	92.88
269.145	79.88
269.377	87.88
269.609	73.88
269.841	87.88
270.073	85.88
270.306	84.88
270.538	95.88
270.77	80.88
271.002	93.88
271.234	80.88
271.466	82.88
271.698	89.88
271.93	86.88
272.162	87.88
272.394	100.88
272.626	85.88
272.858	96.88
273.09	86.88
273.322	88.88
273.553	89.88
273.785	88.88
274.017	92.88
274.249	84.88
274.481	92.88
274.713	80.88
274.945	93.88
275.176	88.88
275.408	106.88
275.64	97.88
275.872	84.88
276.104	90.88
276.335	69.88
276.567	101.88
276.799	120.88
277.031	104.88
277.262	105.88
277.494	89.88
277.726	97.88
277.957	84.88
278.189	90.88
278.421	73.88
278.652	81.88
278.884	93.88
279.115	85.88
279.347	85.88
279.579	98.88
279.81	93.88
280.042	86.88
280.273	92.88
280.505	92.88
280.736	84.88
280.968	96.88
281.199	97.88
281.431	84.88
281.662	86.88
281.894	88.88
282.125	89.88
282.356	113.88
282.588	116.88
282.819	93.88
283.051	92.88
283.282	91.88
283.513	84.88
283.745	80.88
283.976	84.88
284.207	87.88
284.439	83.88
284.67	76.88
284.901	88.88
285.132	88.88
285.364	81.88
285.595	91.88
285.826	72.88
286.057	81.88
286.288	95.88
286.52	77.88
286.751	90.88
286.982	97.88
287.213	96.88
287.444	80.88
287.675	71.88
287.906	76.88
288.138	90.88
288.369	92.88
288.6	89.88
288.831	87.88
289.062	90.88
289.293	86.88
289.524	87.88
289.755	81.88
289.986	88.88
290.217	96.88
290.448	96.88
290.679	90.88
290.91	97.88
291.141	83.88
291.371	84.88
291.602	80.88
291.833	81.88
292.064	94.88
292.295	81.88
292.526	90.88
292.757	76.88
292.987	92.88
293.218	74.88
293.449	96.88
293.68	93.88
293.91	87.88
294.141	70.88
294.372	84.88
294.603	81.88
294.833	96.88
295.064	89.88
295.295	93.88
295.525	87.88
295.756	102.88
295.987	104.88
296.217	99.88
296.448	122.88
296.679	90.88
296.909	96.88
297.14	82.88
297.37	101.88
297.601	88.88
297.831	86.88
298.062	94.88
298.292	91.88
298.523	90.88
298.753	84.88
298.984	105.88
299.214	94.88
299.445	89.88
299.675	86.88
299.905	89.88
300.136	91.88
300.366	84.88
300.597	83.88
300.827	92.88
301.057	91.88
301.288	98.88
301.518	82.88
301.748	92.88
301.979	95.88
302.209	94.88
302.439	87.88
302.669	70.88
302.9	105.88
303.13	95.88
303.36	97.88
303.59	99.88
303.82	102.88
304.051	79.88
304.281	98.88
304.511	100.88
304.741	91.88
304.971	95.88
305.201	97.88
305.431	90.88
305.661	81.88
305.891	92.88
306.121	94.88
306.352	95.88
306.582	106.88
306.812	101.88
307.042	102.88
307.272	90.88
307.502	95.88
307.731	85.88
307.961	100.88
308.191	84.88
308.421	109.88
308.651	91.88
308.881	103.88
309.111	80.88
309.341	90.88
309.571	88.88
309.8	98.88
310.03	94.88
310.26	80.88
310.49	101.88
310.72	95.88
310.949	95.88
311.179	98.88
311.409	98.88
311.639	94.88
311.868	100.88
312.098	97.88
312.328	104.88
312.557	116.88
312.787	100.88
313.017	87.88
313.246	104.88
313.476	104.88
313.706	109.88
313.935	96.88
314.165	90.88
314.394	93.88
314.624	81.88
314.853	85.88
315.083	92.88
315.312	86.88
315.542	90.88
315.771	91.88
316.001	86.88
316.23	85.88
316.46	84.88
316.689	89.88
316.919	92.88
317.148	102.88
317.377	97.88
317.607	96.88
317.836	89.88
318.065	87.88
318.295	99.88
318.524	85.88
318.753	99.88
318.983	102.88
319.212	81.88
319.441	96.88
319.67	93.88
319.9	91.88
320.129	91.88
320.358	97.88
320.587	90.88
320.816	99.88
321.046	102.88
321.275	91.88
321.504	99.88
321.733	100.88
321.962	81.88
322.191	102.88
322.42	90.88
322.649	108.88
322.878	97.88
323.108	106.88
323.337	122.88
323.566	114.88
323.795	134.88
324.024	182.88
324.253	329.88
324.482	697.88
324.71	1425.88
324.939	1822.88
325.168	684.88
325.397	201.88
325.626	144.88
325.855	126.88
326.084	110.88
326.313	119.88
326.542	151.88
326.77	209.88
326.999	374.88
327.228	816.88
327.457	1455.88
327.686	1144.88
327.914	327.88
328.143	188.88
328.372	166.88
328.6	125.88
328.829	107.88
329.058	109.88
329.287	118.88
329.515	112.88
329.744	115.88
329.972	125.88
330.201	156.88
330.43	199.88
330.658	142.88
330.887	122.88
331.115	114.88
331.344	102.88
331.572	101.88
331.801	98.88
332.03	105.88
332.258	90.88
332.486	95.88
332.715	82.88
332.943	85.88
333.172	104.88
333.4	110.88
333.629	117.88
333.857	109.88
334.085	121.88
334.314	142.88
334.542	208.88
334.771	216.88
334.999	115.88
335.227	102.88
335.455	98.88
335.684	107.88
335.912	104.88
336.14	97.88
336.369	100.88
336.597	107.88
336.825	104.88
337.053	92.88
337.281	91.88
337.51	93.88
337.738	82.88
337.966	89.88
338.194	89.88
338.422	98.88
338.65	98.88
338.878	109.88
339.106	102.88
339.334	97.88
339.562	92.88
339.79	100.88
340.018	98.88
340.246	105.88
340.474	107.88
340.702	102.88
340.93	102.88
341.158	100.88
341.386	93.88
341.614	86.88
341.842	92.88
342.07	77.88
342.298	98.88
342.526	90.88
342.754	95.88
342.981	105.88
343.209	98.88
343.437	95.88
343.665	89.88
343.893	82.88
344.12	94.88
344.348	96.88
344.576	78.88
344.804	91.88
345.031	96.88
345.259	85.88
345.487	102.88
345.714	98.88
345.942	97.88
346.17	84.88
346.397	95.88
346.625	101.88
346.853	92.88
347.08	71.88
347.308	103.88
347.535	97.88
347.763	90.88
347.99	100.88
348.218	103.88
348.445	101.88
348.673	93.88
348.9	93.88
349.128	101.88
349.355	108.88
349.583	99.88
349.81	85.88
350.037	84.88
350.265	88.88
350.492	105.88
350.72	96.88
350.947	94.88
351.174	103.88
351.402	97.88
351.629	108.88
351.856	112.88
352.083	106.88
352.311	99.88
352.538	100.88
352.765	111.88
352.992	86.88
353.22	108.88
353.447	106.88
353.674	100.88
353.901	102.88
354.128	96.88
354.355	88.88
354.583	102.88
354.81	115.88
355.037	92.88
355.264	93.88
355.491	87.88
355.718	99.88
355.945	116.88
356.172	109.88
356.399	104.88
356.626	96.88
356.853	96.88
357.08	89.88
357.307	95.88
357.534	92.88
357.761	93.88
357.988	92.88
358.215	88.88
358.441	96.88
358.668	92.88
358.895	86.88
359.122	80.88
359.349	82.88
359.576	74.88
359.802	88.88
360.029	117.88
360.256	93.88
360.483	102.88
360.709	89.88
360.936	77.88
361.163	95.88
361.39	82.88
361.616	101.88
361.843	99.88
362.07	82.88
362.296	105.88
362.523	105.88
362.749	103.88
362.976	111.88
363.203	92.88
363.429	90.88
363.656	94.88
363.882	94.88
364.109	84.88
364.335	78.88
364.562	90.88
364.788	82.88
365.015	86.88
365.241	91.88
365.468	113.88
365.694	95.88
365.92	93.88
366.147	85.88
366.373	81.88
366.599	89.88
366.826	98.88
367.052	100.88
367.278	95.88
367.505	82.88
367.731	87.88
367.957	85.88
368.184	87.88
368.41	101.88
368.636	102.88
368.862	108.88
369.089	108.88
369.315	94.88
369.541	91.88
369.767	79.88
369.993	79.88
370.219	79.88
370.445	85.88
370.672	86.88
370.898	80.88
371.124	101.88
371.35	79.88
371.576	94.88
371.802	102.88
372.028	90.88
372.254	90.88
372.48	90.88
372.706	73.88
372.932	97.88
373.158	86.88
373.384	95.88
373.61	92.88
373.835	100.88
374.061	88.88
374.287	79.88
374.513	76.88
374.739	94.88
374.965	98.88
375.191	86.88
375.416	95.88
375.642	78.88
375.868	93.88
376.094	93.88
376.319	91.88
376.545	96.88
376.771	89.88
376.997	90.88
377.222	97.88
377.448	102.88
377.674	107.88
377.899	95.88
378.125	90.88
378.35	100.88
378.576	98.88
378.802	87.88
379.027	88.88
379.253	92.88
379.478	95.88
379.704	88.88
379.929	85.88
380.155	94.88
380.38	97.88
380.606	85.88
380.831	99.88
381.057	102.88
381.282	98.88
381.507	79.88
381.733	98.88
381.958	98.88
382.184	101.88
382.409	99.88
382.634	104.88
382.86	96.88
383.085	98.88
383.31	99.88
383.535	101.88
383.761	85.88
383.986	100.88
384.211	99.88
384.436	107.88
384.662	106.88
384.887	114.88
385.112	102.88
385.337	111.88
385.562	113.88
385.787	92.88
386.013	98.88
386.238	106.88
386.463	106.88
386.688	101.88
386.913	107.88
387.138	110.88
387.363	103.88
387.588	109.88
387.813	108.88
388.038	78.88
388.263	98.88
388.488	111.88
388.713	89.88
388.938	85.88
389.163	98.88
389.387	92.88
389.612	96.88
389.837	100.88
390.062	92.88
390.287	80.88
390.512	107.88
390.736	90.88
390.961	76.88
391.186	87.88
391.411	85.88
391.636	97.88
391.86	88.88
392.085	94.88
392.31	84.88
392.534	96.88
392.759	85.88
392.984	71.88
393.208	88.88
393.433	98.88
393.658	94.88
393.882	86.88
394.107	93.88
394.331	88.88
394.556	87.88
394.78	76.88
395.005	67.88
395.229	89.88
395.454	88.88
395.678	84.88
395.903	93.88
396.127	89.88
396.352	82.88
396.576	74.88
396.801	90.88
397.025	63.88
397.249	88.88
397.474	87.88
397.698	86.88
397.922	92.88
398.147	90.88
398.371	96.88
398.595	86.88
398.82	96.88
399.044	84.88
399.268	78.88
399.492	88.88
399.717	87.88
399.941	81.88
400.165	95.88
400.389	69.88
400.613	80.88
400.837	98.88
401.062	93.88
401.286	85.88
401.51	97.88
401.734	91.88
401.958	94.88
402.182	118.88
402.406	144.88
402.63	105.88
402.854	92.88
403.078	86.88
403.302	99.88
403.526	101.88
403.75	84.88
403.974	89.88
404.198	99.88
404.422	76.88
404.645	87.88
404.869	88.88
405.093	102.88
405.317	96.88
405.541	115.88
405.765	101.88
405.988	104.88
406.212	146.88
406.436	191.88
406.66	137.88
406.883	103.88
407.107	97.88
407.331	84.88
407.555	106.88
407.778	100.88
408.002	89.88
408.226	78.88
408.449	90.88
408.673	69.88
408.896	76.88
409.12	88.88
409.344	88.88
409.567	89.88
409.791	85.88
410.014	93.88
410.238	84.88
410.461	95.88
410.685	92.88
410.908	123.88
411.132	100.88
411.355	98.88
411.578	98.88
411.802	94.88
412.025	98.88
412.249	89.88
412.472	84.88
412.695	91.88
412.919	89.88
413.142	103.88
413.365	92.88
413.589	88.88
413.812	95.88
414.035	80.88
414.258	84.88
414.482	85.88
414.705	113.88
414.928	93.88
415.151	106.88
415.374	91.88
415.597	96.88
415.821	84.88
416.044	83.88
416.267	94.88
416.49	85.88
416.713	86.88
416.936	81.88
417.159	81.88
417.382	96.88
417.605	87.88
417.828	96.88
418.051	85.88
418.274	86.88
418.497	72.88
418.72	89.88
418.943	86.88
419.166	83.88
419.389	84.88
419.611	81.88
419.834	95.88
420.057	88.88
420.28	93.88
420.503	92.88
420.726	101.88
420.948	104.88
421.171	97.88
421.394	98.88
421.617	88.88
421.839	101.88
422.062	82.88
422.285	80.88
422.507	118.88
422.73	109.88
422.953	98.88
423.175	90.88
423.398	83.88
423.621	80.88
423.843	90.88
424.066	86.88
424.288	98.88
424.511	80.88
424.733	90.88
424.956	87.88
425.178	109.88
425.401	109.88
425.623	93.88
425.846	89.88
426.068	94.88
426.291	99.88
426.513	86.88
426.735	80.88
426.958	89.88
427.18	98.88
427.402	132.88
427.625	146.88
427.847	134.88
428.069	113.88
428.292	90.88
428.514	82.88
428.736	92.88
428.958	69.88
429.181	60.88
429.403	88.88
429.625	107.88
429.847	98.88
430.069	96.88
430.292	93.88
430.514	91.88
430.736	88.88
430.958	82.88
431.18	93.88
431.402	81.88
431.624	92.88
431.846	83.88
432.068	93.88
432.29	80.88
432.512	94.88
432.734	92.88
432.956	100.88
433.178	95.88
433.4	104.88
433.622	83.88
433.844	109.88
434.066	90.88
434.287	85.88
434.509	92.88
434.731	87.88
434.953	91.88
435.175	88.88
435.397	98.88
435.618	77.88
435.84	90.88
436.062	112.88
436.284	113.88
436.505	100.88
436.727	100.88
436.949	92.88
437.17	78.88
437.392	103.88
437.614	85.88
437.835	98.88
438.057	111.88
438.278	94.88
438.5	114.88
438.721	111.88
438.943	108.88
439.165	101.88
439.386	100.88
439.608	80.88
439.829	87.88
440.05	115.88
440.272	145.88
440.493	103.88
440.715	93.88
440.936	71.88
441.158	84.88
441.379	83.88
441.6	88.88
441.822	87.88
442.043	95.88
442.264	95.88
442.486	94.88
442.707	101.88
442.928	109.88
443.149	128.88
443.371	127.88
443.592	98.88
443.813	107.88
444.034	90.88
444.255	90.88
444.476	90.88
444.698	87.88
444.919	91.88
445.14	141.88
445.361	135.88
445.582	110.88
445.803	124.88
446.024	123.88
446.245	124.88
446.466	111.88
446.687	84.88
446.908	99.88
447.129	82.88
447.35	98.88
447.571	97.88
447.792	82.88
448.013	90.88
448.234	101.88
448.455	98.88
448.675	98.88
448.896	117.88
449.117	93.88
449.338	94.88
449.559	107.88
449.779	112.88
450	90.88
450.221	87.88
450.442	94.88
450.662	81.88
450.883	112.88
451.104	106.88
451.324	81.88
451.545	107.88
451.766	78.88
451.986	86.88
452.207	95.88
452.428	96.88
452.648	94.88
452.869	101.88
453.089	101.88
453.31	109.88
453.53	81.88
453.751	72.88
453.971	92.88
454.192	105.88
454.412	86.88
454.633	79.88
454.853	71.88
455.073	80.88
455.294	75.88
455.514	73.88
455.734	81.88
455.955	73.88
456.175	85.88
456.395	90.88
456.616	82.88
456.836	85.88
457.056	80.88
457.276	92.88
457.497	87.88
457.717	84.88
457.937	89.88
458.157	96.88
458.377	103.88
458.598	105.88
458.818	112.88
459.038	161.88
459.258	104.88
459.478	84.88
459.698	79.88
459.918	91.88
460.138	74.88
460.358	94.88
460.578	97.88
460.798	98.88
461.018	85.88
461.238	81.88
461.458	82.88
461.678	81.88
461.898	96.88
462.118	72.88
462.338	92.88
462.558	86.88
462.777	86.88
462.997	85.88
463.217	83.88
463.437	87.88
463.657	75.88
463.876	95.88
464.096	75.88
464.316	103.88
464.536	103.88
464.755	92.88
464.975	105.88
465.195	131.88
465.414	123.88
465.634	99.88
465.854	94.88
466.073	69.88
466.293	104.88
466.512	87.88
466.732	82.88
466.951	91.88
467.171	94.88
467.391	98.88
467.61	104.88
467.829	106.88
468.049	115.88
468.268	123.88
468.488	78.88
468.707	89.88
468.927	78.88
469.146	77.88
469.365	78.88
469.585	95.88
469.804	105.88
470.023	111.88
470.243	67.88
470.462	87.88
470.681	103.88
470.901	94.88
471.12	92.88
471.339	96.88
471.558	87.88
471.777	76.88
471.997	92.88
472.216	174.88
472.435	285.88
472.654	116.88
472.873	88.88
473.092	94.88
473.311	90.88
473.53	110.88
473.749	86.88
473.968	85.88
474.187	95.88
474.406	91.88
474.625	79.88
474.844	98.88
475.063	78.88
475.282	101.88
475.501	89.88
475.72	82.88
475.939	83.88
476.158	81.88
476.377	86.88
476.596	91.88
476.814	92.88
477.033	89.88
477.252	88.88
477.471	78.88
477.69	102.88
477.908	100.88
478.127	78.88
478.346	90.88
478.564	84.88
478.783	81.88
479.002	93.88
479.22	98.88
479.439	93.88
479.658	95.88
479.876	87.88
480.095	90.88
480.313	93.88
480.532	95.88
480.751	97.88
480.969	169.88
481.188	430.88
481.406	275.88
481.624	100.88
481.843	93.88
482.061	94.88
482.28	86.88
482.498	93.88
482.717	82.88
482.935	87.88
483.153	95.88
483.372	79.88
483.59	100.88
483.808	82.88
484.027	94.88
484.245	85.88
484.463	92.88
484.681	113.88
484.9	101.88
485.118	105.88
485.336	74.88
485.554	97.88
485.772	94.88
485.99	104.88
486.209	99.88
486.427	99.88
486.645	101.88
486.863	102.88
487.081	107.88
487.299	105.88
487.517	101.88
487.735	85.88
487.953	97.88
488.171	107.88
488.389	94.88
488.607	100.88
488.825	109.88
489.043	81.88
489.261	93.88
489.479	82.88
489.696	110.88
489.914	97.88
490.132	102.88
490.35	91.88
490.568	92.88
490.786	89.88
491.003	94.88
491.221	83.88
491.439	93.88
491.657	96.88
491.874	92.88
492.092	98.88
492.31	92.88
492.527	91.88
492.745	92.88
492.963	106.88
493.18	83.88
493.398	86.88
493.615	80.88
493.833	96.88
494.05	90.88
494.268	81.88
494.485	82.88
494.703	94.88
494.92	108.88
495.138	66.88
495.355	88.88
495.573	93.88
495.79	80.88
496.008	92.88
496.225	91.88
496.442	104.88
496.66	84.88
496.877	95.88
497.094	94.88
497.312	96.88
497.529	97.88
497.746	80.88
497.963	92.88
498.181	104.88
498.398	91.88
498.615	103.88
498.832	103.88
499.049	109.88
499.267	84.88
499.484	80.88
499.701	104.88
499.918	85.88
500.135	84.88
500.352	93.88
500.569	90.88
500.786	84.88
501.003	104.88
501.22	80.88
501.437	88.88
501.654	96.88
501.871	109.88
502.088	112.88
502.305	90.88
502.522	83.88
502.739	89.88
502.956	88.88
503.172	78.88
503.389	88.88
503.606	109.88
503.823	89.88
504.04	89.88
504.256	85.88
504.473	98.88
504.69	102.88
504.907	89.88
505.123	88.88
505.34	97.88
505.557	82.88
505.773	93.88
505.99	81.88
506.207	91.88
506.423	90.88
506.64	100.88
506.856	82.88
507.073	97.88
507.289	85.88
507.506	98.88
507.722	80.88
507.939	117.88
508.155	89.88
508.372	86.88
508.588	100.88
508.805	81.88
509.021	88.88
509.238	107.88
509.454	102.88
509.67	89.88
509.887	112.88
510.103	111.88
510.319	186.88
510.536	630.88
510.752	1808.88
510.968	510.88
511.184	135.88
511.401	112.88
511.617	88.88
511.833	104.88
512.049	82.88
512.265	85.88
512.481	90.88
512.698	98.88
512.914	78.88
513.13	94.88
513.346	93.88
513.562	105.88
513.778	81.88
513.994	89.88
514.21	93.88
514.426	123.88
514.642	126.88
514.858	92.88
515.074	161.88
515.29	354.88
515.506	1123.88
