Data from Uncirc_1989_H10_HRD10591_00033.txt Node
Date: Wed Jan 03 11:57:42 EST 2024
User: Yrep
Spectrometer: HR+D1059
Trigger mode: 1
Integration Time (sec): 1.000000E-1
Scans to average: 1
Electric dark correction enabled: true
Nonlinearity correction enabled: false
Boxcar width: 0
XAxis mode: Wavelengths
Number of Pixels in Spectrum: 2048
>>>>>Begin Spectral Data<<<<<
223.165	-9.75
223.4	-9.75
223.635	-9.75
223.869	-2.75
224.104	-7.75
224.338	-13.75
224.573	-28.75
224.808	-12.75
225.042	-17.75
225.277	-6.75
225.511	-8.75
225.746	4.25
225.98	1.25
226.215	20.25
226.449	18.25
226.683	23.25
226.918	5.25
227.152	36.25
227.387	35.25
227.621	42.25
227.856	62.25
228.09	40.25
228.324	37.25
228.559	54.25
228.793	64.25
229.027	76.25
229.262	70.25
229.496	84.25
229.73	107.25
229.964	70.25
230.199	82.25
230.433	63.25
230.667	67.25
230.901	74.25
231.136	66.25
231.37	77.25
231.604	86.25
231.838	84.25
232.072	87.25
232.306	85.25
232.541	78.25
232.775	96.25
233.009	97.25
233.243	84.25
233.477	73.25
233.711	75.25
233.945	80.25
234.179	75.25
234.413	76.25
234.647	81.25
234.881	81.25
235.115	75.25
235.349	78.25
235.583	66.25
235.817	80.25
236.051	82.25
236.285	79.25
236.519	85.25
236.753	80.25
236.987	75.25
237.221	85.25
237.455	69.25
237.689	76.25
237.922	74.25
238.156	70.25
238.39	81.25
238.624	79.25
238.858	72.25
239.091	84.25
239.325	86.25
239.559	80.25
239.793	74.25
240.027	65.25
240.26	65.25
240.494	79.25
240.728	86.25
240.961	77.25
241.195	81.25
241.429	68.25
241.662	70.25
241.896	90.25
242.13	82.25
242.363	67.25
242.597	63.25
242.83	79.25
243.064	84.25
243.298	64.25
243.531	63.25
243.765	77.25
243.998	85.25
244.232	84.25
244.465	78.25
244.699	82.25
244.932	65.25
245.166	64.25
245.399	71.25
245.633	79.25
245.866	74.25
246.099	80.25
246.333	59.25
246.566	78.25
246.8	69.25
247.033	78.25
247.266	87.25
247.5	89.25
247.733	86.25
247.966	82.25
248.2	78.25
248.433	89.25
248.666	79.25
248.899	83.25
249.133	88.25
249.366	95.25
249.599	80.25
249.832	74.25
250.066	64.25
250.299	80.25
250.532	71.25
250.765	68.25
250.998	75.25
251.231	87.25
251.465	68.25
251.698	69.25
251.931	84.25
252.164	89.25
252.397	71.25
252.63	84.25
252.863	85.25
253.096	79.25
253.329	87.25
253.562	85.25
253.795	83.25
254.028	86.25
254.261	75.25
254.494	78.25
254.727	85.25
254.96	86.25
255.193	79.25
255.426	66.25
255.659	86.25
255.892	74.25
256.124	84.25
256.357	79.25
256.59	90.25
256.823	79.25
257.056	74.25
257.289	82.25
257.521	69.25
257.754	83.25
257.987	72.25
258.22	76.25
258.452	91.25
258.685	91.25
258.918	99.25
259.151	96.25
259.383	81.25
259.616	70.25
259.849	80.25
260.081	79.25
260.314	84.25
260.547	73.25
260.779	79.25
261.012	82.25
261.244	88.25
261.477	91.25
261.71	92.25
261.942	101.25
262.175	101.25
262.407	85.25
262.64	78.25
262.872	71.25
263.105	86.25
263.337	90.25
263.57	95.25
263.802	72.25
264.035	92.25
264.267	93.25
264.499	93.25
264.732	81.25
264.964	86.25
265.197	85.25
265.429	91.25
265.661	68.25
265.894	82.25
266.126	79.25
266.358	83.25
266.591	79.25
266.823	74.25
267.055	78.25
267.287	80.25
267.52	90.25
267.752	91.25
267.984	94.25
268.216	78.25
268.448	96.25
268.681	82.25
268.913	77.25
269.145	85.25
269.377	104.25
269.609	83.25
269.841	97.25
270.073	79.25
270.306	95.25
270.538	75.25
270.77	68.25
271.002	92.25
271.234	97.25
271.466	89.25
271.698	84.25
271.93	80.25
272.162	82.25
272.394	91.25
272.626	65.25
272.858	92.25
273.09	96.25
273.322	84.25
273.553	86.25
273.785	81.25
274.017	88.25
274.249	85.25
274.481	84.25
274.713	82.25
274.945	86.25
275.176	74.25
275.408	97.25
275.64	94.25
275.872	87.25
276.104	94.25
276.335	85.25
276.567	94.25
276.799	95.25
277.031	114.25
277.262	92.25
277.494	93.25
277.726	92.25
277.957	94.25
278.189	82.25
278.421	83.25
278.652	93.25
278.884	82.25
279.115	72.25
279.347	86.25
279.579	96.25
279.81	103.25
280.042	102.25
280.273	80.25
280.505	87.25
280.736	87.25
280.968	94.25
281.199	94.25
281.431	89.25
281.662	89.25
281.894	90.25
282.125	95.25
282.356	102.25
282.588	114.25
282.819	100.25
283.051	96.25
283.282	84.25
283.513	82.25
283.745	96.25
283.976	83.25
284.207	92.25
284.439	85.25
284.67	95.25
284.901	82.25
285.132	74.25
285.364	85.25
285.595	83.25
285.826	71.25
286.057	84.25
286.288	72.25
286.52	84.25
286.751	81.25
286.982	71.25
287.213	79.25
287.444	84.25
287.675	80.25
287.906	91.25
288.138	78.25
288.369	94.25
288.6	82.25
288.831	78.25
289.062	92.25
289.293	94.25
289.524	84.25
289.755	78.25
289.986	100.25
290.217	75.25
290.448	85.25
290.679	86.25
290.91	90.25
291.141	85.25
291.371	92.25
291.602	87.25
291.833	78.25
292.064	82.25
292.295	89.25
292.526	100.25
292.757	81.25
292.987	90.25
293.218	95.25
293.449	84.25
293.68	90.25
293.91	96.25
294.141	84.25
294.372	99.25
294.603	86.25
294.833	75.25
295.064	83.25
295.295	99.25
295.525	96.25
295.756	91.25
295.987	92.25
296.217	112.25
296.448	107.25
296.679	83.25
296.909	73.25
297.14	98.25
297.37	99.25
297.601	89.25
297.831	91.25
298.062	96.25
298.292	68.25
298.523	93.25
298.753	88.25
298.984	85.25
299.214	86.25
299.445	81.25
299.675	71.25
299.905	99.25
300.136	81.25
300.366	76.25
300.597	102.25
300.827	95.25
301.057	91.25
301.288	117.25
301.518	84.25
301.748	87.25
301.979	95.25
302.209	80.25
302.439	77.25
302.669	99.25
302.9	88.25
303.13	81.25
303.36	84.25
303.59	100.25
303.82	107.25
304.051	98.25
304.281	82.25
304.511	88.25
304.741	84.25
304.971	88.25
305.201	94.25
305.431	90.25
305.661	93.25
305.891	100.25
306.121	93.25
306.352	100.25
306.582	98.25
306.812	95.25
307.042	77.25
307.272	89.25
307.502	93.25
307.731	108.25
307.961	92.25
308.191	82.25
308.421	86.25
308.651	93.25
308.881	95.25
309.111	85.25
309.341	91.25
309.571	94.25
309.8	88.25
310.03	76.25
310.26	91.25
310.49	84.25
310.72	91.25
310.949	103.25
311.179	91.25
311.409	87.25
311.639	97.25
311.868	90.25
312.098	97.25
312.328	106.25
312.557	120.25
312.787	90.25
313.017	85.25
313.246	96.25
313.476	94.25
313.706	81.25
313.935	109.25
314.165	94.25
314.394	103.25
314.624	95.25
314.853	98.25
315.083	104.25
315.312	91.25
315.542	85.25
315.771	90.25
316.001	99.25
316.23	82.25
316.46	94.25
316.689	91.25
316.919	92.25
317.148	90.25
317.377	82.25
317.607	91.25
317.836	93.25
318.065	95.25
318.295	97.25
318.524	99.25
318.753	89.25
318.983	102.25
319.212	86.25
319.441	99.25
319.67	98.25
319.9	83.25
320.129	95.25
320.358	95.25
320.587	85.25
320.816	88.25
321.046	111.25
321.275	92.25
321.504	92.25
321.733	94.25
321.962	92.25
322.191	102.25
322.42	97.25
322.649	98.25
322.878	98.25
323.108	108.25
323.337	100.25
323.566	111.25
323.795	139.25
324.024	177.25
324.253	307.25
324.482	673.25
324.71	1398.25
324.939	1794.25
325.168	688.25
325.397	212.25
325.626	131.25
325.855	121.25
326.084	117.25
326.313	108.25
326.542	147.25
326.77	197.25
326.999	376.25
327.228	791.25
327.457	1421.25
327.686	1114.25
327.914	326.25
328.143	190.25
328.372	156.25
328.6	115.25
328.829	109.25
329.058	134.25
329.287	127.25
329.515	104.25
329.744	94.25
329.972	116.25
330.201	139.25
330.43	171.25
330.658	134.25
330.887	132.25
331.115	108.25
331.344	103.25
331.572	92.25
331.801	104.25
332.03	93.25
332.258	95.25
332.486	85.25
332.715	105.25
332.943	85.25
333.172	108.25
333.4	88.25
333.629	107.25
333.857	103.25
334.085	126.25
334.314	137.25
334.542	186.25
334.771	170.25
334.999	110.25
335.227	105.25
335.455	95.25
335.684	109.25
335.912	94.25
336.14	98.25
336.369	93.25
336.597	77.25
336.825	94.25
337.053	85.25
337.281	91.25
337.51	82.25
337.738	89.25
337.966	78.25
338.194	101.25
338.422	98.25
338.65	81.25
338.878	98.25
339.106	89.25
339.334	99.25
339.562	86.25
339.79	90.25
340.018	98.25
340.246	95.25
340.474	83.25
340.702	95.25
340.93	92.25
341.158	92.25
341.386	91.25
341.614	98.25
341.842	102.25
342.07	99.25
342.298	81.25
342.526	79.25
342.754	87.25
342.981	89.25
343.209	88.25
343.437	106.25
343.665	82.25
343.893	82.25
344.12	109.25
344.348	87.25
344.576	93.25
344.804	79.25
345.031	86.25
345.259	95.25
345.487	98.25
345.714	102.25
345.942	77.25
346.17	92.25
346.397	84.25
346.625	94.25
346.853	92.25
347.08	88.25
347.308	87.25
347.535	102.25
347.763	98.25
347.99	102.25
348.218	96.25
348.445	95.25
348.673	102.25
348.9	87.25
349.128	84.25
349.355	91.25
349.583	98.25
349.81	88.25
350.037	94.25
350.265	85.25
350.492	83.25
350.72	86.25
350.947	92.25
351.174	109.25
351.402	112.25
351.629	107.25
351.856	103.25
352.083	103.25
352.311	104.25
352.538	94.25
352.765	108.25
352.992	107.25
353.22	98.25
353.447	109.25
353.674	103.25
353.901	86.25
354.128	97.25
354.355	98.25
354.583	87.25
354.81	94.25
355.037	90.25
355.264	87.25
355.491	98.25
355.718	85.25
355.945	93.25
356.172	98.25
356.399	82.25
356.626	88.25
356.853	93.25
357.08	85.25
357.307	82.25
357.534	95.25
357.761	87.25
357.988	81.25
358.215	94.25
358.441	86.25
358.668	94.25
358.895	94.25
359.122	84.25
359.349	86.25
359.576	74.25
359.802	88.25
360.029	103.25
360.256	92.25
360.483	84.25
360.709	73.25
360.936	85.25
361.163	89.25
361.39	93.25
361.616	95.25
361.843	101.25
362.07	83.25
362.296	87.25
362.523	85.25
362.749	77.25
362.976	89.25
363.203	94.25
363.429	85.25
363.656	90.25
363.882	96.25
364.109	95.25
364.335	95.25
364.562	83.25
364.788	101.25
365.015	93.25
365.241	97.25
365.468	107.25
365.694	107.25
365.92	91.25
366.147	84.25
366.373	71.25
366.599	91.25
366.826	86.25
367.052	86.25
367.278	86.25
367.505	97.25
367.731	91.25
367.957	86.25
368.184	87.25
368.41	101.25
368.636	118.25
368.862	127.25
369.089	108.25
369.315	100.25
369.541	94.25
369.767	95.25
369.993	91.25
370.219	90.25
370.445	84.25
370.672	95.25
370.898	90.25
371.124	103.25
371.35	83.25
371.576	95.25
371.802	92.25
372.028	90.25
372.254	92.25
372.48	91.25
372.706	79.25
372.932	83.25
373.158	104.25
373.384	83.25
373.61	91.25
373.835	92.25
374.061	91.25
374.287	104.25
374.513	94.25
374.739	85.25
374.965	84.25
375.191	92.25
375.416	84.25
375.642	102.25
375.868	88.25
376.094	90.25
376.319	84.25
376.545	78.25
376.771	81.25
376.997	93.25
377.222	100.25
377.448	94.25
377.674	112.25
377.899	85.25
378.125	75.25
378.35	87.25
378.576	86.25
378.802	103.25
379.027	89.25
379.253	91.25
379.478	95.25
379.704	95.25
379.929	104.25
380.155	88.25
380.38	94.25
380.606	78.25
380.831	80.25
381.057	81.25
381.282	104.25
381.507	99.25
381.733	109.25
381.958	83.25
382.184	84.25
382.409	91.25
382.634	90.25
382.86	87.25
383.085	95.25
383.31	104.25
383.535	85.25
383.761	80.25
383.986	86.25
384.211	83.25
384.436	99.25
384.662	93.25
384.887	95.25
385.112	107.25
385.337	95.25
385.562	87.25
385.787	103.25
386.013	97.25
386.238	102.25
386.463	101.25
386.688	101.25
386.913	107.25
387.138	112.25
387.363	85.25
387.588	97.25
387.813	103.25
388.038	106.25
388.263	104.25
388.488	102.25
388.713	85.25
388.938	89.25
389.163	94.25
389.387	96.25
389.612	100.25
389.837	94.25
390.062	97.25
390.287	70.25
390.512	91.25
390.736	83.25
390.961	98.25
391.186	86.25
391.411	87.25
391.636	89.25
391.86	74.25
392.085	86.25
392.31	85.25
392.534	84.25
392.759	82.25
392.984	89.25
393.208	102.25
393.433	136.25
393.658	124.25
393.882	93.25
394.107	88.25
394.331	84.25
394.556	79.25
394.78	84.25
395.005	80.25
395.229	81.25
395.454	96.25
395.678	84.25
395.903	84.25
396.127	90.25
396.352	83.25
396.576	87.25
396.801	84.25
397.025	99.25
397.249	90.25
397.474	92.25
397.698	86.25
397.922	75.25
398.147	78.25
398.371	89.25
398.595	71.25
398.82	90.25
399.044	87.25
399.268	89.25
399.492	90.25
399.717	84.25
399.941	89.25
400.165	83.25
400.389	77.25
400.613	74.25
400.837	84.25
401.062	74.25
401.286	86.25
401.51	90.25
401.734	94.25
401.958	88.25
402.182	129.25
402.406	130.25
402.63	109.25
402.854	92.25
403.078	92.25
403.302	78.25
403.526	90.25
403.75	83.25
403.974	83.25
404.198	74.25
404.422	80.25
404.645	71.25
404.869	85.25
405.093	90.25
405.317	92.25
405.541	94.25
405.765	82.25
405.988	97.25
406.212	152.25
406.436	196.25
406.66	121.25
406.883	102.25
407.107	91.25
407.331	90.25
407.555	99.25
407.778	93.25
408.002	88.25
408.226	88.25
408.449	85.25
408.673	83.25
408.896	104.25
409.12	79.25
409.344	71.25
409.567	88.25
409.791	93.25
410.014	92.25
410.238	98.25
410.461	88.25
410.685	85.25
410.908	91.25
411.132	98.25
411.355	76.25
411.578	95.25
411.802	96.25
412.025	90.25
412.249	82.25
412.472	94.25
412.695	93.25
412.919	96.25
413.142	87.25
413.365	85.25
413.589	87.25
413.812	84.25
414.035	87.25
414.258	92.25
414.482	84.25
414.705	93.25
414.928	86.25
415.151	95.25
415.374	96.25
415.597	75.25
415.821	82.25
416.044	84.25
416.267	93.25
416.49	83.25
416.713	71.25
416.936	71.25
417.159	88.25
417.382	92.25
417.605	80.25
417.828	85.25
418.051	90.25
418.274	81.25
418.497	87.25
418.72	98.25
418.943	85.25
419.166	92.25
419.389	88.25
419.611	87.25
419.834	83.25
420.057	92.25
420.28	77.25
420.503	98.25
420.726	96.25
420.948	85.25
421.171	108.25
421.394	88.25
421.617	84.25
421.839	96.25
422.062	91.25
422.285	90.25
422.507	106.25
422.73	102.25
422.953	79.25
423.175	96.25
423.398	98.25
423.621	87.25
423.843	84.25
424.066	92.25
424.288	83.25
424.511	84.25
424.733	96.25
424.956	94.25
425.178	90.25
425.401	91.25
425.623	96.25
425.846	84.25
426.068	94.25
426.291	101.25
426.513	90.25
426.735	82.25
426.958	95.25
427.18	108.25
427.402	127.25
427.625	147.25
427.847	119.25
428.069	113.25
428.292	81.25
428.514	99.25
428.736	81.25
428.958	84.25
429.181	80.25
429.403	90.25
429.625	67.25
429.847	86.25
430.069	82.25
430.292	83.25
430.514	90.25
430.736	83.25
430.958	83.25
431.18	76.25
431.402	85.25
431.624	90.25
431.846	67.25
432.068	96.25
432.29	77.25
432.512	80.25
432.734	81.25
432.956	93.25
433.178	99.25
433.4	95.25
433.622	95.25
433.844	92.25
434.066	89.25
434.287	81.25
434.509	83.25
434.731	79.25
434.953	88.25
435.175	85.25
435.397	80.25
435.618	98.25
435.84	86.25
436.062	102.25
436.284	110.25
436.505	105.25
436.727	102.25
436.949	90.25
437.17	100.25
437.392	99.25
437.614	97.25
437.835	91.25
438.057	99.25
438.278	87.25
438.5	92.25
438.721	98.25
438.943	104.25
439.165	93.25
439.386	83.25
439.608	86.25
439.829	93.25
440.05	123.25
440.272	114.25
440.493	73.25
440.715	85.25
440.936	93.25
441.158	81.25
441.379	84.25
441.6	91.25
441.822	87.25
442.043	74.25
442.264	83.25
442.486	112.25
442.707	83.25
442.928	91.25
443.149	117.25
443.371	127.25
443.592	109.25
443.813	83.25
444.034	96.25
444.255	90.25
444.476	92.25
444.698	84.25
444.919	105.25
445.14	130.25
445.361	103.25
445.582	83.25
445.803	129.25
446.024	114.25
446.245	123.25
446.466	110.25
446.687	95.25
446.908	90.25
447.129	77.25
447.35	81.25
447.571	86.25
447.792	95.25
448.013	99.25
448.234	101.25
448.455	90.25
448.675	102.25
448.896	108.25
449.117	92.25
449.338	106.25
449.559	107.25
449.779	117.25
450	99.25
450.221	80.25
450.442	81.25
450.662	91.25
450.883	101.25
451.104	97.25
451.324	89.25
451.545	67.25
451.766	88.25
451.986	77.25
452.207	70.25
452.428	96.25
452.648	98.25
452.869	110.25
453.089	103.25
453.31	105.25
453.53	96.25
453.751	82.25
453.971	93.25
454.192	112.25
454.412	90.25
454.633	78.25
454.853	83.25
455.073	106.25
455.294	91.25
455.514	86.25
455.734	90.25
455.955	85.25
456.175	85.25
456.395	88.25
456.616	92.25
456.836	86.25
457.056	73.25
457.276	89.25
457.497	79.25
457.717	90.25
457.937	84.25
458.157	80.25
458.377	93.25
458.598	94.25
458.818	135.25
459.038	149.25
459.258	105.25
459.478	86.25
459.698	77.25
459.918	74.25
460.138	79.25
460.358	77.25
460.578	63.25
460.798	80.25
461.018	86.25
461.238	84.25
461.458	95.25
461.678	83.25
461.898	76.25
462.118	84.25
462.338	96.25
462.558	86.25
462.777	87.25
462.997	68.25
463.217	82.25
463.437	86.25
463.657	75.25
463.876	86.25
464.096	90.25
464.316	88.25
464.536	72.25
464.755	95.25
464.975	89.25
465.195	128.25
465.414	145.25
465.634	104.25
465.854	96.25
466.073	94.25
466.293	84.25
466.512	87.25
466.732	81.25
466.951	78.25
467.171	83.25
467.391	108.25
467.61	106.25
467.829	103.25
468.049	106.25
468.268	127.25
468.488	74.25
468.707	90.25
468.927	96.25
469.146	82.25
469.365	85.25
469.585	95.25
469.804	98.25
470.023	96.25
470.243	81.25
470.462	86.25
470.681	99.25
470.901	96.25
471.12	81.25
471.339	92.25
471.558	79.25
471.777	86.25
471.997	92.25
472.216	150.25
472.435	210.25
472.654	132.25
472.873	84.25
473.092	80.25
473.311	94.25
473.53	88.25
473.749	71.25
473.968	88.25
474.187	85.25
474.406	102.25
474.625	86.25
474.844	94.25
475.063	75.25
475.282	87.25
475.501	95.25
475.72	101.25
475.939	76.25
476.158	89.25
476.377	84.25
476.596	84.25
476.814	85.25
477.033	85.25
477.252	89.25
477.471	91.25
477.69	91.25
477.908	84.25
478.127	87.25
478.346	83.25
478.564	81.25
478.783	81.25
479.002	77.25
479.22	87.25
479.439	84.25
479.658	98.25
479.876	98.25
480.095	88.25
480.313	87.25
480.532	80.25
480.751	101.25
480.969	143.25
481.188	334.25
481.406	228.25
481.624	90.25
481.843	94.25
482.061	93.25
482.28	82.25
482.498	76.25
482.717	95.25
482.935	100.25
483.153	87.25
483.372	82.25
483.59	83.25
483.808	92.25
484.027	79.25
484.245	87.25
484.463	95.25
484.681	83.25
484.9	94.25
485.118	90.25
485.336	73.25
485.554	88.25
485.772	82.25
485.99	100.25
486.209	91.25
486.427	84.25
486.645	99.25
486.863	112.25
487.081	98.25
487.299	90.25
487.517	80.25
487.735	88.25
487.953	91.25
488.171	94.25
488.389	92.25
488.607	92.25
488.825	99.25
489.043	69.25
489.261	75.25
489.479	91.25
489.696	89.25
489.914	94.25
490.132	96.25
490.35	101.25
490.568	83.25
490.786	88.25
491.003	91.25
491.221	78.25
491.439	88.25
491.657	87.25
491.874	95.25
492.092	83.25
492.31	90.25
492.527	83.25
492.745	83.25
492.963	86.25
493.18	83.25
493.398	96.25
493.615	103.25
493.833	92.25
494.05	95.25
494.268	99.25
494.485	94.25
494.703	99.25
494.92	90.25
495.138	87.25
495.355	90.25
495.573	78.25
495.79	79.25
496.008	95.25
496.225	91.25
496.442	84.25
496.66	101.25
496.877	96.25
497.094	101.25
497.312	82.25
497.529	86.25
497.746	85.25
497.963	100.25
498.181	86.25
498.398	86.25
498.615	104.25
498.832	107.25
499.049	98.25
499.267	70.25
499.484	77.25
499.701	89.25
499.918	91.25
500.135	109.25
500.352	96.25
500.569	94.25
500.786	97.25
501.003	91.25
501.22	88.25
501.437	82.25
501.654	87.25
501.871	111.25
502.088	92.25
502.305	87.25
502.522	84.25
502.739	85.25
502.956	79.25
503.172	92.25
503.389	95.25
503.606	95.25
503.823	100.25
504.04	96.25
504.256	91.25
504.473	93.25
504.69	93.25
504.907	85.25
505.123	91.25
505.34	89.25
505.557	92.25
505.773	82.25
505.99	85.25
506.207	95.25
506.423	86.25
506.64	94.25
506.856	107.25
507.073	89.25
507.289	93.25
507.506	103.25
507.722	92.25
507.939	97.25
508.155	90.25
508.372	91.25
508.588	87.25
508.805	74.25
509.021	94.25
509.238	92.25
509.454	88.25
509.67	104.25
509.887	104.25
510.103	140.25
510.319	187.25
510.536	669.25
510.752	2006.25
510.968	544.25
511.184	148.25
511.401	88.25
511.617	102.25
511.833	91.25
512.049	92.25
512.265	87.25
512.481	108.25
512.698	90.25
512.914	80.25
513.13	85.25
513.346	83.25
513.562	97.25
513.778	90.25
513.994	99.25
514.21	87.25
514.426	95.25
514.642	118.25
514.858	104.25
515.074	143.25
515.29	388.25
515.506	1252.25
515.721	479.25
515.937	121.25
516.153	108.25
516.369	100.25
516.585	100.25
516.801	91.25
