Data from Uncirc_1989_H10_HRD10591_00028.txt Node
Date: Wed Jan 03 11:57:41 EST 2024
User: Yrep
Spectrometer: HR+D1059
Trigger mode: 1
Integration Time (sec): 1.000000E-1
Scans to average: 1
Electric dark correction enabled: true
Nonlinearity correction enabled: false
Boxcar width: 0
XAxis mode: Wavelengths
Number of Pixels in Spectrum: 2048
>>>>>Begin Spectral Data<<<<<
223.165	-6.94
223.4	-6.94
223.635	-6.94
223.869	-22.94
224.104	-20.94
224.338	-23.94
224.573	-22.94
224.808	-25.94
225.042	-20.94
225.277	3.06
225.511	-2.94
225.746	3.06
225.98	23.06
226.215	13.06
226.449	23.06
226.683	14.06
226.918	34.06
227.152	34.06
227.387	35.06
227.621	38.06
227.856	48.06
228.09	58.06
228.324	44.06
228.559	66.06
228.793	55.06
229.027	60.06
229.262	83.06
229.496	73.06
229.73	73.06
229.964	59.06
230.199	85.06
230.433	74.06
230.667	82.06
230.901	76.06
231.136	88.06
231.37	80.06
231.604	69.06
231.838	80.06
232.072	73.06
232.306	95.06
232.541	82.06
232.775	73.06
233.009	79.06
233.243	102.06
233.477	90.06
233.711	77.06
233.945	90.06
234.179	75.06
234.413	79.06
234.647	90.06
234.881	73.06
235.115	81.06
235.349	87.06
235.583	89.06
235.817	84.06
236.051	84.06
236.285	82.06
236.519	87.06
236.753	99.06
236.987	84.06
237.221	82.06
237.455	80.06
237.689	81.06
237.922	80.06
238.156	90.06
238.39	82.06
238.624	80.06
238.858	75.06
239.091	80.06
239.325	71.06
239.559	94.06
239.793	62.06
240.027	80.06
240.26	84.06
240.494	68.06
240.728	84.06
240.961	74.06
241.195	70.06
241.429	77.06
241.662	87.06
241.896	84.06
242.13	76.06
242.363	72.06
242.597	87.06
242.83	71.06
243.064	79.06
243.298	84.06
243.531	89.06
243.765	69.06
243.998	80.06
244.232	73.06
244.465	90.06
244.699	72.06
244.932	84.06
245.166	91.06
245.399	84.06
245.633	65.06
245.866	89.06
246.099	82.06
246.333	85.06
246.566	82.06
246.8	88.06
247.033	76.06
247.266	90.06
247.5	84.06
247.733	90.06
247.966	97.06
248.2	78.06
248.433	74.06
248.666	86.06
248.899	83.06
249.133	88.06
249.366	99.06
249.599	88.06
249.832	94.06
250.066	116.06
250.299	87.06
250.532	99.06
250.765	86.06
250.998	72.06
251.231	79.06
251.465	80.06
251.698	78.06
251.931	81.06
252.164	83.06
252.397	78.06
252.63	73.06
252.863	67.06
253.096	78.06
253.329	87.06
253.562	91.06
253.795	93.06
254.028	86.06
254.261	85.06
254.494	81.06
254.727	72.06
254.96	82.06
255.193	71.06
255.426	106.06
255.659	75.06
255.892	80.06
256.124	73.06
256.357	76.06
256.59	74.06
256.823	95.06
257.056	89.06
257.289	83.06
257.521	86.06
257.754	86.06
257.987	96.06
258.22	82.06
258.452	78.06
258.685	88.06
258.918	87.06
259.151	88.06
259.383	88.06
259.616	80.06
259.849	82.06
260.081	78.06
260.314	98.06
260.547	97.06
260.779	87.06
261.012	82.06
261.244	97.06
261.477	96.06
261.71	101.06
261.942	103.06
262.175	107.06
262.407	90.06
262.64	88.06
262.872	94.06
263.105	86.06
263.337	83.06
263.57	92.06
263.802	83.06
264.035	77.06
264.267	92.06
264.499	89.06
264.732	99.06
264.964	73.06
265.197	89.06
265.429	89.06
265.661	85.06
265.894	80.06
266.126	84.06
266.358	80.06
266.591	84.06
266.823	76.06
267.055	95.06
267.287	65.06
267.52	89.06
267.752	83.06
267.984	90.06
268.216	81.06
268.448	80.06
268.681	84.06
268.913	83.06
269.145	86.06
269.377	99.06
269.609	88.06
269.841	82.06
270.073	92.06
270.306	85.06
270.538	71.06
270.77	79.06
271.002	73.06
271.234	90.06
271.466	91.06
271.698	73.06
271.93	87.06
272.162	82.06
272.394	81.06
272.626	83.06
272.858	98.06
273.09	87.06
273.322	89.06
273.553	88.06
273.785	90.06
274.017	91.06
274.249	85.06
274.481	98.06
274.713	86.06
274.945	72.06
275.176	79.06
275.408	101.06
275.64	89.06
275.872	80.06
276.104	94.06
276.335	94.06
276.567	102.06
276.799	98.06
277.031	97.06
277.262	108.06
277.494	97.06
277.726	95.06
277.957	87.06
278.189	82.06
278.421	96.06
278.652	76.06
278.884	83.06
279.115	81.06
279.347	81.06
279.579	82.06
279.81	83.06
280.042	86.06
280.273	86.06
280.505	106.06
280.736	74.06
280.968	64.06
281.199	90.06
281.431	86.06
281.662	86.06
281.894	87.06
282.125	107.06
282.356	112.06
282.588	131.06
282.819	113.06
283.051	91.06
283.282	103.06
283.513	98.06
283.745	84.06
283.976	75.06
284.207	79.06
284.439	87.06
284.67	90.06
284.901	84.06
285.132	98.06
285.364	90.06
285.595	96.06
285.826	78.06
286.057	85.06
286.288	85.06
286.52	89.06
286.751	86.06
286.982	98.06
287.213	98.06
287.444	92.06
287.675	98.06
287.906	81.06
288.138	81.06
288.369	88.06
288.6	78.06
288.831	88.06
289.062	91.06
289.293	88.06
289.524	90.06
289.755	85.06
289.986	99.06
290.217	91.06
290.448	90.06
290.679	82.06
290.91	91.06
291.141	84.06
291.371	94.06
291.602	87.06
291.833	97.06
292.064	94.06
292.295	98.06
292.526	87.06
292.757	89.06
292.987	83.06
293.218	90.06
293.449	87.06
293.68	83.06
293.91	86.06
294.141	84.06
294.372	97.06
294.603	95.06
294.833	97.06
295.064	97.06
295.295	95.06
295.525	94.06
295.756	111.06
295.987	108.06
296.217	119.06
296.448	122.06
296.679	92.06
296.909	84.06
297.14	99.06
297.37	89.06
297.601	98.06
297.831	88.06
298.062	90.06
298.292	105.06
298.523	92.06
298.753	90.06
298.984	87.06
299.214	68.06
299.445	88.06
299.675	89.06
299.905	96.06
300.136	106.06
300.366	88.06
300.597	88.06
300.827	84.06
301.057	95.06
301.288	116.06
301.518	86.06
301.748	92.06
301.979	98.06
302.209	86.06
302.439	91.06
302.669	98.06
302.9	91.06
303.13	88.06
303.36	94.06
303.59	95.06
303.82	111.06
304.051	106.06
304.281	95.06
304.511	112.06
304.741	99.06
304.971	88.06
305.201	96.06
305.431	86.06
305.661	88.06
305.891	91.06
306.121	89.06
306.352	88.06
306.582	103.06
306.812	91.06
307.042	87.06
307.272	103.06
307.502	95.06
307.731	98.06
307.961	112.06
308.191	94.06
308.421	89.06
308.651	89.06
308.881	89.06
309.111	74.06
309.341	73.06
309.571	91.06
309.8	90.06
310.03	101.06
310.26	92.06
310.49	100.06
310.72	102.06
310.949	112.06
311.179	104.06
311.409	112.06
311.639	83.06
311.868	76.06
312.098	92.06
312.328	90.06
312.557	98.06
312.787	104.06
313.017	101.06
313.246	102.06
313.476	101.06
313.706	84.06
313.935	96.06
314.165	96.06
314.394	105.06
314.624	113.06
314.853	100.06
315.083	103.06
315.312	103.06
315.542	86.06
315.771	89.06
316.001	72.06
316.23	96.06
316.46	109.06
316.689	84.06
316.919	93.06
317.148	99.06
317.377	84.06
317.607	79.06
317.836	94.06
318.065	85.06
318.295	78.06
318.524	87.06
318.753	83.06
318.983	89.06
319.212	107.06
319.441	104.06
319.67	103.06
319.9	103.06
320.129	95.06
320.358	107.06
320.587	102.06
320.816	89.06
321.046	98.06
321.275	104.06
321.504	86.06
321.733	100.06
321.962	97.06
322.191	118.06
322.42	108.06
322.649	123.06
322.878	109.06
323.108	106.06
323.337	114.06
323.566	114.06
323.795	132.06
324.024	189.06
324.253	334.06
324.482	699.06
324.71	1388.06
324.939	1800.06
325.168	671.06
325.397	204.06
325.626	136.06
325.855	120.06
326.084	111.06
326.313	108.06
326.542	143.06
326.77	216.06
326.999	387.06
327.228	798.06
327.457	1449.06
327.686	1156.06
327.914	334.06
328.143	194.06
328.372	156.06
328.6	128.06
328.829	102.06
329.058	126.06
329.287	106.06
329.515	103.06
329.744	96.06
329.972	117.06
330.201	146.06
330.43	157.06
330.658	134.06
330.887	126.06
331.115	134.06
331.344	94.06
331.572	102.06
331.801	101.06
332.03	108.06
332.258	103.06
332.486	92.06
332.715	97.06
332.943	92.06
333.172	85.06
333.4	91.06
333.629	107.06
333.857	115.06
334.085	115.06
334.314	139.06
334.542	165.06
334.771	155.06
334.999	94.06
335.227	90.06
335.455	88.06
335.684	109.06
335.912	85.06
336.14	100.06
336.369	107.06
336.597	92.06
336.825	99.06
337.053	92.06
337.281	101.06
337.51	70.06
337.738	100.06
337.966	105.06
338.194	90.06
338.422	94.06
338.65	104.06
338.878	81.06
339.106	73.06
339.334	96.06
339.562	91.06
339.79	92.06
340.018	86.06
340.246	95.06
340.474	86.06
340.702	84.06
340.93	99.06
341.158	84.06
341.386	82.06
341.614	87.06
341.842	94.06
342.07	104.06
342.298	97.06
342.526	84.06
342.754	84.06
342.981	97.06
343.209	90.06
343.437	111.06
343.665	98.06
343.893	90.06
344.12	93.06
344.348	95.06
344.576	87.06
344.804	86.06
345.031	97.06
345.259	84.06
345.487	100.06
345.714	92.06
345.942	89.06
346.17	91.06
346.397	92.06
346.625	85.06
346.853	99.06
347.08	93.06
347.308	86.06
347.535	91.06
347.763	86.06
347.99	94.06
348.218	90.06
348.445	102.06
348.673	103.06
348.9	94.06
349.128	104.06
349.355	102.06
349.583	98.06
349.81	100.06
350.037	101.06
350.265	94.06
350.492	90.06
350.72	115.06
350.947	102.06
351.174	114.06
351.402	99.06
351.629	112.06
351.856	91.06
352.083	103.06
352.311	110.06
352.538	118.06
352.765	105.06
352.992	111.06
353.22	119.06
353.447	100.06
353.674	96.06
353.901	90.06
354.128	102.06
354.355	104.06
354.583	94.06
354.81	79.06
355.037	88.06
355.264	90.06
355.491	98.06
355.718	108.06
355.945	110.06
356.172	97.06
356.399	96.06
356.626	92.06
356.853	108.06
357.08	99.06
357.307	94.06
357.534	89.06
357.761	83.06
357.988	92.06
358.215	92.06
358.441	78.06
358.668	91.06
358.895	103.06
359.122	86.06
359.349	90.06
359.576	99.06
359.802	101.06
360.029	102.06
360.256	103.06
360.483	75.06
360.709	98.06
360.936	104.06
361.163	93.06
361.39	86.06
361.616	99.06
361.843	97.06
362.07	85.06
362.296	94.06
362.523	93.06
362.749	99.06
362.976	75.06
363.203	87.06
363.429	97.06
363.656	88.06
363.882	82.06
364.109	99.06
364.335	90.06
364.562	86.06
364.788	88.06
365.015	83.06
365.241	96.06
365.468	103.06
365.694	101.06
365.92	89.06
366.147	103.06
366.373	86.06
366.599	95.06
366.826	96.06
367.052	91.06
367.278	94.06
367.505	86.06
367.731	92.06
367.957	97.06
368.184	86.06
368.41	101.06
368.636	101.06
368.862	126.06
369.089	102.06
369.315	101.06
369.541	100.06
369.767	100.06
369.993	92.06
370.219	99.06
370.445	90.06
370.672	100.06
370.898	91.06
371.124	86.06
371.35	94.06
371.576	92.06
371.802	85.06
372.028	84.06
372.254	83.06
372.48	86.06
372.706	85.06
372.932	99.06
373.158	80.06
373.384	91.06
373.61	87.06
373.835	89.06
374.061	92.06
374.287	73.06
374.513	84.06
374.739	97.06
374.965	99.06
375.191	85.06
375.416	88.06
375.642	94.06
375.868	89.06
376.094	98.06
376.319	95.06
376.545	92.06
376.771	92.06
376.997	87.06
377.222	80.06
377.448	81.06
377.674	82.06
377.899	101.06
378.125	92.06
378.35	82.06
378.576	103.06
378.802	86.06
379.027	95.06
379.253	99.06
379.478	104.06
379.704	94.06
379.929	90.06
380.155	91.06
380.38	106.06
380.606	105.06
380.831	90.06
381.057	95.06
381.282	96.06
381.507	98.06
381.733	101.06
381.958	93.06
382.184	86.06
382.409	78.06
382.634	108.06
382.86	111.06
383.085	90.06
383.31	102.06
383.535	88.06
383.761	101.06
383.986	96.06
384.211	98.06
384.436	104.06
384.662	101.06
384.887	103.06
385.112	108.06
385.337	98.06
385.562	90.06
385.787	95.06
386.013	104.06
386.238	104.06
386.463	85.06
386.688	117.06
386.913	96.06
387.138	82.06
387.363	103.06
387.588	100.06
387.813	113.06
388.038	108.06
388.263	114.06
388.488	98.06
388.713	106.06
388.938	103.06
389.163	85.06
389.387	100.06
389.612	100.06
389.837	99.06
390.062	102.06
390.287	84.06
390.512	102.06
390.736	93.06
390.961	93.06
391.186	86.06
391.411	82.06
391.636	89.06
391.86	80.06
392.085	93.06
392.31	93.06
392.534	85.06
392.759	105.06
392.984	90.06
393.208	102.06
393.433	114.06
393.658	104.06
393.882	89.06
394.107	96.06
394.331	90.06
394.556	92.06
394.78	96.06
395.005	106.06
395.229	95.06
395.454	86.06
395.678	97.06
395.903	82.06
396.127	84.06
396.352	90.06
396.576	96.06
396.801	99.06
397.025	108.06
397.249	91.06
397.474	91.06
397.698	86.06
397.922	91.06
398.147	78.06
398.371	76.06
398.595	88.06
398.82	86.06
399.044	86.06
399.268	96.06
399.492	88.06
399.717	84.06
399.941	91.06
400.165	80.06
400.389	97.06
400.613	81.06
400.837	75.06
401.062	87.06
401.286	84.06
401.51	94.06
401.734	80.06
401.958	102.06
402.182	121.06
402.406	139.06
402.63	121.06
402.854	102.06
403.078	85.06
403.302	94.06
403.526	83.06
403.75	93.06
403.974	82.06
404.198	94.06
404.422	85.06
404.645	96.06
404.869	103.06
405.093	98.06
405.317	105.06
405.541	93.06
405.765	86.06
405.988	115.06
406.212	153.06
406.436	194.06
406.66	128.06
406.883	101.06
407.107	70.06
407.331	75.06
407.555	104.06
407.778	94.06
408.002	91.06
408.226	87.06
408.449	97.06
408.673	85.06
408.896	85.06
409.12	98.06
409.344	84.06
409.567	97.06
409.791	107.06
410.014	98.06
410.238	94.06
410.461	93.06
410.685	93.06
410.908	87.06
411.132	98.06
411.355	97.06
411.578	98.06
411.802	98.06
412.025	90.06
412.249	78.06
412.472	94.06
412.695	103.06
412.919	94.06
413.142	88.06
413.365	87.06
413.589	83.06
413.812	82.06
414.035	107.06
414.258	85.06
414.482	99.06
414.705	107.06
414.928	94.06
415.151	85.06
415.374	93.06
415.597	93.06
415.821	93.06
416.044	90.06
416.267	78.06
416.49	85.06
416.713	104.06
416.936	94.06
417.159	97.06
417.382	98.06
417.605	98.06
417.828	88.06
418.051	94.06
418.274	89.06
418.497	88.06
418.72	92.06
418.943	79.06
419.166	99.06
419.389	98.06
419.611	88.06
419.834	100.06
420.057	85.06
420.28	86.06
420.503	85.06
420.726	84.06
420.948	79.06
421.171	83.06
421.394	106.06
421.617	91.06
421.839	80.06
422.062	95.06
422.285	90.06
422.507	86.06
422.73	98.06
422.953	91.06
423.175	94.06
423.398	90.06
423.621	101.06
423.843	86.06
424.066	81.06
424.288	90.06
424.511	89.06
424.733	99.06
424.956	100.06
425.178	89.06
425.401	85.06
425.623	94.06
425.846	96.06
426.068	102.06
426.291	91.06
426.513	89.06
426.735	83.06
426.958	96.06
427.18	100.06
427.402	124.06
427.625	151.06
427.847	126.06
428.069	105.06
428.292	99.06
428.514	84.06
428.736	84.06
428.958	81.06
429.181	94.06
429.403	93.06
429.625	91.06
429.847	90.06
430.069	97.06
430.292	102.06
430.514	86.06
430.736	98.06
430.958	89.06
431.18	75.06
431.402	86.06
431.624	78.06
431.846	82.06
432.068	102.06
432.29	94.06
432.512	85.06
432.734	91.06
432.956	89.06
433.178	98.06
433.4	91.06
433.622	105.06
433.844	82.06
434.066	84.06
434.287	94.06
434.509	100.06
434.731	95.06
434.953	100.06
435.175	92.06
435.397	98.06
435.618	105.06
435.84	109.06
436.062	108.06
436.284	106.06
436.505	107.06
436.727	101.06
436.949	108.06
437.17	84.06
437.392	89.06
437.614	105.06
437.835	111.06
438.057	106.06
438.278	107.06
438.5	101.06
438.721	107.06
438.943	91.06
439.165	79.06
439.386	85.06
439.608	89.06
439.829	90.06
440.05	113.06
440.272	142.06
440.493	98.06
440.715	99.06
440.936	90.06
441.158	86.06
441.379	99.06
441.6	87.06
441.822	89.06
442.043	111.06
442.264	88.06
442.486	86.06
442.707	99.06
442.928	107.06
443.149	118.06
443.371	102.06
443.592	108.06
443.813	102.06
444.034	113.06
444.255	73.06
444.476	89.06
444.698	94.06
444.919	88.06
445.14	130.06
445.361	130.06
445.582	106.06
445.803	139.06
446.024	145.06
446.245	116.06
446.466	109.06
446.687	82.06
446.908	99.06
447.129	73.06
447.35	90.06
447.571	91.06
447.792	106.06
448.013	97.06
448.234	88.06
448.455	100.06
448.675	101.06
448.896	110.06
449.117	104.06
449.338	102.06
449.559	103.06
449.779	133.06
450	83.06
450.221	88.06
450.442	92.06
450.662	81.06
450.883	86.06
451.104	109.06
451.324	81.06
451.545	96.06
451.766	94.06
451.986	90.06
452.207	101.06
452.428	112.06
452.648	112.06
452.869	95.06
453.089	103.06
453.31	108.06
453.53	110.06
453.751	109.06
453.971	91.06
454.192	105.06
454.412	87.06
454.633	90.06
454.853	83.06
455.073	89.06
455.294	88.06
455.514	88.06
455.734	89.06
455.955	78.06
456.175	84.06
456.395	86.06
456.616	89.06
456.836	71.06
457.056	89.06
457.276	72.06
457.497	67.06
457.717	92.06
457.937	78.06
458.157	70.06
458.377	82.06
458.598	112.06
458.818	129.06
459.038	147.06
459.258	102.06
459.478	89.06
459.698	103.06
459.918	98.06
460.138	94.06
460.358	95.06
460.578	95.06
460.798	84.06
461.018	83.06
461.238	93.06
461.458	82.06
461.678	76.06
461.898	92.06
462.118	88.06
462.338	88.06
462.558	87.06
462.777	80.06
462.997	92.06
463.217	76.06
463.437	103.06
463.657	88.06
463.876	90.06
464.096	78.06
464.316	93.06
464.536	94.06
464.755	88.06
464.975	115.06
465.195	137.06
465.414	130.06
465.634	80.06
465.854	87.06
466.073	78.06
466.293	92.06
466.512	102.06
466.732	99.06
466.951	97.06
467.171	99.06
467.391	85.06
467.61	95.06
467.829	94.06
468.049	118.06
468.268	102.06
468.488	87.06
468.707	90.06
468.927	87.06
469.146	96.06
469.365	98.06
469.585	86.06
469.804	98.06
470.023	102.06
470.243	89.06
470.462	106.06
470.681	107.06
470.901	93.06
471.12	96.06
471.339	76.06
471.558	96.06
471.777	99.06
471.997	111.06
472.216	136.06
472.435	184.06
472.654	101.06
472.873	93.06
473.092	75.06
473.311	83.06
473.53	94.06
473.749	95.06
473.968	82.06
474.187	103.06
474.406	105.06
474.625	91.06
474.844	86.06
475.063	73.06
475.282	69.06
475.501	78.06
475.72	93.06
475.939	80.06
476.158	82.06
476.377	86.06
476.596	85.06
476.814	89.06
477.033	88.06
477.252	81.06
477.471	88.06
477.69	96.06
477.908	78.06
478.127	83.06
478.346	90.06
478.564	109.06
478.783	91.06
479.002	94.06
479.22	86.06
479.439	93.06
479.658	88.06
479.876	98.06
480.095	84.06
480.313	98.06
480.532	100.06
480.751	104.06
480.969	139.06
481.188	263.06
481.406	195.06
481.624	99.06
481.843	91.06
482.061	88.06
482.28	95.06
482.498	82.06
482.717	85.06
482.935	94.06
483.153	110.06
483.372	80.06
483.59	98.06
483.808	94.06
484.027	96.06
484.245	91.06
484.463	102.06
484.681	98.06
484.9	87.06
485.118	92.06
485.336	101.06
485.554	90.06
485.772	112.06
485.99	115.06
486.209	97.06
486.427	98.06
486.645	116.06
486.863	102.06
487.081	110.06
487.299	99.06
487.517	94.06
487.735	81.06
487.953	95.06
488.171	92.06
488.389	102.06
488.607	95.06
488.825	90.06
489.043	88.06
489.261	82.06
489.479	92.06
489.696	92.06
489.914	85.06
490.132	78.06
490.35	99.06
490.568	98.06
490.786	91.06
491.003	84.06
491.221	84.06
491.439	88.06
491.657	92.06
491.874	81.06
492.092	100.06
492.31	88.06
492.527	84.06
492.745	91.06
492.963	92.06
493.18	93.06
493.398	100.06
493.615	86.06
493.833	101.06
494.05	93.06
494.268	93.06
494.485	98.06
494.703	96.06
494.92	94.06
495.138	82.06
495.355	97.06
495.573	89.06
495.79	105.06
496.008	97.06
496.225	91.06
496.442	81.06
496.66	106.06
496.877	105.06
497.094	109.06
497.312	94.06
497.529	114.06
497.746	96.06
497.963	102.06
498.181	78.06
498.398	90.06
498.615	102.06
498.832	100.06
499.049	92.06
499.267	99.06
499.484	98.06
499.701	83.06
499.918	83.06
500.135	88.06
500.352	85.06
500.569	99.06
500.786	94.06
501.003	98.06
501.22	98.06
501.437	86.06
501.654	97.06
501.871	90.06
502.088	104.06
502.305	106.06
502.522	102.06
502.739	95.06
502.956	102.06
503.172	96.06
503.389	89.06
503.606	91.06
503.823	86.06
504.04	100.06
504.256	80.06
504.473	96.06
504.69	103.06
504.907	91.06
505.123	82.06
505.34	94.06
505.557	83.06
505.773	89.06
505.99	101.06
506.207	91.06
506.423	81.06
506.64	95.06
506.856	98.06
507.073	103.06
507.289	96.06
507.506	110.06
507.722	111.06
507.939	120.06
508.155	92.06
508.372	106.06
508.588	98.06
508.805	99.06
509.021	99.06
509.238	95.06
509.454	106.06
509.67	99.06
509.887	101.06
510.103	121.06
510.319	183.06
510.536	612.06
510.752	1842.06
510.968	508.06
511.184	139.06
511.401	108.06
511.617	103.06
511.833	94.06
512.049	89.06
512.265	88.06
512.481	84.06
512.698	90.06
512.914	83.06
513.13	103.06
513.346	89.06
513.562	85.06
513.778	96.06
513.994	100.06
514.21	95.06
514.426	119.06
514.642	130.06
514.858	121.06
515.074	131.06
515.29	363.06
