Data from Uncirc_1989_H10_HRD10591_00059.txt Node
Date: Wed Jan 03 11:57:47 EST 2024
User: Yrep
Spectrometer: HR+D1059
Trigger mode: 1
Integration Time (sec): 1.000000E-1
Scans to average: 1
Electric dark correction enabled: true
Nonlinearity correction enabled: false
Boxcar width: 0
XAxis mode: Wavelengths
Number of Pixels in Spectrum: 2048
>>>>>Begin Spectral Data<<<<<
223.165	-15.25
223.4	-15.25
223.635	-15.25
223.869	-17.25
224.104	-32.25
224.338	-29.25
224.573	-14.25
224.808	-3.25
225.042	-0.25
225.277	-16.25
225.511	-8.25
225.746	4.75
225.98	4.75
226.215	10.75
226.449	20.75
226.683	27.75
226.918	30.75
227.152	36.75
227.387	47.75
227.621	45.75
227.856	42.75
228.09	57.75
228.324	55.75
228.559	52.75
228.793	51.75
229.027	60.75
229.262	52.75
229.496	77.75
229.73	72.75
229.964	78.75
230.199	75.75
230.433	74.75
230.667	83.75
230.901	75.75
231.136	87.75
231.37	75.75
231.604	84.75
231.838	85.75
232.072	75.75
232.306	84.75
232.541	77.75
232.775	87.75
233.009	71.75
233.243	76.75
233.477	81.75
233.711	79.75
233.945	79.75
234.179	89.75
234.413	84.75
234.647	73.75
234.881	67.75
235.115	81.75
235.349	70.75
235.583	85.75
235.817	75.75
236.051	74.75
236.285	79.75
236.519	82.75
236.753	76.75
236.987	70.75
237.221	92.75
237.455	93.75
237.689	75.75
237.922	70.75
238.156	55.75
238.39	76.75
238.624	74.75
238.858	79.75
239.091	67.75
239.325	86.75
239.559	81.75
239.793	69.75
240.027	69.75
240.26	84.75
240.494	70.75
240.728	73.75
240.961	77.75
241.195	71.75
241.429	85.75
241.662	77.75
241.896	70.75
242.13	61.75
242.363	67.75
242.597	80.75
242.83	70.75
243.064	73.75
243.298	71.75
243.531	79.75
243.765	66.75
243.998	83.75
244.232	76.75
244.465	89.75
244.699	78.75
244.932	69.75
245.166	79.75
245.399	78.75
245.633	69.75
245.866	77.75
246.099	61.75
246.333	80.75
246.566	64.75
246.8	66.75
247.033	60.75
247.266	81.75
247.5	66.75
247.733	73.75
247.966	80.75
248.2	75.75
248.433	79.75
248.666	90.75
248.899	86.75
249.133	78.75
249.366	90.75
249.599	83.75
249.832	82.75
250.066	87.75
250.299	66.75
250.532	84.75
250.765	79.75
250.998	69.75
251.231	84.75
251.465	93.75
251.698	82.75
251.931	71.75
252.164	75.75
252.397	67.75
252.63	69.75
252.863	73.75
253.096	74.75
253.329	78.75
253.562	60.75
253.795	82.75
254.028	64.75
254.261	71.75
254.494	68.75
254.727	92.75
254.96	81.75
255.193	89.75
255.426	68.75
255.659	82.75
255.892	75.75
256.124	77.75
256.357	81.75
256.59	66.75
256.823	75.75
257.056	87.75
257.289	70.75
257.521	77.75
257.754	73.75
257.987	77.75
258.22	72.75
258.452	77.75
258.685	77.75
258.918	85.75
259.151	84.75
259.383	89.75
259.616	83.75
259.849	78.75
260.081	77.75
260.314	77.75
260.547	85.75
260.779	86.75
261.012	87.75
261.244	95.75
261.477	88.75
261.71	89.75
261.942	97.75
262.175	91.75
262.407	92.75
262.64	81.75
262.872	85.75
263.105	85.75
263.337	81.75
263.57	67.75
263.802	72.75
264.035	85.75
264.267	73.75
264.499	67.75
264.732	69.75
264.964	79.75
265.197	84.75
265.429	77.75
265.661	77.75
265.894	90.75
266.126	76.75
266.358	71.75
266.591	88.75
266.823	83.75
267.055	87.75
267.287	90.75
267.52	74.75
267.752	68.75
267.984	80.75
268.216	90.75
268.448	76.75
268.681	76.75
268.913	73.75
269.145	77.75
269.377	85.75
269.609	90.75
269.841	68.75
270.073	96.75
270.306	82.75
270.538	79.75
270.77	84.75
271.002	73.75
271.234	87.75
271.466	87.75
271.698	72.75
271.93	74.75
272.162	87.75
272.394	93.75
272.626	85.75
272.858	90.75
273.09	75.75
273.322	91.75
273.553	91.75
273.785	86.75
274.017	80.75
274.249	84.75
274.481	80.75
274.713	94.75
274.945	91.75
275.176	89.75
275.408	94.75
275.64	87.75
275.872	78.75
276.104	86.75
276.335	70.75
276.567	77.75
276.799	97.75
277.031	92.75
277.262	96.75
277.494	93.75
277.726	81.75
277.957	90.75
278.189	94.75
278.421	80.75
278.652	79.75
278.884	83.75
279.115	86.75
279.347	85.75
279.579	83.75
279.81	87.75
280.042	88.75
280.273	93.75
280.505	74.75
280.736	86.75
280.968	84.75
281.199	73.75
281.431	75.75
281.662	88.75
281.894	96.75
282.125	85.75
282.356	108.75
282.588	107.75
282.819	101.75
283.051	95.75
283.282	79.75
283.513	85.75
283.745	82.75
283.976	86.75
284.207	89.75
284.439	86.75
284.67	95.75
284.901	79.75
285.132	77.75
285.364	78.75
285.595	72.75
285.826	91.75
286.057	88.75
286.288	96.75
286.52	84.75
286.751	86.75
286.982	100.75
287.213	82.75
287.444	94.75
287.675	79.75
287.906	81.75
288.138	86.75
288.369	79.75
288.6	68.75
288.831	82.75
289.062	84.75
289.293	99.75
289.524	77.75
289.755	78.75
289.986	87.75
290.217	79.75
290.448	67.75
290.679	95.75
290.91	83.75
291.141	79.75
291.371	77.75
291.602	86.75
291.833	86.75
292.064	84.75
292.295	81.75
292.526	99.75
292.757	83.75
292.987	98.75
293.218	85.75
293.449	89.75
293.68	83.75
293.91	74.75
294.141	88.75
294.372	85.75
294.603	77.75
294.833	87.75
295.064	79.75
295.295	101.75
295.525	85.75
295.756	89.75
295.987	106.75
296.217	118.75
296.448	111.75
296.679	93.75
296.909	88.75
297.14	89.75
297.37	90.75
297.601	78.75
297.831	79.75
298.062	94.75
298.292	97.75
298.523	91.75
298.753	86.75
298.984	81.75
299.214	91.75
299.445	73.75
299.675	104.75
299.905	84.75
300.136	80.75
300.366	86.75
300.597	76.75
300.827	87.75
301.057	84.75
301.288	98.75
301.518	77.75
301.748	87.75
301.979	102.75
302.209	90.75
302.439	99.75
302.669	93.75
302.9	75.75
303.13	89.75
303.36	85.75
303.59	94.75
303.82	98.75
304.051	93.75
304.281	94.75
304.511	85.75
304.741	83.75
304.971	82.75
305.201	93.75
305.431	92.75
305.661	78.75
305.891	69.75
306.121	89.75
306.352	101.75
306.582	106.75
306.812	98.75
307.042	92.75
307.272	79.75
307.502	105.75
307.731	102.75
307.961	84.75
308.191	87.75
308.421	90.75
308.651	95.75
308.881	93.75
309.111	73.75
309.341	90.75
309.571	90.75
309.8	87.75
310.03	85.75
310.26	86.75
310.49	89.75
310.72	76.75
310.949	112.75
311.179	97.75
311.409	86.75
311.639	91.75
311.868	90.75
312.098	88.75
312.328	86.75
312.557	91.75
312.787	90.75
313.017	98.75
313.246	95.75
313.476	85.75
313.706	84.75
313.935	106.75
314.165	92.75
314.394	100.75
314.624	86.75
314.853	90.75
315.083	91.75
315.312	101.75
315.542	84.75
315.771	95.75
316.001	97.75
316.23	87.75
316.46	81.75
316.689	82.75
316.919	76.75
317.148	85.75
317.377	86.75
317.607	94.75
317.836	99.75
318.065	87.75
318.295	80.75
318.524	91.75
318.753	97.75
318.983	83.75
319.212	92.75
319.441	92.75
319.67	93.75
319.9	93.75
320.129	82.75
320.358	99.75
320.587	93.75
320.816	89.75
321.046	77.75
321.275	98.75
321.504	87.75
321.733	94.75
321.962	84.75
322.191	93.75
322.42	97.75
322.649	91.75
322.878	92.75
323.108	103.75
323.337	110.75
323.566	110.75
323.795	129.75
324.024	168.75
324.253	327.75
324.482	656.75
324.71	1347.75
324.939	1742.75
325.168	647.75
325.397	205.75
325.626	118.75
325.855	101.75
326.084	117.75
326.313	116.75
326.542	127.75
326.77	192.75
326.999	370.75
327.228	766.75
327.457	1355.75
327.686	1107.75
327.914	305.75
328.143	183.75
328.372	164.75
328.6	126.75
328.829	117.75
329.058	130.75
329.287	108.75
329.515	107.75
329.744	98.75
329.972	131.75
330.201	165.75
330.43	205.75
330.658	153.75
330.887	125.75
331.115	103.75
331.344	88.75
331.572	93.75
331.801	104.75
332.03	98.75
332.258	99.75
332.486	88.75
332.715	105.75
332.943	95.75
333.172	83.75
333.4	109.75
333.629	96.75
333.857	116.75
334.085	123.75
334.314	156.75
334.542	227.75
334.771	209.75
334.999	108.75
335.227	98.75
335.455	104.75
335.684	99.75
335.912	103.75
336.14	86.75
336.369	80.75
336.597	99.75
336.825	90.75
337.053	94.75
337.281	79.75
337.51	96.75
337.738	96.75
337.966	87.75
338.194	89.75
338.422	82.75
338.65	97.75
338.878	83.75
339.106	69.75
339.334	92.75
339.562	97.75
339.79	97.75
340.018	97.75
340.246	96.75
340.474	76.75
340.702	87.75
340.93	86.75
341.158	86.75
341.386	86.75
341.614	93.75
341.842	92.75
342.07	80.75
342.298	85.75
342.526	89.75
342.754	75.75
342.981	75.75
343.209	97.75
343.437	108.75
343.665	97.75
343.893	85.75
344.12	81.75
344.348	96.75
344.576	96.75
344.804	83.75
345.031	85.75
345.259	75.75
345.487	93.75
345.714	98.75
345.942	82.75
346.17	86.75
346.397	99.75
346.625	98.75
346.853	97.75
347.08	93.75
347.308	87.75
347.535	87.75
347.763	100.75
347.99	95.75
348.218	90.75
348.445	106.75
348.673	83.75
348.9	90.75
349.128	89.75
349.355	85.75
349.583	95.75
349.81	92.75
350.037	91.75
350.265	95.75
350.492	92.75
350.72	97.75
350.947	99.75
351.174	98.75
351.402	105.75
351.629	89.75
351.856	107.75
352.083	98.75
352.311	110.75
352.538	96.75
352.765	103.75
352.992	107.75
353.22	100.75
353.447	93.75
353.674	105.75
353.901	97.75
354.128	95.75
354.355	83.75
354.583	94.75
354.81	105.75
355.037	87.75
355.264	88.75
355.491	77.75
355.718	104.75
355.945	98.75
356.172	89.75
356.399	97.75
356.626	102.75
356.853	87.75
357.08	61.75
357.307	81.75
357.534	84.75
357.761	78.75
357.988	99.75
358.215	91.75
358.441	83.75
358.668	84.75
358.895	70.75
359.122	95.75
359.349	87.75
359.576	82.75
359.802	100.75
360.029	99.75
360.256	112.75
360.483	84.75
360.709	76.75
360.936	69.75
361.163	87.75
361.39	87.75
361.616	84.75
361.843	93.75
362.07	88.75
362.296	101.75
362.523	82.75
362.749	71.75
362.976	89.75
363.203	91.75
363.429	89.75
363.656	87.75
363.882	86.75
364.109	85.75
364.335	92.75
364.562	101.75
364.788	90.75
365.015	85.75
365.241	92.75
365.468	113.75
365.694	98.75
365.92	78.75
366.147	97.75
366.373	93.75
366.599	79.75
366.826	100.75
367.052	84.75
367.278	95.75
367.505	94.75
367.731	96.75
367.957	75.75
368.184	84.75
368.41	98.75
368.636	115.75
368.862	91.75
369.089	108.75
369.315	76.75
369.541	74.75
369.767	102.75
369.993	88.75
370.219	89.75
370.445	87.75
370.672	77.75
370.898	82.75
371.124	88.75
371.35	89.75
371.576	81.75
371.802	69.75
372.028	97.75
372.254	79.75
372.48	83.75
372.706	91.75
372.932	78.75
373.158	84.75
373.384	87.75
373.61	91.75
373.835	105.75
374.061	80.75
374.287	83.75
374.513	93.75
374.739	90.75
374.965	79.75
375.191	93.75
375.416	77.75
375.642	85.75
375.868	85.75
376.094	93.75
376.319	98.75
376.545	99.75
376.771	83.75
376.997	84.75
377.222	89.75
377.448	72.75
377.674	90.75
377.899	85.75
378.125	90.75
378.35	90.75
378.576	89.75
378.802	81.75
379.027	81.75
379.253	81.75
379.478	104.75
379.704	95.75
379.929	79.75
380.155	79.75
380.38	69.75
380.606	86.75
380.831	94.75
381.057	95.75
381.282	96.75
381.507	91.75
381.733	96.75
381.958	85.75
382.184	93.75
382.409	92.75
382.634	86.75
382.86	83.75
383.085	87.75
383.31	72.75
383.535	95.75
383.761	87.75
383.986	86.75
384.211	108.75
384.436	84.75
384.662	93.75
384.887	81.75
385.112	85.75
385.337	101.75
385.562	106.75
385.787	90.75
386.013	98.75
386.238	110.75
386.463	88.75
386.688	98.75
386.913	102.75
387.138	97.75
387.363	95.75
387.588	101.75
387.813	95.75
388.038	90.75
388.263	92.75
388.488	95.75
388.713	78.75
388.938	83.75
389.163	79.75
389.387	94.75
389.612	90.75
389.837	84.75
390.062	108.75
390.287	90.75
390.512	81.75
390.736	70.75
390.961	97.75
391.186	93.75
391.411	108.75
391.636	103.75
391.86	101.75
392.085	89.75
392.31	70.75
392.534	74.75
392.759	86.75
392.984	86.75
393.208	82.75
393.433	106.75
393.658	101.75
393.882	85.75
394.107	80.75
394.331	86.75
394.556	66.75
394.78	98.75
395.005	84.75
395.229	73.75
395.454	80.75
395.678	80.75
395.903	79.75
396.127	73.75
396.352	89.75
396.576	79.75
396.801	81.75
397.025	90.75
397.249	77.75
397.474	94.75
397.698	84.75
397.922	81.75
398.147	93.75
398.371	86.75
398.595	93.75
398.82	88.75
399.044	84.75
399.268	85.75
399.492	93.75
399.717	78.75
399.941	87.75
400.165	99.75
400.389	81.75
400.613	76.75
400.837	80.75
401.062	86.75
401.286	93.75
401.51	79.75
401.734	90.75
401.958	80.75
402.182	117.75
402.406	133.75
402.63	124.75
402.854	91.75
403.078	89.75
403.302	79.75
403.526	75.75
403.75	82.75
403.974	102.75
404.198	81.75
404.422	73.75
404.645	96.75
404.869	100.75
405.093	85.75
405.317	99.75
405.541	88.75
405.765	89.75
405.988	108.75
406.212	158.75
406.436	181.75
406.66	111.75
406.883	86.75
407.107	98.75
407.331	79.75
407.555	86.75
407.778	85.75
408.002	85.75
408.226	79.75
408.449	92.75
408.673	79.75
408.896	99.75
409.12	74.75
409.344	75.75
409.567	88.75
409.791	86.75
410.014	81.75
410.238	98.75
410.461	107.75
410.685	103.75
410.908	100.75
411.132	106.75
411.355	93.75
411.578	83.75
411.802	87.75
412.025	92.75
412.249	93.75
412.472	91.75
412.695	100.75
412.919	70.75
413.142	69.75
413.365	88.75
413.589	91.75
413.812	76.75
414.035	102.75
414.258	93.75
414.482	87.75
414.705	77.75
414.928	92.75
415.151	94.75
415.374	98.75
415.597	74.75
415.821	73.75
416.044	83.75
416.267	89.75
416.49	87.75
416.713	83.75
416.936	88.75
417.159	85.75
417.382	85.75
417.605	73.75
417.828	87.75
418.051	102.75
418.274	80.75
418.497	88.75
418.72	88.75
418.943	81.75
419.166	91.75
419.389	93.75
419.611	85.75
419.834	93.75
420.057	89.75
420.28	82.75
420.503	82.75
420.726	70.75
420.948	90.75
421.171	95.75
421.394	80.75
421.617	93.75
421.839	90.75
422.062	85.75
422.285	91.75
422.507	97.75
422.73	93.75
422.953	99.75
423.175	86.75
423.398	102.75
423.621	95.75
423.843	82.75
424.066	97.75
424.288	71.75
424.511	97.75
424.733	94.75
424.956	81.75
425.178	104.75
425.401	91.75
425.623	92.75
425.846	79.75
426.068	90.75
426.291	79.75
426.513	87.75
426.735	91.75
426.958	98.75
427.18	92.75
427.402	120.75
427.625	131.75
427.847	126.75
428.069	108.75
428.292	89.75
428.514	83.75
428.736	78.75
428.958	85.75
429.181	84.75
429.403	80.75
429.625	78.75
429.847	87.75
430.069	91.75
430.292	92.75
430.514	79.75
430.736	83.75
430.958	90.75
431.18	79.75
431.402	106.75
431.624	79.75
431.846	81.75
432.068	84.75
432.29	80.75
432.512	88.75
432.734	79.75
432.956	78.75
433.178	93.75
433.4	90.75
433.622	87.75
433.844	96.75
434.066	77.75
434.287	83.75
434.509	85.75
434.731	92.75
434.953	81.75
435.175	83.75
435.397	84.75
435.618	84.75
435.84	95.75
436.062	106.75
436.284	104.75
436.505	111.75
436.727	102.75
436.949	95.75
437.17	82.75
437.392	83.75
437.614	80.75
437.835	102.75
438.057	93.75
438.278	95.75
438.5	92.75
438.721	101.75
438.943	97.75
439.165	87.75
439.386	97.75
439.608	94.75
439.829	89.75
440.05	101.75
440.272	123.75
440.493	81.75
440.715	81.75
440.936	83.75
441.158	73.75
441.379	90.75
441.6	90.75
441.822	81.75
442.043	81.75
442.264	99.75
442.486	95.75
442.707	87.75
442.928	92.75
443.149	118.75
443.371	112.75
443.592	96.75
443.813	104.75
444.034	90.75
444.255	86.75
444.476	87.75
444.698	87.75
444.919	88.75
445.14	147.75
445.361	116.75
445.582	99.75
445.803	111.75
446.024	106.75
446.245	105.75
446.466	92.75
446.687	74.75
446.908	87.75
447.129	89.75
447.35	87.75
447.571	85.75
447.792	83.75
448.013	90.75
448.234	89.75
448.455	100.75
448.675	109.75
448.896	108.75
449.117	107.75
449.338	96.75
449.559	103.75
449.779	113.75
450	91.75
450.221	89.75
450.442	80.75
450.662	77.75
450.883	99.75
451.104	96.75
451.324	74.75
451.545	93.75
451.766	93.75
451.986	75.75
452.207	75.75
452.428	78.75
452.648	90.75
452.869	94.75
453.089	94.75
453.31	100.75
453.53	84.75
453.751	91.75
453.971	101.75
454.192	98.75
454.412	91.75
454.633	88.75
454.853	101.75
455.073	81.75
455.294	80.75
455.514	93.75
455.734	71.75
455.955	69.75
456.175	78.75
456.395	73.75
456.616	97.75
456.836	66.75
457.056	89.75
457.276	91.75
457.497	78.75
457.717	74.75
457.937	91.75
458.157	76.75
458.377	90.75
458.598	94.75
458.818	132.75
459.038	125.75
459.258	96.75
459.478	85.75
459.698	85.75
459.918	83.75
460.138	81.75
460.358	85.75
460.578	87.75
460.798	99.75
461.018	79.75
461.238	94.75
461.458	92.75
461.678	88.75
461.898	83.75
462.118	83.75
462.338	82.75
462.558	77.75
462.777	83.75
462.997	83.75
463.217	76.75
463.437	93.75
463.657	82.75
463.876	85.75
464.096	94.75
464.316	82.75
464.536	91.75
464.755	93.75
464.975	95.75
465.195	142.75
465.414	138.75
465.634	96.75
465.854	99.75
466.073	84.75
466.293	82.75
466.512	100.75
466.732	88.75
466.951	62.75
467.171	92.75
467.391	91.75
467.61	87.75
467.829	106.75
468.049	137.75
468.268	120.75
468.488	93.75
468.707	86.75
468.927	83.75
469.146	87.75
469.365	71.75
469.585	79.75
469.804	92.75
470.023	94.75
470.243	94.75
470.462	81.75
470.681	88.75
470.901	83.75
471.12	89.75
471.339	83.75
471.558	86.75
471.777	100.75
471.997	111.75
472.216	175.75
472.435	282.75
472.654	112.75
472.873	81.75
473.092	81.75
473.311	83.75
473.53	85.75
473.749	85.75
473.968	97.75
474.187	100.75
474.406	86.75
474.625	97.75
474.844	82.75
475.063	94.75
475.282	79.75
475.501	93.75
475.72	97.75
475.939	88.75
476.158	85.75
476.377	69.75
476.596	67.75
476.814	90.75
477.033	94.75
477.252	79.75
477.471	73.75
477.69	88.75
477.908	80.75
478.127	91.75
478.346	84.75
478.564	97.75
478.783	85.75
479.002	92.75
479.22	90.75
479.439	103.75
479.658	103.75
479.876	89.75
480.095	78.75
480.313	93.75
480.532	88.75
480.751	104.75
480.969	175.75
481.188	475.75
481.406	288.75
481.624	107.75
481.843	91.75
482.061	100.75
482.28	79.75
482.498	95.75
482.717	85.75
482.935	90.75
483.153	95.75
483.372	76.75
483.59	93.75
483.808	76.75
484.027	71.75
484.245	65.75
484.463	89.75
484.681	95.75
484.9	83.75
485.118	91.75
485.336	97.75
485.554	76.75
485.772	93.75
485.99	94.75
486.209	109.75
486.427	100.75
486.645	107.75
486.863	99.75
487.081	102.75
487.299	90.75
487.517	92.75
487.735	109.75
487.953	85.75
488.171	71.75
488.389	86.75
488.607	87.75
488.825	91.75
489.043	92.75
489.261	89.75
489.479	80.75
489.696	82.75
489.914	91.75
490.132	97.75
490.35	87.75
490.568	73.75
490.786	89.75
491.003	87.75
491.221	76.75
491.439	97.75
491.657	87.75
491.874	96.75
492.092	85.75
492.31	70.75
492.527	77.75
492.745	96.75
492.963	88.75
493.18	97.75
493.398	87.75
493.615	96.75
493.833	95.75
494.05	86.75
494.268	92.75
494.485	82.75
494.703	89.75
494.92	93.75
495.138	87.75
495.355	100.75
495.573	84.75
495.79	101.75
496.008	79.75
496.225	88.75
496.442	95.75
496.66	96.75
496.877	92.75
497.094	98.75
497.312	75.75
497.529	82.75
497.746	96.75
497.963	90.75
498.181	86.75
498.398	93.75
498.615	107.75
498.832	100.75
499.049	103.75
499.267	85.75
499.484	86.75
499.701	83.75
499.918	86.75
500.135	91.75
500.352	87.75
500.569	82.75
500.786	96.75
501.003	91.75
501.22	89.75
501.437	89.75
501.654	108.75
501.871	100.75
502.088	99.75
502.305	89.75
502.522	83.75
502.739	79.75
502.956	81.75
503.172	85.75
503.389	84.75
503.606	99.75
503.823	99.75
504.04	95.75
504.256	88.75
504.473	87.75
504.69	70.75
504.907	84.75
505.123	89.75
505.34	74.75
505.557	91.75
505.773	92.75
505.99	84.75
506.207	86.75
506.423	88.75
506.64	82.75
506.856	98.75
507.073	82.75
507.289	73.75
507.506	93.75
507.722	101.75
507.939	106.75
508.155	85.75
508.372	99.75
508.588	98.75
508.805	103.75
509.021	90.75
509.238	93.75
509.454	101.75
509.67	79.75
509.887	113.75
510.103	124.75
510.319	180.75
510.536	596.75
510.752	1726.75
510.968	491.75
511.184	135.75
511.401	115.75
511.617	95.75
511.833	94.75
512.049	85.75
512.265	101.75
512.481	96.75
512.698	78.75
512.914	86.75
513.13	71.75
513.346	97.75
513.562	87.75
513.778	85.75
513.994	87.75
514.21	93.75
514.426	115.75
514.642	106.75
514.858	105.75
515.074	135.75
515.29	357.75
515.506	1075.75
515.721	389.75
515.937	130.75
516.153	99.75
516.369	86.75
516.585	89.75
516.801	84.75
517.016	87.75
517.232	90.75
