Data from Uncirc_1989_H10_HRD10591_00087.txt Node
Date: Wed Jan 03 11:57:53 EST 2024
User: Yrep
Spectrometer: HR+D1059
Trigger mode: 1
Integration Time (sec): 1.000000E-1
Scans to average: 1
Electric dark correction enabled: true
Nonlinearity correction enabled: false
Boxcar width: 0
XAxis mode: Wavelengths
Number of Pixels in Spectrum: 2048
>>>>>Begin Spectral Data<<<<<
223.165	-2.31
223.4	-2.31
223.635	-2.31
223.869	-11.31
224.104	-18.31
224.338	-22.31
224.573	-6.31
224.808	-22.31
225.042	-18.31
225.277	-0.31
225.511	-2.31
225.746	3.69
225.98	-7.31
226.215	17.69
226.449	27.69
226.683	9.69
226.918	21.69
227.152	30.69
227.387	24.69
227.621	28.69
227.856	53.69
228.09	36.69
228.324	46.69
228.559	54.69
228.793	58.69
229.027	48.69
229.262	63.69
229.496	67.69
229.73	84.69
229.964	82.69
230.199	79.69
230.433	75.69
230.667	64.69
230.901	81.69
231.136	70.69
231.37	75.69
231.604	82.69
231.838	72.69
232.072	81.69
232.306	79.69
232.541	83.69
232.775	69.69
233.009	76.69
233.243	93.69
233.477	90.69
233.711	89.69
233.945	85.69
234.179	85.69
234.413	81.69
234.647	80.69
234.881	86.69
235.115	69.69
235.349	66.69
235.583	84.69
235.817	81.69
236.051	73.69
236.285	88.69
236.519	60.69
236.753	70.69
236.987	63.69
237.221	77.69
237.455	93.69
237.689	84.69
237.922	74.69
238.156	82.69
238.39	73.69
238.624	90.69
238.858	93.69
239.091	80.69
239.325	71.69
239.559	82.69
239.793	71.69
240.027	68.69
240.26	80.69
240.494	84.69
240.728	68.69
240.961	68.69
241.195	79.69
241.429	82.69
241.662	89.69
241.896	63.69
242.13	88.69
242.363	79.69
242.597	74.69
242.83	79.69
243.064	81.69
243.298	73.69
243.531	64.69
243.765	68.69
243.998	79.69
244.232	83.69
244.465	81.69
244.699	79.69
244.932	77.69
245.166	86.69
245.399	85.69
245.633	76.69
245.866	85.69
246.099	96.69
246.333	76.69
246.566	75.69
246.8	68.69
247.033	78.69
247.266	73.69
247.5	83.69
247.733	84.69
247.966	91.69
248.2	73.69
248.433	79.69
248.666	84.69
248.899	84.69
249.133	82.69
249.366	81.69
249.599	90.69
249.832	70.69
250.066	72.69
250.299	69.69
250.532	79.69
250.765	86.69
250.998	72.69
251.231	84.69
251.465	77.69
251.698	80.69
251.931	67.69
252.164	76.69
252.397	77.69
252.63	91.69
252.863	79.69
253.096	71.69
253.329	79.69
253.562	86.69
253.795	85.69
254.028	83.69
254.261	73.69
254.494	68.69
254.727	92.69
254.96	86.69
255.193	75.69
255.426	80.69
255.659	84.69
255.892	81.69
256.124	83.69
256.357	87.69
256.59	83.69
256.823	88.69
257.056	80.69
257.289	87.69
257.521	84.69
257.754	66.69
257.987	77.69
258.22	97.69
258.452	82.69
258.685	86.69
258.918	86.69
259.151	84.69
259.383	86.69
259.616	72.69
259.849	59.69
260.081	78.69
260.314	81.69
260.547	82.69
260.779	66.69
261.012	72.69
261.244	77.69
261.477	86.69
261.71	88.69
261.942	120.69
262.175	95.69
262.407	83.69
262.64	92.69
262.872	88.69
263.105	83.69
263.337	91.69
263.57	81.69
263.802	81.69
264.035	73.69
264.267	99.69
264.499	89.69
264.732	81.69
264.964	83.69
265.197	79.69
265.429	86.69
265.661	85.69
265.894	79.69
266.126	84.69
266.358	77.69
266.591	69.69
266.823	67.69
267.055	85.69
267.287	85.69
267.52	73.69
267.752	94.69
267.984	88.69
268.216	76.69
268.448	90.69
268.681	84.69
268.913	81.69
269.145	74.69
269.377	89.69
269.609	79.69
269.841	94.69
270.073	80.69
270.306	81.69
270.538	86.69
270.77	74.69
271.002	73.69
271.234	85.69
271.466	81.69
271.698	83.69
271.93	87.69
272.162	73.69
272.394	88.69
272.626	75.69
272.858	82.69
273.09	87.69
273.322	75.69
273.553	84.69
273.785	89.69
274.017	80.69
274.249	79.69
274.481	67.69
274.713	65.69
274.945	85.69
275.176	82.69
275.408	80.69
275.64	91.69
275.872	87.69
276.104	87.69
276.335	91.69
276.567	91.69
276.799	95.69
277.031	107.69
277.262	94.69
277.494	98.69
277.726	103.69
277.957	70.69
278.189	93.69
278.421	80.69
278.652	78.69
278.884	90.69
279.115	88.69
279.347	88.69
279.579	87.69
279.81	90.69
280.042	86.69
280.273	106.69
280.505	90.69
280.736	95.69
280.968	88.69
281.199	86.69
281.431	84.69
281.662	92.69
281.894	92.69
282.125	101.69
282.356	108.69
282.588	130.69
282.819	104.69
283.051	85.69
283.282	86.69
283.513	91.69
283.745	88.69
283.976	81.69
284.207	85.69
284.439	81.69
284.67	103.69
284.901	78.69
285.132	80.69
285.364	91.69
285.595	93.69
285.826	86.69
286.057	83.69
286.288	83.69
286.52	89.69
286.751	78.69
286.982	84.69
287.213	89.69
287.444	91.69
287.675	87.69
287.906	85.69
288.138	89.69
288.369	81.69
288.6	85.69
288.831	94.69
289.062	93.69
289.293	90.69
289.524	87.69
289.755	89.69
289.986	86.69
290.217	92.69
290.448	99.69
290.679	84.69
290.91	71.69
291.141	83.69
291.371	93.69
291.602	93.69
291.833	80.69
292.064	84.69
292.295	85.69
292.526	77.69
292.757	83.69
292.987	76.69
293.218	101.69
293.449	81.69
293.68	92.69
293.91	91.69
294.141	88.69
294.372	84.69
294.603	77.69
294.833	87.69
295.064	92.69
295.295	88.69
295.525	95.69
295.756	103.69
295.987	120.69
296.217	138.69
296.448	113.69
296.679	91.69
296.909	77.69
297.14	91.69
297.37	85.69
297.601	82.69
297.831	72.69
298.062	103.69
298.292	81.69
298.523	81.69
298.753	78.69
298.984	80.69
299.214	79.69
299.445	89.69
299.675	92.69
299.905	87.69
300.136	102.69
300.366	72.69
300.597	86.69
300.827	80.69
301.057	91.69
301.288	95.69
301.518	86.69
301.748	92.69
301.979	100.69
302.209	80.69
302.439	79.69
302.669	96.69
302.9	97.69
303.13	94.69
303.36	86.69
303.59	106.69
303.82	93.69
304.051	93.69
304.281	100.69
304.511	84.69
304.741	80.69
304.971	81.69
305.201	89.69
305.431	86.69
305.661	86.69
305.891	84.69
306.121	95.69
306.352	100.69
306.582	102.69
306.812	99.69
307.042	100.69
307.272	93.69
307.502	97.69
307.731	100.69
307.961	100.69
308.191	90.69
308.421	90.69
308.651	91.69
308.881	95.69
309.111	83.69
309.341	97.69
309.571	95.69
309.8	94.69
310.03	103.69
310.26	97.69
310.49	85.69
310.72	96.69
310.949	94.69
311.179	95.69
311.409	108.69
311.639	85.69
311.868	94.69
312.098	103.69
312.328	103.69
312.557	113.69
312.787	87.69
313.017	95.69
313.246	88.69
313.476	76.69
313.706	78.69
313.935	95.69
314.165	81.69
314.394	89.69
314.624	85.69
314.853	86.69
315.083	83.69
315.312	96.69
315.542	89.69
315.771	79.69
316.001	90.69
316.23	91.69
316.46	80.69
316.689	85.69
316.919	84.69
317.148	88.69
317.377	89.69
317.607	103.69
317.836	89.69
318.065	81.69
318.295	92.69
318.524	84.69
318.753	90.69
318.983	94.69
319.212	111.69
319.441	109.69
319.67	110.69
319.9	101.69
320.129	96.69
320.358	99.69
320.587	95.69
320.816	109.69
321.046	108.69
321.275	87.69
321.504	86.69
321.733	100.69
321.962	99.69
322.191	99.69
322.42	87.69
322.649	87.69
322.878	93.69
323.108	102.69
323.337	116.69
323.566	117.69
323.795	129.69
324.024	195.69
324.253	348.69
324.482	715.69
324.71	1482.69
324.939	1999.69
325.168	735.69
325.397	209.69
325.626	138.69
325.855	125.69
326.084	126.69
326.313	113.69
326.542	153.69
326.77	199.69
326.999	391.69
327.228	845.69
327.457	1534.69
327.686	1239.69
327.914	345.69
328.143	213.69
328.372	190.69
328.6	139.69
328.829	88.69
329.058	130.69
329.287	129.69
329.515	101.69
329.744	112.69
329.972	156.69
330.201	217.69
330.43	274.69
330.658	175.69
330.887	139.69
331.115	115.69
331.344	107.69
331.572	108.69
331.801	103.69
332.03	98.69
332.258	93.69
332.486	76.69
332.715	96.69
332.943	93.69
333.172	105.69
333.4	99.69
333.629	97.69
333.857	140.69
334.085	166.69
334.314	213.69
334.542	337.69
334.771	327.69
334.999	134.69
335.227	112.69
335.455	101.69
335.684	102.69
335.912	99.69
336.14	93.69
336.369	100.69
336.597	100.69
336.825	98.69
337.053	83.69
337.281	89.69
337.51	91.69
337.738	93.69
337.966	99.69
338.194	89.69
338.422	83.69
338.65	85.69
338.878	91.69
339.106	87.69
339.334	95.69
339.562	97.69
339.79	90.69
340.018	90.69
340.246	94.69
340.474	98.69
340.702	88.69
340.93	82.69
341.158	100.69
341.386	103.69
341.614	93.69
341.842	88.69
342.07	86.69
342.298	80.69
342.526	87.69
342.754	94.69
342.981	80.69
343.209	93.69
343.437	99.69
343.665	95.69
343.893	82.69
344.12	84.69
344.348	96.69
344.576	101.69
344.804	99.69
345.031	99.69
345.259	95.69
345.487	96.69
345.714	77.69
345.942	80.69
346.17	89.69
346.397	108.69
346.625	98.69
346.853	89.69
347.08	96.69
347.308	99.69
347.535	89.69
347.763	86.69
347.99	85.69
348.218	92.69
348.445	99.69
348.673	92.69
348.9	81.69
349.128	89.69
349.355	90.69
349.583	95.69
349.81	91.69
350.037	97.69
350.265	88.69
350.492	88.69
350.72	84.69
350.947	96.69
351.174	104.69
351.402	97.69
351.629	96.69
351.856	103.69
352.083	96.69
352.311	100.69
352.538	105.69
352.765	100.69
352.992	112.69
353.22	112.69
353.447	101.69
353.674	91.69
353.901	100.69
354.128	88.69
354.355	97.69
354.583	87.69
354.81	91.69
355.037	92.69
355.264	79.69
355.491	86.69
355.718	83.69
355.945	89.69
356.172	94.69
356.399	100.69
356.626	93.69
356.853	79.69
357.08	85.69
357.307	88.69
357.534	89.69
357.761	85.69
357.988	79.69
358.215	99.69
358.441	97.69
358.668	85.69
358.895	92.69
359.122	89.69
359.349	84.69
359.576	84.69
359.802	105.69
360.029	110.69
360.256	120.69
360.483	86.69
360.709	81.69
360.936	88.69
361.163	91.69
361.39	96.69
361.616	89.69
361.843	99.69
362.07	93.69
362.296	85.69
362.523	99.69
362.749	82.69
362.976	83.69
363.203	96.69
363.429	83.69
363.656	75.69
363.882	77.69
364.109	97.69
364.335	86.69
364.562	82.69
364.788	95.69
365.015	89.69
365.241	104.69
365.468	108.69
365.694	85.69
365.92	92.69
366.147	94.69
366.373	89.69
366.599	88.69
366.826	77.69
367.052	92.69
367.278	86.69
367.505	84.69
367.731	96.69
367.957	79.69
368.184	85.69
368.41	91.69
368.636	108.69
368.862	116.69
369.089	105.69
369.315	87.69
369.541	96.69
369.767	78.69
369.993	88.69
370.219	90.69
370.445	93.69
370.672	97.69
370.898	103.69
371.124	91.69
371.35	88.69
371.576	91.69
371.802	92.69
372.028	86.69
372.254	85.69
372.48	83.69
372.706	84.69
372.932	80.69
373.158	84.69
373.384	82.69
373.61	91.69
373.835	92.69
374.061	94.69
374.287	99.69
374.513	75.69
374.739	91.69
374.965	91.69
375.191	96.69
375.416	90.69
375.642	85.69
375.868	81.69
376.094	88.69
376.319	79.69
376.545	91.69
376.771	69.69
376.997	86.69
377.222	98.69
377.448	82.69
377.674	101.69
377.899	88.69
378.125	72.69
378.35	94.69
378.576	88.69
378.802	84.69
379.027	103.69
379.253	94.69
379.478	93.69
379.704	87.69
379.929	91.69
380.155	88.69
380.38	97.69
380.606	93.69
380.831	96.69
381.057	98.69
381.282	101.69
381.507	104.69
381.733	79.69
381.958	93.69
382.184	85.69
382.409	99.69
382.634	98.69
382.86	95.69
383.085	93.69
383.31	92.69
383.535	98.69
383.761	108.69
383.986	96.69
384.211	97.69
384.436	105.69
384.662	94.69
384.887	102.69
385.112	94.69
385.337	104.69
385.562	91.69
385.787	99.69
386.013	100.69
386.238	105.69
386.463	90.69
386.688	101.69
386.913	97.69
387.138	94.69
387.363	92.69
387.588	94.69
387.813	95.69
388.038	83.69
388.263	87.69
388.488	109.69
388.713	85.69
388.938	102.69
389.163	91.69
389.387	92.69
389.612	91.69
389.837	90.69
390.062	99.69
390.287	97.69
390.512	109.69
390.736	90.69
390.961	87.69
391.186	102.69
391.411	100.69
391.636	93.69
391.86	87.69
392.085	98.69
392.31	85.69
392.534	97.69
392.759	91.69
392.984	79.69
393.208	96.69
393.433	101.69
393.658	96.69
393.882	92.69
394.107	87.69
394.331	90.69
394.556	78.69
394.78	93.69
395.005	83.69
395.229	86.69
395.454	76.69
395.678	86.69
395.903	112.69
396.127	95.69
396.352	92.69
396.576	96.69
396.801	92.69
397.025	97.69
397.249	86.69
397.474	107.69
397.698	86.69
397.922	84.69
398.147	85.69
398.371	86.69
398.595	88.69
398.82	91.69
399.044	83.69
399.268	84.69
399.492	77.69
399.717	91.69
399.941	93.69
400.165	103.69
400.389	97.69
400.613	89.69
400.837	87.69
401.062	85.69
401.286	89.69
401.51	90.69
401.734	92.69
401.958	95.69
402.182	122.69
402.406	150.69
402.63	114.69
402.854	73.69
403.078	85.69
403.302	79.69
403.526	88.69
403.75	97.69
403.974	84.69
404.198	76.69
404.422	82.69
404.645	102.69
404.869	92.69
405.093	88.69
405.317	114.69
405.541	98.69
405.765	92.69
405.988	106.69
406.212	160.69
406.436	193.69
406.66	141.69
406.883	105.69
407.107	102.69
407.331	105.69
407.555	96.69
407.778	94.69
408.002	78.69
408.226	95.69
408.449	93.69
408.673	85.69
408.896	88.69
409.12	95.69
409.344	90.69
409.567	88.69
409.791	97.69
410.014	93.69
410.238	89.69
410.461	80.69
410.685	76.69
410.908	108.69
411.132	95.69
411.355	102.69
411.578	74.69
411.802	87.69
412.025	89.69
412.249	96.69
412.472	78.69
412.695	119.69
412.919	103.69
413.142	84.69
413.365	81.69
413.589	83.69
413.812	97.69
414.035	87.69
414.258	91.69
414.482	94.69
414.705	79.69
414.928	86.69
415.151	93.69
415.374	103.69
415.597	77.69
415.821	88.69
416.044	97.69
416.267	80.69
416.49	80.69
416.713	75.69
416.936	96.69
417.159	102.69
417.382	68.69
417.605	94.69
417.828	95.69
418.051	97.69
418.274	85.69
418.497	83.69
418.72	78.69
418.943	83.69
419.166	87.69
419.389	85.69
419.611	85.69
419.834	94.69
420.057	93.69
420.28	92.69
420.503	100.69
420.726	79.69
420.948	89.69
421.171	96.69
421.394	89.69
421.617	88.69
421.839	92.69
422.062	85.69
422.285	91.69
422.507	91.69
422.73	95.69
422.953	88.69
423.175	80.69
423.398	86.69
423.621	89.69
423.843	89.69
424.066	81.69
424.288	73.69
424.511	100.69
424.733	80.69
424.956	109.69
425.178	98.69
425.401	100.69
425.623	97.69
425.846	84.69
426.068	88.69
426.291	91.69
426.513	84.69
426.735	97.69
426.958	88.69
427.18	104.69
427.402	118.69
427.625	156.69
427.847	150.69
428.069	127.69
428.292	86.69
428.514	96.69
428.736	85.69
428.958	76.69
429.181	83.69
429.403	76.69
429.625	76.69
429.847	86.69
430.069	98.69
430.292	88.69
430.514	91.69
430.736	92.69
430.958	85.69
431.18	77.69
431.402	89.69
431.624	71.69
431.846	83.69
432.068	84.69
432.29	91.69
432.512	85.69
432.734	98.69
432.956	83.69
433.178	89.69
433.4	86.69
433.622	83.69
433.844	86.69
434.066	99.69
434.287	86.69
434.509	84.69
434.731	105.69
434.953	87.69
435.175	99.69
435.397	89.69
435.618	82.69
435.84	88.69
436.062	104.69
436.284	88.69
436.505	100.69
436.727	97.69
436.949	85.69
437.17	76.69
437.392	88.69
437.614	81.69
437.835	93.69
438.057	115.69
438.278	103.69
438.5	106.69
438.721	109.69
438.943	105.69
439.165	95.69
439.386	91.69
439.608	84.69
439.829	94.69
440.05	118.69
440.272	132.69
440.493	100.69
440.715	87.69
440.936	89.69
441.158	90.69
441.379	92.69
441.6	103.69
441.822	95.69
442.043	110.69
442.264	80.69
442.486	86.69
442.707	88.69
442.928	102.69
443.149	113.69
443.371	115.69
443.592	99.69
443.813	111.69
444.034	109.69
444.255	80.69
444.476	96.69
444.698	80.69
444.919	81.69
445.14	128.69
445.361	116.69
445.582	106.69
445.803	117.69
446.024	138.69
446.245	130.69
446.466	114.69
446.687	83.69
446.908	85.69
447.129	92.69
447.35	85.69
447.571	107.69
447.792	72.69
448.013	111.69
448.234	102.69
448.455	84.69
448.675	104.69
448.896	115.69
449.117	82.69
449.338	87.69
449.559	117.69
449.779	117.69
450	87.69
450.221	94.69
450.442	88.69
450.662	87.69
450.883	100.69
451.104	102.69
451.324	113.69
451.545	89.69
451.766	79.69
451.986	93.69
452.207	75.69
452.428	77.69
452.648	97.69
452.869	94.69
453.089	116.69
453.31	111.69
453.53	95.69
453.751	99.69
453.971	89.69
454.192	101.69
454.412	85.69
454.633	75.69
454.853	77.69
455.073	85.69
455.294	105.69
455.514	92.69
455.734	93.69
455.955	94.69
456.175	85.69
456.395	87.69
456.616	86.69
456.836	93.69
457.056	79.69
457.276	87.69
457.497	83.69
457.717	93.69
457.937	96.69
458.157	86.69
458.377	84.69
458.598	107.69
458.818	115.69
459.038	143.69
459.258	102.69
459.478	95.69
459.698	91.69
459.918	83.69
460.138	97.69
460.358	88.69
460.578	79.69
460.798	85.69
461.018	92.69
461.238	105.69
461.458	97.69
461.678	85.69
461.898	84.69
462.118	89.69
462.338	86.69
462.558	92.69
462.777	101.69
462.997	81.69
463.217	84.69
463.437	105.69
463.657	89.69
463.876	86.69
464.096	93.69
464.316	75.69
464.536	99.69
464.755	76.69
464.975	105.69
465.195	151.69
465.414	163.69
465.634	109.69
465.854	80.69
466.073	79.69
466.293	106.69
466.512	76.69
466.732	81.69
466.951	83.69
467.171	92.69
467.391	94.69
467.61	105.69
467.829	108.69
468.049	137.69
468.268	191.69
468.488	90.69
468.707	95.69
468.927	98.69
469.146	99.69
469.365	91.69
469.585	89.69
469.804	118.69
470.023	100.69
470.243	88.69
470.462	95.69
470.681	110.69
470.901	93.69
471.12	81.69
471.339	90.69
471.558	97.69
471.777	104.69
471.997	123.69
472.216	253.69
472.435	441.69
472.654	163.69
472.873	103.69
473.092	90.69
473.311	96.69
473.53	85.69
473.749	91.69
473.968	92.69
474.187	96.69
474.406	96.69
474.625	83.69
474.844	87.69
475.063	77.69
475.282	97.69
475.501	91.69
475.72	84.69
475.939	79.69
476.158	95.69
476.377	67.69
476.596	82.69
476.814	93.69
477.033	106.69
477.252	79.69
477.471	93.69
477.69	99.69
477.908	90.69
478.127	92.69
478.346	79.69
478.564	98.69
478.783	100.69
479.002	97.69
479.22	93.69
479.439	95.69
479.658	93.69
479.876	100.69
480.095	95.69
480.313	108.69
480.532	93.69
480.751	128.69
480.969	247.69
481.188	765.69
481.406	456.69
481.624	136.69
481.843	76.69
482.061	88.69
482.28	79.69
482.498	97.69
482.717	85.69
482.935	79.69
483.153	85.69
483.372	78.69
483.59	83.69
483.808	75.69
484.027	96.69
484.245	93.69
484.463	88.69
484.681	95.69
484.9	84.69
485.118	97.69
485.336	87.69
485.554	94.69
485.772	98.69
485.99	95.69
486.209	117.69
486.427	107.69
486.645	98.69
486.863	101.69
487.081	98.69
487.299	88.69
487.517	87.69
487.735	84.69
487.953	82.69
488.171	101.69
488.389	87.69
488.607	103.69
488.825	79.69
489.043	85.69
489.261	95.69
489.479	99.69
489.696	84.69
489.914	89.69
490.132	83.69
490.35	97.69
490.568	91.69
490.786	88.69
491.003	81.69
491.221	71.69
491.439	85.69
491.657	92.69
491.874	86.69
492.092	95.69
492.31	88.69
492.527	80.69
492.745	81.69
492.963	96.69
493.18	80.69
493.398	107.69
493.615	94.69
493.833	98.69
494.05	100.69
494.268	95.69
494.485	89.69
494.703	93.69
494.92	92.69
495.138	87.69
495.355	75.69
495.573	89.69
495.79	92.69
496.008	98.69
496.225	84.69
496.442	86.69
496.66	79.69
496.877	86.69
497.094	95.69
497.312	76.69
497.529	92.69
497.746	93.69
497.963	94.69
498.181	96.69
498.398	88.69
498.615	95.69
498.832	88.69
499.049	85.69
499.267	83.69
499.484	90.69
499.701	92.69
499.918	101.69
500.135	84.69
500.352	75.69
500.569	86.69
500.786	86.69
501.003	105.69
501.22	88.69
501.437	82.69
501.654	85.69
501.871	98.69
502.088	97.69
502.305	76.69
502.522	87.69
502.739	95.69
502.956	77.69
503.172	100.69
503.389	101.69
503.606	103.69
503.823	111.69
504.04	88.69
504.256	87.69
504.473	100.69
504.69	97.69
504.907	94.69
505.123	79.69
505.34	80.69
505.557	100.69
505.773	103.69
505.99	91.69
506.207	96.69
506.423	95.69
506.64	86.69
506.856	102.69
507.073	98.69
507.289	98.69
507.506	110.69
507.722	122.69
507.939	101.69
508.155	94.69
508.372	88.69
508.588	79.69
508.805	72.69
509.021	92.69
509.238	101.69
509.454	100.69
509.67	95.69
509.887	109.69
510.103	115.69
510.319	183.69
510.536	648.69
510.752	1959.69
510.968	548.69
511.184	170.69
511.401	104.69
511.617	101.69
511.833	97.69
512.049	89.69
512.265	92.69
512.481	110.69
512.698	88.69
512.914	103.69
513.13	94.69
513.346	85.69
513.562	94.69
513.778	96.69
513.994	98.69
514.21	93.69
514.426	105.69
514.642	122.69
514.858	127.69
515.074	126.69
515.29	413.69
515.506	1270.69
515.721	474.69
515.937	149.69
516.153	86.69
