Data from Uncirc_1989_H10_HRD10591_00085.txt Node
Date: Wed Jan 03 11:57:52 EST 2024
User: Yrep
Spectrometer: HR+D1059
Trigger mode: 1
Integration Time (sec): 1.000000E-1
Scans to average: 1
Electric dark correction enabled: true
Nonlinearity correction enabled: false
Boxcar width: 0
XAxis mode: Wavelengths
Number of Pixels in Spectrum: 2048
>>>>>Begin Spectral Data<<<<<
223.165	-17.62
223.4	-17.62
223.635	-17.62
223.869	-25.62
224.104	-1.62
224.338	-17.62
224.573	-14.62
224.808	-10.62
225.042	-16.62
225.277	-20.62
225.511	-4.62
225.746	1.38
225.98	15.38
226.215	6.38
226.449	20.38
226.683	19.38
226.918	35.38
227.152	31.38
227.387	40.38
227.621	41.38
227.856	44.38
228.09	50.38
228.324	56.38
228.559	59.38
228.793	75.38
229.027	67.38
229.262	69.38
229.496	73.38
229.73	86.38
229.964	72.38
230.199	83.38
230.433	92.38
230.667	78.38
230.901	85.38
231.136	84.38
231.37	82.38
231.604	92.38
231.838	96.38
232.072	82.38
232.306	86.38
232.541	73.38
232.775	85.38
233.009	61.38
233.243	86.38
233.477	71.38
233.711	90.38
233.945	68.38
234.179	90.38
234.413	82.38
234.647	91.38
234.881	85.38
235.115	97.38
235.349	78.38
235.583	87.38
235.817	84.38
236.051	80.38
236.285	73.38
236.519	82.38
236.753	84.38
236.987	74.38
237.221	94.38
237.455	99.38
237.689	72.38
237.922	88.38
238.156	83.38
238.39	98.38
238.624	75.38
238.858	91.38
239.091	86.38
239.325	81.38
239.559	72.38
239.793	100.38
240.027	86.38
240.26	78.38
240.494	98.38
240.728	66.38
240.961	82.38
241.195	89.38
241.429	82.38
241.662	64.38
241.896	80.38
242.13	91.38
242.363	87.38
242.597	87.38
242.83	76.38
243.064	82.38
243.298	75.38
243.531	86.38
243.765	75.38
243.998	74.38
244.232	91.38
244.465	92.38
244.699	88.38
244.932	77.38
245.166	94.38
245.399	92.38
245.633	82.38
245.866	87.38
246.099	93.38
246.333	93.38
246.566	94.38
246.8	81.38
247.033	90.38
247.266	78.38
247.5	82.38
247.733	83.38
247.966	84.38
248.2	82.38
248.433	86.38
248.666	91.38
248.899	89.38
249.133	99.38
249.366	102.38
249.599	93.38
249.832	92.38
250.066	84.38
250.299	75.38
250.532	101.38
250.765	87.38
250.998	84.38
251.231	73.38
251.465	83.38
251.698	76.38
251.931	86.38
252.164	93.38
252.397	84.38
252.63	89.38
252.863	90.38
253.096	87.38
253.329	89.38
253.562	88.38
253.795	80.38
254.028	88.38
254.261	93.38
254.494	92.38
254.727	84.38
254.96	87.38
255.193	84.38
255.426	68.38
255.659	84.38
255.892	99.38
256.124	84.38
256.357	90.38
256.59	85.38
256.823	82.38
257.056	84.38
257.289	82.38
257.521	78.38
257.754	92.38
257.987	70.38
258.22	93.38
258.452	91.38
258.685	92.38
258.918	92.38
259.151	87.38
259.383	100.38
259.616	81.38
259.849	98.38
260.081	81.38
260.314	89.38
260.547	87.38
260.779	78.38
261.012	95.38
261.244	86.38
261.477	80.38
261.71	89.38
261.942	98.38
262.175	113.38
262.407	73.38
262.64	92.38
262.872	89.38
263.105	82.38
263.337	94.38
263.57	82.38
263.802	97.38
264.035	108.38
264.267	90.38
264.499	88.38
264.732	79.38
264.964	84.38
265.197	73.38
265.429	92.38
265.661	88.38
265.894	77.38
266.126	88.38
266.358	84.38
266.591	102.38
266.823	84.38
267.055	88.38
267.287	89.38
267.52	69.38
267.752	82.38
267.984	77.38
268.216	81.38
268.448	98.38
268.681	93.38
268.913	92.38
269.145	87.38
269.377	97.38
269.609	96.38
269.841	91.38
270.073	87.38
270.306	82.38
270.538	84.38
270.77	74.38
271.002	81.38
271.234	86.38
271.466	101.38
271.698	94.38
271.93	85.38
272.162	91.38
272.394	73.38
272.626	75.38
272.858	90.38
273.09	84.38
273.322	92.38
273.553	81.38
273.785	103.38
274.017	100.38
274.249	81.38
274.481	94.38
274.713	93.38
274.945	92.38
275.176	98.38
275.408	89.38
275.64	84.38
275.872	96.38
276.104	85.38
276.335	89.38
276.567	90.38
276.799	120.38
277.031	106.38
277.262	101.38
277.494	85.38
277.726	91.38
277.957	99.38
278.189	98.38
278.421	85.38
278.652	101.38
278.884	70.38
279.115	72.38
279.347	80.38
279.579	83.38
279.81	107.38
280.042	101.38
280.273	104.38
280.505	86.38
280.736	93.38
280.968	103.38
281.199	88.38
281.431	80.38
281.662	99.38
281.894	93.38
282.125	100.38
282.356	109.38
282.588	123.38
282.819	114.38
283.051	93.38
283.282	103.38
283.513	104.38
283.745	104.38
283.976	76.38
284.207	82.38
284.439	88.38
284.67	96.38
284.901	97.38
285.132	89.38
285.364	93.38
285.595	88.38
285.826	99.38
286.057	96.38
286.288	85.38
286.52	98.38
286.751	84.38
286.982	86.38
287.213	87.38
287.444	92.38
287.675	93.38
287.906	92.38
288.138	90.38
288.369	102.38
288.6	88.38
288.831	85.38
289.062	85.38
289.293	87.38
289.524	87.38
289.755	97.38
289.986	87.38
290.217	87.38
290.448	95.38
290.679	90.38
290.91	82.38
291.141	83.38
291.371	102.38
291.602	90.38
291.833	84.38
292.064	104.38
292.295	92.38
292.526	93.38
292.757	91.38
292.987	91.38
293.218	85.38
293.449	104.38
293.68	75.38
293.91	100.38
294.141	93.38
294.372	88.38
294.603	84.38
294.833	88.38
295.064	90.38
295.295	113.38
295.525	100.38
295.756	93.38
295.987	117.38
296.217	123.38
296.448	122.38
296.679	97.38
296.909	97.38
297.14	105.38
297.37	88.38
297.601	105.38
297.831	90.38
298.062	91.38
298.292	88.38
298.523	75.38
298.753	91.38
298.984	87.38
299.214	83.38
299.445	105.38
299.675	100.38
299.905	102.38
300.136	94.38
300.366	96.38
300.597	100.38
300.827	92.38
301.057	97.38
301.288	113.38
301.518	100.38
301.748	109.38
301.979	116.38
302.209	91.38
302.439	85.38
302.669	96.38
302.9	78.38
303.13	94.38
303.36	91.38
303.59	105.38
303.82	98.38
304.051	90.38
304.281	97.38
304.511	94.38
304.741	99.38
304.971	80.38
305.201	103.38
305.431	91.38
305.661	93.38
305.891	87.38
306.121	93.38
306.352	109.38
306.582	114.38
306.812	107.38
307.042	101.38
307.272	108.38
307.502	111.38
307.731	115.38
307.961	89.38
308.191	95.38
308.421	82.38
308.651	93.38
308.881	78.38
309.111	96.38
309.341	102.38
309.571	104.38
309.8	107.38
310.03	108.38
310.26	93.38
310.49	89.38
310.72	105.38
310.949	100.38
311.179	92.38
311.409	91.38
311.639	91.38
311.868	84.38
312.098	103.38
312.328	101.38
312.557	98.38
312.787	100.38
313.017	102.38
313.246	102.38
313.476	97.38
313.706	84.38
313.935	109.38
314.165	109.38
314.394	95.38
314.624	108.38
314.853	103.38
315.083	97.38
315.312	89.38
315.542	97.38
315.771	102.38
316.001	90.38
316.23	102.38
316.46	85.38
316.689	90.38
316.919	93.38
317.148	98.38
317.377	103.38
317.607	90.38
317.836	89.38
318.065	105.38
318.295	91.38
318.524	72.38
318.753	98.38
318.983	101.38
319.212	96.38
319.441	109.38
319.67	96.38
319.9	85.38
320.129	110.38
320.358	102.38
320.587	97.38
320.816	102.38
321.046	110.38
321.275	100.38
321.504	95.38
321.733	96.38
321.962	100.38
322.191	93.38
322.42	98.38
322.649	102.38
322.878	111.38
323.108	133.38
323.337	109.38
323.566	124.38
323.795	139.38
324.024	191.38
324.253	358.38
324.482	745.38
324.71	1512.38
324.939	2012.38
325.168	740.38
325.397	221.38
325.626	151.38
325.855	133.38
326.084	132.38
326.313	130.38
326.542	146.38
326.77	216.38
326.999	429.38
327.228	866.38
327.457	1528.38
327.686	1194.38
327.914	350.38
328.143	208.38
328.372	183.38
328.6	139.38
328.829	105.38
329.058	119.38
329.287	118.38
329.515	129.38
329.744	130.38
329.972	140.38
330.201	213.38
330.43	273.38
330.658	167.38
330.887	127.38
331.115	133.38
331.344	115.38
331.572	100.38
331.801	117.38
332.03	99.38
332.258	96.38
332.486	94.38
332.715	96.38
332.943	90.38
333.172	110.38
333.4	114.38
333.629	105.38
333.857	125.38
334.085	149.38
334.314	206.38
334.542	312.38
334.771	291.38
334.999	136.38
335.227	102.38
335.455	96.38
335.684	109.38
335.912	112.38
336.14	106.38
336.369	103.38
336.597	103.38
336.825	97.38
337.053	93.38
337.281	98.38
337.51	105.38
337.738	107.38
337.966	92.38
338.194	97.38
338.422	92.38
338.65	104.38
338.878	109.38
339.106	96.38
339.334	104.38
339.562	92.38
339.79	99.38
340.018	96.38
340.246	103.38
340.474	93.38
340.702	106.38
340.93	92.38
341.158	99.38
341.386	102.38
341.614	91.38
341.842	89.38
342.07	80.38
342.298	96.38
342.526	91.38
342.754	102.38
342.981	97.38
343.209	88.38
343.437	100.38
343.665	105.38
343.893	105.38
344.12	104.38
344.348	109.38
344.576	86.38
344.804	90.38
345.031	97.38
345.259	100.38
345.487	92.38
345.714	87.38
345.942	91.38
346.17	90.38
346.397	86.38
346.625	98.38
346.853	90.38
347.08	94.38
347.308	98.38
347.535	99.38
347.763	104.38
347.99	105.38
348.218	113.38
348.445	108.38
348.673	104.38
348.9	101.38
349.128	108.38
349.355	91.38
349.583	90.38
349.81	92.38
350.037	101.38
350.265	100.38
350.492	92.38
350.72	90.38
350.947	92.38
351.174	107.38
351.402	106.38
351.629	104.38
351.856	112.38
352.083	110.38
352.311	117.38
352.538	106.38
352.765	103.38
352.992	105.38
353.22	121.38
353.447	115.38
353.674	101.38
353.901	105.38
354.128	101.38
354.355	96.38
354.583	114.38
354.81	113.38
355.037	101.38
355.264	107.38
355.491	96.38
355.718	81.38
355.945	91.38
356.172	100.38
356.399	91.38
356.626	94.38
356.853	88.38
357.08	102.38
357.307	97.38
357.534	85.38
357.761	104.38
357.988	96.38
358.215	115.38
358.441	97.38
358.668	89.38
358.895	85.38
359.122	93.38
359.349	106.38
359.576	100.38
359.802	97.38
360.029	115.38
360.256	100.38
360.483	102.38
360.709	80.38
360.936	99.38
361.163	78.38
361.39	99.38
361.616	98.38
361.843	93.38
362.07	101.38
362.296	102.38
362.523	85.38
362.749	103.38
362.976	90.38
363.203	98.38
363.429	90.38
363.656	100.38
363.882	111.38
364.109	86.38
364.335	101.38
364.562	88.38
364.788	86.38
365.015	106.38
365.241	113.38
365.468	114.38
365.694	114.38
365.92	109.38
366.147	93.38
366.373	82.38
366.599	93.38
366.826	88.38
367.052	103.38
367.278	93.38
367.505	89.38
367.731	92.38
367.957	93.38
368.184	99.38
368.41	91.38
368.636	93.38
368.862	113.38
369.089	118.38
369.315	100.38
369.541	86.38
369.767	82.38
369.993	106.38
370.219	103.38
370.445	99.38
370.672	94.38
370.898	85.38
371.124	88.38
371.35	86.38
371.576	92.38
371.802	89.38
372.028	90.38
372.254	97.38
372.48	85.38
372.706	100.38
372.932	99.38
373.158	109.38
373.384	95.38
373.61	84.38
373.835	101.38
374.061	96.38
374.287	90.38
374.513	93.38
374.739	105.38
374.965	91.38
375.191	74.38
375.416	90.38
375.642	83.38
375.868	91.38
376.094	99.38
376.319	90.38
376.545	109.38
376.771	100.38
376.997	105.38
377.222	106.38
377.448	91.38
377.674	96.38
377.899	86.38
378.125	104.38
378.35	100.38
378.576	96.38
378.802	102.38
379.027	88.38
379.253	87.38
379.478	97.38
379.704	98.38
379.929	94.38
380.155	103.38
380.38	93.38
380.606	101.38
380.831	96.38
381.057	94.38
381.282	96.38
381.507	91.38
381.733	96.38
381.958	97.38
382.184	105.38
382.409	117.38
382.634	103.38
382.86	103.38
383.085	99.38
383.31	105.38
383.535	108.38
383.761	115.38
383.986	107.38
384.211	100.38
384.436	104.38
384.662	104.38
384.887	104.38
385.112	116.38
385.337	112.38
385.562	105.38
385.787	101.38
386.013	104.38
386.238	119.38
386.463	113.38
386.688	100.38
386.913	112.38
387.138	102.38
387.363	92.38
387.588	93.38
387.813	93.38
388.038	96.38
388.263	107.38
388.488	106.38
388.713	103.38
388.938	103.38
389.163	86.38
389.387	114.38
389.612	109.38
389.837	95.38
390.062	95.38
390.287	92.38
390.512	98.38
390.736	91.38
390.961	91.38
391.186	87.38
391.411	106.38
391.636	92.38
391.86	97.38
392.085	86.38
392.31	81.38
392.534	93.38
392.759	89.38
392.984	97.38
393.208	92.38
393.433	95.38
393.658	98.38
393.882	94.38
394.107	94.38
394.331	92.38
394.556	82.38
394.78	84.38
395.005	94.38
395.229	95.38
395.454	93.38
395.678	94.38
395.903	92.38
396.127	95.38
396.352	96.38
396.576	94.38
396.801	97.38
397.025	104.38
397.249	84.38
397.474	94.38
397.698	81.38
397.922	95.38
398.147	87.38
398.371	90.38
398.595	107.38
398.82	104.38
399.044	106.38
399.268	81.38
399.492	74.38
399.717	82.38
399.941	105.38
400.165	88.38
400.389	91.38
400.613	93.38
400.837	90.38
401.062	91.38
401.286	95.38
401.51	90.38
401.734	95.38
401.958	107.38
402.182	122.38
402.406	146.38
402.63	115.38
402.854	101.38
403.078	101.38
403.302	85.38
403.526	86.38
403.75	85.38
403.974	80.38
404.198	88.38
404.422	83.38
404.645	94.38
404.869	110.38
405.093	92.38
405.317	96.38
405.541	108.38
405.765	88.38
405.988	118.38
406.212	171.38
406.436	196.38
406.66	126.38
406.883	99.38
407.107	92.38
407.331	95.38
407.555	95.38
407.778	98.38
408.002	99.38
408.226	101.38
408.449	76.38
408.673	104.38
408.896	94.38
409.12	97.38
409.344	86.38
409.567	77.38
409.791	77.38
410.014	95.38
410.238	107.38
410.461	96.38
410.685	90.38
410.908	102.38
411.132	108.38
411.355	97.38
411.578	96.38
411.802	93.38
412.025	82.38
412.249	94.38
412.472	102.38
412.695	110.38
412.919	95.38
413.142	88.38
413.365	84.38
413.589	96.38
413.812	106.38
414.035	92.38
414.258	90.38
414.482	92.38
414.705	96.38
414.928	91.38
415.151	88.38
415.374	96.38
415.597	93.38
415.821	83.38
416.044	102.38
416.267	90.38
416.49	94.38
416.713	92.38
416.936	95.38
417.159	96.38
417.382	83.38
417.605	79.38
417.828	94.38
418.051	86.38
418.274	90.38
418.497	84.38
418.72	110.38
418.943	96.38
419.166	101.38
419.389	100.38
419.611	100.38
419.834	90.38
420.057	95.38
420.28	77.38
420.503	104.38
420.726	85.38
420.948	83.38
421.171	96.38
421.394	100.38
421.617	101.38
421.839	96.38
422.062	100.38
422.285	88.38
422.507	92.38
422.73	97.38
422.953	92.38
423.175	94.38
423.398	95.38
423.621	88.38
423.843	93.38
424.066	82.38
424.288	88.38
424.511	102.38
424.733	109.38
424.956	100.38
425.178	104.38
425.401	90.38
425.623	100.38
425.846	92.38
426.068	96.38
426.291	84.38
426.513	87.38
426.735	80.38
426.958	90.38
427.18	116.38
427.402	119.38
427.625	158.38
427.847	139.38
428.069	118.38
428.292	100.38
428.514	104.38
428.736	95.38
428.958	101.38
429.181	86.38
429.403	89.38
429.625	78.38
429.847	84.38
430.069	95.38
430.292	102.38
430.514	85.38
430.736	92.38
430.958	86.38
431.18	96.38
431.402	92.38
431.624	84.38
431.846	97.38
432.068	99.38
432.29	89.38
432.512	100.38
432.734	92.38
432.956	103.38
433.178	108.38
433.4	99.38
433.622	84.38
433.844	96.38
434.066	88.38
434.287	90.38
434.509	94.38
434.731	90.38
434.953	86.38
435.175	97.38
435.397	112.38
435.618	106.38
435.84	98.38
436.062	118.38
436.284	123.38
436.505	109.38
436.727	96.38
436.949	102.38
437.17	94.38
437.392	94.38
437.614	90.38
437.835	114.38
438.057	112.38
438.278	109.38
438.5	100.38
438.721	120.38
438.943	94.38
439.165	98.38
439.386	89.38
439.608	83.38
439.829	107.38
440.05	121.38
440.272	129.38
440.493	114.38
440.715	92.38
440.936	80.38
441.158	87.38
441.379	90.38
441.6	96.38
441.822	91.38
442.043	90.38
442.264	93.38
442.486	100.38
442.707	101.38
442.928	110.38
443.149	124.38
443.371	140.38
443.592	104.38
443.813	109.38
444.034	95.38
444.255	105.38
444.476	89.38
444.698	96.38
444.919	91.38
445.14	137.38
445.361	117.38
445.582	115.38
445.803	131.38
446.024	127.38
446.245	148.38
446.466	107.38
446.687	100.38
446.908	86.38
447.129	92.38
447.35	90.38
447.571	97.38
447.792	103.38
448.013	106.38
448.234	100.38
448.455	107.38
448.675	103.38
448.896	110.38
449.117	93.38
449.338	102.38
449.559	128.38
449.779	139.38
450	96.38
450.221	92.38
450.442	93.38
450.662	90.38
450.883	92.38
451.104	114.38
451.324	93.38
451.545	89.38
451.766	84.38
451.986	96.38
452.207	100.38
452.428	80.38
452.648	114.38
452.869	113.38
453.089	110.38
453.31	108.38
453.53	91.38
453.751	81.38
453.971	106.38
454.192	106.38
454.412	100.38
454.633	96.38
454.853	89.38
455.073	103.38
455.294	98.38
455.514	88.38
455.734	88.38
455.955	87.38
456.175	93.38
456.395	87.38
456.616	92.38
456.836	93.38
457.056	85.38
457.276	94.38
457.497	102.38
457.717	76.38
457.937	94.38
458.157	93.38
458.377	89.38
458.598	108.38
458.818	131.38
459.038	130.38
459.258	116.38
459.478	97.38
459.698	92.38
459.918	95.38
460.138	95.38
460.358	85.38
460.578	92.38
460.798	105.38
461.018	83.38
461.238	103.38
461.458	99.38
461.678	97.38
461.898	76.38
462.118	98.38
462.338	97.38
462.558	91.38
462.777	97.38
462.997	102.38
463.217	95.38
463.437	89.38
463.657	94.38
463.876	88.38
464.096	81.38
464.316	108.38
464.536	94.38
464.755	92.38
464.975	103.38
465.195	148.38
465.414	135.38
465.634	108.38
465.854	96.38
466.073	85.38
466.293	88.38
466.512	84.38
466.732	84.38
466.951	86.38
467.171	106.38
467.391	100.38
467.61	114.38
467.829	110.38
468.049	167.38
468.268	189.38
468.488	105.38
468.707	97.38
468.927	94.38
469.146	82.38
469.365	80.38
469.585	93.38
469.804	92.38
470.023	93.38
470.243	94.38
470.462	104.38
470.681	120.38
470.901	96.38
471.12	87.38
471.339	96.38
471.558	101.38
471.777	99.38
471.997	131.38
472.216	250.38
472.435	409.38
472.654	156.38
472.873	90.38
473.092	105.38
473.311	95.38
473.53	88.38
473.749	82.38
473.968	91.38
474.187	94.38
474.406	95.38
474.625	89.38
474.844	86.38
475.063	81.38
475.282	96.38
475.501	107.38
475.72	98.38
475.939	92.38
476.158	80.38
476.377	78.38
476.596	84.38
476.814	92.38
477.033	95.38
477.252	101.38
477.471	90.38
477.69	92.38
477.908	92.38
478.127	98.38
478.346	105.38
478.564	107.38
478.783	89.38
479.002	104.38
479.22	89.38
479.439	106.38
479.658	117.38
479.876	88.38
480.095	82.38
480.313	104.38
480.532	106.38
480.751	118.38
480.969	214.38
481.188	690.38
481.406	431.38
481.624	123.38
481.843	100.38
482.061	94.38
482.28	90.38
482.498	92.38
482.717	87.38
482.935	101.38
483.153	85.38
483.372	89.38
483.59	105.38
483.808	85.38
484.027	104.38
484.245	93.38
484.463	112.38
484.681	82.38
484.9	86.38
485.118	98.38
485.336	91.38
485.554	102.38
485.772	95.38
485.99	103.38
486.209	101.38
486.427	118.38
486.645	110.38
486.863	122.38
487.081	99.38
487.299	122.38
487.517	96.38
487.735	97.38
487.953	101.38
488.171	87.38
488.389	86.38
488.607	106.38
488.825	100.38
489.043	108.38
489.261	93.38
489.479	85.38
489.696	86.38
489.914	91.38
490.132	88.38
490.35	91.38
490.568	92.38
490.786	100.38
491.003	92.38
491.221	99.38
491.439	94.38
491.657	107.38
491.874	90.38
492.092	104.38
492.31	84.38
492.527	92.38
492.745	117.38
492.963	92.38
493.18	104.38
493.398	93.38
493.615	91.38
493.833	101.38
494.05	80.38
494.268	84.38
494.485	83.38
494.703	107.38
494.92	85.38
495.138	80.38
495.355	89.38
495.573	82.38
495.79	86.38
496.008	108.38
496.225	98.38
496.442	96.38
496.66	100.38
496.877	102.38
497.094	113.38
497.312	93.38
497.529	90.38
497.746	92.38
497.963	83.38
498.181	97.38
498.398	120.38
498.615	106.38
498.832	108.38
499.049	77.38
499.267	99.38
499.484	97.38
499.701	101.38
499.918	96.38
500.135	96.38
500.352	107.38
500.569	94.38
500.786	98.38
501.003	89.38
501.22	89.38
501.437	88.38
501.654	88.38
501.871	116.38
502.088	83.38
502.305	80.38
502.522	93.38
502.739	89.38
502.956	98.38
503.172	97.38
503.389	100.38
503.606	106.38
503.823	104.38
504.04	100.38
504.256	89.38
504.473	83.38
504.69	90.38
504.907	98.38
505.123	93.38
505.34	103.38
505.557	96.38
505.773	92.38
505.99	92.38
506.207	93.38
506.423	102.38
506.64	88.38
506.856	90.38
507.073	100.38
507.289	108.38
507.506	115.38
507.722	109.38
507.939	116.38
508.155	88.38
508.372	88.38
508.588	93.38
508.805	96.38
509.021	88.38
509.238	101.38
509.454	102.38
509.67	119.38
509.887	100.38
510.103	119.38
510.319	182.38
510.536	639.38
510.752	1860.38
510.968	540.38
511.184	130.38
511.401	104.38
511.617	90.38
511.833	92.38
512.049	88.38
512.265	90.38
512.481	100.38
512.698	81.38
512.914	93.38
513.13	98.38
513.346	99.38
513.562	102.38
