Data from Uncirc_1989_H10_HRD10591_00011.txt Node
Date: Wed Jan 03 11:57:37 EST 2024
User: Yrep
Spectrometer: HR+D1059
Trigger mode: 1
Integration Time (sec): 1.000000E-1
Scans to average: 1
Electric dark correction enabled: true
Nonlinearity correction enabled: false
Boxcar width: 0
XAxis mode: Wavelengths
Number of Pixels in Spectrum: 2048
>>>>>Begin Spectral Data<<<<<
223.165	-7.31
223.4	-7.31
223.635	-7.31
223.869	-23.31
224.104	-18.31
224.338	-20.31
224.573	-17.31
224.808	-10.31
225.042	-0.31
225.277	-1.31
225.511	-10.31
225.746	-7.31
225.98	-0.31
226.215	0.69
226.449	21.69
226.683	28.69
226.918	38.69
227.152	26.69
227.387	29.69
227.621	34.69
227.856	45.69
228.09	41.69
228.324	49.69
228.559	68.69
228.793	59.69
229.027	54.69
229.262	70.69
229.496	53.69
229.73	80.69
229.964	76.69
230.199	55.69
230.433	65.69
230.667	69.69
230.901	86.69
231.136	76.69
231.37	67.69
231.604	80.69
231.838	76.69
232.072	65.69
232.306	87.69
232.541	92.69
232.775	82.69
233.009	86.69
233.243	93.69
233.477	74.69
233.711	90.69
233.945	82.69
234.179	78.69
234.413	85.69
234.647	76.69
234.881	62.69
235.115	80.69
235.349	91.69
235.583	77.69
235.817	81.69
236.051	83.69
236.285	86.69
236.519	81.69
236.753	72.69
236.987	82.69
237.221	90.69
237.455	87.69
237.689	81.69
237.922	75.69
238.156	72.69
238.39	74.69
238.624	59.69
238.858	78.69
239.091	82.69
239.325	62.69
239.559	82.69
239.793	77.69
240.027	68.69
240.26	84.69
240.494	58.69
240.728	85.69
240.961	81.69
241.195	72.69
241.429	64.69
241.662	71.69
241.896	68.69
242.13	71.69
242.363	71.69
242.597	77.69
242.83	70.69
243.064	78.69
243.298	68.69
243.531	67.69
243.765	66.69
243.998	88.69
244.232	82.69
244.465	76.69
244.699	75.69
244.932	79.69
245.166	93.69
245.399	77.69
245.633	78.69
245.866	83.69
246.099	76.69
246.333	67.69
246.566	74.69
246.8	77.69
247.033	85.69
247.266	86.69
247.5	84.69
247.733	70.69
247.966	92.69
248.2	86.69
248.433	55.69
248.666	85.69
248.899	75.69
249.133	82.69
249.366	91.69
249.599	90.69
249.832	85.69
250.066	66.69
250.299	87.69
250.532	79.69
250.765	93.69
250.998	91.69
251.231	78.69
251.465	79.69
251.698	69.69
251.931	74.69
252.164	81.69
252.397	91.69
252.63	76.69
252.863	79.69
253.096	79.69
253.329	78.69
253.562	93.69
253.795	76.69
254.028	88.69
254.261	74.69
254.494	75.69
254.727	76.69
254.96	76.69
255.193	88.69
255.426	77.69
255.659	72.69
255.892	69.69
256.124	76.69
256.357	79.69
256.59	84.69
256.823	75.69
257.056	80.69
257.289	91.69
257.521	90.69
257.754	77.69
257.987	90.69
258.22	67.69
258.452	84.69
258.685	71.69
258.918	89.69
259.151	89.69
259.383	67.69
259.616	90.69
259.849	72.69
260.081	68.69
260.314	72.69
260.547	76.69
260.779	92.69
261.012	83.69
261.244	83.69
261.477	89.69
261.71	88.69
261.942	109.69
262.175	94.69
262.407	96.69
262.64	70.69
262.872	79.69
263.105	88.69
263.337	87.69
263.57	77.69
263.802	86.69
264.035	86.69
264.267	84.69
264.499	93.69
264.732	85.69
264.964	77.69
265.197	67.69
265.429	70.69
265.661	78.69
265.894	83.69
266.126	68.69
266.358	78.69
266.591	97.69
266.823	77.69
267.055	82.69
267.287	77.69
267.52	84.69
267.752	91.69
267.984	85.69
268.216	79.69
268.448	75.69
268.681	76.69
268.913	75.69
269.145	76.69
269.377	87.69
269.609	93.69
269.841	71.69
270.073	69.69
270.306	85.69
270.538	71.69
270.77	86.69
271.002	88.69
271.234	77.69
271.466	86.69
271.698	94.69
271.93	81.69
272.162	75.69
272.394	90.69
272.626	81.69
272.858	80.69
273.09	102.69
273.322	66.69
273.553	74.69
273.785	98.69
274.017	87.69
274.249	70.69
274.481	84.69
274.713	87.69
274.945	73.69
275.176	85.69
275.408	86.69
275.64	79.69
275.872	77.69
276.104	72.69
276.335	85.69
276.567	86.69
276.799	87.69
277.031	82.69
277.262	86.69
277.494	100.69
277.726	85.69
277.957	96.69
278.189	80.69
278.421	83.69
278.652	82.69
278.884	82.69
279.115	76.69
279.347	76.69
279.579	74.69
279.81	82.69
280.042	92.69
280.273	87.69
280.505	89.69
280.736	77.69
280.968	79.69
281.199	77.69
281.431	76.69
281.662	85.69
281.894	67.69
282.125	92.69
282.356	103.69
282.588	106.69
282.819	103.69
283.051	86.69
283.282	81.69
283.513	85.69
283.745	86.69
283.976	85.69
284.207	79.69
284.439	80.69
284.67	78.69
284.901	92.69
285.132	81.69
285.364	84.69
285.595	92.69
285.826	87.69
286.057	77.69
286.288	88.69
286.52	86.69
286.751	81.69
286.982	73.69
287.213	85.69
287.444	96.69
287.675	87.69
287.906	88.69
288.138	72.69
288.369	86.69
288.6	78.69
288.831	86.69
289.062	79.69
289.293	85.69
289.524	84.69
289.755	98.69
289.986	80.69
290.217	91.69
290.448	83.69
290.679	81.69
290.91	78.69
291.141	85.69
291.371	91.69
291.602	79.69
291.833	94.69
292.064	78.69
292.295	75.69
292.526	87.69
292.757	92.69
292.987	94.69
293.218	94.69
293.449	80.69
293.68	94.69
293.91	76.69
294.141	101.69
294.372	83.69
294.603	84.69
294.833	85.69
295.064	78.69
295.295	80.69
295.525	94.69
295.756	100.69
295.987	113.69
296.217	114.69
296.448	110.69
296.679	90.69
296.909	89.69
297.14	87.69
297.37	99.69
297.601	87.69
297.831	82.69
298.062	76.69
298.292	80.69
298.523	95.69
298.753	95.69
298.984	79.69
299.214	91.69
299.445	78.69
299.675	93.69
299.905	95.69
300.136	86.69
300.366	96.69
300.597	88.69
300.827	84.69
301.057	84.69
301.288	87.69
301.518	80.69
301.748	87.69
301.979	93.69
302.209	84.69
302.439	98.69
302.669	100.69
302.9	93.69
303.13	95.69
303.36	88.69
303.59	93.69
303.82	91.69
304.051	100.69
304.281	102.69
304.511	99.69
304.741	91.69
304.971	74.69
305.201	98.69
305.431	78.69
305.661	91.69
305.891	84.69
306.121	90.69
306.352	83.69
306.582	94.69
306.812	94.69
307.042	80.69
307.272	94.69
307.502	89.69
307.731	101.69
307.961	87.69
308.191	87.69
308.421	84.69
308.651	99.69
308.881	97.69
309.111	90.69
309.341	108.69
309.571	91.69
309.8	86.69
310.03	85.69
310.26	84.69
310.49	86.69
310.72	101.69
310.949	95.69
311.179	91.69
311.409	100.69
311.639	84.69
311.868	89.69
312.098	97.69
312.328	98.69
312.557	95.69
312.787	98.69
313.017	104.69
313.246	84.69
313.476	109.69
313.706	86.69
313.935	94.69
314.165	96.69
314.394	100.69
314.624	83.69
314.853	91.69
315.083	96.69
315.312	99.69
315.542	76.69
315.771	99.69
316.001	80.69
316.23	99.69
316.46	85.69
316.689	86.69
316.919	82.69
317.148	98.69
317.377	84.69
317.607	86.69
317.836	94.69
318.065	86.69
318.295	92.69
318.524	93.69
318.753	86.69
318.983	78.69
319.212	83.69
319.441	102.69
319.67	90.69
319.9	79.69
320.129	92.69
320.358	87.69
320.587	93.69
320.816	99.69
321.046	102.69
321.275	89.69
321.504	88.69
321.733	94.69
321.962	94.69
322.191	97.69
322.42	86.69
322.649	94.69
322.878	85.69
323.108	98.69
323.337	104.69
323.566	113.69
323.795	135.69
324.024	193.69
324.253	330.69
324.482	640.69
324.71	1303.69
324.939	1677.69
325.168	616.69
325.397	190.69
325.626	133.69
325.855	98.69
326.084	112.69
326.313	112.69
326.542	135.69
326.77	196.69
326.999	353.69
327.228	790.69
327.457	1342.69
327.686	1036.69
327.914	291.69
328.143	184.69
328.372	141.69
328.6	102.69
328.829	111.69
329.058	110.69
329.287	112.69
329.515	100.69
329.744	101.69
329.972	105.69
330.201	128.69
330.43	111.69
330.658	113.69
330.887	113.69
331.115	87.69
331.344	91.69
331.572	83.69
331.801	89.69
332.03	101.69
332.258	99.69
332.486	86.69
332.715	95.69
332.943	97.69
333.172	86.69
333.4	82.69
333.629	101.69
333.857	96.69
334.085	107.69
334.314	110.69
334.542	126.69
334.771	125.69
334.999	99.69
335.227	92.69
335.455	83.69
335.684	110.69
335.912	109.69
336.14	104.69
336.369	115.69
336.597	102.69
336.825	85.69
337.053	93.69
337.281	94.69
337.51	84.69
337.738	87.69
337.966	88.69
338.194	96.69
338.422	92.69
338.65	86.69
338.878	97.69
339.106	90.69
339.334	82.69
339.562	76.69
339.79	90.69
340.018	85.69
340.246	98.69
340.474	95.69
340.702	91.69
340.93	93.69
341.158	81.69
341.386	102.69
341.614	91.69
341.842	98.69
342.07	87.69
342.298	99.69
342.526	72.69
342.754	84.69
342.981	81.69
343.209	93.69
343.437	97.69
343.665	90.69
343.893	91.69
344.12	88.69
344.348	90.69
344.576	89.69
344.804	81.69
345.031	94.69
345.259	91.69
345.487	75.69
345.714	86.69
345.942	78.69
346.17	88.69
346.397	87.69
346.625	86.69
346.853	94.69
347.08	95.69
347.308	93.69
347.535	86.69
347.763	101.69
347.99	88.69
348.218	103.69
348.445	106.69
348.673	104.69
348.9	74.69
349.128	92.69
349.355	82.69
349.583	94.69
349.81	88.69
350.037	105.69
350.265	86.69
350.492	99.69
350.72	86.69
350.947	114.69
351.174	95.69
351.402	109.69
351.629	100.69
351.856	90.69
352.083	102.69
352.311	110.69
352.538	96.69
352.765	105.69
352.992	104.69
353.22	90.69
353.447	88.69
353.674	88.69
353.901	92.69
354.128	99.69
354.355	100.69
354.583	102.69
354.81	97.69
355.037	89.69
355.264	94.69
355.491	92.69
355.718	102.69
355.945	99.69
356.172	93.69
356.399	86.69
356.626	88.69
356.853	93.69
357.08	86.69
357.307	86.69
357.534	90.69
357.761	85.69
357.988	96.69
358.215	111.69
358.441	101.69
358.668	94.69
358.895	91.69
359.122	84.69
359.349	93.69
359.576	86.69
359.802	94.69
360.029	99.69
360.256	90.69
360.483	93.69
360.709	101.69
360.936	95.69
361.163	91.69
361.39	104.69
361.616	94.69
361.843	94.69
362.07	102.69
362.296	77.69
362.523	93.69
362.749	100.69
362.976	103.69
363.203	81.69
363.429	97.69
363.656	81.69
363.882	84.69
364.109	88.69
364.335	96.69
364.562	85.69
364.788	95.69
365.015	92.69
365.241	87.69
365.468	86.69
365.694	110.69
365.92	100.69
366.147	72.69
366.373	80.69
366.599	84.69
366.826	90.69
367.052	89.69
367.278	80.69
367.505	82.69
367.731	83.69
367.957	86.69
368.184	98.69
368.41	93.69
368.636	105.69
368.862	97.69
369.089	76.69
369.315	85.69
369.541	83.69
369.767	95.69
369.993	90.69
370.219	86.69
370.445	92.69
370.672	87.69
370.898	82.69
371.124	84.69
371.35	71.69
371.576	99.69
371.802	87.69
372.028	84.69
372.254	94.69
372.48	98.69
372.706	85.69
372.932	88.69
373.158	93.69
373.384	96.69
373.61	74.69
373.835	84.69
374.061	86.69
374.287	74.69
374.513	80.69
374.739	92.69
374.965	80.69
375.191	80.69
375.416	90.69
375.642	82.69
375.868	71.69
376.094	98.69
376.319	99.69
376.545	93.69
376.771	94.69
376.997	85.69
377.222	77.69
377.448	88.69
377.674	83.69
377.899	92.69
378.125	76.69
378.35	76.69
378.576	97.69
378.802	110.69
379.027	84.69
379.253	79.69
379.478	98.69
379.704	81.69
379.929	102.69
380.155	98.69
380.38	87.69
380.606	96.69
380.831	78.69
381.057	79.69
381.282	88.69
381.507	97.69
381.733	92.69
381.958	99.69
382.184	96.69
382.409	85.69
382.634	107.69
382.86	90.69
383.085	88.69
383.31	99.69
383.535	96.69
383.761	105.69
383.986	82.69
384.211	100.69
384.436	97.69
384.662	96.69
384.887	106.69
385.112	114.69
385.337	96.69
385.562	90.69
385.787	102.69
386.013	102.69
386.238	121.69
386.463	97.69
386.688	104.69
386.913	104.69
387.138	100.69
387.363	113.69
387.588	114.69
387.813	107.69
388.038	97.69
388.263	106.69
388.488	106.69
388.713	91.69
388.938	92.69
389.163	76.69
389.387	109.69
389.612	93.69
389.837	96.69
390.062	87.69
390.287	88.69
390.512	101.69
390.736	78.69
390.961	88.69
391.186	100.69
391.411	101.69
391.636	87.69
391.86	93.69
392.085	96.69
392.31	79.69
392.534	98.69
392.759	87.69
392.984	93.69
393.208	97.69
393.433	125.69
393.658	133.69
393.882	83.69
394.107	99.69
394.331	88.69
394.556	88.69
394.78	85.69
395.005	99.69
395.229	82.69
395.454	96.69
395.678	90.69
395.903	74.69
396.127	78.69
396.352	97.69
396.576	81.69
396.801	107.69
397.025	104.69
397.249	94.69
397.474	92.69
397.698	74.69
397.922	75.69
398.147	80.69
398.371	79.69
398.595	85.69
398.82	76.69
399.044	87.69
399.268	72.69
399.492	85.69
399.717	104.69
399.941	86.69
400.165	89.69
400.389	90.69
400.613	89.69
400.837	86.69
401.062	78.69
401.286	98.69
401.51	96.69
401.734	94.69
401.958	90.69
402.182	114.69
402.406	130.69
402.63	108.69
402.854	94.69
403.078	94.69
403.302	79.69
403.526	85.69
403.75	85.69
403.974	101.69
404.198	101.69
404.422	90.69
404.645	96.69
404.869	64.69
405.093	98.69
405.317	88.69
405.541	87.69
405.765	89.69
405.988	99.69
406.212	143.69
406.436	174.69
406.66	118.69
406.883	84.69
407.107	83.69
407.331	89.69
407.555	90.69
407.778	94.69
408.002	95.69
408.226	89.69
408.449	89.69
408.673	87.69
408.896	90.69
409.12	90.69
409.344	94.69
409.567	83.69
409.791	94.69
410.014	100.69
410.238	106.69
410.461	80.69
410.685	81.69
410.908	98.69
411.132	104.69
411.355	109.69
411.578	92.69
411.802	92.69
412.025	87.69
412.249	90.69
412.472	91.69
412.695	106.69
412.919	84.69
413.142	98.69
413.365	87.69
413.589	86.69
413.812	93.69
414.035	101.69
414.258	102.69
414.482	98.69
414.705	86.69
414.928	92.69
415.151	94.69
415.374	99.69
415.597	95.69
415.821	78.69
416.044	79.69
416.267	87.69
416.49	72.69
416.713	88.69
416.936	93.69
417.159	90.69
417.382	95.69
417.605	84.69
417.828	89.69
418.051	102.69
418.274	74.69
418.497	94.69
418.72	87.69
418.943	80.69
419.166	83.69
419.389	88.69
419.611	84.69
419.834	92.69
420.057	101.69
420.28	90.69
420.503	86.69
420.726	69.69
420.948	88.69
421.171	91.69
421.394	86.69
421.617	88.69
421.839	94.69
422.062	91.69
422.285	91.69
422.507	91.69
422.73	96.69
422.953	87.69
423.175	82.69
423.398	83.69
423.621	97.69
423.843	92.69
424.066	88.69
424.288	82.69
424.511	77.69
424.733	82.69
424.956	107.69
425.178	96.69
425.401	91.69
425.623	90.69
425.846	92.69
426.068	100.69
426.291	101.69
426.513	90.69
426.735	96.69
426.958	103.69
427.18	92.69
427.402	123.69
427.625	125.69
427.847	121.69
428.069	107.69
428.292	99.69
428.514	88.69
428.736	89.69
428.958	78.69
429.181	93.69
429.403	92.69
429.625	92.69
429.847	96.69
430.069	88.69
430.292	95.69
430.514	82.69
430.736	86.69
430.958	81.69
431.18	92.69
431.402	87.69
431.624	91.69
431.846	88.69
432.068	86.69
432.29	72.69
432.512	92.69
432.734	86.69
432.956	98.69
433.178	100.69
433.4	82.69
433.622	90.69
433.844	104.69
434.066	90.69
434.287	80.69
434.509	94.69
434.731	77.69
434.953	90.69
435.175	90.69
435.397	72.69
435.618	81.69
435.84	96.69
436.062	105.69
436.284	108.69
436.505	105.69
436.727	94.69
436.949	102.69
437.17	92.69
437.392	97.69
437.614	86.69
437.835	99.69
438.057	101.69
438.278	99.69
438.5	89.69
438.721	114.69
438.943	81.69
439.165	89.69
439.386	83.69
439.608	78.69
439.829	81.69
440.05	109.69
440.272	117.69
440.493	98.69
440.715	86.69
440.936	87.69
441.158	82.69
441.379	86.69
441.6	88.69
441.822	91.69
442.043	70.69
442.264	94.69
442.486	80.69
442.707	98.69
442.928	104.69
443.149	119.69
443.371	119.69
443.592	88.69
443.813	101.69
444.034	90.69
444.255	74.69
444.476	80.69
444.698	90.69
444.919	85.69
445.14	135.69
445.361	117.69
445.582	100.69
445.803	101.69
446.024	107.69
446.245	111.69
446.466	101.69
446.687	82.69
446.908	80.69
447.129	97.69
447.35	82.69
447.571	95.69
447.792	91.69
448.013	95.69
448.234	101.69
448.455	100.69
448.675	95.69
448.896	99.69
449.117	72.69
449.338	100.69
449.559	112.69
449.779	111.69
450	96.69
450.221	95.69
450.442	77.69
450.662	80.69
450.883	105.69
451.104	106.69
451.324	93.69
451.545	84.69
451.766	80.69
451.986	82.69
452.207	84.69
452.428	91.69
452.648	91.69
452.869	111.69
453.089	93.69
453.31	88.69
453.53	84.69
453.751	102.69
453.971	89.69
454.192	99.69
454.412	85.69
454.633	77.69
454.853	100.69
455.073	96.69
455.294	92.69
455.514	76.69
455.734	78.69
455.955	91.69
456.175	81.69
456.395	81.69
456.616	84.69
456.836	78.69
457.056	105.69
457.276	83.69
457.497	84.69
457.717	94.69
457.937	74.69
458.157	68.69
458.377	84.69
458.598	98.69
458.818	123.69
459.038	131.69
459.258	108.69
459.478	80.69
459.698	75.69
459.918	91.69
460.138	68.69
460.358	79.69
460.578	87.69
460.798	91.69
461.018	88.69
461.238	86.69
461.458	90.69
461.678	86.69
461.898	78.69
462.118	84.69
462.338	68.69
462.558	88.69
462.777	74.69
462.997	90.69
463.217	73.69
463.437	90.69
463.657	95.69
463.876	90.69
464.096	86.69
464.316	85.69
464.536	95.69
464.755	81.69
464.975	98.69
465.195	126.69
465.414	123.69
465.634	86.69
465.854	86.69
466.073	92.69
466.293	81.69
466.512	74.69
466.732	74.69
466.951	94.69
467.171	100.69
467.391	98.69
467.61	96.69
467.829	86.69
468.049	97.69
468.268	95.69
468.488	82.69
468.707	90.69
468.927	81.69
469.146	78.69
469.365	91.69
469.585	88.69
469.804	84.69
470.023	101.69
470.243	99.69
470.462	89.69
470.681	89.69
470.901	99.69
471.12	96.69
471.339	98.69
471.558	74.69
471.777	102.69
471.997	96.69
472.216	100.69
472.435	136.69
472.654	102.69
472.873	82.69
473.092	82.69
473.311	71.69
473.53	101.69
473.749	72.69
473.968	84.69
474.187	85.69
474.406	96.69
474.625	84.69
474.844	87.69
475.063	78.69
475.282	86.69
475.501	77.69
475.72	103.69
475.939	88.69
476.158	78.69
476.377	95.69
476.596	78.69
476.814	85.69
477.033	75.69
477.252	73.69
477.471	92.69
477.69	95.69
477.908	76.69
478.127	95.69
478.346	87.69
478.564	86.69
478.783	79.69
479.002	96.69
479.22	80.69
479.439	88.69
479.658	92.69
479.876	100.69
480.095	88.69
480.313	88.69
480.532	78.69
480.751	84.69
480.969	108.69
481.188	186.69
481.406	148.69
481.624	93.69
481.843	96.69
482.061	90.69
482.28	91.69
482.498	92.69
482.717	85.69
482.935	98.69
483.153	100.69
483.372	88.69
483.59	90.69
483.808	95.69
484.027	83.69
484.245	89.69
484.463	93.69
484.681	81.69
484.9	75.69
485.118	90.69
485.336	98.69
485.554	112.69
485.772	96.69
485.99	101.69
486.209	100.69
486.427	95.69
486.645	108.69
486.863	107.69
487.081	95.69
487.299	95.69
487.517	78.69
487.735	82.69
487.953	93.69
488.171	88.69
488.389	99.69
488.607	96.69
488.825	93.69
489.043	91.69
489.261	95.69
489.479	92.69
489.696	90.69
489.914	92.69
490.132	91.69
490.35	95.69
490.568	86.69
490.786	85.69
491.003	91.69
491.221	84.69
491.439	98.69
491.657	85.69
491.874	94.69
492.092	97.69
492.31	80.69
492.527	87.69
492.745	83.69
492.963	84.69
493.18	86.69
493.398	99.69
493.615	90.69
493.833	100.69
494.05	82.69
494.268	80.69
494.485	84.69
494.703	95.69
494.92	85.69
495.138	83.69
495.355	95.69
495.573	109.69
495.79	83.69
496.008	74.69
496.225	96.69
496.442	87.69
496.66	82.69
496.877	100.69
497.094	87.69
497.312	93.69
497.529	89.69
497.746	79.69
497.963	71.69
498.181	86.69
498.398	95.69
498.615	115.69
498.832	90.69
499.049	91.69
499.267	94.69
499.484	69.69
499.701	87.69
499.918	81.69
500.135	86.69
500.352	102.69
500.569	84.69
500.786	87.69
501.003	86.69
501.22	89.69
501.437	72.69
501.654	84.69
501.871	93.69
502.088	100.69
502.305	90.69
502.522	82.69
502.739	87.69
502.956	92.69
503.172	88.69
503.389	98.69
503.606	100.69
503.823	101.69
504.04	87.69
504.256	98.69
504.473	90.69
504.69	79.69
504.907	81.69
505.123	92.69
505.34	86.69
505.557	76.69
505.773	92.69
505.99	77.69
506.207	86.69
506.423	78.69
506.64	84.69
506.856	84.69
507.073	71.69
507.289	91.69
507.506	98.69
507.722	102.69
507.939	100.69
508.155	101.69
508.372	90.69
508.588	81.69
508.805	91.69
509.021	82.69
509.238	100.69
509.454	110.69
509.67	101.69
509.887	97.69
510.103	111.69
510.319	170.69
510.536	546.69
510.752	1620.69
510.968	453.69
511.184	131.69
511.401	94.69
511.617	94.69
511.833	94.69
512.049	92.69
512.265	99.69
512.481	90.69
512.698	84.69
512.914	90.69
513.13	92.69
513.346	100.69
513.562	103.69
513.778	93.69
513.994	104.69
514.21	111.69
514.426	106.69
514.642	108.69
514.858	99.69
515.074	115.69
515.29	327.69
515.506	995.69
515.721	367.69
515.937	133.69
516.153	96.69
516.369	84.69
516.585	90.69
516.801	88.69
