Data from Uncirc_1989_H10_HRD10591_00066.txt Node
Date: Wed Jan 03 11:57:48 EST 2024
User: Yrep
Spectrometer: HR+D1059
Trigger mode: 1
Integration Time (sec): 1.000000E-1
Scans to average: 1
Electric dark correction enabled: true
Nonlinearity correction enabled: false
Boxcar width: 0
XAxis mode: Wavelengths
Number of Pixels in Spectrum: 2048
>>>>>Begin Spectral Data<<<<<
223.165	-2.44
223.4	-2.44
223.635	-2.44
223.869	-24.44
224.104	-13.44
224.338	-27.44
224.573	-24.44
224.808	-23.44
225.042	-8.44
225.277	-4.44
225.511	-0.44
225.746	1.56
225.98	8.56
226.215	17.56
226.449	24.56
226.683	15.56
226.918	24.56
227.152	36.56
227.387	29.56
227.621	39.56
227.856	47.56
228.09	57.56
228.324	52.56
228.559	49.56
228.793	56.56
229.027	60.56
229.262	77.56
229.496	75.56
229.73	77.56
229.964	74.56
230.199	84.56
230.433	71.56
230.667	88.56
230.901	80.56
231.136	83.56
231.37	95.56
231.604	67.56
231.838	80.56
232.072	80.56
232.306	84.56
232.541	93.56
232.775	86.56
233.009	86.56
233.243	80.56
233.477	84.56
233.711	93.56
233.945	82.56
234.179	75.56
234.413	95.56
234.647	77.56
234.881	85.56
235.115	65.56
235.349	87.56
235.583	78.56
235.817	73.56
236.051	72.56
236.285	80.56
236.519	78.56
236.753	81.56
236.987	84.56
237.221	80.56
237.455	77.56
237.689	71.56
237.922	66.56
238.156	71.56
238.39	87.56
238.624	68.56
238.858	73.56
239.091	85.56
239.325	73.56
239.559	78.56
239.793	76.56
240.027	84.56
240.26	74.56
240.494	84.56
240.728	80.56
240.961	72.56
241.195	82.56
241.429	84.56
241.662	73.56
241.896	80.56
242.13	79.56
242.363	84.56
242.597	72.56
242.83	84.56
243.064	64.56
243.298	73.56
243.531	66.56
243.765	88.56
243.998	87.56
244.232	86.56
244.465	92.56
244.699	72.56
244.932	77.56
245.166	72.56
245.399	69.56
245.633	92.56
245.866	78.56
246.099	92.56
246.333	71.56
246.566	76.56
246.8	64.56
247.033	90.56
247.266	84.56
247.5	84.56
247.733	85.56
247.966	65.56
248.2	80.56
248.433	73.56
248.666	66.56
248.899	83.56
249.133	78.56
249.366	80.56
249.599	97.56
249.832	80.56
250.066	86.56
250.299	79.56
250.532	78.56
250.765	87.56
250.998	76.56
251.231	84.56
251.465	81.56
251.698	76.56
251.931	83.56
252.164	84.56
252.397	86.56
252.63	68.56
252.863	70.56
253.096	81.56
253.329	82.56
253.562	84.56
253.795	72.56
254.028	94.56
254.261	87.56
254.494	78.56
254.727	79.56
254.96	82.56
255.193	72.56
255.426	81.56
255.659	100.56
255.892	77.56
256.124	82.56
256.357	89.56
256.59	89.56
256.823	70.56
257.056	77.56
257.289	78.56
257.521	80.56
257.754	80.56
257.987	79.56
258.22	78.56
258.452	80.56
258.685	87.56
258.918	79.56
259.151	82.56
259.383	83.56
259.616	86.56
259.849	71.56
260.081	79.56
260.314	87.56
260.547	84.56
260.779	81.56
261.012	74.56
261.244	74.56
261.477	89.56
261.71	78.56
261.942	93.56
262.175	106.56
262.407	78.56
262.64	86.56
262.872	96.56
263.105	76.56
263.337	72.56
263.57	85.56
263.802	70.56
264.035	69.56
264.267	93.56
264.499	86.56
264.732	71.56
264.964	80.56
265.197	85.56
265.429	76.56
265.661	83.56
265.894	89.56
266.126	97.56
266.358	95.56
266.591	84.56
266.823	74.56
267.055	86.56
267.287	81.56
267.52	76.56
267.752	82.56
267.984	85.56
268.216	79.56
268.448	88.56
268.681	81.56
268.913	81.56
269.145	87.56
269.377	92.56
269.609	78.56
269.841	80.56
270.073	85.56
270.306	86.56
270.538	88.56
270.77	90.56
271.002	78.56
271.234	94.56
271.466	78.56
271.698	85.56
271.93	97.56
272.162	73.56
272.394	96.56
272.626	90.56
272.858	96.56
273.09	74.56
273.322	80.56
273.553	90.56
273.785	80.56
274.017	76.56
274.249	80.56
274.481	88.56
274.713	85.56
274.945	86.56
275.176	76.56
275.408	82.56
275.64	90.56
275.872	86.56
276.104	78.56
276.335	100.56
276.567	91.56
276.799	96.56
277.031	87.56
277.262	88.56
277.494	87.56
277.726	82.56
277.957	79.56
278.189	76.56
278.421	74.56
278.652	100.56
278.884	88.56
279.115	79.56
279.347	83.56
279.579	94.56
279.81	89.56
280.042	96.56
280.273	88.56
280.505	82.56
280.736	80.56
280.968	96.56
281.199	93.56
281.431	86.56
281.662	100.56
281.894	79.56
282.125	91.56
282.356	100.56
282.588	121.56
282.819	105.56
283.051	86.56
283.282	76.56
283.513	90.56
283.745	94.56
283.976	78.56
284.207	78.56
284.439	95.56
284.67	94.56
284.901	87.56
285.132	88.56
285.364	84.56
285.595	92.56
285.826	89.56
286.057	90.56
286.288	79.56
286.52	82.56
286.751	79.56
286.982	93.56
287.213	88.56
287.444	82.56
287.675	85.56
287.906	88.56
288.138	92.56
288.369	89.56
288.6	91.56
288.831	76.56
289.062	72.56
289.293	94.56
289.524	84.56
289.755	85.56
289.986	82.56
290.217	93.56
290.448	76.56
290.679	86.56
290.91	81.56
291.141	92.56
291.371	85.56
291.602	86.56
291.833	98.56
292.064	100.56
292.295	79.56
292.526	92.56
292.757	93.56
292.987	85.56
293.218	84.56
293.449	75.56
293.68	84.56
293.91	89.56
294.141	95.56
294.372	96.56
294.603	103.56
294.833	84.56
295.064	85.56
295.295	83.56
295.525	83.56
295.756	93.56
295.987	92.56
296.217	121.56
296.448	108.56
296.679	100.56
296.909	94.56
297.14	85.56
297.37	83.56
297.601	72.56
297.831	87.56
298.062	90.56
298.292	93.56
298.523	91.56
298.753	81.56
298.984	90.56
299.214	100.56
299.445	81.56
299.675	88.56
299.905	110.56
300.136	78.56
300.366	100.56
300.597	92.56
300.827	93.56
301.057	98.56
301.288	96.56
301.518	105.56
301.748	88.56
301.979	94.56
302.209	72.56
302.439	92.56
302.669	88.56
302.9	79.56
303.13	82.56
303.36	102.56
303.59	94.56
303.82	106.56
304.051	93.56
304.281	88.56
304.511	104.56
304.741	91.56
304.971	74.56
305.201	78.56
305.431	81.56
305.661	78.56
305.891	85.56
306.121	88.56
306.352	91.56
306.582	98.56
306.812	93.56
307.042	87.56
307.272	100.56
307.502	82.56
307.731	85.56
307.961	101.56
308.191	91.56
308.421	84.56
308.651	83.56
308.881	96.56
309.111	91.56
309.341	96.56
309.571	74.56
309.8	109.56
310.03	81.56
310.26	90.56
310.49	96.56
310.72	81.56
310.949	113.56
311.179	105.56
311.409	89.56
311.639	105.56
311.868	87.56
312.098	98.56
312.328	82.56
312.557	98.56
312.787	85.56
313.017	98.56
313.246	91.56
313.476	93.56
313.706	81.56
313.935	101.56
314.165	93.56
314.394	98.56
314.624	93.56
314.853	93.56
315.083	90.56
315.312	76.56
315.542	86.56
315.771	78.56
316.001	87.56
316.23	93.56
316.46	100.56
316.689	89.56
316.919	104.56
317.148	94.56
317.377	89.56
317.607	78.56
317.836	78.56
318.065	101.56
318.295	84.56
318.524	89.56
318.753	74.56
318.983	103.56
319.212	87.56
319.441	94.56
319.67	80.56
319.9	80.56
320.129	89.56
320.358	97.56
320.587	100.56
320.816	90.56
321.046	101.56
321.275	94.56
321.504	93.56
321.733	90.56
321.962	93.56
322.191	92.56
322.42	97.56
322.649	99.56
322.878	86.56
323.108	104.56
323.337	102.56
323.566	116.56
323.795	128.56
324.024	173.56
324.253	297.56
324.482	674.56
324.71	1322.56
324.939	1769.56
325.168	623.56
325.397	216.56
325.626	138.56
325.855	118.56
326.084	107.56
326.313	116.56
326.542	128.56
326.77	190.56
326.999	390.56
327.228	770.56
327.457	1392.56
327.686	1120.56
327.914	304.56
328.143	162.56
328.372	143.56
328.6	142.56
328.829	108.56
329.058	115.56
329.287	110.56
329.515	108.56
329.744	109.56
329.972	124.56
330.201	155.56
330.43	195.56
330.658	131.56
330.887	126.56
331.115	102.56
331.344	101.56
331.572	96.56
331.801	91.56
332.03	91.56
332.258	99.56
332.486	88.56
332.715	90.56
332.943	103.56
333.172	79.56
333.4	97.56
333.629	89.56
333.857	104.56
334.085	128.56
334.314	162.56
334.542	244.56
334.771	201.56
334.999	128.56
335.227	99.56
335.455	97.56
335.684	103.56
335.912	99.56
336.14	102.56
336.369	88.56
336.597	99.56
336.825	93.56
337.053	91.56
337.281	90.56
337.51	94.56
337.738	96.56
337.966	85.56
338.194	97.56
338.422	98.56
338.65	82.56
338.878	88.56
339.106	95.56
339.334	103.56
339.562	92.56
339.79	91.56
340.018	103.56
340.246	70.56
340.474	82.56
340.702	86.56
340.93	93.56
341.158	84.56
341.386	73.56
341.614	112.56
341.842	96.56
342.07	94.56
342.298	84.56
342.526	89.56
342.754	91.56
342.981	89.56
343.209	96.56
343.437	101.56
343.665	81.56
343.893	93.56
344.12	90.56
344.348	87.56
344.576	70.56
344.804	87.56
345.031	86.56
345.259	88.56
345.487	89.56
345.714	88.56
345.942	86.56
346.17	92.56
346.397	80.56
346.625	80.56
346.853	79.56
347.08	90.56
347.308	87.56
347.535	97.56
347.763	96.56
347.99	111.56
348.218	109.56
348.445	105.56
348.673	96.56
348.9	96.56
349.128	91.56
349.355	92.56
349.583	87.56
349.81	87.56
350.037	103.56
350.265	99.56
350.492	85.56
350.72	93.56
350.947	101.56
351.174	102.56
351.402	101.56
351.629	117.56
351.856	82.56
352.083	101.56
352.311	85.56
352.538	106.56
352.765	97.56
352.992	107.56
353.22	105.56
353.447	103.56
353.674	101.56
353.901	96.56
354.128	95.56
354.355	94.56
354.583	96.56
354.81	89.56
355.037	92.56
355.264	89.56
355.491	96.56
355.718	91.56
355.945	80.56
356.172	99.56
356.399	97.56
356.626	96.56
356.853	88.56
357.08	92.56
357.307	91.56
357.534	85.56
357.761	90.56
357.988	84.56
358.215	92.56
358.441	79.56
358.668	97.56
358.895	91.56
359.122	85.56
359.349	84.56
359.576	93.56
359.802	98.56
360.029	106.56
360.256	110.56
360.483	92.56
360.709	77.56
360.936	105.56
361.163	94.56
361.39	88.56
361.616	102.56
361.843	85.56
362.07	100.56
362.296	99.56
362.523	96.56
362.749	100.56
362.976	98.56
363.203	88.56
363.429	87.56
363.656	90.56
363.882	90.56
364.109	95.56
364.335	96.56
364.562	82.56
364.788	99.56
365.015	98.56
365.241	101.56
365.468	84.56
365.694	94.56
365.92	94.56
366.147	97.56
366.373	100.56
366.599	69.56
366.826	106.56
367.052	93.56
367.278	79.56
367.505	97.56
367.731	103.56
367.957	109.56
368.184	87.56
368.41	99.56
368.636	111.56
368.862	110.56
369.089	102.56
369.315	92.56
369.541	83.56
369.767	70.56
369.993	96.56
370.219	78.56
370.445	100.56
370.672	82.56
370.898	87.56
371.124	89.56
371.35	81.56
371.576	96.56
371.802	92.56
372.028	79.56
372.254	81.56
372.48	83.56
372.706	84.56
372.932	84.56
373.158	101.56
373.384	63.56
373.61	89.56
373.835	91.56
374.061	94.56
374.287	110.56
374.513	80.56
374.739	79.56
374.965	81.56
375.191	78.56
375.416	89.56
375.642	81.56
375.868	79.56
376.094	91.56
376.319	102.56
376.545	80.56
376.771	82.56
376.997	93.56
377.222	101.56
377.448	78.56
377.674	88.56
377.899	98.56
378.125	84.56
378.35	85.56
378.576	98.56
378.802	91.56
379.027	107.56
379.253	87.56
379.478	81.56
379.704	86.56
379.929	81.56
380.155	89.56
380.38	95.56
380.606	98.56
380.831	81.56
381.057	105.56
381.282	85.56
381.507	81.56
381.733	101.56
381.958	92.56
382.184	92.56
382.409	104.56
382.634	109.56
382.86	86.56
383.085	108.56
383.31	93.56
383.535	98.56
383.761	80.56
383.986	92.56
384.211	97.56
384.436	85.56
384.662	99.56
384.887	102.56
385.112	96.56
385.337	95.56
385.562	96.56
385.787	97.56
386.013	108.56
386.238	108.56
386.463	109.56
386.688	104.56
386.913	92.56
387.138	101.56
387.363	98.56
387.588	79.56
387.813	99.56
388.038	105.56
388.263	117.56
388.488	105.56
388.713	96.56
388.938	96.56
389.163	106.56
389.387	95.56
389.612	90.56
389.837	104.56
390.062	85.56
390.287	99.56
390.512	85.56
390.736	98.56
390.961	101.56
391.186	96.56
391.411	95.56
391.636	87.56
391.86	84.56
392.085	82.56
392.31	89.56
392.534	105.56
392.759	106.56
392.984	87.56
393.208	90.56
393.433	91.56
393.658	93.56
393.882	85.56
394.107	77.56
394.331	74.56
394.556	91.56
394.78	100.56
395.005	84.56
395.229	90.56
395.454	99.56
395.678	72.56
395.903	96.56
396.127	72.56
396.352	94.56
396.576	104.56
396.801	87.56
397.025	76.56
397.249	85.56
397.474	88.56
397.698	85.56
397.922	92.56
398.147	85.56
398.371	67.56
398.595	99.56
398.82	87.56
399.044	85.56
399.268	97.56
399.492	84.56
399.717	72.56
399.941	87.56
400.165	102.56
400.389	84.56
400.613	94.56
400.837	73.56
401.062	72.56
401.286	76.56
401.51	88.56
401.734	87.56
401.958	85.56
402.182	113.56
402.406	132.56
402.63	104.56
402.854	86.56
403.078	92.56
403.302	87.56
403.526	87.56
403.75	88.56
403.974	88.56
404.198	94.56
404.422	103.56
404.645	84.56
404.869	85.56
405.093	91.56
405.317	90.56
405.541	99.56
405.765	92.56
405.988	110.56
406.212	150.56
406.436	186.56
406.66	138.56
406.883	97.56
407.107	100.56
407.331	89.56
407.555	102.56
407.778	84.56
408.002	101.56
408.226	73.56
408.449	80.56
408.673	86.56
408.896	90.56
409.12	85.56
409.344	88.56
409.567	85.56
409.791	92.56
410.014	102.56
410.238	97.56
410.461	94.56
410.685	83.56
410.908	89.56
411.132	92.56
411.355	94.56
411.578	92.56
411.802	86.56
412.025	92.56
412.249	94.56
412.472	94.56
412.695	103.56
412.919	96.56
413.142	79.56
413.365	92.56
413.589	80.56
413.812	90.56
414.035	97.56
414.258	82.56
414.482	92.56
414.705	85.56
414.928	90.56
415.151	103.56
415.374	90.56
415.597	91.56
415.821	80.56
416.044	93.56
416.267	67.56
416.49	93.56
416.713	97.56
416.936	105.56
417.159	83.56
417.382	89.56
417.605	86.56
417.828	84.56
418.051	95.56
418.274	78.56
418.497	85.56
418.72	79.56
418.943	100.56
419.166	97.56
419.389	92.56
419.611	82.56
419.834	64.56
420.057	97.56
420.28	76.56
420.503	87.56
420.726	77.56
420.948	93.56
421.171	104.56
421.394	96.56
421.617	93.56
421.839	103.56
422.062	97.56
422.285	95.56
422.507	95.56
422.73	104.56
422.953	80.56
423.175	87.56
423.398	65.56
423.621	82.56
423.843	89.56
424.066	84.56
424.288	87.56
424.511	93.56
424.733	86.56
424.956	98.56
425.178	99.56
425.401	88.56
425.623	102.56
425.846	87.56
426.068	98.56
426.291	101.56
426.513	82.56
426.735	93.56
426.958	78.56
427.18	95.56
427.402	100.56
427.625	142.56
427.847	128.56
428.069	113.56
428.292	108.56
428.514	85.56
428.736	73.56
428.958	104.56
429.181	82.56
429.403	93.56
429.625	84.56
429.847	83.56
430.069	102.56
430.292	97.56
430.514	91.56
430.736	94.56
430.958	87.56
431.18	83.56
431.402	85.56
431.624	77.56
431.846	88.56
432.068	84.56
432.29	98.56
432.512	87.56
432.734	94.56
432.956	89.56
433.178	97.56
433.4	104.56
433.622	93.56
433.844	87.56
434.066	107.56
434.287	96.56
434.509	79.56
434.731	86.56
434.953	84.56
435.175	81.56
435.397	102.56
435.618	83.56
435.84	98.56
436.062	116.56
436.284	114.56
436.505	100.56
436.727	104.56
436.949	82.56
437.17	81.56
437.392	97.56
437.614	106.56
437.835	103.56
438.057	105.56
438.278	94.56
438.5	94.56
438.721	110.56
438.943	90.56
439.165	85.56
439.386	72.56
439.608	99.56
439.829	102.56
440.05	105.56
440.272	122.56
440.493	101.56
440.715	85.56
440.936	93.56
441.158	83.56
441.379	85.56
441.6	85.56
441.822	95.56
442.043	87.56
442.264	95.56
442.486	100.56
442.707	84.56
442.928	105.56
443.149	118.56
443.371	116.56
443.592	101.56
443.813	102.56
444.034	111.56
444.255	93.56
444.476	80.56
444.698	87.56
444.919	92.56
445.14	129.56
445.361	111.56
445.582	111.56
445.803	118.56
446.024	122.56
446.245	116.56
446.466	90.56
446.687	89.56
446.908	85.56
447.129	95.56
447.35	92.56
447.571	80.56
447.792	72.56
448.013	90.56
448.234	101.56
448.455	99.56
448.675	103.56
448.896	112.56
449.117	99.56
449.338	96.56
449.559	116.56
449.779	138.56
450	88.56
450.221	87.56
450.442	85.56
450.662	92.56
450.883	101.56
451.104	114.56
451.324	88.56
451.545	87.56
451.766	85.56
451.986	83.56
452.207	98.56
452.428	80.56
452.648	92.56
452.869	105.56
453.089	95.56
453.31	109.56
453.53	96.56
453.751	80.56
453.971	102.56
454.192	107.56
454.412	87.56
454.633	80.56
454.853	87.56
455.073	85.56
455.294	98.56
455.514	92.56
455.734	97.56
455.955	81.56
456.175	98.56
456.395	89.56
456.616	69.56
456.836	68.56
457.056	86.56
457.276	85.56
457.497	89.56
457.717	92.56
457.937	83.56
458.157	80.56
458.377	79.56
458.598	87.56
458.818	141.56
459.038	133.56
459.258	110.56
459.478	103.56
459.698	89.56
459.918	79.56
460.138	88.56
460.358	84.56
460.578	99.56
460.798	83.56
461.018	108.56
461.238	96.56
461.458	93.56
461.678	82.56
461.898	83.56
462.118	73.56
462.338	82.56
462.558	94.56
462.777	89.56
462.997	99.56
463.217	92.56
463.437	84.56
463.657	90.56
463.876	86.56
464.096	91.56
464.316	97.56
464.536	87.56
464.755	98.56
464.975	106.56
465.195	138.56
465.414	128.56
465.634	76.56
465.854	90.56
466.073	80.56
466.293	91.56
466.512	89.56
466.732	77.56
466.951	89.56
467.171	85.56
467.391	84.56
467.61	96.56
467.829	89.56
468.049	125.56
468.268	140.56
468.488	96.56
468.707	80.56
468.927	80.56
469.146	92.56
469.365	78.56
469.585	94.56
469.804	80.56
470.023	79.56
470.243	110.56
470.462	104.56
470.681	117.56
470.901	98.56
471.12	88.56
471.339	101.56
471.558	94.56
471.777	89.56
471.997	96.56
472.216	186.56
472.435	269.56
472.654	128.56
472.873	96.56
473.092	94.56
473.311	87.56
473.53	91.56
473.749	89.56
473.968	93.56
474.187	92.56
474.406	78.56
474.625	81.56
474.844	79.56
475.063	87.56
475.282	72.56
475.501	101.56
475.72	85.56
475.939	85.56
476.158	86.56
476.377	88.56
476.596	92.56
476.814	89.56
477.033	94.56
477.252	88.56
477.471	97.56
477.69	90.56
477.908	81.56
478.127	87.56
478.346	100.56
478.564	92.56
478.783	103.56
479.002	90.56
479.22	84.56
479.439	111.56
479.658	114.56
479.876	87.56
480.095	85.56
480.313	94.56
480.532	85.56
480.751	105.56
480.969	184.56
481.188	490.56
481.406	324.56
481.624	124.56
481.843	94.56
482.061	89.56
482.28	88.56
482.498	80.56
482.717	94.56
482.935	84.56
483.153	78.56
483.372	86.56
483.59	88.56
483.808	96.56
484.027	108.56
484.245	92.56
484.463	103.56
484.681	96.56
484.9	94.56
485.118	82.56
485.336	92.56
485.554	88.56
485.772	92.56
485.99	94.56
486.209	112.56
486.427	114.56
486.645	110.56
486.863	112.56
487.081	93.56
487.299	88.56
487.517	106.56
487.735	100.56
487.953	93.56
488.171	76.56
488.389	104.56
488.607	97.56
488.825	82.56
489.043	95.56
489.261	97.56
489.479	87.56
489.696	90.56
489.914	80.56
490.132	96.56
490.35	94.56
490.568	93.56
490.786	96.56
491.003	93.56
491.221	83.56
491.439	97.56
491.657	97.56
491.874	91.56
492.092	90.56
492.31	96.56
492.527	79.56
492.745	99.56
492.963	100.56
493.18	91.56
493.398	99.56
493.615	105.56
493.833	100.56
494.05	90.56
494.268	92.56
494.485	92.56
494.703	91.56
494.92	90.56
495.138	71.56
495.355	91.56
495.573	93.56
495.79	81.56
496.008	87.56
496.225	78.56
496.442	95.56
496.66	94.56
496.877	85.56
497.094	107.56
497.312	101.56
497.529	87.56
497.746	89.56
497.963	92.56
498.181	91.56
498.398	97.56
498.615	90.56
498.832	100.56
499.049	90.56
499.267	100.56
499.484	85.56
499.701	104.56
499.918	90.56
500.135	100.56
500.352	103.56
500.569	97.56
500.786	97.56
501.003	97.56
501.22	98.56
501.437	81.56
501.654	92.56
501.871	108.56
502.088	92.56
502.305	99.56
502.522	95.56
502.739	102.56
502.956	90.56
503.172	84.56
503.389	92.56
503.606	119.56
503.823	109.56
504.04	92.56
504.256	95.56
504.473	79.56
504.69	65.56
504.907	93.56
505.123	96.56
505.34	93.56
505.557	71.56
505.773	88.56
505.99	90.56
506.207	98.56
506.423	83.56
506.64	88.56
506.856	100.56
507.073	87.56
507.289	87.56
507.506	108.56
507.722	104.56
507.939	98.56
508.155	90.56
508.372	92.56
508.588	113.56
508.805	104.56
509.021	98.56
509.238	95.56
509.454	102.56
509.67	94.56
509.887	111.56
510.103	117.56
510.319	172.56
510.536	566.56
510.752	1640.56
510.968	466.56
511.184	127.56
511.401	100.56
511.617	92.56
511.833	98.56
512.049	84.56
512.265	97.56
512.481	94.56
512.698	91.56
512.914	89.56
513.13	93.56
513.346	90.56
513.562	96.56
513.778	92.56
513.994	98.56
514.21	104.56
514.426	116.56
514.642	130.56
514.858	109.56
515.074	143.56
515.29	325.56
515.506	1002.56
515.721	377.56
515.937	125.56
516.153	108.56
