Data from Uncirc_1989_H10_HRD10591_00034.txt Node
Date: Wed Jan 03 11:57:42 EST 2024
User: Yrep
Spectrometer: HR+D1059
Trigger mode: 1
Integration Time (sec): 1.000000E-1
Scans to average: 1
Electric dark correction enabled: true
Nonlinearity correction enabled: false
Boxcar width: 0
XAxis mode: Wavelengths
Number of Pixels in Spectrum: 2048
>>>>>Begin Spectral Data<<<<<
223.165	-31.06
223.4	-31.06
223.635	-31.06
223.869	-24.06
224.104	-23.06
224.338	-17.06
224.573	-7.06
224.808	-15.06
225.042	-4.06
225.277	8.94
225.511	11.94
225.746	0.94
225.98	-11.06
226.215	10.94
226.449	3.94
226.683	26.94
226.918	27.94
227.152	40.94
227.387	40.94
227.621	47.94
227.856	33.94
228.09	37.94
228.324	47.94
228.559	51.94
228.793	54.94
229.027	61.94
229.262	79.94
229.496	67.94
229.73	76.94
229.964	90.94
230.199	87.94
230.433	64.94
230.667	79.94
230.901	79.94
231.136	72.94
231.37	78.94
231.604	69.94
231.838	74.94
232.072	83.94
232.306	85.94
232.541	92.94
232.775	96.94
233.009	88.94
233.243	75.94
233.477	79.94
233.711	78.94
233.945	91.94
234.179	79.94
234.413	80.94
234.647	66.94
234.881	82.94
235.115	79.94
235.349	71.94
235.583	76.94
235.817	54.94
236.051	70.94
236.285	69.94
236.519	65.94
236.753	76.94
236.987	82.94
237.221	78.94
237.455	80.94
237.689	74.94
237.922	72.94
238.156	80.94
238.39	64.94
238.624	67.94
238.858	80.94
239.091	83.94
239.325	82.94
239.559	76.94
239.793	85.94
240.027	63.94
240.26	60.94
240.494	63.94
240.728	68.94
240.961	85.94
241.195	76.94
241.429	80.94
241.662	63.94
241.896	86.94
242.13	71.94
242.363	72.94
242.597	66.94
242.83	82.94
243.064	74.94
243.298	75.94
243.531	69.94
243.765	84.94
243.998	74.94
244.232	90.94
244.465	71.94
244.699	89.94
244.932	76.94
245.166	68.94
245.399	82.94
245.633	85.94
245.866	65.94
246.099	71.94
246.333	68.94
246.566	84.94
246.8	68.94
247.033	78.94
247.266	82.94
247.5	84.94
247.733	71.94
247.966	84.94
248.2	80.94
248.433	87.94
248.666	72.94
248.899	80.94
249.133	82.94
249.366	93.94
249.599	97.94
249.832	91.94
250.066	87.94
250.299	83.94
250.532	70.94
250.765	83.94
250.998	90.94
251.231	86.94
251.465	91.94
251.698	69.94
251.931	76.94
252.164	74.94
252.397	77.94
252.63	80.94
252.863	86.94
253.096	91.94
253.329	94.94
253.562	87.94
253.795	80.94
254.028	91.94
254.261	85.94
254.494	83.94
254.727	86.94
254.96	75.94
255.193	83.94
255.426	76.94
255.659	70.94
255.892	88.94
256.124	72.94
256.357	75.94
256.59	91.94
256.823	75.94
257.056	87.94
257.289	69.94
257.521	93.94
257.754	80.94
257.987	80.94
258.22	86.94
258.452	71.94
258.685	74.94
258.918	62.94
259.151	87.94
259.383	97.94
259.616	82.94
259.849	83.94
260.081	69.94
260.314	76.94
260.547	80.94
260.779	82.94
261.012	79.94
261.244	84.94
261.477	86.94
261.71	78.94
261.942	123.94
262.175	104.94
262.407	77.94
262.64	74.94
262.872	81.94
263.105	72.94
263.337	78.94
263.57	84.94
263.802	76.94
264.035	80.94
264.267	79.94
264.499	83.94
264.732	79.94
264.964	69.94
265.197	86.94
265.429	67.94
265.661	81.94
265.894	80.94
266.126	80.94
266.358	77.94
266.591	86.94
266.823	82.94
267.055	82.94
267.287	85.94
267.52	78.94
267.752	90.94
267.984	72.94
268.216	85.94
268.448	72.94
268.681	79.94
268.913	75.94
269.145	100.94
269.377	80.94
269.609	69.94
269.841	83.94
270.073	83.94
270.306	85.94
270.538	100.94
270.77	99.94
271.002	81.94
271.234	77.94
271.466	87.94
271.698	80.94
271.93	88.94
272.162	87.94
272.394	84.94
272.626	77.94
272.858	84.94
273.09	62.94
273.322	82.94
273.553	79.94
273.785	78.94
274.017	80.94
274.249	88.94
274.481	85.94
274.713	80.94
274.945	80.94
275.176	64.94
275.408	91.94
275.64	84.94
275.872	79.94
276.104	94.94
276.335	91.94
276.567	86.94
276.799	107.94
277.031	74.94
277.262	82.94
277.494	84.94
277.726	71.94
277.957	95.94
278.189	70.94
278.421	80.94
278.652	79.94
278.884	84.94
279.115	96.94
279.347	72.94
279.579	99.94
279.81	87.94
280.042	93.94
280.273	93.94
280.505	83.94
280.736	78.94
280.968	86.94
281.199	79.94
281.431	87.94
281.662	80.94
281.894	92.94
282.125	110.94
282.356	127.94
282.588	128.94
282.819	107.94
283.051	100.94
283.282	83.94
283.513	86.94
283.745	104.94
283.976	84.94
284.207	86.94
284.439	85.94
284.67	84.94
284.901	72.94
285.132	84.94
285.364	77.94
285.595	87.94
285.826	81.94
286.057	87.94
286.288	94.94
286.52	86.94
286.751	82.94
286.982	69.94
287.213	69.94
287.444	72.94
287.675	87.94
287.906	74.94
288.138	71.94
288.369	82.94
288.6	89.94
288.831	80.94
289.062	99.94
289.293	87.94
289.524	73.94
289.755	76.94
289.986	97.94
290.217	86.94
290.448	79.94
290.679	94.94
290.91	85.94
291.141	80.94
291.371	93.94
291.602	78.94
291.833	85.94
292.064	99.94
292.295	72.94
292.526	83.94
292.757	82.94
292.987	82.94
293.218	72.94
293.449	89.94
293.68	85.94
293.91	95.94
294.141	81.94
294.372	89.94
294.603	96.94
294.833	93.94
295.064	86.94
295.295	94.94
295.525	94.94
295.756	99.94
295.987	104.94
296.217	145.94
296.448	108.94
296.679	79.94
296.909	90.94
297.14	86.94
297.37	84.94
297.601	90.94
297.831	78.94
298.062	92.94
298.292	82.94
298.523	80.94
298.753	94.94
298.984	89.94
299.214	85.94
299.445	71.94
299.675	81.94
299.905	74.94
300.136	90.94
300.366	94.94
300.597	76.94
300.827	78.94
301.057	93.94
301.288	83.94
301.518	76.94
301.748	85.94
301.979	104.94
302.209	103.94
302.439	84.94
302.669	98.94
302.9	94.94
303.13	95.94
303.36	105.94
303.59	85.94
303.82	96.94
304.051	102.94
304.281	94.94
304.511	91.94
304.741	87.94
304.971	72.94
305.201	86.94
305.431	105.94
305.661	86.94
305.891	91.94
306.121	99.94
306.352	78.94
306.582	113.94
306.812	99.94
307.042	93.94
307.272	91.94
307.502	93.94
307.731	100.94
307.961	91.94
308.191	74.94
308.421	86.94
308.651	95.94
308.881	82.94
309.111	91.94
309.341	92.94
309.571	99.94
309.8	76.94
310.03	99.94
310.26	88.94
310.49	91.94
310.72	80.94
310.949	92.94
311.179	92.94
311.409	91.94
311.639	88.94
311.868	91.94
312.098	86.94
312.328	90.94
312.557	110.94
312.787	104.94
313.017	103.94
313.246	94.94
313.476	79.94
313.706	93.94
313.935	94.94
314.165	86.94
314.394	86.94
314.624	93.94
314.853	86.94
315.083	80.94
315.312	95.94
315.542	89.94
315.771	103.94
316.001	84.94
316.23	94.94
316.46	80.94
316.689	80.94
316.919	86.94
317.148	85.94
317.377	103.94
317.607	96.94
317.836	94.94
318.065	86.94
318.295	86.94
318.524	86.94
318.753	93.94
318.983	83.94
319.212	90.94
319.441	93.94
319.67	113.94
319.9	91.94
320.129	103.94
320.358	87.94
320.587	91.94
320.816	102.94
321.046	93.94
321.275	102.94
321.504	103.94
321.733	93.94
321.962	91.94
322.191	97.94
322.42	92.94
322.649	98.94
322.878	98.94
323.108	112.94
323.337	112.94
323.566	107.94
323.795	128.94
324.024	182.94
324.253	327.94
324.482	697.94
324.71	1427.94
324.939	1834.94
325.168	695.94
325.397	218.94
325.626	133.94
325.855	120.94
326.084	108.94
326.313	117.94
326.542	143.94
326.77	206.94
326.999	412.94
327.228	814.94
327.457	1502.94
327.686	1176.94
327.914	319.94
328.143	191.94
328.372	158.94
328.6	134.94
328.829	112.94
329.058	109.94
329.287	109.94
329.515	98.94
329.744	98.94
329.972	113.94
330.201	152.94
330.43	180.94
330.658	145.94
330.887	127.94
331.115	120.94
331.344	86.94
331.572	92.94
331.801	90.94
332.03	98.94
332.258	82.94
332.486	96.94
332.715	91.94
332.943	91.94
333.172	95.94
333.4	85.94
333.629	122.94
333.857	137.94
334.085	113.94
334.314	134.94
334.542	191.94
334.771	178.94
334.999	117.94
335.227	82.94
335.455	88.94
335.684	87.94
335.912	86.94
336.14	103.94
336.369	92.94
336.597	107.94
336.825	94.94
337.053	90.94
337.281	95.94
337.51	87.94
337.738	90.94
337.966	106.94
338.194	102.94
338.422	86.94
338.65	90.94
338.878	101.94
339.106	100.94
339.334	95.94
339.562	74.94
339.79	89.94
340.018	87.94
340.246	102.94
340.474	96.94
340.702	92.94
340.93	92.94
341.158	91.94
341.386	107.94
341.614	100.94
341.842	79.94
342.07	81.94
342.298	98.94
342.526	96.94
342.754	85.94
342.981	95.94
343.209	85.94
343.437	89.94
343.665	76.94
343.893	87.94
344.12	77.94
344.348	96.94
344.576	83.94
344.804	94.94
345.031	102.94
345.259	106.94
345.487	95.94
345.714	87.94
345.942	103.94
346.17	86.94
346.397	95.94
346.625	99.94
346.853	97.94
347.08	86.94
347.308	89.94
347.535	102.94
347.763	97.94
347.99	104.94
348.218	96.94
348.445	109.94
348.673	96.94
348.9	83.94
349.128	91.94
349.355	93.94
349.583	70.94
349.81	87.94
350.037	89.94
350.265	86.94
350.492	92.94
350.72	96.94
350.947	93.94
351.174	107.94
351.402	107.94
351.629	91.94
351.856	98.94
352.083	90.94
352.311	111.94
352.538	104.94
352.765	107.94
352.992	118.94
353.22	107.94
353.447	82.94
353.674	80.94
353.901	94.94
354.128	96.94
354.355	101.94
354.583	99.94
354.81	92.94
355.037	99.94
355.264	86.94
355.491	96.94
355.718	97.94
355.945	98.94
356.172	99.94
356.399	102.94
356.626	80.94
356.853	107.94
357.08	99.94
357.307	80.94
357.534	89.94
357.761	95.94
357.988	96.94
358.215	86.94
358.441	108.94
358.668	93.94
358.895	90.94
359.122	90.94
359.349	93.94
359.576	94.94
359.802	107.94
360.029	108.94
360.256	98.94
360.483	94.94
360.709	88.94
360.936	94.94
361.163	92.94
361.39	77.94
361.616	86.94
361.843	88.94
362.07	88.94
362.296	91.94
362.523	82.94
362.749	77.94
362.976	96.94
363.203	92.94
363.429	82.94
363.656	95.94
363.882	80.94
364.109	90.94
364.335	90.94
364.562	86.94
364.788	91.94
365.015	99.94
365.241	114.94
365.468	117.94
365.694	99.94
365.92	93.94
366.147	83.94
366.373	104.94
366.599	92.94
366.826	80.94
367.052	87.94
367.278	95.94
367.505	82.94
367.731	90.94
367.957	93.94
368.184	71.94
368.41	93.94
368.636	97.94
368.862	112.94
369.089	101.94
369.315	95.94
369.541	94.94
369.767	87.94
369.993	86.94
370.219	95.94
370.445	79.94
370.672	80.94
370.898	95.94
371.124	84.94
371.35	85.94
371.576	84.94
371.802	82.94
372.028	85.94
372.254	95.94
372.48	85.94
372.706	91.94
372.932	78.94
373.158	88.94
373.384	92.94
373.61	88.94
373.835	88.94
374.061	78.94
374.287	86.94
374.513	94.94
374.739	97.94
374.965	83.94
375.191	91.94
375.416	92.94
375.642	81.94
375.868	93.94
376.094	75.94
376.319	88.94
376.545	71.94
376.771	99.94
376.997	84.94
377.222	82.94
377.448	88.94
377.674	85.94
377.899	97.94
378.125	98.94
378.35	97.94
378.576	82.94
378.802	83.94
379.027	99.94
379.253	87.94
379.478	98.94
379.704	98.94
379.929	96.94
380.155	85.94
380.38	81.94
380.606	83.94
380.831	92.94
381.057	96.94
381.282	97.94
381.507	97.94
381.733	90.94
381.958	112.94
382.184	104.94
382.409	96.94
382.634	86.94
382.86	101.94
383.085	102.94
383.31	97.94
383.535	109.94
383.761	104.94
383.986	94.94
384.211	99.94
384.436	101.94
384.662	100.94
384.887	92.94
385.112	99.94
385.337	102.94
385.562	93.94
385.787	104.94
386.013	99.94
386.238	103.94
386.463	95.94
386.688	94.94
386.913	104.94
387.138	99.94
387.363	83.94
387.588	104.94
387.813	86.94
388.038	103.94
388.263	105.94
388.488	101.94
388.713	92.94
388.938	102.94
389.163	96.94
389.387	86.94
389.612	88.94
389.837	93.94
390.062	93.94
390.287	85.94
390.512	85.94
390.736	98.94
390.961	82.94
391.186	99.94
391.411	96.94
391.636	91.94
391.86	84.94
392.085	83.94
392.31	102.94
392.534	83.94
392.759	90.94
392.984	89.94
393.208	85.94
393.433	119.94
393.658	107.94
393.882	82.94
394.107	80.94
394.331	85.94
394.556	82.94
394.78	83.94
395.005	95.94
395.229	77.94
395.454	91.94
395.678	90.94
395.903	70.94
396.127	93.94
396.352	94.94
396.576	92.94
396.801	91.94
397.025	97.94
397.249	102.94
397.474	110.94
397.698	93.94
397.922	100.94
398.147	90.94
398.371	86.94
398.595	76.94
398.82	84.94
399.044	78.94
399.268	95.94
399.492	71.94
399.717	84.94
399.941	89.94
400.165	82.94
400.389	95.94
400.613	90.94
400.837	90.94
401.062	86.94
401.286	90.94
401.51	92.94
401.734	92.94
401.958	99.94
402.182	116.94
402.406	148.94
402.63	107.94
402.854	84.94
403.078	76.94
403.302	78.94
403.526	80.94
403.75	101.94
403.974	80.94
404.198	89.94
404.422	95.94
404.645	96.94
404.869	95.94
405.093	97.94
405.317	95.94
405.541	87.94
405.765	108.94
405.988	99.94
406.212	162.94
406.436	198.94
406.66	143.94
406.883	108.94
407.107	76.94
407.331	98.94
407.555	97.94
407.778	90.94
408.002	94.94
408.226	70.94
408.449	93.94
408.673	95.94
408.896	89.94
409.12	90.94
409.344	109.94
409.567	90.94
409.791	94.94
410.014	95.94
410.238	82.94
410.461	86.94
410.685	92.94
410.908	103.94
411.132	99.94
411.355	84.94
411.578	105.94
411.802	90.94
412.025	84.94
412.249	90.94
412.472	89.94
412.695	96.94
412.919	88.94
413.142	86.94
413.365	81.94
413.589	86.94
413.812	84.94
414.035	88.94
414.258	82.94
414.482	91.94
414.705	78.94
414.928	88.94
415.151	84.94
415.374	88.94
415.597	83.94
415.821	86.94
416.044	81.94
416.267	94.94
416.49	91.94
416.713	96.94
416.936	98.94
417.159	89.94
417.382	83.94
417.605	79.94
417.828	93.94
418.051	95.94
418.274	98.94
418.497	85.94
418.72	74.94
418.943	90.94
419.166	93.94
419.389	70.94
419.611	97.94
419.834	87.94
420.057	87.94
420.28	86.94
420.503	95.94
420.726	97.94
420.948	88.94
421.171	92.94
421.394	87.94
421.617	86.94
421.839	94.94
422.062	84.94
422.285	76.94
422.507	105.94
422.73	89.94
422.953	95.94
423.175	90.94
423.398	69.94
423.621	88.94
423.843	83.94
424.066	96.94
424.288	97.94
424.511	84.94
424.733	87.94
424.956	107.94
425.178	97.94
425.401	100.94
425.623	102.94
425.846	94.94
426.068	86.94
426.291	92.94
426.513	96.94
426.735	81.94
426.958	86.94
427.18	96.94
427.402	116.94
427.625	140.94
427.847	140.94
428.069	100.94
428.292	92.94
428.514	81.94
428.736	69.94
428.958	84.94
429.181	96.94
429.403	85.94
429.625	102.94
429.847	83.94
430.069	94.94
430.292	90.94
430.514	93.94
430.736	88.94
430.958	76.94
431.18	91.94
431.402	92.94
431.624	81.94
431.846	89.94
432.068	98.94
432.29	99.94
432.512	94.94
432.734	79.94
432.956	98.94
433.178	89.94
433.4	97.94
433.622	88.94
433.844	82.94
434.066	95.94
434.287	105.94
434.509	86.94
434.731	78.94
434.953	86.94
435.175	88.94
435.397	101.94
435.618	96.94
435.84	112.94
436.062	117.94
436.284	92.94
436.505	94.94
436.727	93.94
436.949	101.94
437.17	93.94
437.392	93.94
437.614	103.94
437.835	108.94
438.057	104.94
438.278	90.94
438.5	99.94
438.721	103.94
438.943	92.94
439.165	84.94
439.386	80.94
439.608	107.94
439.829	106.94
440.05	98.94
440.272	117.94
440.493	101.94
440.715	88.94
440.936	87.94
441.158	95.94
441.379	92.94
441.6	109.94
441.822	90.94
442.043	82.94
442.264	82.94
442.486	94.94
442.707	93.94
442.928	81.94
443.149	123.94
443.371	124.94
443.592	94.94
443.813	106.94
444.034	101.94
444.255	86.94
444.476	84.94
444.698	83.94
444.919	81.94
445.14	133.94
445.361	117.94
445.582	98.94
445.803	112.94
446.024	129.94
446.245	124.94
446.466	108.94
446.687	79.94
446.908	88.94
447.129	67.94
447.35	86.94
447.571	100.94
447.792	93.94
448.013	83.94
448.234	96.94
448.455	100.94
448.675	100.94
448.896	118.94
449.117	102.94
449.338	100.94
449.559	125.94
449.779	126.94
450	85.94
450.221	86.94
450.442	83.94
450.662	98.94
450.883	86.94
451.104	97.94
451.324	81.94
451.545	70.94
451.766	76.94
451.986	74.94
452.207	83.94
452.428	90.94
452.648	110.94
452.869	104.94
453.089	102.94
453.31	114.94
453.53	87.94
453.751	78.94
453.971	95.94
454.192	103.94
454.412	96.94
454.633	68.94
454.853	99.94
455.073	95.94
455.294	85.94
455.514	101.94
455.734	99.94
455.955	99.94
456.175	84.94
456.395	90.94
456.616	88.94
456.836	79.94
457.056	70.94
457.276	69.94
457.497	74.94
457.717	88.94
457.937	96.94
458.157	84.94
458.377	86.94
458.598	112.94
458.818	128.94
459.038	126.94
459.258	102.94
459.478	82.94
459.698	94.94
459.918	82.94
460.138	96.94
460.358	64.94
460.578	81.94
460.798	96.94
461.018	91.94
461.238	90.94
461.458	94.94
461.678	81.94
461.898	95.94
462.118	92.94
462.338	78.94
462.558	87.94
462.777	90.94
462.997	79.94
463.217	84.94
463.437	88.94
463.657	88.94
463.876	88.94
464.096	90.94
464.316	94.94
464.536	95.94
464.755	90.94
464.975	102.94
465.195	143.94
465.414	132.94
465.634	93.94
465.854	97.94
466.073	88.94
466.293	94.94
466.512	76.94
466.732	95.94
466.951	87.94
467.171	91.94
467.391	97.94
467.61	91.94
467.829	100.94
468.049	117.94
468.268	110.94
468.488	86.94
468.707	79.94
468.927	92.94
469.146	66.94
469.365	90.94
469.585	78.94
469.804	82.94
470.023	92.94
470.243	80.94
470.462	91.94
470.681	110.94
470.901	101.94
471.12	75.94
471.339	90.94
471.558	84.94
471.777	88.94
471.997	93.94
472.216	148.94
472.435	236.94
472.654	122.94
472.873	100.94
473.092	77.94
473.311	86.94
473.53	85.94
473.749	85.94
473.968	99.94
474.187	110.94
474.406	88.94
474.625	91.94
474.844	80.94
475.063	87.94
475.282	96.94
475.501	93.94
475.72	98.94
475.939	80.94
476.158	95.94
476.377	106.94
476.596	79.94
476.814	83.94
477.033	97.94
477.252	87.94
477.471	83.94
477.69	98.94
477.908	80.94
478.127	89.94
478.346	76.94
478.564	80.94
478.783	99.94
479.002	89.94
479.22	85.94
479.439	102.94
479.658	95.94
479.876	94.94
480.095	94.94
480.313	84.94
480.532	87.94
480.751	106.94
480.969	166.94
481.188	339.94
481.406	230.94
481.624	112.94
481.843	71.94
482.061	77.94
482.28	92.94
482.498	86.94
482.717	85.94
482.935	75.94
483.153	88.94
483.372	81.94
483.59	64.94
483.808	79.94
484.027	101.94
484.245	98.94
484.463	99.94
484.681	101.94
484.9	98.94
485.118	102.94
485.336	103.94
485.554	110.94
485.772	101.94
485.99	89.94
486.209	98.94
486.427	99.94
486.645	101.94
486.863	110.94
487.081	87.94
487.299	101.94
487.517	104.94
487.735	86.94
487.953	98.94
488.171	90.94
488.389	101.94
488.607	99.94
488.825	94.94
489.043	78.94
489.261	88.94
489.479	88.94
489.696	80.94
489.914	89.94
490.132	88.94
490.35	89.94
490.568	79.94
490.786	78.94
491.003	90.94
491.221	80.94
491.439	83.94
491.657	96.94
491.874	80.94
492.092	86.94
492.31	87.94
492.527	101.94
492.745	88.94
492.963	83.94
493.18	79.94
493.398	93.94
493.615	91.94
493.833	89.94
494.05	84.94
494.268	81.94
494.485	90.94
494.703	83.94
494.92	81.94
495.138	86.94
495.355	103.94
495.573	94.94
495.79	103.94
496.008	92.94
496.225	92.94
496.442	91.94
496.66	90.94
496.877	91.94
497.094	90.94
497.312	86.94
497.529	94.94
497.746	79.94
497.963	81.94
498.181	79.94
498.398	98.94
498.615	103.94
498.832	88.94
499.049	77.94
499.267	90.94
499.484	103.94
499.701	93.94
499.918	88.94
500.135	88.94
500.352	85.94
500.569	87.94
500.786	89.94
501.003	84.94
501.22	87.94
501.437	90.94
501.654	91.94
501.871	115.94
502.088	108.94
502.305	78.94
502.522	78.94
502.739	87.94
502.956	110.94
503.172	98.94
503.389	103.94
503.606	103.94
503.823	86.94
504.04	91.94
504.256	100.94
504.473	70.94
504.69	88.94
504.907	92.94
505.123	84.94
505.34	90.94
505.557	95.94
505.773	86.94
505.99	96.94
506.207	101.94
506.423	79.94
506.64	86.94
506.856	96.94
507.073	87.94
507.289	97.94
507.506	99.94
507.722	104.94
507.939	99.94
508.155	91.94
508.372	98.94
508.588	90.94
508.805	98.94
509.021	95.94
509.238	106.94
509.454	80.94
509.67	91.94
509.887	98.94
510.103	124.94
510.319	204.94
510.536	620.94
510.752	1894.94
510.968	530.94
511.184	127.94
511.401	94.94
511.617	102.94
511.833	86.94
512.049	90.94
512.265	82.94
512.481	90.94
512.698	87.94
512.914	94.94
513.13	101.94
513.346	84.94
513.562	97.94
513.778	94.94
513.994	81.94
514.21	113.94
514.426	109.94
514.642	138.94
514.858	111.94
515.074	141.94
515.29	366.94
515.506	1182.94
515.721	452.94
515.937	136.94
516.153	100.94
516.369	98.94
