Data from Uncirc_1989_H10_HRD10591_00055.txt Node
Date: Wed Jan 03 11:57:46 EST 2024
User: Yrep
Spectrometer: HR+D1059
Trigger mode: 1
Integration Time (sec): 1.000000E-1
Scans to average: 1
Electric dark correction enabled: true
Nonlinearity correction enabled: false
Boxcar width: 0
XAxis mode: Wavelengths
Number of Pixels in Spectrum: 2048
>>>>>Begin Spectral Data<<<<<
223.165	-24.06
223.4	-24.06
223.635	-24.06
223.869	-17.06
224.104	-13.06
224.338	-19.06
224.573	0.94
224.808	-10.06
225.042	-12.06
225.277	-1.06
225.511	-12.06
225.746	5.94
225.98	7.94
226.215	21.94
226.449	20.94
226.683	16.94
226.918	18.94
227.152	14.94
227.387	28.94
227.621	39.94
227.856	47.94
228.09	33.94
228.324	36.94
228.559	50.94
228.793	60.94
229.027	58.94
229.262	47.94
229.496	83.94
229.73	72.94
229.964	82.94
230.199	65.94
230.433	74.94
230.667	83.94
230.901	72.94
231.136	80.94
231.37	79.94
231.604	68.94
231.838	66.94
232.072	63.94
232.306	75.94
232.541	77.94
232.775	86.94
233.009	83.94
233.243	91.94
233.477	79.94
233.711	81.94
233.945	70.94
234.179	75.94
234.413	81.94
234.647	87.94
234.881	77.94
235.115	95.94
235.349	80.94
235.583	81.94
235.817	94.94
236.051	79.94
236.285	77.94
236.519	83.94
236.753	78.94
236.987	78.94
237.221	73.94
237.455	77.94
237.689	77.94
237.922	75.94
238.156	93.94
238.39	64.94
238.624	79.94
238.858	85.94
239.091	85.94
239.325	84.94
239.559	92.94
239.793	73.94
240.027	66.94
240.26	79.94
240.494	83.94
240.728	81.94
240.961	84.94
241.195	75.94
241.429	63.94
241.662	77.94
241.896	72.94
242.13	62.94
242.363	70.94
242.597	80.94
242.83	91.94
243.064	67.94
243.298	75.94
243.531	76.94
243.765	79.94
243.998	88.94
244.232	65.94
244.465	67.94
244.699	87.94
244.932	85.94
245.166	79.94
245.399	78.94
245.633	72.94
245.866	76.94
246.099	80.94
246.333	86.94
246.566	84.94
246.8	93.94
247.033	76.94
247.266	72.94
247.5	70.94
247.733	73.94
247.966	89.94
248.2	85.94
248.433	67.94
248.666	78.94
248.899	77.94
249.133	81.94
249.366	87.94
249.599	81.94
249.832	64.94
250.066	93.94
250.299	80.94
250.532	91.94
250.765	92.94
250.998	81.94
251.231	68.94
251.465	83.94
251.698	81.94
251.931	92.94
252.164	80.94
252.397	73.94
252.63	75.94
252.863	76.94
253.096	78.94
253.329	81.94
253.562	86.94
253.795	72.94
254.028	65.94
254.261	79.94
254.494	67.94
254.727	91.94
254.96	72.94
255.193	79.94
255.426	100.94
255.659	83.94
255.892	77.94
256.124	71.94
256.357	79.94
256.59	72.94
256.823	75.94
257.056	87.94
257.289	91.94
257.521	85.94
257.754	84.94
257.987	84.94
258.22	70.94
258.452	81.94
258.685	68.94
258.918	100.94
259.151	91.94
259.383	99.94
259.616	80.94
259.849	83.94
260.081	77.94
260.314	89.94
260.547	85.94
260.779	90.94
261.012	82.94
261.244	79.94
261.477	88.94
261.71	99.94
261.942	99.94
262.175	91.94
262.407	86.94
262.64	85.94
262.872	85.94
263.105	78.94
263.337	85.94
263.57	79.94
263.802	70.94
264.035	78.94
264.267	84.94
264.499	94.94
264.732	82.94
264.964	67.94
265.197	85.94
265.429	77.94
265.661	85.94
265.894	79.94
266.126	70.94
266.358	99.94
266.591	80.94
266.823	83.94
267.055	85.94
267.287	87.94
267.52	88.94
267.752	96.94
267.984	95.94
268.216	83.94
268.448	79.94
268.681	68.94
268.913	78.94
269.145	70.94
269.377	81.94
269.609	83.94
269.841	72.94
270.073	88.94
270.306	77.94
270.538	78.94
270.77	84.94
271.002	81.94
271.234	77.94
271.466	78.94
271.698	87.94
271.93	82.94
272.162	83.94
272.394	96.94
272.626	87.94
272.858	82.94
273.09	88.94
273.322	83.94
273.553	83.94
273.785	92.94
274.017	71.94
274.249	82.94
274.481	89.94
274.713	87.94
274.945	89.94
275.176	82.94
275.408	87.94
275.64	93.94
275.872	75.94
276.104	88.94
276.335	85.94
276.567	89.94
276.799	98.94
277.031	99.94
277.262	96.94
277.494	91.94
277.726	76.94
277.957	79.94
278.189	91.94
278.421	73.94
278.652	73.94
278.884	98.94
279.115	86.94
279.347	85.94
279.579	89.94
279.81	91.94
280.042	93.94
280.273	90.94
280.505	104.94
280.736	86.94
280.968	89.94
281.199	93.94
281.431	94.94
281.662	99.94
281.894	85.94
282.125	95.94
282.356	103.94
282.588	107.94
282.819	119.94
283.051	94.94
283.282	95.94
283.513	94.94
283.745	80.94
283.976	90.94
284.207	80.94
284.439	92.94
284.67	85.94
284.901	96.94
285.132	76.94
285.364	93.94
285.595	83.94
285.826	88.94
286.057	91.94
286.288	77.94
286.52	100.94
286.751	81.94
286.982	83.94
287.213	103.94
287.444	95.94
287.675	98.94
287.906	86.94
288.138	90.94
288.369	95.94
288.6	86.94
288.831	81.94
289.062	78.94
289.293	86.94
289.524	79.94
289.755	93.94
289.986	73.94
290.217	92.94
290.448	88.94
290.679	89.94
290.91	96.94
291.141	85.94
291.371	94.94
291.602	93.94
291.833	82.94
292.064	80.94
292.295	92.94
292.526	96.94
292.757	85.94
292.987	88.94
293.218	94.94
293.449	83.94
293.68	79.94
293.91	86.94
294.141	90.94
294.372	96.94
294.603	80.94
294.833	79.94
295.064	96.94
295.295	84.94
295.525	78.94
295.756	95.94
295.987	108.94
296.217	125.94
296.448	116.94
296.679	94.94
296.909	97.94
297.14	90.94
297.37	93.94
297.601	83.94
297.831	70.94
298.062	83.94
298.292	89.94
298.523	96.94
298.753	96.94
298.984	86.94
299.214	92.94
299.445	95.94
299.675	88.94
299.905	92.94
300.136	83.94
300.366	85.94
300.597	88.94
300.827	91.94
301.057	89.94
301.288	95.94
301.518	77.94
301.748	95.94
301.979	107.94
302.209	106.94
302.439	87.94
302.669	83.94
302.9	84.94
303.13	97.94
303.36	107.94
303.59	101.94
303.82	91.94
304.051	83.94
304.281	96.94
304.511	98.94
304.741	73.94
304.971	99.94
305.201	87.94
305.431	88.94
305.661	87.94
305.891	91.94
306.121	88.94
306.352	93.94
306.582	101.94
306.812	102.94
307.042	91.94
307.272	83.94
307.502	102.94
307.731	95.94
307.961	111.94
308.191	94.94
308.421	98.94
308.651	85.94
308.881	97.94
309.111	99.94
309.341	97.94
309.571	92.94
309.8	97.94
310.03	99.94
310.26	108.94
310.49	87.94
310.72	93.94
310.949	94.94
311.179	96.94
311.409	90.94
311.639	81.94
311.868	96.94
312.098	85.94
312.328	94.94
312.557	99.94
312.787	99.94
313.017	96.94
313.246	89.94
313.476	96.94
313.706	100.94
313.935	99.94
314.165	110.94
314.394	102.94
314.624	111.94
314.853	111.94
315.083	85.94
315.312	105.94
315.542	87.94
315.771	108.94
316.001	85.94
316.23	94.94
316.46	101.94
316.689	103.94
316.919	87.94
317.148	100.94
317.377	99.94
317.607	99.94
317.836	104.94
318.065	100.94
318.295	82.94
318.524	109.94
318.753	83.94
318.983	92.94
319.212	93.94
319.441	100.94
319.67	99.94
319.9	93.94
320.129	84.94
320.358	95.94
320.587	102.94
320.816	96.94
321.046	64.94
321.275	101.94
321.504	93.94
321.733	95.94
321.962	100.94
322.191	93.94
322.42	108.94
322.649	108.94
322.878	101.94
323.108	101.94
323.337	125.94
323.566	118.94
323.795	149.94
324.024	186.94
324.253	335.94
324.482	731.94
324.71	1470.94
324.939	1887.94
325.168	690.94
325.397	222.94
325.626	138.94
325.855	118.94
326.084	108.94
326.313	123.94
326.542	139.94
326.77	209.94
326.999	413.94
327.228	817.94
327.457	1515.94
327.686	1187.94
327.914	329.94
328.143	193.94
328.372	164.94
328.6	125.94
328.829	107.94
329.058	127.94
329.287	123.94
329.515	117.94
329.744	115.94
329.972	134.94
330.201	161.94
330.43	184.94
330.658	141.94
330.887	148.94
331.115	112.94
331.344	87.94
331.572	103.94
331.801	110.94
332.03	106.94
332.258	87.94
332.486	89.94
332.715	76.94
332.943	91.94
333.172	92.94
333.4	98.94
333.629	118.94
333.857	110.94
334.085	136.94
334.314	146.94
334.542	233.94
334.771	213.94
334.999	116.94
335.227	103.94
335.455	108.94
335.684	110.94
335.912	100.94
336.14	101.94
336.369	96.94
336.597	99.94
336.825	89.94
337.053	89.94
337.281	87.94
337.51	92.94
337.738	84.94
337.966	78.94
338.194	96.94
338.422	107.94
338.65	101.94
338.878	100.94
339.106	99.94
339.334	101.94
339.562	88.94
339.79	74.94
340.018	82.94
340.246	97.94
340.474	89.94
340.702	87.94
340.93	100.94
341.158	101.94
341.386	86.94
341.614	88.94
341.842	96.94
342.07	92.94
342.298	92.94
342.526	89.94
342.754	86.94
342.981	79.94
343.209	92.94
343.437	97.94
343.665	96.94
343.893	99.94
344.12	87.94
344.348	95.94
344.576	100.94
344.804	100.94
345.031	80.94
345.259	100.94
345.487	98.94
345.714	100.94
345.942	101.94
346.17	92.94
346.397	87.94
346.625	79.94
346.853	91.94
347.08	93.94
347.308	92.94
347.535	98.94
347.763	90.94
347.99	98.94
348.218	110.94
348.445	110.94
348.673	102.94
348.9	88.94
349.128	88.94
349.355	85.94
349.583	93.94
349.81	94.94
350.037	101.94
350.265	91.94
350.492	102.94
350.72	91.94
350.947	108.94
351.174	105.94
351.402	84.94
351.629	96.94
351.856	98.94
352.083	101.94
352.311	98.94
352.538	112.94
352.765	105.94
352.992	105.94
353.22	103.94
353.447	98.94
353.674	103.94
353.901	110.94
354.128	113.94
354.355	101.94
354.583	93.94
354.81	90.94
355.037	99.94
355.264	104.94
355.491	99.94
355.718	96.94
355.945	89.94
356.172	104.94
356.399	91.94
356.626	93.94
356.853	86.94
357.08	97.94
357.307	91.94
357.534	95.94
357.761	89.94
357.988	97.94
358.215	96.94
358.441	94.94
358.668	84.94
358.895	100.94
359.122	96.94
359.349	80.94
359.576	100.94
359.802	91.94
360.029	114.94
360.256	111.94
360.483	92.94
360.709	91.94
360.936	96.94
361.163	80.94
361.39	100.94
361.616	101.94
361.843	80.94
362.07	92.94
362.296	99.94
362.523	86.94
362.749	87.94
362.976	80.94
363.203	85.94
363.429	85.94
363.656	86.94
363.882	93.94
364.109	107.94
364.335	85.94
364.562	94.94
364.788	87.94
365.015	92.94
365.241	99.94
365.468	104.94
365.694	105.94
365.92	87.94
366.147	82.94
366.373	93.94
366.599	78.94
366.826	97.94
367.052	87.94
367.278	95.94
367.505	99.94
367.731	105.94
367.957	92.94
368.184	95.94
368.41	95.94
368.636	101.94
368.862	110.94
369.089	99.94
369.315	79.94
369.541	77.94
369.767	84.94
369.993	89.94
370.219	86.94
370.445	93.94
370.672	78.94
370.898	85.94
371.124	88.94
371.35	97.94
371.576	103.94
371.802	99.94
372.028	97.94
372.254	92.94
372.48	93.94
372.706	85.94
372.932	98.94
373.158	88.94
373.384	100.94
373.61	86.94
373.835	89.94
374.061	94.94
374.287	93.94
374.513	86.94
374.739	85.94
374.965	83.94
375.191	79.94
375.416	80.94
375.642	99.94
375.868	85.94
376.094	94.94
376.319	97.94
376.545	83.94
376.771	78.94
376.997	79.94
377.222	93.94
377.448	103.94
377.674	91.94
377.899	89.94
378.125	95.94
378.35	91.94
378.576	95.94
378.802	88.94
379.027	80.94
379.253	86.94
379.478	87.94
379.704	89.94
379.929	93.94
380.155	102.94
380.38	91.94
380.606	100.94
380.831	96.94
381.057	96.94
381.282	79.94
381.507	103.94
381.733	99.94
381.958	87.94
382.184	103.94
382.409	98.94
382.634	85.94
382.86	95.94
383.085	99.94
383.31	89.94
383.535	95.94
383.761	93.94
383.986	95.94
384.211	99.94
384.436	79.94
384.662	103.94
384.887	96.94
385.112	89.94
385.337	96.94
385.562	103.94
385.787	87.94
386.013	105.94
386.238	117.94
386.463	99.94
386.688	97.94
386.913	95.94
387.138	97.94
387.363	99.94
387.588	99.94
387.813	84.94
388.038	97.94
388.263	109.94
388.488	108.94
388.713	94.94
388.938	91.94
389.163	90.94
389.387	86.94
389.612	86.94
389.837	78.94
390.062	105.94
390.287	94.94
390.512	83.94
390.736	82.94
390.961	91.94
391.186	97.94
391.411	91.94
391.636	98.94
391.86	87.94
392.085	102.94
392.31	85.94
392.534	91.94
392.759	87.94
392.984	80.94
393.208	104.94
393.433	100.94
393.658	100.94
393.882	72.94
394.107	98.94
394.331	85.94
394.556	87.94
394.78	83.94
395.005	82.94
395.229	92.94
395.454	84.94
395.678	88.94
395.903	83.94
396.127	93.94
396.352	87.94
396.576	83.94
396.801	88.94
397.025	94.94
397.249	76.94
397.474	101.94
397.698	100.94
397.922	75.94
398.147	83.94
398.371	84.94
398.595	77.94
398.82	85.94
399.044	69.94
399.268	81.94
399.492	92.94
399.717	95.94
399.941	100.94
400.165	112.94
400.389	87.94
400.613	72.94
400.837	92.94
401.062	86.94
401.286	85.94
401.51	97.94
401.734	90.94
401.958	102.94
402.182	107.94
402.406	139.94
402.63	98.94
402.854	91.94
403.078	99.94
403.302	92.94
403.526	83.94
403.75	84.94
403.974	95.94
404.198	91.94
404.422	87.94
404.645	85.94
404.869	78.94
405.093	91.94
405.317	100.94
405.541	83.94
405.765	90.94
405.988	113.94
406.212	157.94
406.436	181.94
406.66	136.94
406.883	111.94
407.107	101.94
407.331	90.94
407.555	79.94
407.778	89.94
408.002	87.94
408.226	71.94
408.449	95.94
408.673	98.94
408.896	84.94
409.12	115.94
409.344	102.94
409.567	81.94
409.791	98.94
410.014	94.94
410.238	93.94
410.461	93.94
410.685	97.94
410.908	90.94
411.132	103.94
411.355	96.94
411.578	88.94
411.802	72.94
412.025	88.94
412.249	79.94
412.472	88.94
412.695	100.94
412.919	89.94
413.142	92.94
413.365	97.94
413.589	84.94
413.812	94.94
414.035	89.94
414.258	88.94
414.482	83.94
414.705	87.94
414.928	71.94
415.151	83.94
415.374	85.94
415.597	100.94
415.821	85.94
416.044	108.94
416.267	99.94
416.49	79.94
416.713	96.94
416.936	95.94
417.159	76.94
417.382	72.94
417.605	83.94
417.828	95.94
418.051	80.94
418.274	92.94
418.497	83.94
418.72	85.94
418.943	94.94
419.166	96.94
419.389	99.94
419.611	91.94
419.834	89.94
420.057	101.94
420.28	88.94
420.503	89.94
420.726	87.94
420.948	96.94
421.171	91.94
421.394	95.94
421.617	83.94
421.839	85.94
422.062	77.94
422.285	95.94
422.507	95.94
422.73	108.94
422.953	100.94
423.175	79.94
423.398	75.94
423.621	82.94
423.843	77.94
424.066	96.94
424.288	88.94
424.511	80.94
424.733	103.94
424.956	105.94
425.178	101.94
425.401	94.94
425.623	99.94
425.846	76.94
426.068	96.94
426.291	89.94
426.513	91.94
426.735	97.94
426.958	87.94
427.18	96.94
427.402	122.94
427.625	139.94
427.847	116.94
428.069	117.94
428.292	91.94
428.514	79.94
428.736	73.94
428.958	99.94
429.181	91.94
429.403	83.94
429.625	77.94
429.847	80.94
430.069	95.94
430.292	96.94
430.514	84.94
430.736	80.94
430.958	101.94
431.18	81.94
431.402	89.94
431.624	86.94
431.846	94.94
432.068	81.94
432.29	83.94
432.512	83.94
432.734	69.94
432.956	93.94
433.178	91.94
433.4	104.94
433.622	102.94
433.844	94.94
434.066	89.94
434.287	94.94
434.509	97.94
434.731	89.94
434.953	88.94
435.175	87.94
435.397	83.94
435.618	88.94
435.84	93.94
436.062	108.94
436.284	103.94
436.505	93.94
436.727	100.94
436.949	112.94
437.17	88.94
437.392	76.94
437.614	86.94
437.835	96.94
438.057	98.94
438.278	104.94
438.5	115.94
438.721	121.94
438.943	107.94
439.165	85.94
439.386	80.94
439.608	93.94
439.829	97.94
440.05	102.94
440.272	121.94
440.493	92.94
440.715	93.94
440.936	104.94
441.158	84.94
441.379	88.94
441.6	81.94
441.822	96.94
442.043	88.94
442.264	91.94
442.486	94.94
442.707	119.94
442.928	101.94
443.149	132.94
443.371	99.94
443.592	86.94
443.813	102.94
444.034	89.94
444.255	77.94
444.476	76.94
444.698	94.94
444.919	91.94
445.14	140.94
445.361	124.94
445.582	109.94
445.803	125.94
446.024	108.94
446.245	116.94
446.466	119.94
446.687	89.94
446.908	73.94
447.129	98.94
447.35	91.94
447.571	89.94
447.792	70.94
448.013	89.94
448.234	100.94
448.455	97.94
448.675	94.94
448.896	103.94
449.117	92.94
449.338	89.94
449.559	118.94
449.779	118.94
450	99.94
450.221	72.94
450.442	92.94
450.662	98.94
450.883	106.94
451.104	97.94
451.324	96.94
451.545	92.94
451.766	81.94
451.986	90.94
452.207	91.94
452.428	104.94
452.648	92.94
452.869	94.94
453.089	89.94
453.31	103.94
453.53	90.94
453.751	101.94
453.971	110.94
454.192	101.94
454.412	99.94
454.633	71.94
454.853	86.94
455.073	84.94
455.294	78.94
455.514	83.94
455.734	81.94
455.955	77.94
456.175	91.94
456.395	92.94
456.616	70.94
456.836	83.94
457.056	92.94
457.276	81.94
457.497	89.94
457.717	96.94
457.937	87.94
458.157	86.94
458.377	99.94
458.598	118.94
458.818	134.94
459.038	134.94
459.258	108.94
459.478	76.94
459.698	92.94
459.918	89.94
460.138	91.94
460.358	82.94
460.578	87.94
460.798	66.94
461.018	87.94
461.238	72.94
461.458	82.94
461.678	79.94
461.898	87.94
462.118	82.94
462.338	73.94
462.558	94.94
462.777	75.94
462.997	75.94
463.217	70.94
463.437	77.94
463.657	85.94
463.876	86.94
464.096	89.94
464.316	96.94
464.536	97.94
464.755	68.94
464.975	108.94
465.195	150.94
465.414	146.94
465.634	89.94
465.854	95.94
466.073	87.94
466.293	84.94
466.512	94.94
466.732	85.94
466.951	74.94
467.171	99.94
467.391	91.94
467.61	99.94
467.829	88.94
468.049	133.94
468.268	134.94
468.488	107.94
468.707	87.94
468.927	80.94
469.146	86.94
469.365	83.94
469.585	85.94
469.804	99.94
470.023	95.94
470.243	89.94
470.462	107.94
470.681	92.94
470.901	86.94
471.12	83.94
471.339	97.94
471.558	87.94
471.777	105.94
471.997	90.94
472.216	175.94
472.435	285.94
472.654	139.94
472.873	89.94
473.092	85.94
473.311	81.94
473.53	85.94
473.749	84.94
473.968	91.94
474.187	82.94
474.406	82.94
474.625	67.94
474.844	93.94
475.063	86.94
475.282	96.94
475.501	81.94
475.72	96.94
475.939	103.94
476.158	86.94
476.377	76.94
476.596	96.94
476.814	82.94
477.033	88.94
477.252	71.94
477.471	81.94
477.69	91.94
477.908	101.94
478.127	79.94
478.346	78.94
478.564	92.94
478.783	100.94
479.002	86.94
479.22	113.94
479.439	99.94
479.658	94.94
479.876	98.94
480.095	88.94
480.313	97.94
480.532	95.94
480.751	104.94
480.969	185.94
481.188	461.94
481.406	280.94
481.624	116.94
481.843	95.94
482.061	88.94
482.28	84.94
482.498	85.94
482.717	93.94
482.935	99.94
483.153	93.94
483.372	77.94
483.59	86.94
483.808	87.94
484.027	81.94
484.245	89.94
484.463	95.94
484.681	83.94
484.9	79.94
485.118	94.94
485.336	90.94
485.554	102.94
485.772	106.94
485.99	100.94
486.209	110.94
486.427	103.94
486.645	112.94
486.863	97.94
487.081	99.94
487.299	77.94
487.517	86.94
487.735	91.94
487.953	96.94
488.171	80.94
488.389	111.94
488.607	95.94
488.825	88.94
489.043	97.94
489.261	93.94
489.479	88.94
489.696	84.94
489.914	82.94
490.132	82.94
490.35	93.94
490.568	96.94
490.786	88.94
491.003	95.94
491.221	72.94
491.439	93.94
491.657	83.94
491.874	95.94
492.092	93.94
492.31	80.94
492.527	82.94
492.745	81.94
492.963	80.94
493.18	93.94
493.398	86.94
493.615	101.94
493.833	94.94
494.05	95.94
494.268	95.94
494.485	85.94
494.703	83.94
494.92	90.94
495.138	91.94
495.355	86.94
495.573	83.94
495.79	82.94
496.008	98.94
496.225	111.94
496.442	98.94
496.66	85.94
496.877	82.94
497.094	95.94
497.312	95.94
497.529	95.94
497.746	96.94
497.963	84.94
498.181	92.94
498.398	102.94
498.615	113.94
498.832	94.94
499.049	76.94
499.267	95.94
499.484	91.94
499.701	89.94
499.918	91.94
500.135	96.94
500.352	85.94
500.569	81.94
500.786	85.94
501.003	87.94
501.22	86.94
501.437	83.94
501.654	89.94
501.871	92.94
502.088	84.94
502.305	96.94
502.522	91.94
502.739	79.94
502.956	84.94
503.172	86.94
503.389	85.94
503.606	103.94
503.823	94.94
504.04	98.94
504.256	99.94
504.473	87.94
504.69	88.94
504.907	101.94
505.123	93.94
505.34	88.94
505.557	88.94
505.773	85.94
505.99	72.94
506.207	87.94
506.423	72.94
506.64	92.94
506.856	79.94
507.073	89.94
507.289	93.94
507.506	90.94
507.722	114.94
507.939	92.94
508.155	96.94
508.372	85.94
508.588	91.94
508.805	76.94
509.021	100.94
509.238	95.94
509.454	95.94
509.67	106.94
509.887	103.94
510.103	122.94
510.319	191.94
510.536	625.94
510.752	1875.94
510.968	525.94
511.184	142.94
511.401	119.94
511.617	93.94
511.833	86.94
512.049	101.94
512.265	80.94
512.481	82.94
512.698	88.94
512.914	86.94
513.13	81.94
513.346	92.94
513.562	100.94
513.778	96.94
513.994	85.94
514.21	95.94
514.426	111.94
514.642	133.94
514.858	117.94
515.074	124.94
515.29	386.94
515.506	1165.94
515.721	423.94
515.937	141.94
516.153	99.94
