Data from Uncirc_1989_H10_HRD10591_00015.txt Node
Date: Wed Jan 03 11:57:38 EST 2024
User: Yrep
Spectrometer: HR+D1059
Trigger mode: 1
Integration Time (sec): 1.000000E-1
Scans to average: 1
Electric dark correction enabled: true
Nonlinearity correction enabled: false
Boxcar width: 0
XAxis mode: Wavelengths
Number of Pixels in Spectrum: 2048
>>>>>Begin Spectral Data<<<<<
223.165	-18.88
223.4	-18.88
223.635	-18.88
223.869	-21.88
224.104	-22.88
224.338	-13.88
224.573	-20.88
224.808	-17.88
225.042	14.12
225.277	-13.88
225.511	-2.88
225.746	2.12
225.98	2.12
226.215	23.12
226.449	6.12
226.683	24.12
226.918	29.12
227.152	32.12
227.387	36.12
227.621	29.12
227.856	47.12
228.09	52.12
228.324	43.12
228.559	54.12
228.793	64.12
229.027	64.12
229.262	53.12
229.496	61.12
229.73	86.12
229.964	87.12
230.199	67.12
230.433	57.12
230.667	76.12
230.901	84.12
231.136	76.12
231.37	78.12
231.604	69.12
231.838	67.12
232.072	70.12
232.306	81.12
232.541	76.12
232.775	74.12
233.009	76.12
233.243	71.12
233.477	71.12
233.711	84.12
233.945	78.12
234.179	84.12
234.413	75.12
234.647	67.12
234.881	74.12
235.115	71.12
235.349	77.12
235.583	83.12
235.817	73.12
236.051	59.12
236.285	72.12
236.519	83.12
236.753	81.12
236.987	62.12
237.221	68.12
237.455	72.12
237.689	69.12
237.922	68.12
238.156	68.12
238.39	74.12
238.624	64.12
238.858	77.12
239.091	73.12
239.325	81.12
239.559	78.12
239.793	77.12
240.027	69.12
240.26	60.12
240.494	81.12
240.728	70.12
240.961	83.12
241.195	78.12
241.429	77.12
241.662	60.12
241.896	67.12
242.13	78.12
242.363	62.12
242.597	70.12
242.83	72.12
243.064	70.12
243.298	90.12
243.531	78.12
243.765	84.12
243.998	70.12
244.232	83.12
244.465	87.12
244.699	70.12
244.932	76.12
245.166	80.12
245.399	83.12
245.633	76.12
245.866	53.12
246.099	76.12
246.333	69.12
246.566	65.12
246.8	68.12
247.033	70.12
247.266	79.12
247.5	83.12
247.733	89.12
247.966	86.12
248.2	84.12
248.433	86.12
248.666	85.12
248.899	82.12
249.133	78.12
249.366	99.12
249.599	91.12
249.832	75.12
250.066	71.12
250.299	69.12
250.532	70.12
250.765	69.12
250.998	74.12
251.231	68.12
251.465	68.12
251.698	62.12
251.931	74.12
252.164	80.12
252.397	79.12
252.63	80.12
252.863	71.12
253.096	82.12
253.329	75.12
253.562	82.12
253.795	74.12
254.028	84.12
254.261	86.12
254.494	72.12
254.727	80.12
254.96	70.12
255.193	73.12
255.426	82.12
255.659	95.12
255.892	90.12
256.124	76.12
256.357	86.12
256.59	82.12
256.823	80.12
257.056	76.12
257.289	86.12
257.521	93.12
257.754	95.12
257.987	78.12
258.22	76.12
258.452	90.12
258.685	67.12
258.918	74.12
259.151	76.12
259.383	78.12
259.616	81.12
259.849	85.12
260.081	88.12
260.314	78.12
260.547	80.12
260.779	69.12
261.012	76.12
261.244	85.12
261.477	92.12
261.71	88.12
261.942	102.12
262.175	115.12
262.407	82.12
262.64	80.12
262.872	84.12
263.105	71.12
263.337	76.12
263.57	82.12
263.802	78.12
264.035	82.12
264.267	90.12
264.499	81.12
264.732	90.12
264.964	81.12
265.197	85.12
265.429	79.12
265.661	85.12
265.894	86.12
266.126	90.12
266.358	74.12
266.591	79.12
266.823	78.12
267.055	77.12
267.287	87.12
267.52	86.12
267.752	88.12
267.984	82.12
268.216	85.12
268.448	79.12
268.681	64.12
268.913	82.12
269.145	85.12
269.377	84.12
269.609	76.12
269.841	95.12
270.073	81.12
270.306	77.12
270.538	73.12
270.77	77.12
271.002	87.12
271.234	87.12
271.466	91.12
271.698	80.12
271.93	85.12
272.162	98.12
272.394	91.12
272.626	82.12
272.858	80.12
273.09	77.12
273.322	83.12
273.553	78.12
273.785	80.12
274.017	92.12
274.249	78.12
274.481	89.12
274.713	81.12
274.945	78.12
275.176	77.12
275.408	83.12
275.64	84.12
275.872	82.12
276.104	82.12
276.335	86.12
276.567	86.12
276.799	95.12
277.031	87.12
277.262	90.12
277.494	94.12
277.726	88.12
277.957	89.12
278.189	90.12
278.421	80.12
278.652	84.12
278.884	76.12
279.115	83.12
279.347	65.12
279.579	100.12
279.81	102.12
280.042	75.12
280.273	85.12
280.505	85.12
280.736	79.12
280.968	80.12
281.199	91.12
281.431	80.12
281.662	87.12
281.894	87.12
282.125	102.12
282.356	112.12
282.588	112.12
282.819	86.12
283.051	83.12
283.282	82.12
283.513	86.12
283.745	79.12
283.976	85.12
284.207	78.12
284.439	90.12
284.67	91.12
284.901	78.12
285.132	87.12
285.364	94.12
285.595	97.12
285.826	89.12
286.057	95.12
286.288	90.12
286.52	94.12
286.751	68.12
286.982	72.12
287.213	81.12
287.444	94.12
287.675	62.12
287.906	89.12
288.138	85.12
288.369	84.12
288.6	96.12
288.831	78.12
289.062	86.12
289.293	90.12
289.524	85.12
289.755	82.12
289.986	80.12
290.217	90.12
290.448	85.12
290.679	86.12
290.91	73.12
291.141	78.12
291.371	98.12
291.602	75.12
291.833	84.12
292.064	94.12
292.295	89.12
292.526	87.12
292.757	72.12
292.987	90.12
293.218	87.12
293.449	79.12
293.68	98.12
293.91	80.12
294.141	86.12
294.372	90.12
294.603	88.12
294.833	66.12
295.064	100.12
295.295	84.12
295.525	82.12
295.756	101.12
295.987	114.12
296.217	108.12
296.448	119.12
296.679	82.12
296.909	91.12
297.14	80.12
297.37	82.12
297.601	96.12
297.831	87.12
298.062	86.12
298.292	91.12
298.523	92.12
298.753	73.12
298.984	76.12
299.214	81.12
299.445	90.12
299.675	76.12
299.905	93.12
300.136	110.12
300.366	76.12
300.597	90.12
300.827	93.12
301.057	91.12
301.288	96.12
301.518	89.12
301.748	98.12
301.979	99.12
302.209	98.12
302.439	91.12
302.669	90.12
302.9	101.12
303.13	84.12
303.36	87.12
303.59	94.12
303.82	80.12
304.051	93.12
304.281	84.12
304.511	88.12
304.741	80.12
304.971	83.12
305.201	66.12
305.431	82.12
305.661	110.12
305.891	83.12
306.121	78.12
306.352	94.12
306.582	87.12
306.812	100.12
307.042	87.12
307.272	94.12
307.502	91.12
307.731	80.12
307.961	103.12
308.191	101.12
308.421	87.12
308.651	101.12
308.881	101.12
309.111	107.12
309.341	91.12
309.571	109.12
309.8	78.12
310.03	99.12
310.26	84.12
310.49	91.12
310.72	83.12
310.949	95.12
311.179	98.12
311.409	102.12
311.639	84.12
311.868	98.12
312.098	96.12
312.328	90.12
312.557	95.12
312.787	86.12
313.017	113.12
313.246	100.12
313.476	90.12
313.706	80.12
313.935	93.12
314.165	91.12
314.394	95.12
314.624	101.12
314.853	103.12
315.083	85.12
315.312	87.12
315.542	93.12
315.771	90.12
316.001	87.12
316.23	94.12
316.46	79.12
316.689	89.12
316.919	94.12
317.148	77.12
317.377	82.12
317.607	86.12
317.836	94.12
318.065	99.12
318.295	91.12
318.524	96.12
318.753	91.12
318.983	81.12
319.212	92.12
319.441	87.12
319.67	85.12
319.9	90.12
320.129	91.12
320.358	89.12
320.587	72.12
320.816	98.12
321.046	97.12
321.275	94.12
321.504	85.12
321.733	105.12
321.962	96.12
322.191	103.12
322.42	109.12
322.649	104.12
322.878	107.12
323.108	120.12
323.337	125.12
323.566	109.12
323.795	124.12
324.024	171.12
324.253	311.12
324.482	647.12
324.71	1319.12
324.939	1738.12
325.168	635.12
325.397	206.12
325.626	129.12
325.855	123.12
326.084	115.12
326.313	117.12
326.542	123.12
326.77	195.12
326.999	354.12
327.228	780.12
327.457	1340.12
327.686	1073.12
327.914	308.12
328.143	163.12
328.372	105.12
328.6	102.12
328.829	108.12
329.058	109.12
329.287	117.12
329.515	100.12
329.744	94.12
329.972	101.12
330.201	119.12
330.43	146.12
330.658	122.12
330.887	115.12
331.115	107.12
331.344	83.12
331.572	83.12
331.801	91.12
332.03	100.12
332.258	104.12
332.486	87.12
332.715	90.12
332.943	107.12
333.172	100.12
333.4	84.12
333.629	96.12
333.857	107.12
334.085	108.12
334.314	117.12
334.542	125.12
334.771	127.12
334.999	97.12
335.227	88.12
335.455	88.12
335.684	96.12
335.912	87.12
336.14	92.12
336.369	93.12
336.597	90.12
336.825	93.12
337.053	87.12
337.281	88.12
337.51	86.12
337.738	94.12
337.966	82.12
338.194	93.12
338.422	97.12
338.65	89.12
338.878	101.12
339.106	81.12
339.334	104.12
339.562	83.12
339.79	88.12
340.018	89.12
340.246	91.12
340.474	84.12
340.702	78.12
340.93	70.12
341.158	82.12
341.386	74.12
341.614	95.12
341.842	98.12
342.07	90.12
342.298	97.12
342.526	80.12
342.754	82.12
342.981	94.12
343.209	85.12
343.437	105.12
343.665	86.12
343.893	95.12
344.12	102.12
344.348	76.12
344.576	94.12
344.804	93.12
345.031	90.12
345.259	100.12
345.487	98.12
345.714	91.12
345.942	87.12
346.17	95.12
346.397	68.12
346.625	104.12
346.853	79.12
347.08	95.12
347.308	91.12
347.535	82.12
347.763	83.12
347.99	87.12
348.218	86.12
348.445	103.12
348.673	79.12
348.9	95.12
349.128	74.12
349.355	91.12
349.583	82.12
349.81	97.12
350.037	82.12
350.265	93.12
350.492	96.12
350.72	88.12
350.947	98.12
351.174	99.12
351.402	107.12
351.629	88.12
351.856	94.12
352.083	111.12
352.311	99.12
352.538	103.12
352.765	118.12
352.992	114.12
353.22	96.12
353.447	103.12
353.674	103.12
353.901	94.12
354.128	94.12
354.355	99.12
354.583	90.12
354.81	86.12
355.037	72.12
355.264	87.12
355.491	102.12
355.718	92.12
355.945	91.12
356.172	99.12
356.399	108.12
356.626	102.12
356.853	95.12
357.08	92.12
357.307	96.12
357.534	84.12
357.761	96.12
357.988	97.12
358.215	83.12
358.441	87.12
358.668	94.12
358.895	100.12
359.122	94.12
359.349	71.12
359.576	85.12
359.802	90.12
360.029	103.12
360.256	105.12
360.483	99.12
360.709	96.12
360.936	75.12
361.163	94.12
361.39	87.12
361.616	98.12
361.843	79.12
362.07	78.12
362.296	93.12
362.523	74.12
362.749	102.12
362.976	106.12
363.203	86.12
363.429	84.12
363.656	85.12
363.882	79.12
364.109	72.12
364.335	82.12
364.562	77.12
364.788	80.12
365.015	80.12
365.241	96.12
365.468	103.12
365.694	94.12
365.92	94.12
366.147	77.12
366.373	68.12
366.599	83.12
366.826	91.12
367.052	69.12
367.278	93.12
367.505	95.12
367.731	78.12
367.957	103.12
368.184	94.12
368.41	96.12
368.636	94.12
368.862	108.12
369.089	87.12
369.315	100.12
369.541	102.12
369.767	92.12
369.993	87.12
370.219	83.12
370.445	90.12
370.672	81.12
370.898	87.12
371.124	91.12
371.35	96.12
371.576	86.12
371.802	82.12
372.028	89.12
372.254	91.12
372.48	89.12
372.706	99.12
372.932	85.12
373.158	88.12
373.384	103.12
373.61	92.12
373.835	97.12
374.061	95.12
374.287	93.12
374.513	102.12
374.739	98.12
374.965	93.12
375.191	86.12
375.416	86.12
375.642	75.12
375.868	98.12
376.094	96.12
376.319	81.12
376.545	90.12
376.771	82.12
376.997	87.12
377.222	79.12
377.448	87.12
377.674	95.12
377.899	90.12
378.125	91.12
378.35	98.12
378.576	87.12
378.802	76.12
379.027	83.12
379.253	86.12
379.478	84.12
379.704	88.12
379.929	83.12
380.155	104.12
380.38	102.12
380.606	95.12
380.831	86.12
381.057	93.12
381.282	89.12
381.507	103.12
381.733	100.12
381.958	98.12
382.184	108.12
382.409	110.12
382.634	102.12
382.86	98.12
383.085	104.12
383.31	100.12
383.535	103.12
383.761	97.12
383.986	110.12
384.211	93.12
384.436	108.12
384.662	104.12
384.887	104.12
385.112	104.12
385.337	100.12
385.562	110.12
385.787	90.12
386.013	103.12
386.238	100.12
386.463	91.12
386.688	92.12
386.913	86.12
387.138	105.12
387.363	103.12
387.588	113.12
387.813	96.12
388.038	108.12
388.263	109.12
388.488	105.12
388.713	76.12
388.938	85.12
389.163	95.12
389.387	81.12
389.612	97.12
389.837	79.12
390.062	91.12
390.287	79.12
390.512	79.12
390.736	84.12
390.961	99.12
391.186	81.12
391.411	91.12
391.636	92.12
391.86	95.12
392.085	86.12
392.31	93.12
392.534	93.12
392.759	84.12
392.984	86.12
393.208	108.12
393.433	125.12
393.658	114.12
393.882	83.12
394.107	80.12
394.331	80.12
394.556	83.12
394.78	93.12
395.005	81.12
395.229	78.12
395.454	95.12
395.678	89.12
395.903	95.12
396.127	88.12
396.352	85.12
396.576	90.12
396.801	94.12
397.025	100.12
397.249	80.12
397.474	82.12
397.698	87.12
397.922	81.12
398.147	72.12
398.371	87.12
398.595	93.12
398.82	75.12
399.044	74.12
399.268	90.12
399.492	84.12
399.717	74.12
399.941	81.12
400.165	97.12
400.389	80.12
400.613	87.12
400.837	83.12
401.062	69.12
401.286	88.12
401.51	82.12
401.734	86.12
401.958	102.12
402.182	108.12
402.406	117.12
402.63	114.12
402.854	91.12
403.078	98.12
403.302	100.12
403.526	85.12
403.75	82.12
403.974	70.12
404.198	90.12
404.422	87.12
404.645	94.12
404.869	87.12
405.093	89.12
405.317	102.12
405.541	99.12
405.765	101.12
405.988	97.12
406.212	152.12
406.436	174.12
406.66	101.12
406.883	98.12
407.107	88.12
407.331	85.12
407.555	89.12
407.778	88.12
408.002	75.12
408.226	86.12
408.449	92.12
408.673	81.12
408.896	93.12
409.12	74.12
409.344	90.12
409.567	80.12
409.791	95.12
410.014	102.12
410.238	101.12
410.461	90.12
410.685	92.12
410.908	95.12
411.132	101.12
411.355	88.12
411.578	103.12
411.802	86.12
412.025	82.12
412.249	91.12
412.472	81.12
412.695	82.12
412.919	86.12
413.142	80.12
413.365	92.12
413.589	98.12
413.812	93.12
414.035	86.12
414.258	75.12
414.482	85.12
414.705	85.12
414.928	97.12
415.151	92.12
415.374	99.12
415.597	67.12
415.821	95.12
416.044	100.12
416.267	89.12
416.49	95.12
416.713	74.12
416.936	90.12
417.159	70.12
417.382	87.12
417.605	94.12
417.828	97.12
418.051	86.12
418.274	92.12
418.497	89.12
418.72	76.12
418.943	91.12
419.166	82.12
419.389	90.12
419.611	83.12
419.834	87.12
420.057	74.12
420.28	89.12
420.503	83.12
420.726	90.12
420.948	89.12
421.171	88.12
421.394	86.12
421.617	87.12
421.839	85.12
422.062	87.12
422.285	94.12
422.507	93.12
422.73	92.12
422.953	90.12
423.175	96.12
423.398	92.12
423.621	93.12
423.843	77.12
424.066	84.12
424.288	78.12
424.511	91.12
424.733	89.12
424.956	96.12
425.178	91.12
425.401	92.12
425.623	91.12
425.846	90.12
426.068	79.12
426.291	83.12
426.513	84.12
426.735	98.12
426.958	99.12
427.18	101.12
427.402	111.12
427.625	125.12
427.847	114.12
428.069	98.12
428.292	89.12
428.514	93.12
428.736	82.12
428.958	87.12
429.181	87.12
429.403	91.12
429.625	90.12
429.847	86.12
430.069	101.12
430.292	96.12
430.514	93.12
430.736	77.12
430.958	78.12
431.18	77.12
431.402	98.12
431.624	81.12
431.846	78.12
432.068	76.12
432.29	85.12
432.512	80.12
432.734	80.12
432.956	74.12
433.178	95.12
433.4	87.12
433.622	92.12
433.844	81.12
434.066	97.12
434.287	84.12
434.509	95.12
434.731	84.12
434.953	91.12
435.175	92.12
435.397	96.12
435.618	103.12
435.84	91.12
436.062	104.12
436.284	104.12
436.505	84.12
436.727	93.12
436.949	87.12
437.17	86.12
437.392	87.12
437.614	96.12
437.835	100.12
438.057	93.12
438.278	98.12
438.5	82.12
438.721	102.12
438.943	91.12
439.165	86.12
439.386	76.12
439.608	74.12
439.829	92.12
440.05	108.12
440.272	103.12
440.493	74.12
440.715	94.12
440.936	85.12
441.158	82.12
441.379	74.12
441.6	87.12
441.822	88.12
442.043	91.12
442.264	82.12
442.486	83.12
442.707	86.12
442.928	96.12
443.149	123.12
443.371	104.12
443.592	95.12
443.813	83.12
444.034	94.12
444.255	87.12
444.476	97.12
444.698	88.12
444.919	79.12
445.14	143.12
445.361	119.12
445.582	91.12
445.803	115.12
446.024	111.12
446.245	125.12
446.466	106.12
446.687	100.12
446.908	91.12
447.129	82.12
447.35	84.12
447.571	85.12
447.792	72.12
448.013	78.12
448.234	101.12
448.455	95.12
448.675	102.12
448.896	98.12
449.117	86.12
449.338	92.12
449.559	102.12
449.779	110.12
450	74.12
450.221	90.12
450.442	87.12
450.662	82.12
450.883	96.12
451.104	83.12
451.324	83.12
451.545	90.12
451.766	86.12
451.986	78.12
452.207	86.12
452.428	85.12
452.648	82.12
452.869	109.12
453.089	101.12
453.31	99.12
453.53	88.12
453.751	86.12
453.971	100.12
454.192	88.12
454.412	100.12
454.633	76.12
454.853	80.12
455.073	83.12
455.294	84.12
455.514	88.12
455.734	102.12
455.955	87.12
456.175	83.12
456.395	88.12
456.616	83.12
456.836	82.12
457.056	78.12
457.276	84.12
457.497	84.12
457.717	76.12
457.937	80.12
458.157	84.12
458.377	93.12
458.598	93.12
458.818	125.12
459.038	129.12
459.258	98.12
459.478	87.12
459.698	84.12
459.918	80.12
460.138	81.12
460.358	76.12
460.578	80.12
460.798	103.12
461.018	85.12
461.238	86.12
461.458	78.12
461.678	67.12
461.898	83.12
462.118	85.12
462.338	78.12
462.558	70.12
462.777	78.12
462.997	86.12
463.217	78.12
463.437	86.12
463.657	70.12
463.876	92.12
464.096	83.12
464.316	91.12
464.536	86.12
464.755	98.12
464.975	98.12
465.195	138.12
465.414	123.12
465.634	88.12
465.854	104.12
466.073	91.12
466.293	98.12
466.512	78.12
466.732	80.12
466.951	69.12
467.171	101.12
467.391	97.12
467.61	112.12
467.829	86.12
468.049	81.12
468.268	105.12
468.488	87.12
468.707	76.12
468.927	71.12
469.146	71.12
469.365	87.12
469.585	94.12
469.804	84.12
470.023	88.12
470.243	90.12
470.462	93.12
470.681	99.12
470.901	75.12
471.12	83.12
471.339	74.12
471.558	95.12
471.777	82.12
471.997	88.12
472.216	110.12
472.435	144.12
472.654	94.12
472.873	84.12
473.092	68.12
473.311	87.12
473.53	87.12
473.749	84.12
473.968	91.12
474.187	98.12
474.406	96.12
474.625	94.12
474.844	102.12
475.063	61.12
475.282	86.12
475.501	94.12
475.72	80.12
475.939	67.12
476.158	91.12
476.377	86.12
476.596	86.12
476.814	80.12
477.033	85.12
477.252	88.12
477.471	99.12
477.69	87.12
477.908	82.12
478.127	97.12
478.346	83.12
478.564	97.12
478.783	93.12
479.002	81.12
479.22	96.12
479.439	87.12
479.658	95.12
479.876	86.12
480.095	86.12
480.313	94.12
480.532	109.12
480.751	96.12
480.969	96.12
481.188	211.12
481.406	174.12
481.624	96.12
481.843	86.12
482.061	93.12
482.28	83.12
482.498	74.12
482.717	71.12
482.935	88.12
483.153	80.12
483.372	98.12
483.59	95.12
483.808	88.12
484.027	78.12
484.245	98.12
484.463	81.12
484.681	92.12
484.9	100.12
485.118	93.12
485.336	97.12
485.554	102.12
485.772	85.12
485.99	88.12
486.209	91.12
486.427	84.12
486.645	86.12
486.863	114.12
487.081	99.12
487.299	81.12
487.517	102.12
487.735	85.12
487.953	89.12
488.171	88.12
488.389	92.12
488.607	94.12
488.825	95.12
489.043	89.12
489.261	91.12
489.479	82.12
489.696	83.12
489.914	82.12
490.132	95.12
490.35	101.12
490.568	92.12
490.786	92.12
491.003	90.12
491.221	84.12
491.439	85.12
491.657	93.12
491.874	86.12
492.092	91.12
492.31	85.12
492.527	100.12
492.745	96.12
492.963	87.12
493.18	81.12
493.398	94.12
493.615	103.12
493.833	92.12
494.05	91.12
494.268	91.12
494.485	89.12
494.703	81.12
494.92	92.12
495.138	92.12
495.355	88.12
495.573	84.12
495.79	79.12
496.008	84.12
496.225	91.12
496.442	101.12
496.66	96.12
496.877	87.12
497.094	79.12
497.312	83.12
497.529	91.12
497.746	101.12
497.963	90.12
498.181	76.12
498.398	96.12
498.615	108.12
498.832	102.12
499.049	85.12
499.267	90.12
499.484	91.12
499.701	88.12
499.918	81.12
500.135	98.12
500.352	91.12
500.569	98.12
500.786	96.12
501.003	96.12
501.22	91.12
501.437	79.12
501.654	102.12
501.871	84.12
502.088	76.12
502.305	78.12
502.522	87.12
502.739	85.12
502.956	80.12
503.172	83.12
503.389	74.12
503.606	87.12
503.823	93.12
504.04	86.12
504.256	84.12
504.473	101.12
504.69	83.12
504.907	78.12
505.123	77.12
505.34	90.12
505.557	75.12
505.773	90.12
505.99	76.12
506.207	94.12
506.423	78.12
506.64	85.12
506.856	91.12
507.073	92.12
507.289	102.12
507.506	99.12
507.722	99.12
507.939	105.12
508.155	95.12
508.372	84.12
508.588	90.12
508.805	84.12
509.021	82.12
509.238	88.12
509.454	91.12
509.67	86.12
509.887	99.12
510.103	106.12
510.319	174.12
510.536	570.12
510.752	1662.12
510.968	475.12
511.184	138.12
511.401	95.12
511.617	102.12
511.833	86.12
512.049	86.12
512.265	91.12
512.481	78.12
512.698	84.12
512.914	84.12
513.13	90.12
513.346	86.12
513.562	78.12
513.778	80.12
513.994	76.12
514.21	89.12
514.426	115.12
514.642	120.12
514.858	97.12
515.074	138.12
515.29	338.12
515.506	1043.12
515.721	397.12
515.937	120.12
516.153	84.12
516.369	85.12
516.585	91.12
516.801	97.12
