Data from Uncirc_1989_H10_HRD10591_00046.txt Node
Date: Wed Jan 03 11:57:44 EST 2024
User: Yrep
Spectrometer: HR+D1059
Trigger mode: 1
Integration Time (sec): 1.000000E-1
Scans to average: 1
Electric dark correction enabled: true
Nonlinearity correction enabled: false
Boxcar width: 0
XAxis mode: Wavelengths
Number of Pixels in Spectrum: 2048
>>>>>Begin Spectral Data<<<<<
223.165	-21.38
223.4	-21.38
223.635	-21.38
223.869	-16.38
224.104	-35.38
224.338	-6.38
224.573	-15.38
224.808	-16.38
225.042	-15.38
225.277	-5.38
225.511	-1.38
225.746	8.62
225.98	18.62
226.215	16.62
226.449	10.62
226.683	17.62
226.918	31.62
227.152	29.62
227.387	36.62
227.621	32.62
227.856	58.62
228.09	33.62
228.324	43.62
228.559	61.62
228.793	53.62
229.027	58.62
229.262	55.62
229.496	65.62
229.73	74.62
229.964	82.62
230.199	59.62
230.433	69.62
230.667	81.62
230.901	81.62
231.136	74.62
231.37	90.62
231.604	81.62
231.838	72.62
232.072	82.62
232.306	85.62
232.541	81.62
232.775	68.62
233.009	76.62
233.243	92.62
233.477	86.62
233.711	67.62
233.945	77.62
234.179	79.62
234.413	77.62
234.647	95.62
234.881	83.62
235.115	73.62
235.349	80.62
235.583	91.62
235.817	88.62
236.051	69.62
236.285	67.62
236.519	66.62
236.753	81.62
236.987	85.62
237.221	62.62
237.455	76.62
237.689	63.62
237.922	84.62
238.156	52.62
238.39	71.62
238.624	78.62
238.858	72.62
239.091	74.62
239.325	81.62
239.559	93.62
239.793	69.62
240.027	68.62
240.26	67.62
240.494	81.62
240.728	78.62
240.961	74.62
241.195	74.62
241.429	75.62
241.662	68.62
241.896	64.62
242.13	83.62
242.363	77.62
242.597	65.62
242.83	81.62
243.064	74.62
243.298	64.62
243.531	62.62
243.765	78.62
243.998	77.62
244.232	76.62
244.465	74.62
244.699	75.62
244.932	65.62
245.166	73.62
245.399	76.62
245.633	81.62
245.866	80.62
246.099	67.62
246.333	74.62
246.566	71.62
246.8	75.62
247.033	88.62
247.266	81.62
247.5	82.62
247.733	76.62
247.966	82.62
248.2	72.62
248.433	64.62
248.666	67.62
248.899	80.62
249.133	89.62
249.366	89.62
249.599	96.62
249.832	84.62
250.066	87.62
250.299	82.62
250.532	83.62
250.765	85.62
250.998	76.62
251.231	62.62
251.465	84.62
251.698	80.62
251.931	68.62
252.164	89.62
252.397	74.62
252.63	78.62
252.863	70.62
253.096	77.62
253.329	71.62
253.562	82.62
253.795	73.62
254.028	77.62
254.261	75.62
254.494	84.62
254.727	97.62
254.96	74.62
255.193	77.62
255.426	85.62
255.659	79.62
255.892	80.62
256.124	76.62
256.357	84.62
256.59	87.62
256.823	88.62
257.056	82.62
257.289	91.62
257.521	84.62
257.754	82.62
257.987	79.62
258.22	81.62
258.452	80.62
258.685	83.62
258.918	83.62
259.151	75.62
259.383	77.62
259.616	84.62
259.849	85.62
260.081	70.62
260.314	69.62
260.547	77.62
260.779	76.62
261.012	75.62
261.244	70.62
261.477	83.62
261.71	86.62
261.942	101.62
262.175	106.62
262.407	65.62
262.64	88.62
262.872	83.62
263.105	94.62
263.337	78.62
263.57	87.62
263.802	84.62
264.035	87.62
264.267	81.62
264.499	64.62
264.732	70.62
264.964	76.62
265.197	86.62
265.429	88.62
265.661	90.62
265.894	79.62
266.126	77.62
266.358	86.62
266.591	76.62
266.823	94.62
267.055	82.62
267.287	83.62
267.52	75.62
267.752	84.62
267.984	85.62
268.216	88.62
268.448	76.62
268.681	79.62
268.913	88.62
269.145	69.62
269.377	90.62
269.609	90.62
269.841	85.62
270.073	87.62
270.306	65.62
270.538	73.62
270.77	81.62
271.002	84.62
271.234	70.62
271.466	72.62
271.698	92.62
271.93	79.62
272.162	93.62
272.394	80.62
272.626	92.62
272.858	83.62
273.09	85.62
273.322	95.62
273.553	76.62
273.785	72.62
274.017	90.62
274.249	84.62
274.481	82.62
274.713	84.62
274.945	78.62
275.176	90.62
275.408	93.62
275.64	83.62
275.872	89.62
276.104	85.62
276.335	84.62
276.567	84.62
276.799	88.62
277.031	93.62
277.262	85.62
277.494	108.62
277.726	94.62
277.957	84.62
278.189	84.62
278.421	93.62
278.652	76.62
278.884	79.62
279.115	83.62
279.347	89.62
279.579	88.62
279.81	82.62
280.042	80.62
280.273	85.62
280.505	89.62
280.736	79.62
280.968	101.62
281.199	76.62
281.431	73.62
281.662	89.62
281.894	75.62
282.125	82.62
282.356	104.62
282.588	125.62
282.819	110.62
283.051	78.62
283.282	80.62
283.513	95.62
283.745	80.62
283.976	79.62
284.207	85.62
284.439	86.62
284.67	83.62
284.901	85.62
285.132	89.62
285.364	89.62
285.595	88.62
285.826	83.62
286.057	87.62
286.288	80.62
286.52	75.62
286.751	86.62
286.982	85.62
287.213	86.62
287.444	95.62
287.675	94.62
287.906	105.62
288.138	89.62
288.369	73.62
288.6	77.62
288.831	90.62
289.062	74.62
289.293	90.62
289.524	94.62
289.755	83.62
289.986	69.62
290.217	93.62
290.448	72.62
290.679	85.62
290.91	94.62
291.141	84.62
291.371	82.62
291.602	90.62
291.833	68.62
292.064	80.62
292.295	78.62
292.526	95.62
292.757	79.62
292.987	86.62
293.218	80.62
293.449	96.62
293.68	75.62
293.91	64.62
294.141	96.62
294.372	96.62
294.603	81.62
294.833	93.62
295.064	97.62
295.295	94.62
295.525	76.62
295.756	82.62
295.987	113.62
296.217	110.62
296.448	113.62
296.679	99.62
296.909	77.62
297.14	91.62
297.37	88.62
297.601	76.62
297.831	86.62
298.062	99.62
298.292	84.62
298.523	88.62
298.753	87.62
298.984	78.62
299.214	92.62
299.445	101.62
299.675	92.62
299.905	104.62
300.136	86.62
300.366	99.62
300.597	93.62
300.827	86.62
301.057	97.62
301.288	94.62
301.518	94.62
301.748	83.62
301.979	106.62
302.209	85.62
302.439	82.62
302.669	98.62
302.9	81.62
303.13	84.62
303.36	107.62
303.59	105.62
303.82	96.62
304.051	82.62
304.281	84.62
304.511	96.62
304.741	86.62
304.971	79.62
305.201	80.62
305.431	75.62
305.661	92.62
305.891	88.62
306.121	94.62
306.352	98.62
306.582	86.62
306.812	85.62
307.042	99.62
307.272	70.62
307.502	90.62
307.731	83.62
307.961	80.62
308.191	81.62
308.421	100.62
308.651	88.62
308.881	90.62
309.111	93.62
309.341	88.62
309.571	90.62
309.8	99.62
310.03	103.62
310.26	97.62
310.49	96.62
310.72	80.62
310.949	86.62
311.179	90.62
311.409	81.62
311.639	88.62
311.868	88.62
312.098	83.62
312.328	96.62
312.557	100.62
312.787	109.62
313.017	89.62
313.246	78.62
313.476	91.62
313.706	86.62
313.935	98.62
314.165	85.62
314.394	100.62
314.624	85.62
314.853	98.62
315.083	92.62
315.312	84.62
315.542	80.62
315.771	101.62
316.001	84.62
316.23	89.62
316.46	75.62
316.689	85.62
316.919	91.62
317.148	90.62
317.377	84.62
317.607	81.62
317.836	86.62
318.065	103.62
318.295	82.62
318.524	88.62
318.753	89.62
318.983	88.62
319.212	92.62
319.441	93.62
319.67	93.62
319.9	102.62
320.129	90.62
320.358	88.62
320.587	83.62
320.816	97.62
321.046	92.62
321.275	82.62
321.504	82.62
321.733	89.62
321.962	102.62
322.191	96.62
322.42	97.62
322.649	106.62
322.878	93.62
323.108	105.62
323.337	119.62
323.566	116.62
323.795	132.62
324.024	166.62
324.253	330.62
324.482	686.62
324.71	1443.62
324.939	1783.62
325.168	668.62
325.397	218.62
325.626	144.62
325.855	112.62
326.084	115.62
326.313	117.62
326.542	144.62
326.77	184.62
326.999	413.62
327.228	780.62
327.457	1448.62
327.686	1125.62
327.914	318.62
328.143	186.62
328.372	153.62
328.6	141.62
328.829	107.62
329.058	105.62
329.287	129.62
329.515	102.62
329.744	90.62
329.972	124.62
330.201	136.62
330.43	168.62
330.658	141.62
330.887	111.62
331.115	102.62
331.344	95.62
331.572	100.62
331.801	90.62
332.03	94.62
332.258	87.62
332.486	97.62
332.715	93.62
332.943	90.62
333.172	87.62
333.4	94.62
333.629	111.62
333.857	114.62
334.085	118.62
334.314	148.62
334.542	187.62
334.771	200.62
334.999	116.62
335.227	95.62
335.455	91.62
335.684	86.62
335.912	90.62
336.14	101.62
336.369	98.62
336.597	83.62
336.825	92.62
337.053	99.62
337.281	72.62
337.51	92.62
337.738	93.62
337.966	81.62
338.194	98.62
338.422	93.62
338.65	79.62
338.878	91.62
339.106	96.62
339.334	99.62
339.562	93.62
339.79	100.62
340.018	71.62
340.246	89.62
340.474	86.62
340.702	84.62
340.93	79.62
341.158	90.62
341.386	72.62
341.614	70.62
341.842	84.62
342.07	90.62
342.298	98.62
342.526	89.62
342.754	89.62
342.981	87.62
343.209	88.62
343.437	77.62
343.665	90.62
343.893	87.62
344.12	95.62
344.348	81.62
344.576	83.62
344.804	86.62
345.031	87.62
345.259	84.62
345.487	63.62
345.714	85.62
345.942	96.62
346.17	84.62
346.397	75.62
346.625	79.62
346.853	92.62
347.08	93.62
347.308	99.62
347.535	84.62
347.763	87.62
347.99	92.62
348.218	95.62
348.445	78.62
348.673	84.62
348.9	98.62
349.128	91.62
349.355	94.62
349.583	93.62
349.81	97.62
350.037	107.62
350.265	91.62
350.492	88.62
350.72	90.62
350.947	101.62
351.174	103.62
351.402	90.62
351.629	87.62
351.856	99.62
352.083	89.62
352.311	90.62
352.538	106.62
352.765	104.62
352.992	101.62
353.22	103.62
353.447	113.62
353.674	89.62
353.901	95.62
354.128	101.62
354.355	104.62
354.583	97.62
354.81	102.62
355.037	90.62
355.264	90.62
355.491	91.62
355.718	92.62
355.945	86.62
356.172	91.62
356.399	94.62
356.626	75.62
356.853	86.62
357.08	96.62
357.307	91.62
357.534	85.62
357.761	83.62
357.988	90.62
358.215	92.62
358.441	100.62
358.668	96.62
358.895	88.62
359.122	75.62
359.349	86.62
359.576	101.62
359.802	85.62
360.029	100.62
360.256	88.62
360.483	84.62
360.709	81.62
360.936	93.62
361.163	93.62
361.39	87.62
361.616	84.62
361.843	88.62
362.07	95.62
362.296	86.62
362.523	92.62
362.749	88.62
362.976	89.62
363.203	88.62
363.429	92.62
363.656	83.62
363.882	88.62
364.109	92.62
364.335	74.62
364.562	86.62
364.788	101.62
365.015	99.62
365.241	90.62
365.468	110.62
365.694	87.62
365.92	106.62
366.147	92.62
366.373	92.62
366.599	90.62
366.826	89.62
367.052	92.62
367.278	93.62
367.505	73.62
367.731	85.62
367.957	95.62
368.184	98.62
368.41	87.62
368.636	96.62
368.862	115.62
369.089	99.62
369.315	87.62
369.541	88.62
369.767	85.62
369.993	84.62
370.219	82.62
370.445	89.62
370.672	91.62
370.898	90.62
371.124	72.62
371.35	83.62
371.576	90.62
371.802	74.62
372.028	85.62
372.254	101.62
372.48	87.62
372.706	87.62
372.932	75.62
373.158	73.62
373.384	97.62
373.61	86.62
373.835	88.62
374.061	80.62
374.287	79.62
374.513	77.62
374.739	72.62
374.965	88.62
375.191	88.62
375.416	85.62
375.642	82.62
375.868	85.62
376.094	96.62
376.319	88.62
376.545	70.62
376.771	85.62
376.997	84.62
377.222	93.62
377.448	93.62
377.674	84.62
377.899	77.62
378.125	89.62
378.35	84.62
378.576	96.62
378.802	102.62
379.027	93.62
379.253	93.62
379.478	82.62
379.704	85.62
379.929	75.62
380.155	85.62
380.38	94.62
380.606	87.62
380.831	81.62
381.057	86.62
381.282	90.62
381.507	90.62
381.733	115.62
381.958	72.62
382.184	89.62
382.409	90.62
382.634	83.62
382.86	107.62
383.085	90.62
383.31	94.62
383.535	77.62
383.761	98.62
383.986	82.62
384.211	94.62
384.436	102.62
384.662	96.62
384.887	88.62
385.112	81.62
385.337	89.62
385.562	97.62
385.787	100.62
386.013	89.62
386.238	110.62
386.463	94.62
386.688	104.62
386.913	91.62
387.138	98.62
387.363	93.62
387.588	110.62
387.813	102.62
388.038	101.62
388.263	106.62
388.488	91.62
388.713	90.62
388.938	91.62
389.163	97.62
389.387	108.62
389.612	90.62
389.837	92.62
390.062	110.62
390.287	96.62
390.512	96.62
390.736	94.62
390.961	77.62
391.186	93.62
391.411	89.62
391.636	64.62
391.86	96.62
392.085	88.62
392.31	79.62
392.534	84.62
392.759	83.62
392.984	78.62
393.208	94.62
393.433	75.62
393.658	96.62
393.882	83.62
394.107	78.62
394.331	90.62
394.556	78.62
394.78	82.62
395.005	90.62
395.229	82.62
395.454	92.62
395.678	86.62
395.903	72.62
396.127	85.62
396.352	82.62
396.576	83.62
396.801	86.62
397.025	78.62
397.249	84.62
397.474	77.62
397.698	87.62
397.922	92.62
398.147	97.62
398.371	86.62
398.595	77.62
398.82	83.62
399.044	92.62
399.268	94.62
399.492	91.62
399.717	90.62
399.941	84.62
400.165	94.62
400.389	93.62
400.613	76.62
400.837	72.62
401.062	77.62
401.286	95.62
401.51	81.62
401.734	90.62
401.958	97.62
402.182	104.62
402.406	145.62
402.63	112.62
402.854	84.62
403.078	84.62
403.302	76.62
403.526	84.62
403.75	80.62
403.974	95.62
404.198	90.62
404.422	74.62
404.645	86.62
404.869	78.62
405.093	90.62
405.317	94.62
405.541	103.62
405.765	95.62
405.988	100.62
406.212	151.62
406.436	196.62
406.66	121.62
406.883	96.62
407.107	92.62
407.331	89.62
407.555	80.62
407.778	99.62
408.002	75.62
408.226	72.62
408.449	84.62
408.673	69.62
408.896	84.62
409.12	85.62
409.344	93.62
409.567	90.62
409.791	99.62
410.014	86.62
410.238	81.62
410.461	82.62
410.685	89.62
410.908	78.62
411.132	86.62
411.355	91.62
411.578	83.62
411.802	82.62
412.025	80.62
412.249	98.62
412.472	92.62
412.695	94.62
412.919	83.62
413.142	80.62
413.365	100.62
413.589	94.62
413.812	106.62
414.035	86.62
414.258	89.62
414.482	98.62
414.705	89.62
414.928	89.62
415.151	83.62
415.374	93.62
415.597	92.62
415.821	99.62
416.044	72.62
416.267	82.62
416.49	85.62
416.713	101.62
416.936	78.62
417.159	76.62
417.382	84.62
417.605	88.62
417.828	90.62
418.051	98.62
418.274	90.62
418.497	81.62
418.72	72.62
418.943	91.62
419.166	76.62
419.389	93.62
419.611	88.62
419.834	82.62
420.057	89.62
420.28	84.62
420.503	93.62
420.726	85.62
420.948	86.62
421.171	92.62
421.394	95.62
421.617	99.62
421.839	83.62
422.062	79.62
422.285	86.62
422.507	69.62
422.73	83.62
422.953	88.62
423.175	94.62
423.398	95.62
423.621	70.62
423.843	84.62
424.066	86.62
424.288	89.62
424.511	91.62
424.733	84.62
424.956	83.62
425.178	89.62
425.401	86.62
425.623	97.62
425.846	96.62
426.068	82.62
426.291	85.62
426.513	85.62
426.735	72.62
426.958	94.62
427.18	92.62
427.402	107.62
427.625	123.62
427.847	132.62
428.069	118.62
428.292	90.62
428.514	83.62
428.736	89.62
428.958	83.62
429.181	80.62
429.403	89.62
429.625	81.62
429.847	91.62
430.069	83.62
430.292	90.62
430.514	87.62
430.736	98.62
430.958	96.62
431.18	84.62
431.402	81.62
431.624	83.62
431.846	76.62
432.068	78.62
432.29	84.62
432.512	75.62
432.734	78.62
432.956	80.62
433.178	82.62
433.4	89.62
433.622	93.62
433.844	76.62
434.066	82.62
434.287	82.62
434.509	73.62
434.731	89.62
434.953	76.62
435.175	81.62
435.397	89.62
435.618	85.62
435.84	84.62
436.062	103.62
436.284	86.62
436.505	111.62
436.727	88.62
436.949	84.62
437.17	95.62
437.392	81.62
437.614	84.62
437.835	96.62
438.057	103.62
438.278	98.62
438.5	102.62
438.721	102.62
438.943	88.62
439.165	74.62
439.386	93.62
439.608	90.62
439.829	91.62
440.05	110.62
440.272	118.62
440.493	84.62
440.715	82.62
440.936	91.62
441.158	90.62
441.379	85.62
441.6	84.62
441.822	82.62
442.043	84.62
442.264	90.62
442.486	99.62
442.707	90.62
442.928	106.62
443.149	104.62
443.371	116.62
443.592	93.62
443.813	91.62
444.034	101.62
444.255	99.62
444.476	92.62
444.698	90.62
444.919	98.62
445.14	103.62
445.361	125.62
445.582	100.62
445.803	116.62
446.024	106.62
446.245	114.62
446.466	91.62
446.687	92.62
446.908	86.62
447.129	81.62
447.35	76.62
447.571	89.62
447.792	90.62
448.013	82.62
448.234	87.62
448.455	81.62
448.675	91.62
448.896	98.62
449.117	98.62
449.338	88.62
449.559	97.62
449.779	106.62
450	85.62
450.221	89.62
450.442	86.62
450.662	79.62
450.883	88.62
451.104	97.62
451.324	96.62
451.545	86.62
451.766	70.62
451.986	89.62
452.207	86.62
452.428	91.62
452.648	90.62
452.869	98.62
453.089	93.62
453.31	101.62
453.53	66.62
453.751	88.62
453.971	95.62
454.192	93.62
454.412	92.62
454.633	93.62
454.853	66.62
455.073	86.62
455.294	83.62
455.514	88.62
455.734	88.62
455.955	85.62
456.175	93.62
456.395	83.62
456.616	78.62
456.836	83.62
457.056	93.62
457.276	81.62
457.497	78.62
457.717	86.62
457.937	81.62
458.157	73.62
458.377	80.62
458.598	102.62
458.818	126.62
459.038	139.62
459.258	102.62
459.478	77.62
459.698	75.62
459.918	88.62
460.138	89.62
460.358	88.62
460.578	89.62
460.798	69.62
461.018	86.62
461.238	66.62
461.458	65.62
461.678	84.62
461.898	75.62
462.118	87.62
462.338	91.62
462.558	85.62
462.777	81.62
462.997	85.62
463.217	76.62
463.437	75.62
463.657	88.62
463.876	84.62
464.096	87.62
464.316	76.62
464.536	94.62
464.755	77.62
464.975	95.62
465.195	131.62
465.414	116.62
465.634	91.62
465.854	68.62
466.073	90.62
466.293	80.62
466.512	79.62
466.732	76.62
466.951	97.62
467.171	98.62
467.391	85.62
467.61	75.62
467.829	84.62
468.049	112.62
468.268	126.62
468.488	83.62
468.707	74.62
468.927	84.62
469.146	76.62
469.365	87.62
469.585	76.62
469.804	93.62
470.023	81.62
470.243	80.62
470.462	88.62
470.681	109.62
470.901	91.62
471.12	89.62
471.339	95.62
471.558	82.62
471.777	96.62
471.997	95.62
472.216	160.62
472.435	233.62
472.654	104.62
472.873	84.62
473.092	84.62
473.311	82.62
473.53	84.62
473.749	86.62
473.968	77.62
474.187	86.62
474.406	67.62
474.625	74.62
474.844	80.62
475.063	101.62
475.282	84.62
475.501	77.62
475.72	68.62
475.939	82.62
476.158	87.62
476.377	80.62
476.596	86.62
476.814	90.62
477.033	92.62
477.252	80.62
477.471	77.62
477.69	85.62
477.908	85.62
478.127	90.62
478.346	88.62
478.564	77.62
478.783	93.62
479.002	92.62
479.22	88.62
479.439	95.62
479.658	98.62
479.876	77.62
480.095	82.62
480.313	102.62
480.532	84.62
480.751	117.62
480.969	167.62
481.188	398.62
481.406	252.62
481.624	96.62
481.843	98.62
482.061	83.62
482.28	73.62
482.498	77.62
482.717	90.62
482.935	96.62
483.153	77.62
483.372	97.62
483.59	84.62
483.808	91.62
484.027	78.62
484.245	106.62
484.463	72.62
484.681	107.62
484.9	94.62
485.118	88.62
485.336	97.62
485.554	89.62
485.772	99.62
485.99	102.62
486.209	100.62
486.427	99.62
486.645	93.62
486.863	97.62
487.081	91.62
487.299	89.62
487.517	88.62
487.735	88.62
487.953	91.62
488.171	101.62
488.389	79.62
488.607	75.62
488.825	90.62
489.043	88.62
489.261	82.62
489.479	99.62
489.696	78.62
489.914	84.62
490.132	93.62
490.35	89.62
490.568	88.62
490.786	88.62
491.003	96.62
491.221	91.62
491.439	95.62
491.657	78.62
491.874	96.62
492.092	80.62
492.31	88.62
492.527	105.62
492.745	96.62
492.963	86.62
493.18	84.62
493.398	87.62
493.615	77.62
493.833	91.62
494.05	92.62
494.268	99.62
494.485	82.62
494.703	91.62
494.92	89.62
495.138	91.62
495.355	73.62
495.573	85.62
495.79	79.62
496.008	81.62
496.225	89.62
496.442	85.62
496.66	88.62
496.877	76.62
497.094	85.62
497.312	77.62
497.529	74.62
497.746	90.62
497.963	72.62
498.181	92.62
498.398	84.62
498.615	108.62
498.832	113.62
499.049	98.62
499.267	95.62
499.484	91.62
499.701	80.62
499.918	78.62
500.135	93.62
500.352	82.62
500.569	89.62
500.786	95.62
501.003	92.62
501.22	75.62
501.437	92.62
501.654	88.62
501.871	100.62
502.088	84.62
502.305	83.62
502.522	87.62
502.739	81.62
502.956	84.62
503.172	77.62
503.389	91.62
503.606	81.62
503.823	98.62
504.04	93.62
504.256	70.62
504.473	85.62
504.69	82.62
504.907	80.62
505.123	89.62
505.34	83.62
505.557	76.62
505.773	78.62
505.99	87.62
506.207	98.62
506.423	61.62
506.64	84.62
506.856	82.62
507.073	82.62
507.289	94.62
507.506	98.62
507.722	90.62
507.939	96.62
508.155	84.62
508.372	96.62
508.588	99.62
508.805	89.62
509.021	101.62
509.238	98.62
509.454	93.62
509.67	83.62
509.887	115.62
510.103	119.62
510.319	178.62
510.536	607.62
510.752	1806.62
510.968	502.62
511.184	137.62
511.401	85.62
511.617	94.62
511.833	91.62
512.049	94.62
512.265	83.62
512.481	88.62
512.698	90.62
512.914	97.62
513.13	84.62
513.346	83.62
513.562	95.62
513.778	90.62
513.994	90.62
514.21	100.62
514.426	103.62
514.642	110.62
514.858	98.62
515.074	148.62
515.29	357.62
515.506	1120.62
515.721	426.62
515.937	124.62
516.153	97.62
516.369	90.62
516.585	82.62
516.801	74.62
517.016	84.62
517.232	89.62
517.448	88.62
