Data from Uncirc_1989_H10_HRD10591_00091.txt Node
Date: Wed Jan 03 11:57:53 EST 2024
User: Yrep
Spectrometer: HR+D1059
Trigger mode: 1
Integration Time (sec): 1.000000E-1
Scans to average: 1
Electric dark correction enabled: true
Nonlinearity correction enabled: false
Boxcar width: 0
XAxis mode: Wavelengths
Number of Pixels in Spectrum: 2048
>>>>>Begin Spectral Data<<<<<
223.165	-7.31
223.4	-7.31
223.635	-7.31
223.869	-12.31
224.104	-15.31
224.338	-7.31
224.573	-11.31
224.808	-10.31
225.042	-13.31
225.277	-20.31
225.511	3.69
225.746	5.69
225.98	8.69
226.215	10.69
226.449	14.69
226.683	13.69
226.918	17.69
227.152	22.69
227.387	30.69
227.621	35.69
227.856	42.69
228.09	51.69
228.324	46.69
228.559	67.69
228.793	68.69
229.027	74.69
229.262	73.69
229.496	64.69
229.73	87.69
229.964	86.69
230.199	59.69
230.433	58.69
230.667	83.69
230.901	74.69
231.136	90.69
231.37	90.69
231.604	77.69
231.838	72.69
232.072	82.69
232.306	74.69
232.541	72.69
232.775	69.69
233.009	82.69
233.243	91.69
233.477	74.69
233.711	76.69
233.945	89.69
234.179	84.69
234.413	84.69
234.647	74.69
234.881	88.69
235.115	90.69
235.349	74.69
235.583	66.69
235.817	84.69
236.051	72.69
236.285	82.69
236.519	83.69
236.753	81.69
236.987	78.69
237.221	81.69
237.455	82.69
237.689	84.69
237.922	63.69
238.156	80.69
238.39	88.69
238.624	79.69
238.858	94.69
239.091	82.69
239.325	62.69
239.559	79.69
239.793	80.69
240.027	70.69
240.26	69.69
240.494	88.69
240.728	85.69
240.961	75.69
241.195	94.69
241.429	86.69
241.662	73.69
241.896	82.69
242.13	73.69
242.363	68.69
242.597	74.69
242.83	73.69
243.064	67.69
243.298	85.69
243.531	88.69
243.765	68.69
243.998	86.69
244.232	76.69
244.465	84.69
244.699	87.69
244.932	94.69
245.166	90.69
245.399	79.69
245.633	88.69
245.866	79.69
246.099	84.69
246.333	75.69
246.566	78.69
246.8	83.69
247.033	74.69
247.266	87.69
247.5	74.69
247.733	75.69
247.966	90.69
248.2	75.69
248.433	89.69
248.666	97.69
248.899	103.69
249.133	91.69
249.366	107.69
249.599	86.69
249.832	82.69
250.066	87.69
250.299	81.69
250.532	85.69
250.765	89.69
250.998	71.69
251.231	86.69
251.465	74.69
251.698	82.69
251.931	74.69
252.164	90.69
252.397	65.69
252.63	75.69
252.863	83.69
253.096	88.69
253.329	73.69
253.562	85.69
253.795	78.69
254.028	85.69
254.261	78.69
254.494	85.69
254.727	92.69
254.96	84.69
255.193	79.69
255.426	90.69
255.659	80.69
255.892	93.69
256.124	90.69
256.357	85.69
256.59	80.69
256.823	97.69
257.056	93.69
257.289	83.69
257.521	88.69
257.754	81.69
257.987	73.69
258.22	97.69
258.452	84.69
258.685	84.69
258.918	88.69
259.151	82.69
259.383	80.69
259.616	92.69
259.849	76.69
260.081	84.69
260.314	68.69
260.547	85.69
260.779	84.69
261.012	86.69
261.244	104.69
261.477	84.69
261.71	74.69
261.942	123.69
262.175	104.69
262.407	97.69
262.64	90.69
262.872	81.69
263.105	95.69
263.337	99.69
263.57	75.69
263.802	90.69
264.035	95.69
264.267	90.69
264.499	87.69
264.732	75.69
264.964	79.69
265.197	74.69
265.429	90.69
265.661	82.69
265.894	83.69
266.126	99.69
266.358	94.69
266.591	78.69
266.823	74.69
267.055	91.69
267.287	94.69
267.52	87.69
267.752	90.69
267.984	74.69
268.216	93.69
268.448	79.69
268.681	84.69
268.913	85.69
269.145	80.69
269.377	69.69
269.609	82.69
269.841	94.69
270.073	92.69
270.306	88.69
270.538	73.69
270.77	87.69
271.002	92.69
271.234	91.69
271.466	85.69
271.698	84.69
271.93	82.69
272.162	98.69
272.394	95.69
272.626	75.69
272.858	103.69
273.09	82.69
273.322	90.69
273.553	83.69
273.785	89.69
274.017	105.69
274.249	84.69
274.481	89.69
274.713	92.69
274.945	78.69
275.176	98.69
275.408	92.69
275.64	83.69
275.872	85.69
276.104	90.69
276.335	85.69
276.567	85.69
276.799	98.69
277.031	106.69
277.262	96.69
277.494	97.69
277.726	87.69
277.957	81.69
278.189	77.69
278.421	99.69
278.652	84.69
278.884	78.69
279.115	83.69
279.347	93.69
279.579	108.69
279.81	95.69
280.042	81.69
280.273	99.69
280.505	94.69
280.736	72.69
280.968	82.69
281.199	86.69
281.431	84.69
281.662	95.69
281.894	84.69
282.125	99.69
282.356	101.69
282.588	115.69
282.819	96.69
283.051	91.69
283.282	88.69
283.513	84.69
283.745	89.69
283.976	99.69
284.207	98.69
284.439	99.69
284.67	98.69
284.901	97.69
285.132	93.69
285.364	96.69
285.595	102.69
285.826	91.69
286.057	86.69
286.288	81.69
286.52	83.69
286.751	84.69
286.982	93.69
287.213	78.69
287.444	80.69
287.675	77.69
287.906	92.69
288.138	92.69
288.369	101.69
288.6	95.69
288.831	86.69
289.062	96.69
289.293	83.69
289.524	82.69
289.755	87.69
289.986	87.69
290.217	82.69
290.448	91.69
290.679	86.69
290.91	89.69
291.141	101.69
291.371	100.69
291.602	90.69
291.833	94.69
292.064	90.69
292.295	87.69
292.526	88.69
292.757	100.69
292.987	87.69
293.218	85.69
293.449	90.69
293.68	84.69
293.91	91.69
294.141	105.69
294.372	97.69
294.603	98.69
294.833	91.69
295.064	111.69
295.295	95.69
295.525	103.69
295.756	105.69
295.987	111.69
296.217	123.69
296.448	100.69
296.679	98.69
296.909	111.69
297.14	107.69
297.37	86.69
297.601	93.69
297.831	85.69
298.062	75.69
298.292	80.69
298.523	83.69
298.753	85.69
298.984	90.69
299.214	84.69
299.445	90.69
299.675	97.69
299.905	103.69
300.136	91.69
300.366	84.69
300.597	90.69
300.827	83.69
301.057	90.69
301.288	95.69
301.518	81.69
301.748	92.69
301.979	102.69
302.209	87.69
302.439	76.69
302.669	108.69
302.9	99.69
303.13	89.69
303.36	103.69
303.59	99.69
303.82	113.69
304.051	87.69
304.281	88.69
304.511	90.69
304.741	104.69
304.971	84.69
305.201	74.69
305.431	71.69
305.661	85.69
305.891	84.69
306.121	96.69
306.352	101.69
306.582	82.69
306.812	96.69
307.042	101.69
307.272	101.69
307.502	110.69
307.731	106.69
307.961	103.69
308.191	98.69
308.421	94.69
308.651	91.69
308.881	86.69
309.111	88.69
309.341	103.69
309.571	98.69
309.8	99.69
310.03	88.69
310.26	94.69
310.49	94.69
310.72	99.69
310.949	92.69
311.179	92.69
311.409	88.69
311.639	101.69
311.868	98.69
312.098	97.69
312.328	99.69
312.557	95.69
312.787	95.69
313.017	100.69
313.246	93.69
313.476	107.69
313.706	87.69
313.935	100.69
314.165	81.69
314.394	108.69
314.624	98.69
314.853	89.69
315.083	78.69
315.312	105.69
315.542	104.69
315.771	94.69
316.001	90.69
316.23	106.69
316.46	94.69
316.689	82.69
316.919	76.69
317.148	89.69
317.377	94.69
317.607	90.69
317.836	100.69
318.065	98.69
318.295	98.69
318.524	87.69
318.753	90.69
318.983	93.69
319.212	98.69
319.441	98.69
319.67	105.69
319.9	92.69
320.129	87.69
320.358	89.69
320.587	104.69
320.816	85.69
321.046	91.69
321.275	107.69
321.504	85.69
321.733	99.69
321.962	109.69
322.191	90.69
322.42	91.69
322.649	105.69
322.878	103.69
323.108	104.69
323.337	118.69
323.566	136.69
323.795	138.69
324.024	178.69
324.253	324.69
324.482	704.69
324.71	1398.69
324.939	1870.69
325.168	648.69
325.397	216.69
325.626	129.69
325.855	116.69
326.084	110.69
326.313	131.69
326.542	156.69
326.77	211.69
326.999	402.69
327.228	817.69
327.457	1428.69
327.686	1145.69
327.914	314.69
328.143	203.69
328.372	192.69
328.6	141.69
328.829	107.69
329.058	105.69
329.287	122.69
329.515	114.69
329.744	118.69
329.972	123.69
330.201	200.69
330.43	237.69
330.658	162.69
330.887	128.69
331.115	112.69
331.344	99.69
331.572	104.69
331.801	105.69
332.03	111.69
332.258	101.69
332.486	98.69
332.715	99.69
332.943	108.69
333.172	107.69
333.4	112.69
333.629	114.69
333.857	104.69
334.085	140.69
334.314	199.69
334.542	278.69
334.771	273.69
334.999	127.69
335.227	117.69
335.455	98.69
335.684	100.69
335.912	98.69
336.14	102.69
336.369	85.69
336.597	97.69
336.825	106.69
337.053	107.69
337.281	100.69
337.51	95.69
337.738	106.69
337.966	96.69
338.194	95.69
338.422	103.69
338.65	90.69
338.878	87.69
339.106	82.69
339.334	96.69
339.562	84.69
339.79	107.69
340.018	99.69
340.246	79.69
340.474	78.69
340.702	92.69
340.93	97.69
341.158	94.69
341.386	97.69
341.614	97.69
341.842	100.69
342.07	81.69
342.298	94.69
342.526	97.69
342.754	100.69
342.981	93.69
343.209	76.69
343.437	95.69
343.665	97.69
343.893	99.69
344.12	96.69
344.348	106.69
344.576	82.69
344.804	94.69
345.031	96.69
345.259	102.69
345.487	102.69
345.714	104.69
345.942	90.69
346.17	100.69
346.397	97.69
346.625	94.69
346.853	102.69
347.08	97.69
347.308	100.69
347.535	105.69
347.763	103.69
347.99	94.69
348.218	100.69
348.445	108.69
348.673	97.69
348.9	90.69
349.128	91.69
349.355	89.69
349.583	98.69
349.81	97.69
350.037	95.69
350.265	98.69
350.492	110.69
350.72	88.69
350.947	98.69
351.174	109.69
351.402	88.69
351.629	95.69
351.856	104.69
352.083	90.69
352.311	107.69
352.538	110.69
352.765	100.69
352.992	90.69
353.22	92.69
353.447	97.69
353.674	103.69
353.901	88.69
354.128	99.69
354.355	95.69
354.583	105.69
354.81	94.69
355.037	88.69
355.264	104.69
355.491	90.69
355.718	82.69
355.945	80.69
356.172	91.69
356.399	112.69
356.626	93.69
356.853	99.69
357.08	88.69
357.307	92.69
357.534	96.69
357.761	95.69
357.988	105.69
358.215	107.69
358.441	84.69
358.668	77.69
358.895	88.69
359.122	77.69
359.349	96.69
359.576	102.69
359.802	83.69
360.029	107.69
360.256	89.69
360.483	89.69
360.709	90.69
360.936	88.69
361.163	85.69
361.39	91.69
361.616	80.69
361.843	90.69
362.07	105.69
362.296	99.69
362.523	103.69
362.749	84.69
362.976	96.69
363.203	89.69
363.429	91.69
363.656	91.69
363.882	92.69
364.109	95.69
364.335	98.69
364.562	88.69
364.788	91.69
365.015	107.69
365.241	97.69
365.468	100.69
365.694	103.69
365.92	92.69
366.147	94.69
366.373	84.69
366.599	90.69
366.826	90.69
367.052	90.69
367.278	90.69
367.505	99.69
367.731	106.69
367.957	101.69
368.184	87.69
368.41	95.69
368.636	106.69
368.862	112.69
369.089	126.69
369.315	105.69
369.541	90.69
369.767	115.69
369.993	94.69
370.219	108.69
370.445	93.69
370.672	84.69
370.898	87.69
371.124	90.69
371.35	88.69
371.576	74.69
371.802	86.69
372.028	84.69
372.254	72.69
372.48	85.69
372.706	105.69
372.932	86.69
373.158	90.69
373.384	93.69
373.61	82.69
373.835	105.69
374.061	96.69
374.287	91.69
374.513	95.69
374.739	83.69
374.965	92.69
375.191	99.69
375.416	85.69
375.642	90.69
375.868	89.69
376.094	91.69
376.319	85.69
376.545	90.69
376.771	80.69
376.997	84.69
377.222	99.69
377.448	91.69
377.674	98.69
377.899	102.69
378.125	93.69
378.35	91.69
378.576	86.69
378.802	97.69
379.027	97.69
379.253	94.69
379.478	88.69
379.704	94.69
379.929	86.69
380.155	106.69
380.38	86.69
380.606	92.69
380.831	111.69
381.057	95.69
381.282	93.69
381.507	96.69
381.733	107.69
381.958	82.69
382.184	99.69
382.409	100.69
382.634	106.69
382.86	97.69
383.085	105.69
383.31	100.69
383.535	102.69
383.761	89.69
383.986	100.69
384.211	105.69
384.436	96.69
384.662	96.69
384.887	102.69
385.112	98.69
385.337	105.69
385.562	111.69
385.787	100.69
386.013	114.69
386.238	96.69
386.463	118.69
386.688	111.69
386.913	114.69
387.138	103.69
387.363	105.69
387.588	105.69
387.813	98.69
388.038	97.69
388.263	107.69
388.488	104.69
388.713	98.69
388.938	90.69
389.163	78.69
389.387	101.69
389.612	103.69
389.837	89.69
390.062	83.69
390.287	94.69
390.512	87.69
390.736	86.69
390.961	98.69
391.186	106.69
391.411	105.69
391.636	79.69
391.86	90.69
392.085	89.69
392.31	86.69
392.534	78.69
392.759	81.69
392.984	84.69
393.208	91.69
393.433	99.69
393.658	101.69
393.882	95.69
394.107	92.69
394.331	94.69
394.556	91.69
394.78	83.69
395.005	81.69
395.229	100.69
395.454	96.69
395.678	87.69
395.903	85.69
396.127	100.69
396.352	84.69
396.576	80.69
396.801	95.69
397.025	88.69
397.249	92.69
397.474	93.69
397.698	88.69
397.922	90.69
398.147	89.69
398.371	87.69
398.595	94.69
398.82	92.69
399.044	96.69
399.268	88.69
399.492	85.69
399.717	99.69
399.941	96.69
400.165	103.69
400.389	105.69
400.613	96.69
400.837	68.69
401.062	91.69
401.286	86.69
401.51	88.69
401.734	82.69
401.958	100.69
402.182	128.69
402.406	132.69
402.63	106.69
402.854	87.69
403.078	86.69
403.302	97.69
403.526	102.69
403.75	94.69
403.974	85.69
404.198	97.69
404.422	79.69
404.645	97.69
404.869	96.69
405.093	85.69
405.317	100.69
405.541	108.69
405.765	109.69
405.988	110.69
406.212	142.69
406.436	168.69
406.66	127.69
406.883	88.69
407.107	101.69
407.331	95.69
407.555	96.69
407.778	92.69
408.002	78.69
408.226	78.69
408.449	82.69
408.673	86.69
408.896	94.69
409.12	88.69
409.344	91.69
409.567	94.69
409.791	96.69
410.014	102.69
410.238	93.69
410.461	88.69
410.685	97.69
410.908	91.69
411.132	108.69
411.355	109.69
411.578	108.69
411.802	97.69
412.025	99.69
412.249	93.69
412.472	88.69
412.695	106.69
412.919	103.69
413.142	91.69
413.365	87.69
413.589	94.69
413.812	86.69
414.035	91.69
414.258	94.69
414.482	96.69
414.705	102.69
414.928	96.69
415.151	97.69
415.374	98.69
415.597	87.69
415.821	95.69
416.044	98.69
416.267	92.69
416.49	78.69
416.713	96.69
416.936	79.69
417.159	79.69
417.382	81.69
417.605	91.69
417.828	80.69
418.051	89.69
418.274	114.69
418.497	92.69
418.72	94.69
418.943	80.69
419.166	97.69
419.389	91.69
419.611	94.69
419.834	88.69
420.057	84.69
420.28	96.69
420.503	90.69
420.726	83.69
420.948	76.69
421.171	84.69
421.394	98.69
421.617	100.69
421.839	89.69
422.062	79.69
422.285	99.69
422.507	102.69
422.73	84.69
422.953	100.69
423.175	87.69
423.398	102.69
423.621	98.69
423.843	89.69
424.066	82.69
424.288	92.69
424.511	96.69
424.733	95.69
424.956	100.69
425.178	98.69
425.401	96.69
425.623	96.69
425.846	84.69
426.068	91.69
426.291	89.69
426.513	92.69
426.735	87.69
426.958	92.69
427.18	106.69
427.402	129.69
427.625	139.69
427.847	136.69
428.069	135.69
428.292	91.69
428.514	95.69
428.736	87.69
428.958	94.69
429.181	94.69
429.403	100.69
429.625	105.69
429.847	83.69
430.069	95.69
430.292	80.69
430.514	78.69
430.736	68.69
430.958	90.69
431.18	79.69
431.402	92.69
431.624	97.69
431.846	97.69
432.068	88.69
432.29	77.69
432.512	96.69
432.734	100.69
432.956	95.69
433.178	97.69
433.4	98.69
433.622	100.69
433.844	95.69
434.066	87.69
434.287	82.69
434.509	89.69
434.731	93.69
434.953	91.69
435.175	89.69
435.397	87.69
435.618	84.69
435.84	130.69
436.062	109.69
436.284	106.69
436.505	102.69
436.727	90.69
436.949	98.69
437.17	95.69
437.392	89.69
437.614	95.69
437.835	82.69
438.057	109.69
438.278	97.69
438.5	105.69
438.721	112.69
438.943	98.69
439.165	86.69
439.386	90.69
439.608	92.69
439.829	105.69
440.05	122.69
440.272	131.69
440.493	101.69
440.715	91.69
440.936	88.69
441.158	82.69
441.379	99.69
441.6	82.69
441.822	86.69
442.043	81.69
442.264	96.69
442.486	102.69
442.707	107.69
442.928	106.69
443.149	134.69
443.371	116.69
443.592	102.69
443.813	97.69
444.034	110.69
444.255	91.69
444.476	97.69
444.698	89.69
444.919	102.69
445.14	125.69
445.361	126.69
445.582	103.69
445.803	114.69
446.024	120.69
446.245	120.69
446.466	132.69
446.687	98.69
446.908	92.69
447.129	90.69
447.35	81.69
447.571	94.69
447.792	96.69
448.013	84.69
448.234	106.69
448.455	104.69
448.675	105.69
448.896	101.69
449.117	104.69
449.338	100.69
449.559	103.69
449.779	115.69
450	91.69
450.221	104.69
450.442	90.69
450.662	93.69
450.883	103.69
451.104	86.69
451.324	94.69
451.545	84.69
451.766	83.69
451.986	89.69
452.207	82.69
452.428	69.69
452.648	102.69
452.869	100.69
453.089	104.69
453.31	107.69
453.53	108.69
453.751	100.69
453.971	72.69
454.192	110.69
454.412	82.69
454.633	87.69
454.853	85.69
455.073	81.69
455.294	94.69
455.514	91.69
455.734	82.69
455.955	94.69
456.175	82.69
456.395	76.69
456.616	89.69
456.836	98.69
457.056	71.69
457.276	71.69
457.497	81.69
457.717	86.69
457.937	80.69
458.157	98.69
458.377	84.69
458.598	89.69
458.818	139.69
459.038	130.69
459.258	102.69
459.478	86.69
459.698	97.69
459.918	96.69
460.138	91.69
460.358	92.69
460.578	91.69
460.798	98.69
461.018	100.69
461.238	86.69
461.458	70.69
461.678	87.69
461.898	98.69
462.118	94.69
462.338	103.69
462.558	94.69
462.777	87.69
462.997	93.69
463.217	93.69
463.437	95.69
463.657	82.69
463.876	88.69
464.096	92.69
464.316	97.69
464.536	79.69
464.755	101.69
464.975	108.69
465.195	126.69
465.414	130.69
465.634	81.69
465.854	98.69
466.073	93.69
466.293	87.69
466.512	89.69
466.732	97.69
466.951	92.69
467.171	82.69
467.391	84.69
467.61	95.69
467.829	102.69
468.049	132.69
468.268	177.69
468.488	99.69
468.707	90.69
468.927	70.69
469.146	89.69
469.365	88.69
469.585	90.69
469.804	90.69
470.023	85.69
470.243	84.69
470.462	87.69
470.681	98.69
470.901	80.69
471.12	81.69
471.339	97.69
471.558	81.69
471.777	102.69
471.997	110.69
472.216	222.69
472.435	364.69
472.654	141.69
472.873	94.69
473.092	82.69
473.311	87.69
473.53	95.69
473.749	99.69
473.968	100.69
474.187	105.69
474.406	102.69
474.625	86.69
474.844	71.69
475.063	82.69
475.282	78.69
475.501	88.69
475.72	98.69
475.939	95.69
476.158	83.69
476.377	90.69
476.596	96.69
476.814	82.69
477.033	93.69
477.252	98.69
477.471	99.69
477.69	83.69
477.908	73.69
478.127	92.69
478.346	94.69
478.564	78.69
478.783	96.69
479.002	94.69
479.22	100.69
479.439	94.69
479.658	99.69
479.876	102.69
480.095	101.69
480.313	103.69
480.532	110.69
480.751	126.69
480.969	230.69
481.188	681.69
481.406	411.69
481.624	118.69
481.843	99.69
482.061	92.69
482.28	91.69
482.498	95.69
482.717	100.69
482.935	90.69
483.153	97.69
483.372	92.69
483.59	97.69
483.808	83.69
484.027	91.69
484.245	71.69
484.463	98.69
484.681	98.69
484.9	94.69
485.118	99.69
485.336	80.69
485.554	100.69
485.772	99.69
485.99	100.69
486.209	100.69
486.427	90.69
486.645	99.69
486.863	96.69
487.081	91.69
487.299	98.69
487.517	106.69
487.735	95.69
487.953	89.69
488.171	98.69
488.389	89.69
488.607	117.69
488.825	78.69
489.043	88.69
489.261	104.69
489.479	83.69
489.696	98.69
489.914	91.69
490.132	96.69
490.35	81.69
490.568	83.69
490.786	82.69
491.003	87.69
491.221	82.69
491.439	79.69
491.657	94.69
491.874	96.69
492.092	99.69
492.31	99.69
492.527	101.69
492.745	94.69
492.963	87.69
493.18	93.69
493.398	106.69
493.615	96.69
493.833	95.69
494.05	98.69
494.268	93.69
494.485	88.69
494.703	98.69
494.92	97.69
495.138	82.69
495.355	77.69
495.573	92.69
495.79	80.69
496.008	113.69
496.225	94.69
496.442	91.69
496.66	104.69
496.877	83.69
497.094	100.69
497.312	80.69
497.529	80.69
497.746	89.69
497.963	105.69
498.181	87.69
498.398	106.69
498.615	118.69
498.832	111.69
499.049	91.69
499.267	103.69
499.484	103.69
499.701	84.69
499.918	78.69
500.135	78.69
500.352	90.69
500.569	91.69
500.786	91.69
501.003	92.69
501.22	90.69
501.437	84.69
501.654	92.69
501.871	95.69
502.088	84.69
502.305	91.69
502.522	95.69
502.739	84.69
502.956	82.69
503.172	78.69
503.389	92.69
503.606	122.69
503.823	108.69
504.04	71.69
504.256	82.69
504.473	89.69
504.69	88.69
504.907	91.69
505.123	107.69
505.34	91.69
505.557	89.69
505.773	81.69
505.99	89.69
506.207	105.69
506.423	91.69
506.64	103.69
506.856	96.69
507.073	91.69
507.289	100.69
507.506	98.69
507.722	111.69
507.939	108.69
508.155	85.69
508.372	87.69
508.588	89.69
508.805	91.69
509.021	84.69
509.238	96.69
509.454	98.69
509.67	89.69
509.887	106.69
510.103	114.69
510.319	172.69
510.536	587.69
510.752	1667.69
510.968	469.69
511.184	140.69
511.401	112.69
511.617	88.69
511.833	103.69
512.049	88.69
512.265	91.69
512.481	100.69
512.698	85.69
512.914	107.69
513.13	91.69
513.346	91.69
513.562	106.69
513.778	96.69
513.994	106.69
514.21	106.69
514.426	108.69
514.642	118.69
514.858	125.69
515.074	143.69
515.29	343.69
