Data from Uncirc_1989_H10_HRD10591_00006.txt Node
Date: Wed Jan 03 11:57:36 EST 2024
User: Yrep
Spectrometer: HR+D1059
Trigger mode: 1
Integration Time (sec): 1.000000E-1
Scans to average: 1
Electric dark correction enabled: true
Nonlinearity correction enabled: false
Boxcar width: 0
XAxis mode: Wavelengths
Number of Pixels in Spectrum: 2048
>>>>>Begin Spectral Data<<<<<
223.165	-13.69
223.4	-13.69
223.635	-13.69
223.869	-11.69
224.104	-28.69
224.338	-21.69
224.573	-19.69
224.808	-11.69
225.042	-21.69
225.277	5.31
225.511	-1.69
225.746	-2.69
225.98	14.31
226.215	17.31
226.449	21.31
226.683	27.31
226.918	16.31
227.152	31.31
227.387	38.31
227.621	30.31
227.856	47.31
228.09	45.31
228.324	42.31
228.559	65.31
228.793	46.31
229.027	69.31
229.262	65.31
229.496	62.31
229.73	91.31
229.964	75.31
230.199	72.31
230.433	67.31
230.667	89.31
230.901	92.31
231.136	79.31
231.37	79.31
231.604	73.31
231.838	79.31
232.072	91.31
232.306	80.31
232.541	71.31
232.775	79.31
233.009	83.31
233.243	94.31
233.477	89.31
233.711	86.31
233.945	98.31
234.179	79.31
234.413	92.31
234.647	80.31
234.881	73.31
235.115	94.31
235.349	94.31
235.583	77.31
235.817	63.31
236.051	73.31
236.285	67.31
236.519	68.31
236.753	88.31
236.987	71.31
237.221	68.31
237.455	78.31
237.689	79.31
237.922	69.31
238.156	83.31
238.39	82.31
238.624	68.31
238.858	88.31
239.091	77.31
239.325	78.31
239.559	80.31
239.793	76.31
240.027	89.31
240.26	71.31
240.494	89.31
240.728	76.31
240.961	75.31
241.195	72.31
241.429	79.31
241.662	79.31
241.896	72.31
242.13	75.31
242.363	70.31
242.597	78.31
242.83	87.31
243.064	87.31
243.298	88.31
243.531	82.31
243.765	77.31
243.998	86.31
244.232	75.31
244.465	92.31
244.699	87.31
244.932	92.31
245.166	75.31
245.399	79.31
245.633	70.31
245.866	67.31
246.099	76.31
246.333	75.31
246.566	72.31
246.8	71.31
247.033	60.31
247.266	69.31
247.5	62.31
247.733	87.31
247.966	68.31
248.2	85.31
248.433	71.31
248.666	69.31
248.899	88.31
249.133	80.31
249.366	82.31
249.599	81.31
249.832	92.31
250.066	73.31
250.299	93.31
250.532	80.31
250.765	68.31
250.998	80.31
251.231	82.31
251.465	80.31
251.698	97.31
251.931	85.31
252.164	83.31
252.397	88.31
252.63	70.31
252.863	72.31
253.096	91.31
253.329	73.31
253.562	91.31
253.795	76.31
254.028	68.31
254.261	87.31
254.494	86.31
254.727	87.31
254.96	84.31
255.193	87.31
255.426	85.31
255.659	62.31
255.892	86.31
256.124	83.31
256.357	93.31
256.59	82.31
256.823	65.31
257.056	83.31
257.289	68.31
257.521	73.31
257.754	87.31
257.987	82.31
258.22	63.31
258.452	71.31
258.685	91.31
258.918	93.31
259.151	85.31
259.383	87.31
259.616	78.31
259.849	73.31
260.081	79.31
260.314	86.31
260.547	73.31
260.779	91.31
261.012	77.31
261.244	80.31
261.477	71.31
261.71	97.31
261.942	104.31
262.175	99.31
262.407	77.31
262.64	82.31
262.872	76.31
263.105	84.31
263.337	84.31
263.57	79.31
263.802	81.31
264.035	77.31
264.267	66.31
264.499	85.31
264.732	76.31
264.964	87.31
265.197	71.31
265.429	77.31
265.661	79.31
265.894	87.31
266.126	87.31
266.358	88.31
266.591	78.31
266.823	76.31
267.055	68.31
267.287	87.31
267.52	94.31
267.752	75.31
267.984	75.31
268.216	75.31
268.448	80.31
268.681	80.31
268.913	77.31
269.145	84.31
269.377	91.31
269.609	77.31
269.841	79.31
270.073	92.31
270.306	89.31
270.538	79.31
270.77	84.31
271.002	93.31
271.234	87.31
271.466	81.31
271.698	83.31
271.93	88.31
272.162	86.31
272.394	77.31
272.626	88.31
272.858	104.31
273.09	94.31
273.322	71.31
273.553	81.31
273.785	80.31
274.017	93.31
274.249	88.31
274.481	84.31
274.713	88.31
274.945	82.31
275.176	82.31
275.408	100.31
275.64	84.31
275.872	81.31
276.104	78.31
276.335	92.31
276.567	87.31
276.799	88.31
277.031	84.31
277.262	87.31
277.494	89.31
277.726	90.31
277.957	84.31
278.189	84.31
278.421	99.31
278.652	91.31
278.884	96.31
279.115	96.31
279.347	86.31
279.579	78.31
279.81	96.31
280.042	97.31
280.273	98.31
280.505	87.31
280.736	59.31
280.968	78.31
281.199	97.31
281.431	96.31
281.662	85.31
281.894	90.31
282.125	105.31
282.356	101.31
282.588	112.31
282.819	81.31
283.051	99.31
283.282	84.31
283.513	85.31
283.745	89.31
283.976	72.31
284.207	84.31
284.439	92.31
284.67	101.31
284.901	83.31
285.132	72.31
285.364	79.31
285.595	105.31
285.826	90.31
286.057	79.31
286.288	81.31
286.52	75.31
286.751	97.31
286.982	77.31
287.213	87.31
287.444	104.31
287.675	83.31
287.906	85.31
288.138	93.31
288.369	103.31
288.6	91.31
288.831	83.31
289.062	97.31
289.293	97.31
289.524	77.31
289.755	88.31
289.986	77.31
290.217	86.31
290.448	92.31
290.679	87.31
290.91	97.31
291.141	79.31
291.371	77.31
291.602	95.31
291.833	88.31
292.064	92.31
292.295	94.31
292.526	86.31
292.757	64.31
292.987	89.31
293.218	97.31
293.449	83.31
293.68	80.31
293.91	81.31
294.141	87.31
294.372	76.31
294.603	80.31
294.833	94.31
295.064	100.31
295.295	85.31
295.525	90.31
295.756	108.31
295.987	110.31
296.217	99.31
296.448	116.31
296.679	92.31
296.909	101.31
297.14	94.31
297.37	97.31
297.601	90.31
297.831	93.31
298.062	103.31
298.292	75.31
298.523	85.31
298.753	92.31
298.984	89.31
299.214	82.31
299.445	95.31
299.675	75.31
299.905	90.31
300.136	85.31
300.366	76.31
300.597	78.31
300.827	87.31
301.057	78.31
301.288	99.31
301.518	108.31
301.748	91.31
301.979	93.31
302.209	88.31
302.439	84.31
302.669	94.31
302.9	94.31
303.13	81.31
303.36	85.31
303.59	86.31
303.82	72.31
304.051	89.31
304.281	88.31
304.511	78.31
304.741	75.31
304.971	76.31
305.201	78.31
305.431	85.31
305.661	94.31
305.891	90.31
306.121	89.31
306.352	94.31
306.582	92.31
306.812	68.31
307.042	84.31
307.272	95.31
307.502	85.31
307.731	93.31
307.961	83.31
308.191	91.31
308.421	96.31
308.651	95.31
308.881	86.31
309.111	85.31
309.341	99.31
309.571	104.31
309.8	81.31
310.03	93.31
310.26	100.31
310.49	98.31
310.72	93.31
310.949	102.31
311.179	101.31
311.409	91.31
311.639	97.31
311.868	92.31
312.098	82.31
312.328	94.31
312.557	97.31
312.787	104.31
313.017	82.31
313.246	98.31
313.476	98.31
313.706	87.31
313.935	95.31
314.165	92.31
314.394	95.31
314.624	93.31
314.853	89.31
315.083	94.31
315.312	96.31
315.542	86.31
315.771	89.31
316.001	101.31
316.23	102.31
316.46	86.31
316.689	85.31
316.919	87.31
317.148	101.31
317.377	86.31
317.607	92.31
317.836	89.31
318.065	73.31
318.295	89.31
318.524	101.31
318.753	95.31
318.983	92.31
319.212	91.31
319.441	95.31
319.67	99.31
319.9	90.31
320.129	87.31
320.358	96.31
320.587	79.31
320.816	101.31
321.046	90.31
321.275	103.31
321.504	72.31
321.733	78.31
321.962	93.31
322.191	92.31
322.42	94.31
322.649	95.31
322.878	100.31
323.108	103.31
323.337	102.31
323.566	109.31
323.795	137.31
324.024	162.31
324.253	306.31
324.482	597.31
324.71	1188.31
324.939	1545.31
325.168	569.31
325.397	185.31
325.626	121.31
325.855	127.31
326.084	98.31
326.313	130.31
326.542	129.31
326.77	173.31
326.999	347.31
327.228	687.31
327.457	1268.31
327.686	985.31
327.914	277.31
328.143	151.31
328.372	137.31
328.6	97.31
328.829	95.31
329.058	101.31
329.287	104.31
329.515	104.31
329.744	91.31
329.972	89.31
330.201	101.31
330.43	117.31
330.658	110.31
330.887	100.31
331.115	95.31
331.344	98.31
331.572	100.31
331.801	97.31
332.03	90.31
332.258	97.31
332.486	106.31
332.715	85.31
332.943	88.31
333.172	99.31
333.4	87.31
333.629	92.31
333.857	99.31
334.085	105.31
334.314	112.31
334.542	107.31
334.771	94.31
334.999	87.31
335.227	89.31
335.455	95.31
335.684	92.31
335.912	85.31
336.14	87.31
336.369	97.31
336.597	89.31
336.825	92.31
337.053	97.31
337.281	100.31
337.51	82.31
337.738	100.31
337.966	85.31
338.194	77.31
338.422	96.31
338.65	87.31
338.878	91.31
339.106	97.31
339.334	92.31
339.562	86.31
339.79	96.31
340.018	95.31
340.246	95.31
340.474	75.31
340.702	102.31
340.93	87.31
341.158	87.31
341.386	97.31
341.614	105.31
341.842	95.31
342.07	85.31
342.298	79.31
342.526	88.31
342.754	104.31
342.981	75.31
343.209	85.31
343.437	101.31
343.665	83.31
343.893	93.31
344.12	91.31
344.348	93.31
344.576	92.31
344.804	96.31
345.031	98.31
345.259	105.31
345.487	96.31
345.714	84.31
345.942	99.31
346.17	99.31
346.397	103.31
346.625	79.31
346.853	90.31
347.08	94.31
347.308	87.31
347.535	97.31
347.763	89.31
347.99	87.31
348.218	83.31
348.445	100.31
348.673	92.31
348.9	93.31
349.128	101.31
349.355	100.31
349.583	103.31
349.81	93.31
350.037	96.31
350.265	104.31
350.492	99.31
350.72	91.31
350.947	102.31
351.174	99.31
351.402	87.31
351.629	86.31
351.856	95.31
352.083	84.31
352.311	95.31
352.538	102.31
352.765	97.31
352.992	114.31
353.22	95.31
353.447	87.31
353.674	88.31
353.901	98.31
354.128	96.31
354.355	106.31
354.583	100.31
354.81	101.31
355.037	104.31
355.264	103.31
355.491	92.31
355.718	97.31
355.945	90.31
356.172	90.31
356.399	105.31
356.626	84.31
356.853	93.31
357.08	108.31
357.307	99.31
357.534	79.31
357.761	117.31
357.988	91.31
358.215	103.31
358.441	82.31
358.668	98.31
358.895	103.31
359.122	82.31
359.349	79.31
359.576	95.31
359.802	88.31
360.029	118.31
360.256	100.31
360.483	102.31
360.709	89.31
360.936	96.31
361.163	98.31
361.39	91.31
361.616	78.31
361.843	83.31
362.07	91.31
362.296	99.31
362.523	92.31
362.749	88.31
362.976	74.31
363.203	88.31
363.429	87.31
363.656	89.31
363.882	85.31
364.109	100.31
364.335	101.31
364.562	96.31
364.788	87.31
365.015	95.31
365.241	97.31
365.468	101.31
365.694	97.31
365.92	97.31
366.147	82.31
366.373	88.31
366.599	84.31
366.826	98.31
367.052	103.31
367.278	93.31
367.505	87.31
367.731	92.31
367.957	99.31
368.184	92.31
368.41	85.31
368.636	94.31
368.862	112.31
369.089	105.31
369.315	89.31
369.541	83.31
369.767	80.31
369.993	88.31
370.219	91.31
370.445	82.31
370.672	105.31
370.898	81.31
371.124	79.31
371.35	81.31
371.576	85.31
371.802	86.31
372.028	93.31
372.254	93.31
372.48	86.31
372.706	78.31
372.932	94.31
373.158	75.31
373.384	103.31
373.61	89.31
373.835	105.31
374.061	100.31
374.287	84.31
374.513	92.31
374.739	98.31
374.965	93.31
375.191	90.31
375.416	73.31
375.642	88.31
375.868	97.31
376.094	100.31
376.319	101.31
376.545	104.31
376.771	86.31
376.997	88.31
377.222	94.31
377.448	86.31
377.674	97.31
377.899	97.31
378.125	84.31
378.35	96.31
378.576	101.31
378.802	99.31
379.027	77.31
379.253	91.31
379.478	91.31
379.704	81.31
379.929	88.31
380.155	84.31
380.38	88.31
380.606	108.31
380.831	98.31
381.057	100.31
381.282	103.31
381.507	83.31
381.733	96.31
381.958	103.31
382.184	91.31
382.409	98.31
382.634	109.31
382.86	86.31
383.085	96.31
383.31	91.31
383.535	106.31
383.761	96.31
383.986	96.31
384.211	95.31
384.436	88.31
384.662	94.31
384.887	109.31
385.112	92.31
385.337	93.31
385.562	127.31
385.787	105.31
386.013	104.31
386.238	101.31
386.463	102.31
386.688	115.31
386.913	115.31
387.138	98.31
387.363	102.31
387.588	101.31
387.813	94.31
388.038	115.31
388.263	109.31
388.488	122.31
388.713	102.31
388.938	101.31
389.163	93.31
389.387	102.31
389.612	95.31
389.837	93.31
390.062	91.31
390.287	96.31
390.512	101.31
390.736	95.31
390.961	108.31
391.186	91.31
391.411	102.31
391.636	81.31
391.86	92.31
392.085	94.31
392.31	83.31
392.534	92.31
392.759	83.31
392.984	92.31
393.208	87.31
393.433	128.31
393.658	117.31
393.882	92.31
394.107	92.31
394.331	98.31
394.556	91.31
394.78	92.31
395.005	83.31
395.229	81.31
395.454	96.31
395.678	91.31
395.903	81.31
396.127	82.31
396.352	81.31
396.576	103.31
396.801	85.31
397.025	109.31
397.249	94.31
397.474	87.31
397.698	93.31
397.922	80.31
398.147	91.31
398.371	89.31
398.595	90.31
398.82	95.31
399.044	95.31
399.268	103.31
399.492	97.31
399.717	85.31
399.941	92.31
400.165	92.31
400.389	100.31
400.613	86.31
400.837	88.31
401.062	83.31
401.286	87.31
401.51	80.31
401.734	83.31
401.958	79.31
402.182	115.31
402.406	115.31
402.63	87.31
402.854	83.31
403.078	93.31
403.302	84.31
403.526	90.31
403.75	93.31
403.974	80.31
404.198	87.31
404.422	105.31
404.645	80.31
404.869	89.31
405.093	97.31
405.317	89.31
405.541	80.31
405.765	93.31
405.988	98.31
406.212	141.31
406.436	160.31
406.66	115.31
406.883	77.31
407.107	89.31
407.331	112.31
407.555	85.31
407.778	102.31
408.002	89.31
408.226	84.31
408.449	103.31
408.673	91.31
408.896	83.31
409.12	85.31
409.344	90.31
409.567	80.31
409.791	88.31
410.014	89.31
410.238	94.31
410.461	91.31
410.685	90.31
410.908	95.31
411.132	105.31
411.355	116.31
411.578	97.31
411.802	97.31
412.025	88.31
412.249	89.31
412.472	76.31
412.695	86.31
412.919	85.31
413.142	96.31
413.365	92.31
413.589	87.31
413.812	85.31
414.035	95.31
414.258	90.31
414.482	79.31
414.705	94.31
414.928	86.31
415.151	95.31
415.374	80.31
415.597	89.31
415.821	93.31
416.044	87.31
416.267	91.31
416.49	86.31
416.713	85.31
416.936	83.31
417.159	84.31
417.382	82.31
417.605	76.31
417.828	87.31
418.051	83.31
418.274	95.31
418.497	101.31
418.72	87.31
418.943	86.31
419.166	88.31
419.389	83.31
419.611	76.31
419.834	90.31
420.057	96.31
420.28	86.31
420.503	85.31
420.726	78.31
420.948	87.31
421.171	85.31
421.394	78.31
421.617	100.31
421.839	85.31
422.062	90.31
422.285	89.31
422.507	88.31
422.73	109.31
422.953	98.31
423.175	92.31
423.398	84.31
423.621	89.31
423.843	80.31
424.066	97.31
424.288	95.31
424.511	76.31
424.733	100.31
424.956	91.31
425.178	114.31
425.401	102.31
425.623	94.31
425.846	91.31
426.068	96.31
426.291	91.31
426.513	87.31
426.735	79.31
426.958	87.31
427.18	103.31
427.402	117.31
427.625	134.31
427.847	119.31
428.069	92.31
428.292	86.31
428.514	73.31
428.736	78.31
428.958	94.31
429.181	73.31
429.403	85.31
429.625	99.31
429.847	93.31
430.069	93.31
430.292	89.31
430.514	88.31
430.736	83.31
430.958	84.31
431.18	82.31
431.402	76.31
431.624	78.31
431.846	101.31
432.068	93.31
432.29	85.31
432.512	86.31
432.734	77.31
432.956	90.31
433.178	109.31
433.4	100.31
433.622	90.31
433.844	79.31
434.066	95.31
434.287	84.31
434.509	87.31
434.731	84.31
434.953	101.31
435.175	80.31
435.397	97.31
435.618	89.31
435.84	96.31
436.062	96.31
436.284	106.31
436.505	95.31
436.727	96.31
436.949	86.31
437.17	88.31
437.392	99.31
437.614	93.31
437.835	85.31
438.057	104.31
438.278	89.31
438.5	100.31
438.721	100.31
438.943	96.31
439.165	89.31
439.386	86.31
439.608	91.31
439.829	88.31
440.05	100.31
440.272	116.31
440.493	86.31
440.715	86.31
440.936	79.31
441.158	77.31
441.379	83.31
441.6	79.31
441.822	86.31
442.043	95.31
442.264	99.31
442.486	98.31
442.707	76.31
442.928	104.31
443.149	114.31
443.371	110.31
443.592	96.31
443.813	79.31
444.034	82.31
444.255	87.31
444.476	89.31
444.698	91.31
444.919	94.31
445.14	148.31
445.361	112.31
445.582	104.31
445.803	113.31
446.024	113.31
446.245	119.31
446.466	96.31
446.687	76.31
446.908	98.31
447.129	86.31
447.35	89.31
447.571	89.31
447.792	89.31
448.013	93.31
448.234	99.31
448.455	83.31
448.675	89.31
448.896	99.31
449.117	88.31
449.338	99.31
449.559	104.31
449.779	123.31
450	94.31
450.221	85.31
450.442	94.31
450.662	85.31
450.883	109.31
451.104	95.31
451.324	104.31
451.545	88.31
451.766	85.31
451.986	72.31
452.207	87.31
452.428	91.31
452.648	102.31
452.869	93.31
453.089	88.31
453.31	104.31
453.53	75.31
453.751	83.31
453.971	81.31
454.192	95.31
454.412	91.31
454.633	79.31
454.853	99.31
455.073	86.31
455.294	84.31
455.514	82.31
455.734	70.31
455.955	63.31
456.175	80.31
456.395	81.31
456.616	91.31
456.836	75.31
457.056	95.31
457.276	84.31
457.497	83.31
457.717	93.31
457.937	69.31
458.157	73.31
458.377	68.31
458.598	102.31
458.818	103.31
459.038	132.31
459.258	98.31
459.478	83.31
459.698	88.31
459.918	86.31
460.138	90.31
460.358	85.31
460.578	88.31
460.798	84.31
461.018	79.31
461.238	85.31
461.458	88.31
461.678	88.31
461.898	88.31
462.118	78.31
462.338	92.31
462.558	89.31
462.777	77.31
462.997	83.31
463.217	92.31
463.437	80.31
463.657	87.31
463.876	72.31
464.096	98.31
464.316	76.31
464.536	89.31
464.755	102.31
464.975	112.31
465.195	120.31
465.414	119.31
465.634	79.31
465.854	86.31
466.073	79.31
466.293	90.31
466.512	88.31
466.732	92.31
466.951	87.31
467.171	80.31
467.391	79.31
467.61	76.31
467.829	84.31
468.049	91.31
468.268	80.31
468.488	87.31
468.707	68.31
468.927	82.31
469.146	79.31
469.365	85.31
469.585	83.31
469.804	95.31
470.023	82.31
470.243	94.31
470.462	94.31
470.681	96.31
470.901	90.31
471.12	97.31
471.339	83.31
471.558	77.31
471.777	83.31
471.997	88.31
472.216	100.31
472.435	108.31
472.654	87.31
472.873	107.31
473.092	78.31
473.311	79.31
473.53	76.31
473.749	80.31
473.968	76.31
474.187	99.31
474.406	75.31
474.625	84.31
474.844	69.31
475.063	77.31
475.282	91.31
475.501	88.31
475.72	92.31
475.939	83.31
476.158	97.31
476.377	97.31
476.596	95.31
476.814	89.31
477.033	93.31
477.252	85.31
477.471	86.31
477.69	92.31
477.908	77.31
478.127	90.31
478.346	91.31
478.564	91.31
478.783	88.31
479.002	98.31
479.22	77.31
479.439	96.31
479.658	102.31
479.876	91.31
480.095	83.31
480.313	99.31
480.532	88.31
480.751	79.31
480.969	95.31
481.188	108.31
481.406	123.31
481.624	98.31
481.843	83.31
482.061	95.31
482.28	87.31
482.498	87.31
482.717	89.31
482.935	84.31
483.153	93.31
483.372	83.31
483.59	83.31
483.808	80.31
484.027	83.31
484.245	72.31
484.463	89.31
484.681	77.31
484.9	80.31
485.118	81.31
485.336	104.31
485.554	101.31
485.772	106.31
485.99	99.31
486.209	100.31
486.427	103.31
486.645	117.31
486.863	105.31
487.081	80.31
487.299	108.31
487.517	85.31
487.735	85.31
487.953	91.31
488.171	100.31
488.389	96.31
488.607	84.31
488.825	89.31
489.043	99.31
489.261	87.31
489.479	88.31
489.696	93.31
489.914	91.31
490.132	84.31
490.35	92.31
490.568	95.31
490.786	86.31
491.003	80.31
491.221	83.31
491.439	63.31
491.657	84.31
491.874	102.31
492.092	84.31
492.31	89.31
492.527	85.31
492.745	90.31
492.963	89.31
493.18	101.31
493.398	97.31
493.615	97.31
493.833	87.31
494.05	77.31
494.268	89.31
494.485	89.31
494.703	81.31
494.92	99.31
495.138	91.31
495.355	100.31
495.573	83.31
495.79	83.31
496.008	99.31
496.225	95.31
496.442	83.31
496.66	99.31
496.877	77.31
497.094	96.31
497.312	92.31
497.529	92.31
497.746	92.31
497.963	63.31
498.181	79.31
498.398	92.31
498.615	101.31
498.832	95.31
499.049	83.31
499.267	100.31
499.484	86.31
499.701	88.31
499.918	91.31
500.135	87.31
500.352	101.31
500.569	84.31
500.786	85.31
501.003	78.31
501.22	101.31
501.437	91.31
501.654	91.31
501.871	80.31
502.088	90.31
502.305	92.31
502.522	77.31
502.739	83.31
502.956	95.31
503.172	89.31
503.389	99.31
503.606	91.31
503.823	97.31
504.04	94.31
504.256	91.31
504.473	92.31
504.69	75.31
504.907	105.31
505.123	72.31
505.34	75.31
505.557	79.31
505.773	91.31
505.99	93.31
506.207	71.31
506.423	91.31
506.64	83.31
506.856	84.31
507.073	89.31
507.289	85.31
507.506	99.31
507.722	97.31
507.939	100.31
508.155	93.31
508.372	97.31
508.588	82.31
508.805	86.31
509.021	82.31
509.238	84.31
509.454	95.31
509.67	83.31
509.887	97.31
510.103	111.31
510.319	163.31
510.536	468.31
510.752	1344.31
510.968	396.31
511.184	116.31
511.401	100.31
511.617	82.31
511.833	101.31
512.049	78.31
512.265	97.31
512.481	95.31
512.698	94.31
512.914	92.31
513.13	80.31
513.346	82.31
513.562	83.31
513.778	89.31
513.994	95.31
514.21	83.31
514.426	102.31
514.642	110.31
514.858	108.31
515.074	129.31
515.29	292.31
515.506	822.31
515.721	312.31
515.937	116.31
516.153	98.31
516.369	84.31
516.585	94.31
516.801	92.31
