Data from Uncirc_1989_H10_HRD10591_00004.txt Node
Date: Wed Jan 03 11:57:36 EST 2024
User: Yrep
Spectrometer: HR+D1059
Trigger mode: 1
Integration Time (sec): 1.000000E-1
Scans to average: 1
Electric dark correction enabled: true
Nonlinearity correction enabled: false
Boxcar width: 0
XAxis mode: Wavelengths
Number of Pixels in Spectrum: 2048
>>>>>Begin Spectral Data<<<<<
223.165	-16.06
223.4	-16.06
223.635	-16.06
223.869	-23.06
224.104	-17.06
224.338	0.94
224.573	-15.06
224.808	-11.06
225.042	-9.06
225.277	-15.06
225.511	-10.06
225.746	-18.06
225.98	5.94
226.215	24.94
226.449	19.94
226.683	28.94
226.918	22.94
227.152	30.94
227.387	49.94
227.621	39.94
227.856	38.94
228.09	45.94
228.324	37.94
228.559	61.94
228.793	48.94
229.027	61.94
229.262	61.94
229.496	60.94
229.73	82.94
229.964	77.94
230.199	64.94
230.433	66.94
230.667	67.94
230.901	77.94
231.136	72.94
231.37	85.94
231.604	85.94
231.838	82.94
232.072	90.94
232.306	76.94
232.541	93.94
232.775	94.94
233.009	91.94
233.243	93.94
233.477	83.94
233.711	64.94
233.945	70.94
234.179	77.94
234.413	80.94
234.647	85.94
234.881	94.94
235.115	84.94
235.349	84.94
235.583	76.94
235.817	81.94
236.051	82.94
236.285	92.94
236.519	90.94
236.753	85.94
236.987	87.94
237.221	79.94
237.455	86.94
237.689	69.94
237.922	64.94
238.156	81.94
238.39	76.94
238.624	68.94
238.858	80.94
239.091	70.94
239.325	84.94
239.559	69.94
239.793	76.94
240.027	76.94
240.26	82.94
240.494	77.94
240.728	85.94
240.961	72.94
241.195	82.94
241.429	72.94
241.662	69.94
241.896	81.94
242.13	76.94
242.363	79.94
242.597	67.94
242.83	82.94
243.064	76.94
243.298	69.94
243.531	80.94
243.765	54.94
243.998	92.94
244.232	82.94
244.465	95.94
244.699	74.94
244.932	82.94
245.166	76.94
245.399	76.94
245.633	72.94
245.866	86.94
246.099	76.94
246.333	87.94
246.566	68.94
246.8	78.94
247.033	87.94
247.266	88.94
247.5	74.94
247.733	72.94
247.966	82.94
248.2	81.94
248.433	79.94
248.666	77.94
248.899	87.94
249.133	78.94
249.366	104.94
249.599	89.94
249.832	90.94
250.066	73.94
250.299	79.94
250.532	66.94
250.765	78.94
250.998	80.94
251.231	88.94
251.465	86.94
251.698	80.94
251.931	84.94
252.164	78.94
252.397	77.94
252.63	84.94
252.863	76.94
253.096	79.94
253.329	93.94
253.562	70.94
253.795	78.94
254.028	84.94
254.261	93.94
254.494	76.94
254.727	78.94
254.96	79.94
255.193	73.94
255.426	88.94
255.659	92.94
255.892	81.94
256.124	74.94
256.357	69.94
256.59	64.94
256.823	87.94
257.056	82.94
257.289	84.94
257.521	81.94
257.754	82.94
257.987	84.94
258.22	81.94
258.452	70.94
258.685	90.94
258.918	76.94
259.151	81.94
259.383	70.94
259.616	73.94
259.849	70.94
260.081	81.94
260.314	80.94
260.547	93.94
260.779	78.94
261.012	74.94
261.244	87.94
261.477	87.94
261.71	86.94
261.942	108.94
262.175	94.94
262.407	86.94
262.64	86.94
262.872	83.94
263.105	88.94
263.337	87.94
263.57	81.94
263.802	89.94
264.035	88.94
264.267	80.94
264.499	83.94
264.732	78.94
264.964	79.94
265.197	91.94
265.429	86.94
265.661	78.94
265.894	87.94
266.126	84.94
266.358	72.94
266.591	76.94
266.823	83.94
267.055	83.94
267.287	80.94
267.52	90.94
267.752	96.94
267.984	80.94
268.216	79.94
268.448	94.94
268.681	93.94
268.913	70.94
269.145	80.94
269.377	88.94
269.609	85.94
269.841	90.94
270.073	87.94
270.306	92.94
270.538	82.94
270.77	77.94
271.002	82.94
271.234	87.94
271.466	90.94
271.698	84.94
271.93	94.94
272.162	77.94
272.394	80.94
272.626	73.94
272.858	87.94
273.09	96.94
273.322	95.94
273.553	81.94
273.785	100.94
274.017	84.94
274.249	89.94
274.481	85.94
274.713	92.94
274.945	86.94
275.176	84.94
275.408	94.94
275.64	90.94
275.872	97.94
276.104	85.94
276.335	89.94
276.567	81.94
276.799	91.94
277.031	91.94
277.262	88.94
277.494	82.94
277.726	82.94
277.957	85.94
278.189	91.94
278.421	82.94
278.652	88.94
278.884	103.94
279.115	87.94
279.347	85.94
279.579	96.94
279.81	98.94
280.042	89.94
280.273	86.94
280.505	74.94
280.736	92.94
280.968	92.94
281.199	100.94
281.431	89.94
281.662	86.94
281.894	76.94
282.125	93.94
282.356	119.94
282.588	111.94
282.819	109.94
283.051	88.94
283.282	97.94
283.513	81.94
283.745	93.94
283.976	85.94
284.207	79.94
284.439	82.94
284.67	83.94
284.901	90.94
285.132	86.94
285.364	90.94
285.595	83.94
285.826	92.94
286.057	86.94
286.288	87.94
286.52	101.94
286.751	91.94
286.982	88.94
287.213	83.94
287.444	88.94
287.675	83.94
287.906	92.94
288.138	88.94
288.369	99.94
288.6	88.94
288.831	86.94
289.062	87.94
289.293	103.94
289.524	83.94
289.755	101.94
289.986	98.94
290.217	98.94
290.448	88.94
290.679	74.94
290.91	80.94
291.141	80.94
291.371	81.94
291.602	76.94
291.833	89.94
292.064	94.94
292.295	87.94
292.526	94.94
292.757	78.94
292.987	87.94
293.218	86.94
293.449	99.94
293.68	92.94
293.91	101.94
294.141	87.94
294.372	87.94
294.603	79.94
294.833	88.94
295.064	88.94
295.295	89.94
295.525	87.94
295.756	83.94
295.987	104.94
296.217	118.94
296.448	107.94
296.679	82.94
296.909	89.94
297.14	85.94
297.37	83.94
297.601	87.94
297.831	98.94
298.062	97.94
298.292	85.94
298.523	88.94
298.753	86.94
298.984	84.94
299.214	83.94
299.445	90.94
299.675	88.94
299.905	69.94
300.136	95.94
300.366	100.94
300.597	78.94
300.827	89.94
301.057	80.94
301.288	91.94
301.518	100.94
301.748	84.94
301.979	98.94
302.209	82.94
302.439	86.94
302.669	78.94
302.9	68.94
303.13	95.94
303.36	94.94
303.59	92.94
303.82	114.94
304.051	105.94
304.281	85.94
304.511	92.94
304.741	90.94
304.971	83.94
305.201	96.94
305.431	80.94
305.661	70.94
305.891	94.94
306.121	88.94
306.352	88.94
306.582	99.94
306.812	83.94
307.042	93.94
307.272	85.94
307.502	102.94
307.731	87.94
307.961	101.94
308.191	86.94
308.421	92.94
308.651	98.94
308.881	102.94
309.111	86.94
309.341	78.94
309.571	100.94
309.8	89.94
310.03	93.94
310.26	90.94
310.49	76.94
310.72	103.94
310.949	100.94
311.179	94.94
311.409	103.94
311.639	102.94
311.868	97.94
312.098	97.94
312.328	92.94
312.557	96.94
312.787	94.94
313.017	99.94
313.246	92.94
313.476	86.94
313.706	82.94
313.935	97.94
314.165	85.94
314.394	92.94
314.624	91.94
314.853	85.94
315.083	105.94
315.312	84.94
315.542	81.94
315.771	78.94
316.001	89.94
316.23	105.94
316.46	80.94
316.689	69.94
316.919	84.94
317.148	87.94
317.377	98.94
317.607	98.94
317.836	90.94
318.065	96.94
318.295	87.94
318.524	84.94
318.753	87.94
318.983	98.94
319.212	115.94
319.441	98.94
319.67	93.94
319.9	89.94
320.129	87.94
320.358	102.94
320.587	94.94
320.816	92.94
321.046	101.94
321.275	95.94
321.504	97.94
321.733	106.94
321.962	109.94
322.191	88.94
322.42	95.94
322.649	90.94
322.878	93.94
323.108	106.94
323.337	105.94
323.566	111.94
323.795	134.94
324.024	185.94
324.253	298.94
324.482	611.94
324.71	1223.94
324.939	1576.94
325.168	606.94
325.397	197.94
325.626	155.94
325.855	113.94
326.084	124.94
326.313	132.94
326.542	135.94
326.77	194.94
326.999	358.94
327.228	724.94
327.457	1323.94
327.686	1025.94
327.914	285.94
328.143	161.94
328.372	135.94
328.6	110.94
328.829	109.94
329.058	105.94
329.287	115.94
329.515	105.94
329.744	98.94
329.972	94.94
330.201	109.94
330.43	112.94
330.658	117.94
330.887	109.94
331.115	109.94
331.344	101.94
331.572	95.94
331.801	100.94
332.03	97.94
332.258	107.94
332.486	96.94
332.715	91.94
332.943	93.94
333.172	79.94
333.4	91.94
333.629	95.94
333.857	98.94
334.085	98.94
334.314	113.94
334.542	108.94
334.771	90.94
334.999	97.94
335.227	101.94
335.455	101.94
335.684	98.94
335.912	89.94
336.14	96.94
336.369	90.94
336.597	98.94
336.825	95.94
337.053	90.94
337.281	88.94
337.51	71.94
337.738	96.94
337.966	90.94
338.194	88.94
338.422	93.94
338.65	90.94
338.878	90.94
339.106	82.94
339.334	83.94
339.562	94.94
339.79	100.94
340.018	102.94
340.246	101.94
340.474	90.94
340.702	96.94
340.93	81.94
341.158	96.94
341.386	88.94
341.614	98.94
341.842	78.94
342.07	69.94
342.298	92.94
342.526	87.94
342.754	81.94
342.981	85.94
343.209	100.94
343.437	110.94
343.665	93.94
343.893	94.94
344.12	98.94
344.348	97.94
344.576	80.94
344.804	83.94
345.031	90.94
345.259	88.94
345.487	83.94
345.714	93.94
345.942	80.94
346.17	99.94
346.397	87.94
346.625	90.94
346.853	92.94
347.08	78.94
347.308	105.94
347.535	98.94
347.763	103.94
347.99	113.94
348.218	107.94
348.445	118.94
348.673	88.94
348.9	98.94
349.128	94.94
349.355	91.94
349.583	94.94
349.81	81.94
350.037	96.94
350.265	80.94
350.492	103.94
350.72	101.94
350.947	92.94
351.174	104.94
351.402	96.94
351.629	111.94
351.856	104.94
352.083	89.94
352.311	95.94
352.538	102.94
352.765	97.94
352.992	97.94
353.22	101.94
353.447	111.94
353.674	116.94
353.901	97.94
354.128	103.94
354.355	105.94
354.583	95.94
354.81	103.94
355.037	88.94
355.264	90.94
355.491	96.94
355.718	86.94
355.945	105.94
356.172	105.94
356.399	95.94
356.626	100.94
356.853	97.94
357.08	94.94
357.307	95.94
357.534	84.94
357.761	89.94
357.988	94.94
358.215	86.94
358.441	63.94
358.668	96.94
358.895	101.94
359.122	92.94
359.349	88.94
359.576	80.94
359.802	88.94
360.029	111.94
360.256	111.94
360.483	88.94
360.709	96.94
360.936	102.94
361.163	76.94
361.39	85.94
361.616	86.94
361.843	87.94
362.07	98.94
362.296	85.94
362.523	71.94
362.749	76.94
362.976	90.94
363.203	93.94
363.429	98.94
363.656	89.94
363.882	85.94
364.109	96.94
364.335	80.94
364.562	94.94
364.788	105.94
365.015	90.94
365.241	81.94
365.468	98.94
365.694	94.94
365.92	96.94
366.147	97.94
366.373	85.94
366.599	90.94
366.826	79.94
367.052	82.94
367.278	80.94
367.505	91.94
367.731	99.94
367.957	97.94
368.184	83.94
368.41	98.94
368.636	108.94
368.862	112.94
369.089	110.94
369.315	92.94
369.541	97.94
369.767	85.94
369.993	90.94
370.219	80.94
370.445	80.94
370.672	88.94
370.898	82.94
371.124	87.94
371.35	98.94
371.576	70.94
371.802	72.94
372.028	87.94
372.254	84.94
372.48	92.94
372.706	93.94
372.932	86.94
373.158	100.94
373.384	102.94
373.61	78.94
373.835	89.94
374.061	84.94
374.287	89.94
374.513	102.94
374.739	89.94
374.965	93.94
375.191	90.94
375.416	107.94
375.642	109.94
375.868	95.94
376.094	83.94
376.319	83.94
376.545	92.94
376.771	94.94
376.997	89.94
377.222	104.94
377.448	97.94
377.674	96.94
377.899	83.94
378.125	94.94
378.35	90.94
378.576	98.94
378.802	88.94
379.027	103.94
379.253	88.94
379.478	89.94
379.704	88.94
379.929	82.94
380.155	100.94
380.38	92.94
380.606	89.94
380.831	93.94
381.057	87.94
381.282	93.94
381.507	98.94
381.733	102.94
381.958	98.94
382.184	101.94
382.409	84.94
382.634	97.94
382.86	119.94
383.085	104.94
383.31	112.94
383.535	129.94
383.761	104.94
383.986	96.94
384.211	80.94
384.436	85.94
384.662	91.94
384.887	102.94
385.112	104.94
385.337	120.94
385.562	103.94
385.787	100.94
386.013	99.94
386.238	117.94
386.463	105.94
386.688	111.94
386.913	93.94
387.138	90.94
387.363	98.94
387.588	110.94
387.813	117.94
388.038	107.94
388.263	110.94
388.488	111.94
388.713	94.94
388.938	110.94
389.163	87.94
389.387	102.94
389.612	93.94
389.837	94.94
390.062	98.94
390.287	88.94
390.512	92.94
390.736	78.94
390.961	91.94
391.186	105.94
391.411	105.94
391.636	88.94
391.86	85.94
392.085	86.94
392.31	91.94
392.534	86.94
392.759	93.94
392.984	113.94
393.208	99.94
393.433	128.94
393.658	116.94
393.882	110.94
394.107	89.94
394.331	80.94
394.556	97.94
394.78	87.94
395.005	97.94
395.229	86.94
395.454	90.94
395.678	84.94
395.903	79.94
396.127	87.94
396.352	79.94
396.576	92.94
396.801	107.94
397.025	110.94
397.249	98.94
397.474	87.94
397.698	105.94
397.922	95.94
398.147	92.94
398.371	86.94
398.595	93.94
398.82	89.94
399.044	86.94
399.268	88.94
399.492	86.94
399.717	81.94
399.941	84.94
400.165	97.94
400.389	89.94
400.613	91.94
400.837	94.94
401.062	79.94
401.286	92.94
401.51	86.94
401.734	101.94
401.958	96.94
402.182	106.94
402.406	118.94
402.63	101.94
402.854	86.94
403.078	83.94
403.302	93.94
403.526	96.94
403.75	106.94
403.974	87.94
404.198	85.94
404.422	81.94
404.645	87.94
404.869	82.94
405.093	90.94
405.317	87.94
405.541	97.94
405.765	108.94
405.988	105.94
406.212	140.94
406.436	156.94
406.66	109.94
406.883	86.94
407.107	108.94
407.331	94.94
407.555	87.94
407.778	98.94
408.002	102.94
408.226	81.94
408.449	81.94
408.673	89.94
408.896	93.94
409.12	104.94
409.344	109.94
409.567	101.94
409.791	97.94
410.014	86.94
410.238	80.94
410.461	81.94
410.685	106.94
410.908	90.94
411.132	92.94
411.355	90.94
411.578	93.94
411.802	82.94
412.025	78.94
412.249	80.94
412.472	86.94
412.695	80.94
412.919	88.94
413.142	91.94
413.365	83.94
413.589	101.94
413.812	101.94
414.035	93.94
414.258	86.94
414.482	82.94
414.705	99.94
414.928	81.94
415.151	100.94
415.374	104.94
415.597	91.94
415.821	83.94
416.044	89.94
416.267	83.94
416.49	83.94
416.713	81.94
416.936	94.94
417.159	106.94
417.382	97.94
417.605	84.94
417.828	93.94
418.051	83.94
418.274	93.94
418.497	85.94
418.72	71.94
418.943	88.94
419.166	95.94
419.389	90.94
419.611	90.94
419.834	92.94
420.057	84.94
420.28	93.94
420.503	76.94
420.726	86.94
420.948	95.94
421.171	103.94
421.394	82.94
421.617	95.94
421.839	85.94
422.062	84.94
422.285	100.94
422.507	96.94
422.73	102.94
422.953	104.94
423.175	95.94
423.398	86.94
423.621	84.94
423.843	100.94
424.066	72.94
424.288	80.94
424.511	96.94
424.733	96.94
424.956	102.94
425.178	92.94
425.401	86.94
425.623	89.94
425.846	89.94
426.068	80.94
426.291	70.94
426.513	90.94
426.735	86.94
426.958	87.94
427.18	90.94
427.402	111.94
427.625	118.94
427.847	112.94
428.069	100.94
428.292	82.94
428.514	88.94
428.736	87.94
428.958	101.94
429.181	88.94
429.403	80.94
429.625	77.94
429.847	87.94
430.069	96.94
430.292	91.94
430.514	73.94
430.736	77.94
430.958	84.94
431.18	74.94
431.402	100.94
431.624	92.94
431.846	92.94
432.068	88.94
432.29	88.94
432.512	85.94
432.734	86.94
432.956	105.94
433.178	90.94
433.4	97.94
433.622	87.94
433.844	107.94
434.066	96.94
434.287	79.94
434.509	83.94
434.731	83.94
434.953	85.94
435.175	80.94
435.397	81.94
435.618	83.94
435.84	104.94
436.062	104.94
436.284	89.94
436.505	92.94
436.727	96.94
436.949	78.94
437.17	101.94
437.392	95.94
437.614	79.94
437.835	110.94
438.057	106.94
438.278	114.94
438.5	96.94
438.721	106.94
438.943	103.94
439.165	87.94
439.386	84.94
439.608	96.94
439.829	101.94
440.05	108.94
440.272	102.94
440.493	90.94
440.715	86.94
440.936	85.94
441.158	98.94
441.379	88.94
441.6	91.94
441.822	100.94
442.043	94.94
442.264	86.94
442.486	95.94
442.707	102.94
442.928	96.94
443.149	114.94
443.371	101.94
443.592	99.94
443.813	102.94
444.034	108.94
444.255	92.94
444.476	80.94
444.698	84.94
444.919	97.94
445.14	122.94
445.361	116.94
445.582	94.94
445.803	120.94
446.024	122.94
446.245	116.94
446.466	105.94
446.687	100.94
446.908	89.94
447.129	105.94
447.35	81.94
447.571	86.94
447.792	95.94
448.013	93.94
448.234	98.94
448.455	102.94
448.675	117.94
448.896	112.94
449.117	98.94
449.338	94.94
449.559	104.94
449.779	115.94
450	78.94
450.221	84.94
450.442	95.94
450.662	90.94
450.883	97.94
451.104	97.94
451.324	98.94
451.545	83.94
451.766	95.94
451.986	99.94
452.207	90.94
452.428	99.94
452.648	81.94
452.869	103.94
453.089	114.94
453.31	109.94
453.53	88.94
453.751	72.94
453.971	85.94
454.192	97.94
454.412	85.94
454.633	94.94
454.853	84.94
455.073	73.94
455.294	82.94
455.514	101.94
455.734	92.94
455.955	96.94
456.175	87.94
456.395	87.94
456.616	88.94
456.836	96.94
457.056	94.94
457.276	90.94
457.497	88.94
457.717	94.94
457.937	83.94
458.157	85.94
458.377	102.94
458.598	103.94
458.818	111.94
459.038	127.94
459.258	112.94
459.478	79.94
459.698	92.94
459.918	77.94
460.138	86.94
460.358	90.94
460.578	80.94
460.798	96.94
461.018	87.94
461.238	95.94
461.458	87.94
461.678	91.94
461.898	84.94
462.118	81.94
462.338	94.94
462.558	91.94
462.777	93.94
462.997	78.94
463.217	90.94
463.437	79.94
463.657	99.94
463.876	92.94
464.096	82.94
464.316	88.94
464.536	78.94
464.755	91.94
464.975	95.94
465.195	122.94
465.414	122.94
465.634	91.94
465.854	80.94
466.073	89.94
466.293	90.94
466.512	99.94
466.732	92.94
466.951	87.94
467.171	93.94
467.391	103.94
467.61	105.94
467.829	82.94
468.049	101.94
468.268	94.94
468.488	98.94
468.707	97.94
468.927	68.94
469.146	81.94
469.365	85.94
469.585	87.94
469.804	78.94
470.023	97.94
470.243	100.94
470.462	108.94
470.681	105.94
470.901	88.94
471.12	87.94
471.339	85.94
471.558	80.94
471.777	94.94
471.997	92.94
472.216	105.94
472.435	128.94
472.654	106.94
472.873	90.94
473.092	83.94
473.311	68.94
473.53	81.94
473.749	80.94
473.968	95.94
474.187	71.94
474.406	97.94
474.625	92.94
474.844	89.94
475.063	85.94
475.282	71.94
475.501	83.94
475.72	93.94
475.939	101.94
476.158	99.94
476.377	82.94
476.596	92.94
476.814	85.94
477.033	90.94
477.252	95.94
477.471	89.94
477.69	94.94
477.908	84.94
478.127	96.94
478.346	81.94
478.564	97.94
478.783	102.94
479.002	87.94
479.22	96.94
479.439	92.94
479.658	117.94
479.876	97.94
480.095	89.94
480.313	85.94
480.532	89.94
480.751	85.94
480.969	105.94
481.188	130.94
481.406	113.94
481.624	93.94
481.843	89.94
482.061	100.94
482.28	81.94
482.498	75.94
482.717	97.94
482.935	76.94
483.153	80.94
483.372	106.94
483.59	98.94
483.808	95.94
484.027	95.94
484.245	106.94
484.463	95.94
484.681	93.94
484.9	84.94
485.118	91.94
485.336	104.94
485.554	89.94
485.772	91.94
485.99	108.94
486.209	106.94
486.427	117.94
486.645	96.94
486.863	90.94
487.081	96.94
487.299	85.94
487.517	80.94
487.735	94.94
487.953	103.94
488.171	95.94
488.389	73.94
488.607	115.94
488.825	84.94
489.043	82.94
489.261	96.94
489.479	78.94
489.696	96.94
489.914	92.94
490.132	94.94
490.35	90.94
490.568	78.94
490.786	95.94
491.003	80.94
491.221	91.94
491.439	92.94
491.657	104.94
491.874	96.94
492.092	95.94
492.31	92.94
492.527	103.94
492.745	97.94
492.963	106.94
493.18	97.94
493.398	97.94
493.615	93.94
493.833	93.94
494.05	93.94
494.268	87.94
494.485	101.94
494.703	83.94
494.92	83.94
495.138	97.94
495.355	82.94
495.573	90.94
495.79	89.94
496.008	98.94
496.225	97.94
496.442	94.94
496.66	104.94
496.877	86.94
497.094	101.94
497.312	98.94
497.529	80.94
497.746	97.94
497.963	89.94
498.181	90.94
498.398	106.94
498.615	115.94
498.832	106.94
499.049	98.94
499.267	78.94
499.484	86.94
499.701	90.94
499.918	92.94
500.135	86.94
500.352	101.94
500.569	79.94
500.786	99.94
501.003	96.94
501.22	88.94
501.437	86.94
501.654	86.94
501.871	91.94
502.088	87.94
502.305	84.94
502.522	89.94
502.739	101.94
502.956	87.94
503.172	86.94
503.389	85.94
503.606	93.94
503.823	81.94
504.04	93.94
504.256	93.94
504.473	87.94
504.69	88.94
504.907	99.94
505.123	90.94
505.34	82.94
505.557	85.94
505.773	78.94
505.99	95.94
506.207	105.94
506.423	103.94
506.64	89.94
506.856	73.94
507.073	97.94
507.289	95.94
507.506	89.94
507.722	90.94
507.939	106.94
508.155	110.94
508.372	99.94
508.588	102.94
508.805	94.94
509.021	101.94
509.238	102.94
509.454	93.94
509.67	93.94
509.887	103.94
510.103	131.94
510.319	173.94
510.536	535.94
510.752	1521.94
510.968	451.94
511.184	129.94
511.401	99.94
511.617	116.94
511.833	89.94
512.049	90.94
512.265	106.94
512.481	93.94
512.698	92.94
512.914	90.94
513.13	97.94
513.346	99.94
513.562	89.94
513.778	90.94
513.994	90.94
514.21	101.94
514.426	113.94
514.642	108.94
514.858	111.94
515.074	143.94
515.29	313.94
515.506	971.94
515.721	366.94
515.937	124.94
