Data from Uncirc_1989_H10_HRD10591_00022.txt Node
Date: Wed Jan 03 11:57:40 EST 2024
User: Yrep
Spectrometer: HR+D1059
Trigger mode: 1
Integration Time (sec): 1.000000E-1
Scans to average: 1
Electric dark correction enabled: true
Nonlinearity correction enabled: false
Boxcar width: 0
XAxis mode: Wavelengths
Number of Pixels in Spectrum: 2048
>>>>>Begin Spectral Data<<<<<
223.165	-21.25
223.4	-21.25
223.635	-21.25
223.869	-13.25
224.104	-17.25
224.338	-20.25
224.573	-9.25
224.808	-13.25
225.042	-6.25
225.277	-12.25
225.511	-10.25
225.746	-11.25
225.98	20.75
226.215	17.75
226.449	13.75
226.683	22.75
226.918	30.75
227.152	28.75
227.387	30.75
227.621	41.75
227.856	44.75
228.09	43.75
228.324	68.75
228.559	59.75
228.793	55.75
229.027	59.75
229.262	64.75
229.496	57.75
229.73	72.75
229.964	75.75
230.199	68.75
230.433	80.75
230.667	81.75
230.901	72.75
231.136	69.75
231.37	84.75
231.604	85.75
231.838	80.75
232.072	83.75
232.306	79.75
232.541	64.75
232.775	78.75
233.009	72.75
233.243	82.75
233.477	79.75
233.711	90.75
233.945	75.75
234.179	79.75
234.413	100.75
234.647	80.75
234.881	77.75
235.115	77.75
235.349	65.75
235.583	88.75
235.817	84.75
236.051	82.75
236.285	75.75
236.519	72.75
236.753	69.75
236.987	87.75
237.221	87.75
237.455	80.75
237.689	78.75
237.922	71.75
238.156	82.75
238.39	72.75
238.624	61.75
238.858	71.75
239.091	66.75
239.325	66.75
239.559	77.75
239.793	87.75
240.027	68.75
240.26	67.75
240.494	64.75
240.728	76.75
240.961	84.75
241.195	88.75
241.429	84.75
241.662	73.75
241.896	71.75
242.13	80.75
242.363	75.75
242.597	73.75
242.83	75.75
243.064	73.75
243.298	85.75
243.531	82.75
243.765	78.75
243.998	61.75
244.232	75.75
244.465	91.75
244.699	79.75
244.932	79.75
245.166	77.75
245.399	83.75
245.633	70.75
245.866	91.75
246.099	84.75
246.333	79.75
246.566	87.75
246.8	82.75
247.033	70.75
247.266	75.75
247.5	81.75
247.733	83.75
247.966	107.75
248.2	108.75
248.433	84.75
248.666	76.75
248.899	70.75
249.133	69.75
249.366	93.75
249.599	103.75
249.832	75.75
250.066	82.75
250.299	79.75
250.532	79.75
250.765	81.75
250.998	76.75
251.231	92.75
251.465	82.75
251.698	83.75
251.931	73.75
252.164	77.75
252.397	83.75
252.63	83.75
252.863	83.75
253.096	69.75
253.329	71.75
253.562	82.75
253.795	85.75
254.028	79.75
254.261	65.75
254.494	87.75
254.727	85.75
254.96	86.75
255.193	72.75
255.426	77.75
255.659	75.75
255.892	85.75
256.124	83.75
256.357	92.75
256.59	81.75
256.823	80.75
257.056	99.75
257.289	78.75
257.521	87.75
257.754	75.75
257.987	79.75
258.22	86.75
258.452	86.75
258.685	87.75
258.918	77.75
259.151	76.75
259.383	77.75
259.616	60.75
259.849	95.75
260.081	81.75
260.314	81.75
260.547	86.75
260.779	85.75
261.012	93.75
261.244	85.75
261.477	87.75
261.71	89.75
261.942	105.75
262.175	107.75
262.407	98.75
262.64	75.75
262.872	81.75
263.105	84.75
263.337	79.75
263.57	93.75
263.802	80.75
264.035	92.75
264.267	83.75
264.499	83.75
264.732	90.75
264.964	83.75
265.197	95.75
265.429	93.75
265.661	86.75
265.894	90.75
266.126	83.75
266.358	94.75
266.591	80.75
266.823	77.75
267.055	88.75
267.287	79.75
267.52	64.75
267.752	91.75
267.984	97.75
268.216	78.75
268.448	81.75
268.681	103.75
268.913	84.75
269.145	96.75
269.377	83.75
269.609	62.75
269.841	79.75
270.073	89.75
270.306	71.75
270.538	79.75
270.77	83.75
271.002	80.75
271.234	89.75
271.466	84.75
271.698	72.75
271.93	82.75
272.162	77.75
272.394	87.75
272.626	97.75
272.858	96.75
273.09	73.75
273.322	84.75
273.553	79.75
273.785	96.75
274.017	85.75
274.249	100.75
274.481	92.75
274.713	88.75
274.945	82.75
275.176	73.75
275.408	88.75
275.64	76.75
275.872	81.75
276.104	87.75
276.335	95.75
276.567	95.75
276.799	81.75
277.031	97.75
277.262	80.75
277.494	72.75
277.726	87.75
277.957	87.75
278.189	96.75
278.421	95.75
278.652	82.75
278.884	78.75
279.115	104.75
279.347	95.75
279.579	84.75
279.81	73.75
280.042	75.75
280.273	90.75
280.505	80.75
280.736	79.75
280.968	78.75
281.199	87.75
281.431	77.75
281.662	91.75
281.894	75.75
282.125	85.75
282.356	99.75
282.588	115.75
282.819	113.75
283.051	66.75
283.282	91.75
283.513	103.75
283.745	100.75
283.976	88.75
284.207	94.75
284.439	93.75
284.67	94.75
284.901	88.75
285.132	82.75
285.364	85.75
285.595	92.75
285.826	87.75
286.057	85.75
286.288	96.75
286.52	89.75
286.751	79.75
286.982	89.75
287.213	78.75
287.444	85.75
287.675	79.75
287.906	94.75
288.138	95.75
288.369	70.75
288.6	87.75
288.831	80.75
289.062	105.75
289.293	89.75
289.524	89.75
289.755	78.75
289.986	79.75
290.217	87.75
290.448	86.75
290.679	84.75
290.91	86.75
291.141	95.75
291.371	84.75
291.602	87.75
291.833	81.75
292.064	80.75
292.295	83.75
292.526	96.75
292.757	85.75
292.987	94.75
293.218	91.75
293.449	95.75
293.68	83.75
293.91	88.75
294.141	87.75
294.372	97.75
294.603	66.75
294.833	93.75
295.064	100.75
295.295	88.75
295.525	85.75
295.756	83.75
295.987	117.75
296.217	120.75
296.448	112.75
296.679	95.75
296.909	96.75
297.14	85.75
297.37	76.75
297.601	87.75
297.831	85.75
298.062	79.75
298.292	88.75
298.523	95.75
298.753	76.75
298.984	96.75
299.214	88.75
299.445	102.75
299.675	90.75
299.905	95.75
300.136	91.75
300.366	93.75
300.597	104.75
300.827	86.75
301.057	93.75
301.288	99.75
301.518	94.75
301.748	80.75
301.979	104.75
302.209	85.75
302.439	80.75
302.669	81.75
302.9	83.75
303.13	87.75
303.36	97.75
303.59	89.75
303.82	97.75
304.051	75.75
304.281	89.75
304.511	96.75
304.741	89.75
304.971	79.75
305.201	95.75
305.431	79.75
305.661	91.75
305.891	78.75
306.121	93.75
306.352	97.75
306.582	95.75
306.812	87.75
307.042	83.75
307.272	95.75
307.502	113.75
307.731	87.75
307.961	102.75
308.191	85.75
308.421	85.75
308.651	100.75
308.881	81.75
309.111	110.75
309.341	93.75
309.571	89.75
309.8	95.75
310.03	94.75
310.26	99.75
310.49	91.75
310.72	104.75
310.949	97.75
311.179	90.75
311.409	89.75
311.639	96.75
311.868	83.75
312.098	104.75
312.328	87.75
312.557	96.75
312.787	95.75
313.017	86.75
313.246	104.75
313.476	82.75
313.706	87.75
313.935	95.75
314.165	107.75
314.394	93.75
314.624	103.75
314.853	86.75
315.083	95.75
315.312	83.75
315.542	84.75
315.771	88.75
316.001	75.75
316.23	91.75
316.46	68.75
316.689	102.75
316.919	85.75
317.148	111.75
317.377	94.75
317.607	106.75
317.836	88.75
318.065	82.75
318.295	88.75
318.524	86.75
318.753	94.75
318.983	91.75
319.212	94.75
319.441	91.75
319.67	100.75
319.9	103.75
320.129	81.75
320.358	101.75
320.587	87.75
320.816	100.75
321.046	99.75
321.275	96.75
321.504	97.75
321.733	90.75
321.962	95.75
322.191	105.75
322.42	89.75
322.649	94.75
322.878	99.75
323.108	102.75
323.337	98.75
323.566	117.75
323.795	136.75
324.024	177.75
324.253	297.75
324.482	595.75
324.71	1255.75
324.939	1575.75
325.168	593.75
325.397	209.75
325.626	131.75
325.855	119.75
326.084	115.75
326.313	92.75
326.542	134.75
326.77	188.75
326.999	390.75
327.228	747.75
327.457	1301.75
327.686	996.75
327.914	283.75
328.143	175.75
328.372	146.75
328.6	121.75
328.829	103.75
329.058	120.75
329.287	111.75
329.515	106.75
329.744	104.75
329.972	105.75
330.201	136.75
330.43	126.75
330.658	111.75
330.887	128.75
331.115	123.75
331.344	109.75
331.572	96.75
331.801	104.75
332.03	93.75
332.258	90.75
332.486	94.75
332.715	95.75
332.943	91.75
333.172	96.75
333.4	101.75
333.629	99.75
333.857	114.75
334.085	104.75
334.314	129.75
334.542	138.75
334.771	145.75
334.999	109.75
335.227	97.75
335.455	101.75
335.684	99.75
335.912	83.75
336.14	83.75
336.369	104.75
336.597	92.75
336.825	97.75
337.053	85.75
337.281	101.75
337.51	96.75
337.738	100.75
337.966	84.75
338.194	88.75
338.422	91.75
338.65	77.75
338.878	100.75
339.106	91.75
339.334	96.75
339.562	85.75
339.79	99.75
340.018	89.75
340.246	80.75
340.474	98.75
340.702	95.75
340.93	81.75
341.158	101.75
341.386	86.75
341.614	92.75
341.842	85.75
342.07	82.75
342.298	100.75
342.526	94.75
342.754	87.75
342.981	94.75
343.209	101.75
343.437	93.75
343.665	89.75
343.893	82.75
344.12	88.75
344.348	83.75
344.576	90.75
344.804	99.75
345.031	86.75
345.259	102.75
345.487	82.75
345.714	105.75
345.942	100.75
346.17	80.75
346.397	100.75
346.625	88.75
346.853	95.75
347.08	85.75
347.308	98.75
347.535	94.75
347.763	91.75
347.99	103.75
348.218	88.75
348.445	94.75
348.673	91.75
348.9	100.75
349.128	99.75
349.355	89.75
349.583	93.75
349.81	92.75
350.037	93.75
350.265	87.75
350.492	91.75
350.72	95.75
350.947	89.75
351.174	96.75
351.402	80.75
351.629	104.75
351.856	97.75
352.083	99.75
352.311	89.75
352.538	111.75
352.765	99.75
352.992	105.75
353.22	110.75
353.447	99.75
353.674	94.75
353.901	92.75
354.128	87.75
354.355	90.75
354.583	109.75
354.81	92.75
355.037	80.75
355.264	105.75
355.491	103.75
355.718	115.75
355.945	95.75
356.172	89.75
356.399	104.75
356.626	100.75
356.853	88.75
357.08	99.75
357.307	112.75
357.534	93.75
357.761	81.75
357.988	83.75
358.215	80.75
358.441	99.75
358.668	95.75
358.895	102.75
359.122	85.75
359.349	92.75
359.576	89.75
359.802	112.75
360.029	100.75
360.256	93.75
360.483	104.75
360.709	77.75
360.936	98.75
361.163	85.75
361.39	91.75
361.616	80.75
361.843	84.75
362.07	85.75
362.296	92.75
362.523	85.75
362.749	89.75
362.976	93.75
363.203	93.75
363.429	102.75
363.656	97.75
363.882	95.75
364.109	98.75
364.335	86.75
364.562	87.75
364.788	103.75
365.015	84.75
365.241	87.75
365.468	102.75
365.694	98.75
365.92	94.75
366.147	88.75
366.373	84.75
366.599	91.75
366.826	102.75
367.052	94.75
367.278	92.75
367.505	81.75
367.731	95.75
367.957	80.75
368.184	80.75
368.41	92.75
368.636	104.75
368.862	104.75
369.089	89.75
369.315	88.75
369.541	88.75
369.767	88.75
369.993	91.75
370.219	79.75
370.445	87.75
370.672	84.75
370.898	89.75
371.124	86.75
371.35	93.75
371.576	68.75
371.802	97.75
372.028	79.75
372.254	88.75
372.48	86.75
372.706	100.75
372.932	95.75
373.158	91.75
373.384	83.75
373.61	84.75
373.835	96.75
374.061	93.75
374.287	101.75
374.513	87.75
374.739	93.75
374.965	92.75
375.191	88.75
375.416	98.75
375.642	98.75
375.868	91.75
376.094	89.75
376.319	82.75
376.545	84.75
376.771	83.75
376.997	99.75
377.222	85.75
377.448	97.75
377.674	99.75
377.899	92.75
378.125	87.75
378.35	84.75
378.576	87.75
378.802	87.75
379.027	83.75
379.253	88.75
379.478	86.75
379.704	89.75
379.929	94.75
380.155	64.75
380.38	93.75
380.606	101.75
380.831	97.75
381.057	108.75
381.282	89.75
381.507	99.75
381.733	103.75
381.958	88.75
382.184	71.75
382.409	100.75
382.634	101.75
382.86	104.75
383.085	88.75
383.31	108.75
383.535	87.75
383.761	95.75
383.986	99.75
384.211	79.75
384.436	93.75
384.662	91.75
384.887	88.75
385.112	91.75
385.337	114.75
385.562	97.75
385.787	107.75
386.013	116.75
386.238	92.75
386.463	108.75
386.688	122.75
386.913	112.75
387.138	97.75
387.363	105.75
387.588	93.75
387.813	101.75
388.038	113.75
388.263	99.75
388.488	95.75
388.713	89.75
388.938	102.75
389.163	90.75
389.387	96.75
389.612	91.75
389.837	100.75
390.062	106.75
390.287	93.75
390.512	87.75
390.736	101.75
390.961	89.75
391.186	104.75
391.411	99.75
391.636	88.75
391.86	80.75
392.085	99.75
392.31	91.75
392.534	83.75
392.759	99.75
392.984	87.75
393.208	107.75
393.433	109.75
393.658	116.75
393.882	73.75
394.107	81.75
394.331	106.75
394.556	83.75
394.78	99.75
395.005	86.75
395.229	70.75
395.454	95.75
395.678	83.75
395.903	96.75
396.127	97.75
396.352	94.75
396.576	79.75
396.801	69.75
397.025	102.75
397.249	101.75
397.474	94.75
397.698	81.75
397.922	83.75
398.147	93.75
398.371	78.75
398.595	81.75
398.82	81.75
399.044	83.75
399.268	79.75
399.492	82.75
399.717	92.75
399.941	91.75
400.165	87.75
400.389	89.75
400.613	77.75
400.837	65.75
401.062	84.75
401.286	91.75
401.51	87.75
401.734	104.75
401.958	91.75
402.182	108.75
402.406	134.75
402.63	92.75
402.854	89.75
403.078	97.75
403.302	98.75
403.526	80.75
403.75	59.75
403.974	72.75
404.198	82.75
404.422	72.75
404.645	88.75
404.869	94.75
405.093	100.75
405.317	99.75
405.541	93.75
405.765	86.75
405.988	102.75
406.212	131.75
406.436	177.75
406.66	119.75
406.883	97.75
407.107	95.75
407.331	72.75
407.555	97.75
407.778	103.75
408.002	95.75
408.226	93.75
408.449	107.75
408.673	86.75
408.896	99.75
409.12	93.75
409.344	88.75
409.567	97.75
409.791	94.75
410.014	103.75
410.238	85.75
410.461	100.75
410.685	106.75
410.908	79.75
411.132	108.75
411.355	91.75
411.578	92.75
411.802	81.75
412.025	83.75
412.249	94.75
412.472	93.75
412.695	101.75
412.919	91.75
413.142	88.75
413.365	89.75
413.589	73.75
413.812	106.75
414.035	88.75
414.258	79.75
414.482	85.75
414.705	92.75
414.928	95.75
415.151	100.75
415.374	92.75
415.597	81.75
415.821	86.75
416.044	88.75
416.267	89.75
416.49	76.75
416.713	84.75
416.936	91.75
417.159	82.75
417.382	86.75
417.605	83.75
417.828	79.75
418.051	82.75
418.274	94.75
418.497	80.75
418.72	97.75
418.943	88.75
419.166	84.75
419.389	78.75
419.611	85.75
419.834	72.75
420.057	93.75
420.28	79.75
420.503	95.75
420.726	85.75
420.948	92.75
421.171	94.75
421.394	91.75
421.617	97.75
421.839	71.75
422.062	85.75
422.285	85.75
422.507	107.75
422.73	101.75
422.953	79.75
423.175	79.75
423.398	95.75
423.621	97.75
423.843	86.75
424.066	85.75
424.288	77.75
424.511	86.75
424.733	93.75
424.956	92.75
425.178	97.75
425.401	90.75
425.623	85.75
425.846	101.75
426.068	84.75
426.291	93.75
426.513	94.75
426.735	92.75
426.958	88.75
427.18	98.75
427.402	113.75
427.625	131.75
427.847	103.75
428.069	98.75
428.292	81.75
428.514	87.75
428.736	92.75
428.958	78.75
429.181	82.75
429.403	82.75
429.625	91.75
429.847	88.75
430.069	93.75
430.292	78.75
430.514	72.75
430.736	75.75
430.958	91.75
431.18	89.75
431.402	86.75
431.624	84.75
431.846	77.75
432.068	102.75
432.29	95.75
432.512	99.75
432.734	78.75
432.956	93.75
433.178	86.75
433.4	85.75
433.622	98.75
433.844	96.75
434.066	92.75
434.287	86.75
434.509	73.75
434.731	75.75
434.953	84.75
435.175	87.75
435.397	105.75
435.618	89.75
435.84	87.75
436.062	123.75
436.284	100.75
436.505	99.75
436.727	100.75
436.949	71.75
437.17	87.75
437.392	84.75
437.614	83.75
437.835	101.75
438.057	89.75
438.278	97.75
438.5	86.75
438.721	120.75
438.943	107.75
439.165	85.75
439.386	89.75
439.608	94.75
439.829	89.75
440.05	110.75
440.272	108.75
440.493	81.75
440.715	82.75
440.936	87.75
441.158	75.75
441.379	85.75
441.6	111.75
441.822	87.75
442.043	78.75
442.264	97.75
442.486	93.75
442.707	96.75
442.928	93.75
443.149	115.75
443.371	120.75
443.592	100.75
443.813	91.75
444.034	91.75
444.255	96.75
444.476	84.75
444.698	77.75
444.919	76.75
445.14	124.75
445.361	109.75
445.582	93.75
445.803	114.75
446.024	123.75
446.245	105.75
446.466	93.75
446.687	60.75
446.908	84.75
447.129	84.75
447.35	89.75
447.571	104.75
447.792	86.75
448.013	95.75
448.234	115.75
448.455	97.75
448.675	96.75
448.896	95.75
449.117	105.75
449.338	99.75
449.559	105.75
449.779	115.75
450	95.75
450.221	85.75
450.442	96.75
450.662	84.75
450.883	95.75
451.104	93.75
451.324	108.75
451.545	97.75
451.766	97.75
451.986	75.75
452.207	88.75
452.428	75.75
452.648	83.75
452.869	90.75
453.089	94.75
453.31	96.75
453.53	78.75
453.751	97.75
453.971	91.75
454.192	96.75
454.412	94.75
454.633	84.75
454.853	98.75
455.073	92.75
455.294	96.75
455.514	110.75
455.734	94.75
455.955	79.75
456.175	105.75
456.395	82.75
456.616	84.75
456.836	92.75
457.056	83.75
457.276	83.75
457.497	99.75
457.717	90.75
457.937	92.75
458.157	95.75
458.377	111.75
458.598	86.75
458.818	112.75
459.038	116.75
459.258	107.75
459.478	87.75
459.698	97.75
459.918	79.75
460.138	82.75
460.358	88.75
460.578	91.75
460.798	79.75
461.018	86.75
461.238	69.75
461.458	87.75
461.678	96.75
461.898	89.75
462.118	99.75
462.338	74.75
462.558	78.75
462.777	79.75
462.997	85.75
463.217	84.75
463.437	87.75
463.657	72.75
463.876	81.75
464.096	73.75
464.316	85.75
464.536	90.75
464.755	89.75
464.975	96.75
465.195	134.75
465.414	115.75
465.634	92.75
465.854	81.75
466.073	88.75
466.293	72.75
466.512	86.75
466.732	76.75
466.951	80.75
467.171	90.75
467.391	73.75
467.61	97.75
467.829	81.75
468.049	96.75
468.268	96.75
468.488	74.75
468.707	98.75
468.927	94.75
469.146	79.75
469.365	81.75
469.585	79.75
469.804	84.75
470.023	81.75
470.243	91.75
470.462	95.75
470.681	99.75
470.901	82.75
471.12	80.75
471.339	86.75
471.558	79.75
471.777	94.75
471.997	100.75
472.216	100.75
472.435	162.75
472.654	100.75
472.873	87.75
473.092	80.75
473.311	99.75
473.53	87.75
473.749	99.75
473.968	96.75
474.187	102.75
474.406	77.75
474.625	77.75
474.844	103.75
475.063	83.75
475.282	89.75
475.501	81.75
475.72	89.75
475.939	89.75
476.158	90.75
476.377	81.75
476.596	88.75
476.814	87.75
477.033	87.75
477.252	80.75
477.471	92.75
477.69	81.75
477.908	88.75
478.127	84.75
478.346	93.75
478.564	84.75
478.783	104.75
479.002	83.75
479.22	96.75
479.439	82.75
479.658	99.75
479.876	102.75
480.095	91.75
480.313	100.75
480.532	95.75
480.751	97.75
480.969	123.75
481.188	247.75
481.406	159.75
481.624	111.75
481.843	88.75
482.061	93.75
482.28	90.75
482.498	88.75
482.717	82.75
482.935	87.75
483.153	89.75
483.372	88.75
483.59	97.75
483.808	75.75
484.027	82.75
484.245	94.75
484.463	97.75
484.681	77.75
484.9	81.75
485.118	92.75
485.336	76.75
485.554	83.75
485.772	97.75
485.99	94.75
486.209	84.75
486.427	100.75
486.645	91.75
486.863	98.75
487.081	91.75
487.299	89.75
487.517	111.75
487.735	84.75
487.953	99.75
488.171	91.75
488.389	86.75
488.607	93.75
488.825	96.75
489.043	75.75
489.261	84.75
489.479	80.75
489.696	87.75
489.914	82.75
490.132	93.75
490.35	79.75
490.568	86.75
490.786	82.75
491.003	86.75
491.221	76.75
491.439	93.75
491.657	86.75
491.874	89.75
492.092	70.75
492.31	84.75
492.527	84.75
492.745	92.75
492.963	81.75
493.18	82.75
493.398	69.75
493.615	110.75
493.833	88.75
494.05	93.75
494.268	87.75
494.485	93.75
494.703	92.75
494.92	86.75
495.138	85.75
495.355	96.75
495.573	94.75
495.79	100.75
496.008	78.75
496.225	94.75
496.442	89.75
496.66	99.75
496.877	75.75
497.094	87.75
497.312	83.75
497.529	93.75
497.746	95.75
497.963	87.75
498.181	89.75
498.398	89.75
498.615	104.75
498.832	81.75
499.049	89.75
499.267	100.75
499.484	92.75
499.701	105.75
499.918	80.75
500.135	86.75
500.352	81.75
500.569	98.75
500.786	87.75
501.003	97.75
501.22	84.75
501.437	116.75
501.654	96.75
501.871	87.75
502.088	85.75
502.305	95.75
502.522	88.75
502.739	87.75
502.956	86.75
503.172	77.75
503.389	97.75
503.606	115.75
503.823	63.75
504.04	100.75
504.256	79.75
504.473	85.75
504.69	80.75
504.907	96.75
505.123	77.75
505.34	96.75
505.557	83.75
505.773	88.75
505.99	86.75
506.207	97.75
506.423	86.75
506.64	81.75
506.856	85.75
507.073	91.75
507.289	88.75
507.506	107.75
507.722	104.75
507.939	100.75
508.155	92.75
508.372	78.75
508.588	87.75
508.805	87.75
509.021	81.75
509.238	92.75
509.454	89.75
509.67	93.75
509.887	111.75
510.103	115.75
510.319	201.75
510.536	581.75
510.752	1679.75
510.968	479.75
511.184	128.75
511.401	108.75
511.617	99.75
511.833	89.75
512.049	96.75
512.265	93.75
512.481	94.75
512.698	91.75
512.914	94.75
513.13	99.75
513.346	82.75
513.562	99.75
513.778	92.75
513.994	94.75
514.21	86.75
514.426	103.75
514.642	128.75
514.858	108.75
515.074	131.75
515.29	342.75
515.506	1002.75
515.721	374.75
515.937	125.75
516.153	97.75
516.369	91.75
516.585	86.75
