Data from Uncirc_1989_H10_HRD10591_00067.txt Node
Date: Wed Jan 03 11:57:49 EST 2024
User: Yrep
Spectrometer: HR+D1059
Trigger mode: 1
Integration Time (sec): 1.000000E-1
Scans to average: 1
Electric dark correction enabled: true
Nonlinearity correction enabled: false
Boxcar width: 0
XAxis mode: Wavelengths
Number of Pixels in Spectrum: 2048
>>>>>Begin Spectral Data<<<<<
223.165	-29
223.4	-29
223.635	-29
223.869	-9
224.104	-25
224.338	-18
224.573	-13
224.808	-16
225.042	-11
225.277	0
225.511	-8
225.746	3
225.98	-7
226.215	22
226.449	22
226.683	23
226.918	29
227.152	37
227.387	49
227.621	32
227.856	38
228.09	51
228.324	56
228.559	64
228.793	65
229.027	66
229.262	72
229.496	96
229.73	90
229.964	80
230.199	69
230.433	66
230.667	85
230.901	84
231.136	77
231.37	77
231.604	79
231.838	73
232.072	79
232.306	89
232.541	80
232.775	78
233.009	86
233.243	81
233.477	81
233.711	93
233.945	93
234.179	89
234.413	68
234.647	80
234.881	81
235.115	87
235.349	85
235.583	73
235.817	78
236.051	79
236.285	89
236.519	70
236.753	76
236.987	73
237.221	79
237.455	92
237.689	83
237.922	79
238.156	83
238.39	78
238.624	76
238.858	98
239.091	71
239.325	89
239.559	81
239.793	77
240.027	77
240.26	86
240.494	81
240.728	85
240.961	68
241.195	73
241.429	83
241.662	76
241.896	78
242.13	74
242.363	70
242.597	69
242.83	88
243.064	64
243.298	83
243.531	80
243.765	86
243.998	87
244.232	76
244.465	83
244.699	81
244.932	87
245.166	81
245.399	79
245.633	73
245.866	84
246.099	88
246.333	92
246.566	65
246.8	80
247.033	79
247.266	74
247.5	93
247.733	67
247.966	78
248.2	87
248.433	78
248.666	78
248.899	82
249.133	80
249.366	104
249.599	91
249.832	88
250.066	84
250.299	77
250.532	91
250.765	76
250.998	80
251.231	85
251.465	88
251.698	88
251.931	83
252.164	79
252.397	83
252.63	81
252.863	80
253.096	87
253.329	84
253.562	66
253.795	84
254.028	78
254.261	78
254.494	78
254.727	72
254.96	89
255.193	70
255.426	89
255.659	78
255.892	92
256.124	85
256.357	84
256.59	86
256.823	69
257.056	75
257.289	77
257.521	89
257.754	81
257.987	82
258.22	70
258.452	101
258.685	85
258.918	88
259.151	73
259.383	77
259.616	83
259.849	81
260.081	73
260.314	86
260.547	76
260.779	87
261.012	94
261.244	81
261.477	80
261.71	72
261.942	94
262.175	107
262.407	84
262.64	88
262.872	81
263.105	85
263.337	88
263.57	80
263.802	89
264.035	95
264.267	78
264.499	71
264.732	85
264.964	69
265.197	86
265.429	81
265.661	87
265.894	93
266.126	97
266.358	74
266.591	82
266.823	80
267.055	80
267.287	80
267.52	86
267.752	86
267.984	89
268.216	67
268.448	84
268.681	73
268.913	78
269.145	80
269.377	72
269.609	88
269.841	94
270.073	91
270.306	74
270.538	85
270.77	88
271.002	85
271.234	79
271.466	86
271.698	89
271.93	93
272.162	89
272.394	78
272.626	89
272.858	78
273.09	86
273.322	81
273.553	73
273.785	88
274.017	86
274.249	82
274.481	83
274.713	64
274.945	88
275.176	85
275.408	88
275.64	100
275.872	96
276.104	89
276.335	80
276.567	93
276.799	89
277.031	97
277.262	81
277.494	95
277.726	70
277.957	96
278.189	90
278.421	92
278.652	81
278.884	84
279.115	88
279.347	80
279.579	88
279.81	80
280.042	94
280.273	89
280.505	88
280.736	84
280.968	94
281.199	88
281.431	94
281.662	92
281.894	93
282.125	76
282.356	107
282.588	124
282.819	109
283.051	88
283.282	94
283.513	92
283.745	71
283.976	79
284.207	88
284.439	96
284.67	85
284.901	82
285.132	81
285.364	81
285.595	95
285.826	78
286.057	86
286.288	74
286.52	83
286.751	80
286.982	74
287.213	75
287.444	90
287.675	89
287.906	78
288.138	96
288.369	90
288.6	92
288.831	86
289.062	80
289.293	93
289.524	81
289.755	87
289.986	91
290.217	81
290.448	80
290.679	86
290.91	82
291.141	89
291.371	85
291.602	90
291.833	88
292.064	81
292.295	87
292.526	90
292.757	89
292.987	95
293.218	107
293.449	77
293.68	93
293.91	97
294.141	101
294.372	83
294.603	82
294.833	84
295.064	106
295.295	92
295.525	84
295.756	97
295.987	110
296.217	133
296.448	114
296.679	112
296.909	80
297.14	90
297.37	97
297.601	100
297.831	85
298.062	82
298.292	82
298.523	93
298.753	102
298.984	95
299.214	89
299.445	85
299.675	71
299.905	104
300.136	87
300.366	89
300.597	105
300.827	94
301.057	100
301.288	96
301.518	99
301.748	85
301.979	95
302.209	92
302.439	107
302.669	85
302.9	84
303.13	80
303.36	88
303.59	105
303.82	123
304.051	102
304.281	99
304.511	89
304.741	85
304.971	96
305.201	95
305.431	89
305.661	83
305.891	85
306.121	95
306.352	90
306.582	97
306.812	90
307.042	91
307.272	94
307.502	96
307.731	105
307.961	89
308.191	82
308.421	91
308.651	97
308.881	90
309.111	102
309.341	89
309.571	88
309.8	97
310.03	100
310.26	93
310.49	104
310.72	96
310.949	97
311.179	94
311.409	89
311.639	97
311.868	102
312.098	98
312.328	113
312.557	90
312.787	97
313.017	97
313.246	107
313.476	88
313.706	87
313.935	96
314.165	88
314.394	113
314.624	101
314.853	92
315.083	76
315.312	101
315.542	98
315.771	84
316.001	104
316.23	98
316.46	95
316.689	88
316.919	83
317.148	97
317.377	109
317.607	109
317.836	84
318.065	99
318.295	97
318.524	91
318.753	77
318.983	83
319.212	92
319.441	97
319.67	98
319.9	95
320.129	90
320.358	94
320.587	88
320.816	95
321.046	107
321.275	96
321.504	89
321.733	110
321.962	94
322.191	103
322.42	104
322.649	105
322.878	104
323.108	97
323.337	129
323.566	124
323.795	136
324.024	186
324.253	368
324.482	745
324.71	1542
324.939	2004
325.168	761
325.397	215
325.626	144
325.855	135
326.084	129
326.313	126
326.542	143
326.77	214
326.999	426
327.228	868
327.457	1542
327.686	1237
327.914	366
328.143	217
328.372	183
328.6	154
328.829	116
329.058	128
329.287	118
329.515	100
329.744	98
329.972	134
330.201	209
330.43	260
330.658	182
330.887	143
331.115	108
331.344	94
331.572	92
331.801	104
332.03	95
332.258	107
332.486	96
332.715	95
332.943	88
333.172	101
333.4	92
333.629	94
333.857	141
334.085	156
334.314	202
334.542	295
334.771	285
334.999	131
335.227	100
335.455	97
335.684	105
335.912	90
336.14	94
336.369	101
336.597	104
336.825	106
337.053	104
337.281	94
337.51	88
337.738	76
337.966	82
338.194	90
338.422	98
338.65	92
338.878	87
339.106	83
339.334	97
339.562	84
339.79	82
340.018	102
340.246	109
340.474	99
340.702	96
340.93	87
341.158	96
341.386	88
341.614	90
341.842	93
342.07	99
342.298	92
342.526	83
342.754	89
342.981	98
343.209	88
343.437	90
343.665	97
343.893	82
344.12	94
344.348	84
344.576	94
344.804	103
345.031	90
345.259	92
345.487	98
345.714	92
345.942	82
346.17	98
346.397	104
346.625	90
346.853	106
347.08	104
347.308	104
347.535	89
347.763	89
347.99	104
348.218	93
348.445	106
348.673	106
348.9	107
349.128	98
349.355	81
349.583	107
349.81	87
350.037	89
350.265	95
350.492	82
350.72	99
350.947	101
351.174	101
351.402	116
351.629	90
351.856	106
352.083	94
352.311	109
352.538	101
352.765	99
352.992	106
353.22	114
353.447	95
353.674	98
353.901	98
354.128	112
354.355	89
354.583	100
354.81	93
355.037	89
355.264	91
355.491	94
355.718	97
355.945	107
356.172	102
356.399	101
356.626	87
356.853	92
357.08	82
357.307	79
357.534	97
357.761	88
357.988	96
358.215	86
358.441	91
358.668	91
358.895	100
359.122	80
359.349	95
359.576	93
359.802	89
360.029	105
360.256	105
360.483	105
360.709	92
360.936	101
361.163	84
361.39	85
361.616	96
361.843	94
362.07	94
362.296	106
362.523	84
362.749	90
362.976	85
363.203	102
363.429	89
363.656	90
363.882	102
364.109	103
364.335	87
364.562	89
364.788	95
365.015	95
365.241	99
365.468	97
365.694	104
365.92	94
366.147	107
366.373	90
366.599	107
366.826	89
367.052	82
367.278	92
367.505	84
367.731	100
367.957	97
368.184	82
368.41	93
368.636	101
368.862	121
369.089	96
369.315	95
369.541	89
369.767	80
369.993	84
370.219	100
370.445	87
370.672	81
370.898	80
371.124	82
371.35	91
371.576	80
371.802	85
372.028	94
372.254	106
372.48	78
372.706	92
372.932	81
373.158	85
373.384	91
373.61	103
373.835	98
374.061	72
374.287	103
374.513	97
374.739	92
374.965	98
375.191	81
375.416	106
375.642	101
375.868	82
376.094	89
376.319	89
376.545	86
376.771	104
376.997	91
377.222	79
377.448	87
377.674	81
377.899	87
378.125	100
378.35	92
378.576	87
378.802	101
379.027	95
379.253	84
379.478	102
379.704	85
379.929	90
380.155	92
380.38	89
380.606	97
380.831	92
381.057	104
381.282	98
381.507	97
381.733	92
381.958	87
382.184	98
382.409	102
382.634	100
382.86	104
383.085	100
383.31	103
383.535	105
383.761	93
383.986	106
384.211	85
384.436	104
384.662	86
384.887	95
385.112	99
385.337	99
385.562	100
385.787	110
386.013	112
386.238	111
386.463	91
386.688	102
386.913	97
387.138	104
387.363	102
387.588	93
387.813	96
388.038	89
388.263	105
388.488	112
388.713	84
388.938	104
389.163	98
389.387	110
389.612	86
389.837	95
390.062	89
390.287	100
390.512	90
390.736	93
390.961	75
391.186	92
391.411	97
391.636	94
391.86	87
392.085	93
392.31	69
392.534	84
392.759	83
392.984	88
393.208	83
393.433	105
393.658	98
393.882	90
394.107	93
394.331	86
394.556	82
394.78	91
395.005	81
395.229	92
395.454	85
395.678	94
395.903	79
396.127	82
396.352	86
396.576	80
396.801	96
397.025	100
397.249	90
397.474	98
397.698	86
397.922	92
398.147	85
398.371	88
398.595	94
398.82	92
399.044	81
399.268	72
399.492	88
399.717	93
399.941	87
400.165	93
400.389	80
400.613	93
400.837	94
401.062	85
401.286	97
401.51	105
401.734	88
401.958	104
402.182	114
402.406	156
402.63	113
402.854	93
403.078	88
403.302	87
403.526	79
403.75	97
403.974	73
404.198	94
404.422	87
404.645	72
404.869	86
405.093	102
405.317	97
405.541	94
405.765	96
405.988	114
406.212	174
406.436	234
406.66	136
406.883	94
407.107	87
407.331	87
407.555	109
407.778	86
408.002	101
408.226	94
408.449	89
408.673	80
408.896	92
409.12	68
409.344	95
409.567	86
409.791	96
410.014	109
410.238	89
410.461	77
410.685	80
410.908	102
411.132	103
411.355	99
411.578	99
411.802	100
412.025	100
412.249	85
412.472	91
412.695	75
412.919	98
413.142	100
413.365	73
413.589	80
413.812	90
414.035	83
414.258	89
414.482	89
414.705	76
414.928	102
415.151	85
415.374	88
415.597	90
415.821	100
416.044	99
416.267	90
416.49	73
416.713	70
416.936	93
417.159	89
417.382	100
417.605	97
417.828	93
418.051	88
418.274	104
418.497	85
418.72	93
418.943	80
419.166	93
419.389	84
419.611	82
419.834	85
420.057	87
420.28	101
420.503	89
420.726	97
420.948	95
421.171	77
421.394	92
421.617	67
421.839	85
422.062	83
422.285	84
422.507	86
422.73	101
422.953	96
423.175	84
423.398	88
423.621	83
423.843	82
424.066	91
424.288	82
424.511	80
424.733	99
424.956	105
425.178	112
425.401	98
425.623	85
425.846	87
426.068	89
426.291	90
426.513	92
426.735	76
426.958	93
427.18	91
427.402	128
427.625	160
427.847	148
428.069	129
428.292	105
428.514	89
428.736	80
428.958	78
429.181	93
429.403	82
429.625	90
429.847	75
430.069	97
430.292	88
430.514	93
430.736	75
430.958	81
431.18	62
431.402	96
431.624	87
431.846	87
432.068	79
432.29	91
432.512	94
432.734	83
432.956	103
433.178	84
433.4	94
433.622	97
433.844	92
434.066	97
434.287	86
434.509	84
434.731	98
434.953	88
435.175	92
435.397	93
435.618	92
435.84	87
436.062	114
436.284	98
436.505	102
436.727	96
436.949	89
437.17	101
437.392	93
437.614	90
437.835	105
438.057	116
438.278	97
438.5	99
438.721	118
438.943	105
439.165	91
439.386	81
439.608	83
439.829	90
440.05	121
440.272	120
440.493	101
440.715	94
440.936	99
441.158	91
441.379	94
441.6	102
441.822	97
442.043	89
442.264	97
442.486	87
442.707	97
442.928	94
443.149	127
443.371	131
443.592	105
443.813	90
444.034	102
444.255	92
444.476	93
444.698	89
444.919	92
445.14	150
445.361	133
445.582	113
445.803	120
446.024	111
446.245	123
446.466	97
446.687	88
446.908	74
447.129	81
447.35	86
447.571	98
447.792	90
448.013	90
448.234	114
448.455	104
448.675	117
448.896	103
449.117	84
449.338	84
449.559	124
449.779	112
450	87
450.221	96
450.442	88
450.662	83
450.883	105
451.104	109
451.324	96
451.545	84
451.766	82
451.986	85
452.207	97
452.428	102
452.648	91
452.869	98
453.089	105
453.31	96
453.53	89
453.751	87
453.971	108
454.192	112
454.412	92
454.633	89
454.853	72
455.073	90
455.294	80
455.514	98
455.734	97
455.955	84
456.175	84
456.395	98
456.616	73
456.836	91
457.056	84
457.276	75
457.497	86
457.717	73
457.937	86
458.157	83
458.377	87
458.598	112
458.818	167
459.038	152
459.258	106
459.478	94
459.698	90
459.918	91
460.138	84
460.358	89
460.578	85
460.798	88
461.018	77
461.238	80
461.458	82
461.678	61
461.898	84
462.118	93
462.338	86
462.558	106
462.777	84
462.997	78
463.217	80
463.437	92
463.657	79
463.876	89
464.096	85
464.316	99
464.536	90
464.755	87
464.975	98
465.195	158
465.414	157
465.634	106
465.854	72
466.073	80
466.293	84
466.512	85
466.732	85
466.951	95
467.171	103
467.391	87
467.61	111
467.829	117
468.049	137
468.268	169
468.488	105
468.707	98
468.927	85
469.146	82
469.365	87
469.585	98
469.804	100
470.023	96
470.243	86
470.462	93
470.681	104
470.901	93
471.12	92
471.339	94
471.558	89
471.777	106
471.997	114
472.216	218
472.435	374
472.654	141
472.873	92
473.092	83
473.311	84
473.53	79
473.749	77
473.968	97
474.187	102
474.406	105
474.625	86
474.844	80
475.063	78
475.282	66
475.501	85
475.72	108
475.939	89
476.158	77
476.377	84
476.596	99
476.814	85
477.033	89
477.252	96
477.471	92
477.69	78
477.908	72
478.127	78
478.346	96
478.564	71
478.783	96
479.002	93
479.22	92
479.439	106
479.658	102
479.876	93
480.095	85
480.313	102
480.532	100
480.751	107
480.969	217
481.188	662
481.406	397
481.624	131
481.843	99
482.061	83
482.28	90
482.498	96
482.717	93
482.935	82
483.153	88
483.372	76
483.59	96
483.808	85
484.027	83
484.245	113
484.463	87
484.681	97
484.9	83
485.118	98
485.336	97
485.554	87
485.772	102
485.99	99
486.209	102
486.427	94
486.645	101
486.863	112
487.081	98
487.299	100
487.517	90
487.735	82
487.953	86
488.171	92
488.389	90
488.607	101
488.825	94
489.043	93
489.261	93
489.479	92
489.696	92
489.914	74
490.132	96
490.35	92
490.568	82
490.786	84
491.003	92
491.221	90
491.439	89
491.657	86
491.874	110
492.092	87
492.31	89
492.527	79
492.745	69
492.963	92
493.18	94
493.398	94
493.615	94
493.833	89
494.05	94
494.268	101
494.485	100
494.703	80
494.92	79
495.138	91
495.355	99
495.573	80
495.79	89
496.008	100
496.225	85
496.442	101
496.66	101
496.877	84
497.094	103
497.312	81
497.529	88
497.746	96
497.963	80
498.181	77
498.398	98
498.615	111
498.832	113
499.049	93
499.267	110
499.484	82
499.701	80
499.918	99
500.135	97
500.352	89
500.569	93
500.786	87
501.003	84
501.22	87
501.437	107
501.654	89
501.871	103
502.088	95
502.305	89
502.522	84
502.739	87
502.956	95
503.172	105
503.389	93
503.606	98
503.823	102
504.04	90
504.256	93
504.473	83
504.69	89
504.907	87
505.123	78
505.34	72
505.557	90
505.773	81
505.99	84
506.207	89
506.423	97
506.64	70
506.856	93
507.073	84
507.289	87
507.506	90
507.722	109
507.939	106
508.155	89
508.372	84
508.588	104
508.805	100
509.021	79
509.238	99
509.454	92
509.67	96
509.887	114
510.103	110
510.319	204
510.536	732
510.752	2247
510.968	635
511.184	162
511.401	121
511.617	102
511.833	102
512.049	101
512.265	82
512.481	88
512.698	92
512.914	100
513.13	88
513.346	84
513.562	85
513.778	90
513.994	94
514.21	94
514.426	117
514.642	126
514.858	121
515.074	168
515.29	443
515.506	1484
515.721	508
515.937	158
516.153	112
516.369	100
516.585	90
516.801	76
517.016	100
517.232	97
517.448	92
517.664	95
517.879	95
518.095	114
518.311	95
518.527	94
518.742	80
518.958	96
519.173	100
519.389	107
519.605	92
519.82	100
520.036	96
520.251	128
520.467	104
520.682	107
520.898	102
521.113	116
521.329	134
521.544	220
521.76	553
521.975	2463
522.19	1422
522.406	311
522.621	115
522.836	99
523.052	100
523.267	98
523.482	97
523.698	89
523.913	112
524.128	102
524.343	83
524.559	103
524.774	85
524.989	96
525.204	92
525.419	95
525.634	94
525.849	88
526.064	106
526.28	91
526.495	95
526.71	99
526.925	94
527.14	85
527.355	88
527.57	101
527.785	98
527.999	82
528.214	79
528.429	96
528.644	108
528.859	96
529.074	98
529.289	130
529.503	174
529.718	103
529.933	78
530.148	84
530.363	80
530.577	104
530.792	88
531.007	76
531.221	80
531.436	88
531.651	104
531.865	99
532.08	85
532.295	98
532.509	90
532.724	115
532.938	100
533.153	99
533.367	86
533.582	99
533.796	71
534.011	95
534.225	85
534.44	72
534.654	88
534.868	88
535.083	94
535.297	91
535.511	111
535.726	104
535.94	99
536.154	86
536.369	101
536.583	82
536.797	99
537.011	90
537.225	93
537.44	73
537.654	94
537.868	92
538.082	73
538.296	84
538.51	84
538.724	89
538.938	85
539.153	97
539.367	105
539.581	99
539.795	89
540.009	92
540.222	99
540.436	88
540.65	95
540.864	86
541.078	92
541.292	88
541.506	97
541.72	96
541.934	97
542.147	91
542.361	91
542.575	82
542.789	76
543.002	80
543.216	100
543.43	90
543.644	96
543.857	96
544.071	88
544.285	84
544.498	98
544.712	84
544.925	102
545.139	101
545.352	96
545.566	85
545.779	106
545.993	85
546.206	86
546.42	82
546.633	78
546.847	91
547.06	97
547.274	94
547.487	91
547.7	83
547.914	66
548.127	88
548.34	82
548.554	72
548.767	89
548.98	85
549.193	82
549.407	92
549.62	81
549.833	87
550.046	74
550.259	74
550.473	76
550.686	63
550.899	89
551.112	91
551.325	94
551.538	87
551.751	104
551.964	78
552.177	82
552.39	88
552.603	82
552.816	82
553.029	82
553.242	95
553.455	95
553.667	112
553.88	89
554.093	89
554.306	85
554.519	82
554.732	72
554.944	103
555.157	94
555.37	88
555.583	85
555.795	85
556.008	85
556.221	88
556.433	90
556.646	97
556.859	84
557.071	93
557.284	100
557.496	99
557.709	83
557.921	88
558.134	101
558.346	88
558.559	86
558.771	100
558.984	82
559.196	69
559.409	86
559.621	92
559.833	96
560.046	97
560.258	83
560.47	90
560.683	86
560.895	82
561.107	94
561.32	101
561.532	87
561.744	98
561.956	83
562.168	88
562.381	100
562.593	92
562.805	92
563.017	89
563.229	94
563.441	79
563.653	61
563.865	92
564.077	87
564.289	94
564.501	80
564.713	91
564.925	79
565.137	98
565.349	84
565.561	77
565.773	80
565.985	85
566.197	91
566.408	81
566.62	64
566.832	82
567.044	90
567.255	85
567.467	82
567.679	95
567.891	87
568.102	86
568.314	93
568.526	84
568.737	100
568.949	80
569.161	76
569.372	94
569.584	80
569.795	96
570.007	115
570.218	243
570.43	133
570.641	107
570.853	84
571.064	81
571.276	88
571.487	89
571.698	89
571.91	83
572.121	78
572.333	91
572.544	79
572.755	94
572.966	74
573.178	76
573.389	89
573.6	92
573.811	102
574.023	96
574.234	95
574.445	83
574.656	81
574.867	102
575.078	97
575.289	100
575.501	81
575.712	88
575.923	94
576.134	94
576.345	78
576.556	87
576.767	81
576.978	93
577.188	101
577.399	84
577.61	97
577.821	95
578.032	124
578.243	250
578.454	718
578.665	215
578.875	88
579.086	87
579.297	87
579.508	92
579.718	96
579.929	101
580.14	80
580.35	102
580.561	88
580.772	85
580.982	91
581.193	80
581.403	88
581.614	80
581.825	85
582.035	88
582.246	80
582.456	81
582.667	80
582.877	89
583.087	91
583.298	95
583.508	85
583.719	78
583.929	101
584.139	68
584.35	83
