Data from Uncirc_1989_H10_HRD10591_00010.txt Node
Date: Wed Jan 03 11:57:37 EST 2024
User: Yrep
Spectrometer: HR+D1059
Trigger mode: 1
Integration Time (sec): 1.000000E-1
Scans to average: 1
Electric dark correction enabled: true
Nonlinearity correction enabled: false
Boxcar width: 0
XAxis mode: Wavelengths
Number of Pixels in Spectrum: 2048
>>>>>Begin Spectral Data<<<<<
223.165	-15.31
223.4	-15.31
223.635	-15.31
223.869	-15.31
224.104	-29.31
224.338	-29.31
224.573	-22.31
224.808	-16.31
225.042	7.69
225.277	-10.31
225.511	9.69
225.746	2.69
225.98	1.69
226.215	18.69
226.449	17.69
226.683	17.69
226.918	30.69
227.152	31.69
227.387	39.69
227.621	44.69
227.856	47.69
228.09	37.69
228.324	41.69
228.559	49.69
228.793	57.69
229.027	57.69
229.262	66.69
229.496	73.69
229.73	85.69
229.964	62.69
230.199	61.69
230.433	63.69
230.667	67.69
230.901	84.69
231.136	83.69
231.37	73.69
231.604	71.69
231.838	73.69
232.072	86.69
232.306	97.69
232.541	89.69
232.775	77.69
233.009	78.69
233.243	100.69
233.477	75.69
233.711	97.69
233.945	69.69
234.179	90.69
234.413	59.69
234.647	79.69
234.881	82.69
235.115	77.69
235.349	68.69
235.583	84.69
235.817	85.69
236.051	61.69
236.285	60.69
236.519	79.69
236.753	69.69
236.987	77.69
237.221	67.69
237.455	83.69
237.689	77.69
237.922	73.69
238.156	70.69
238.39	60.69
238.624	77.69
238.858	62.69
239.091	68.69
239.325	79.69
239.559	75.69
239.793	66.69
240.027	84.69
240.26	76.69
240.494	80.69
240.728	80.69
240.961	66.69
241.195	68.69
241.429	63.69
241.662	65.69
241.896	82.69
242.13	71.69
242.363	73.69
242.597	65.69
242.83	63.69
243.064	64.69
243.298	69.69
243.531	91.69
243.765	74.69
243.998	78.69
244.232	86.69
244.465	84.69
244.699	81.69
244.932	81.69
245.166	71.69
245.399	77.69
245.633	69.69
245.866	79.69
246.099	76.69
246.333	78.69
246.566	77.69
246.8	59.69
247.033	81.69
247.266	70.69
247.5	64.69
247.733	71.69
247.966	76.69
248.2	66.69
248.433	91.69
248.666	71.69
248.899	69.69
249.133	86.69
249.366	75.69
249.599	83.69
249.832	74.69
250.066	86.69
250.299	72.69
250.532	82.69
250.765	77.69
250.998	88.69
251.231	69.69
251.465	81.69
251.698	73.69
251.931	86.69
252.164	75.69
252.397	83.69
252.63	74.69
252.863	85.69
253.096	75.69
253.329	92.69
253.562	74.69
253.795	65.69
254.028	70.69
254.261	77.69
254.494	62.69
254.727	76.69
254.96	67.69
255.193	79.69
255.426	77.69
255.659	92.69
255.892	85.69
256.124	73.69
256.357	85.69
256.59	86.69
256.823	69.69
257.056	89.69
257.289	83.69
257.521	79.69
257.754	77.69
257.987	70.69
258.22	75.69
258.452	89.69
258.685	67.69
258.918	80.69
259.151	79.69
259.383	81.69
259.616	90.69
259.849	65.69
260.081	75.69
260.314	83.69
260.547	84.69
260.779	82.69
261.012	85.69
261.244	73.69
261.477	87.69
261.71	94.69
261.942	102.69
262.175	101.69
262.407	75.69
262.64	97.69
262.872	73.69
263.105	67.69
263.337	85.69
263.57	93.69
263.802	94.69
264.035	95.69
264.267	65.69
264.499	77.69
264.732	76.69
264.964	86.69
265.197	85.69
265.429	83.69
265.661	88.69
265.894	88.69
266.126	93.69
266.358	92.69
266.591	61.69
266.823	83.69
267.055	68.69
267.287	82.69
267.52	85.69
267.752	82.69
267.984	74.69
268.216	66.69
268.448	88.69
268.681	67.69
268.913	84.69
269.145	75.69
269.377	79.69
269.609	88.69
269.841	99.69
270.073	73.69
270.306	94.69
270.538	81.69
270.77	85.69
271.002	86.69
271.234	87.69
271.466	82.69
271.698	89.69
271.93	70.69
272.162	81.69
272.394	81.69
272.626	77.69
272.858	83.69
273.09	89.69
273.322	82.69
273.553	94.69
273.785	83.69
274.017	72.69
274.249	91.69
274.481	92.69
274.713	76.69
274.945	81.69
275.176	88.69
275.408	79.69
275.64	83.69
275.872	71.69
276.104	87.69
276.335	90.69
276.567	88.69
276.799	102.69
277.031	82.69
277.262	68.69
277.494	75.69
277.726	83.69
277.957	89.69
278.189	86.69
278.421	82.69
278.652	83.69
278.884	94.69
279.115	79.69
279.347	84.69
279.579	77.69
279.81	94.69
280.042	76.69
280.273	83.69
280.505	77.69
280.736	90.69
280.968	81.69
281.199	89.69
281.431	80.69
281.662	91.69
281.894	95.69
282.125	84.69
282.356	107.69
282.588	117.69
282.819	83.69
283.051	95.69
283.282	78.69
283.513	76.69
283.745	93.69
283.976	83.69
284.207	72.69
284.439	75.69
284.67	79.69
284.901	86.69
285.132	83.69
285.364	80.69
285.595	84.69
285.826	84.69
286.057	96.69
286.288	78.69
286.52	77.69
286.751	78.69
286.982	85.69
287.213	78.69
287.444	65.69
287.675	89.69
287.906	99.69
288.138	91.69
288.369	77.69
288.6	84.69
288.831	82.69
289.062	82.69
289.293	74.69
289.524	84.69
289.755	75.69
289.986	98.69
290.217	85.69
290.448	90.69
290.679	63.69
290.91	90.69
291.141	100.69
291.371	106.69
291.602	88.69
291.833	81.69
292.064	86.69
292.295	74.69
292.526	88.69
292.757	81.69
292.987	68.69
293.218	96.69
293.449	81.69
293.68	89.69
293.91	71.69
294.141	81.69
294.372	92.69
294.603	87.69
294.833	73.69
295.064	79.69
295.295	86.69
295.525	76.69
295.756	82.69
295.987	106.69
296.217	114.69
296.448	103.69
296.679	87.69
296.909	83.69
297.14	92.69
297.37	80.69
297.601	82.69
297.831	89.69
298.062	88.69
298.292	81.69
298.523	102.69
298.753	88.69
298.984	86.69
299.214	101.69
299.445	70.69
299.675	90.69
299.905	78.69
300.136	93.69
300.366	84.69
300.597	85.69
300.827	71.69
301.057	103.69
301.288	88.69
301.518	90.69
301.748	75.69
301.979	105.69
302.209	95.69
302.439	87.69
302.669	73.69
302.9	90.69
303.13	61.69
303.36	100.69
303.59	81.69
303.82	94.69
304.051	84.69
304.281	82.69
304.511	91.69
304.741	92.69
304.971	84.69
305.201	85.69
305.431	84.69
305.661	94.69
305.891	90.69
306.121	84.69
306.352	90.69
306.582	83.69
306.812	85.69
307.042	89.69
307.272	92.69
307.502	77.69
307.731	102.69
307.961	89.69
308.191	99.69
308.421	92.69
308.651	78.69
308.881	81.69
309.111	89.69
309.341	93.69
309.571	94.69
309.8	71.69
310.03	96.69
310.26	97.69
310.49	100.69
310.72	84.69
310.949	106.69
311.179	109.69
311.409	94.69
311.639	93.69
311.868	93.69
312.098	89.69
312.328	104.69
312.557	94.69
312.787	97.69
313.017	103.69
313.246	113.69
313.476	91.69
313.706	92.69
313.935	85.69
314.165	87.69
314.394	98.69
314.624	83.69
314.853	89.69
315.083	83.69
315.312	92.69
315.542	78.69
315.771	77.69
316.001	93.69
316.23	84.69
316.46	65.69
316.689	95.69
316.919	82.69
317.148	97.69
317.377	105.69
317.607	86.69
317.836	86.69
318.065	100.69
318.295	91.69
318.524	96.69
318.753	95.69
318.983	86.69
319.212	87.69
319.441	97.69
319.67	92.69
319.9	84.69
320.129	91.69
320.358	94.69
320.587	103.69
320.816	92.69
321.046	94.69
321.275	83.69
321.504	86.69
321.733	91.69
321.962	83.69
322.191	97.69
322.42	100.69
322.649	97.69
322.878	103.69
323.108	102.69
323.337	115.69
323.566	118.69
323.795	135.69
324.024	167.69
324.253	321.69
324.482	681.69
324.71	1326.69
324.939	1759.69
325.168	645.69
325.397	208.69
325.626	125.69
325.855	123.69
326.084	110.69
326.313	127.69
326.542	144.69
326.77	199.69
326.999	371.69
327.228	780.69
327.457	1405.69
327.686	1121.69
327.914	309.69
328.143	160.69
328.372	143.69
328.6	110.69
328.829	100.69
329.058	105.69
329.287	106.69
329.515	97.69
329.744	106.69
329.972	100.69
330.201	108.69
330.43	117.69
330.658	110.69
330.887	110.69
331.115	99.69
331.344	98.69
331.572	91.69
331.801	91.69
332.03	94.69
332.258	108.69
332.486	98.69
332.715	107.69
332.943	83.69
333.172	99.69
333.4	109.69
333.629	102.69
333.857	107.69
334.085	83.69
334.314	113.69
334.542	113.69
334.771	122.69
334.999	93.69
335.227	89.69
335.455	92.69
335.684	87.69
335.912	94.69
336.14	94.69
336.369	111.69
336.597	89.69
336.825	84.69
337.053	85.69
337.281	83.69
337.51	82.69
337.738	89.69
337.966	81.69
338.194	85.69
338.422	87.69
338.65	89.69
338.878	83.69
339.106	91.69
339.334	100.69
339.562	96.69
339.79	92.69
340.018	74.69
340.246	92.69
340.474	81.69
340.702	83.69
340.93	85.69
341.158	90.69
341.386	83.69
341.614	93.69
341.842	78.69
342.07	84.69
342.298	82.69
342.526	96.69
342.754	79.69
342.981	84.69
343.209	94.69
343.437	95.69
343.665	75.69
343.893	86.69
344.12	106.69
344.348	91.69
344.576	97.69
344.804	101.69
345.031	90.69
345.259	90.69
345.487	89.69
345.714	98.69
345.942	92.69
346.17	96.69
346.397	101.69
346.625	99.69
346.853	80.69
347.08	98.69
347.308	100.69
347.535	103.69
347.763	93.69
347.99	99.69
348.218	84.69
348.445	101.69
348.673	93.69
348.9	93.69
349.128	91.69
349.355	85.69
349.583	98.69
349.81	75.69
350.037	90.69
350.265	90.69
350.492	82.69
350.72	97.69
350.947	87.69
351.174	90.69
351.402	101.69
351.629	102.69
351.856	93.69
352.083	93.69
352.311	98.69
352.538	106.69
352.765	111.69
352.992	103.69
353.22	102.69
353.447	107.69
353.674	96.69
353.901	102.69
354.128	98.69
354.355	81.69
354.583	102.69
354.81	97.69
355.037	96.69
355.264	74.69
355.491	79.69
355.718	83.69
355.945	84.69
356.172	85.69
356.399	94.69
356.626	101.69
356.853	98.69
357.08	93.69
357.307	86.69
357.534	84.69
357.761	89.69
357.988	99.69
358.215	93.69
358.441	107.69
358.668	93.69
358.895	82.69
359.122	88.69
359.349	82.69
359.576	98.69
359.802	85.69
360.029	103.69
360.256	89.69
360.483	98.69
360.709	82.69
360.936	99.69
361.163	96.69
361.39	90.69
361.616	93.69
361.843	92.69
362.07	93.69
362.296	94.69
362.523	85.69
362.749	94.69
362.976	94.69
363.203	92.69
363.429	86.69
363.656	81.69
363.882	83.69
364.109	84.69
364.335	74.69
364.562	86.69
364.788	87.69
365.015	94.69
365.241	89.69
365.468	83.69
365.694	86.69
365.92	93.69
366.147	103.69
366.373	77.69
366.599	86.69
366.826	99.69
367.052	82.69
367.278	87.69
367.505	92.69
367.731	86.69
367.957	90.69
368.184	91.69
368.41	103.69
368.636	104.69
368.862	83.69
369.089	105.69
369.315	93.69
369.541	91.69
369.767	79.69
369.993	100.69
370.219	85.69
370.445	97.69
370.672	94.69
370.898	81.69
371.124	86.69
371.35	97.69
371.576	74.69
371.802	73.69
372.028	85.69
372.254	94.69
372.48	73.69
372.706	78.69
372.932	74.69
373.158	83.69
373.384	96.69
373.61	91.69
373.835	98.69
374.061	79.69
374.287	86.69
374.513	84.69
374.739	90.69
374.965	87.69
375.191	88.69
375.416	98.69
375.642	82.69
375.868	91.69
376.094	95.69
376.319	87.69
376.545	87.69
376.771	89.69
376.997	87.69
377.222	90.69
377.448	109.69
377.674	108.69
377.899	87.69
378.125	98.69
378.35	73.69
378.576	100.69
378.802	89.69
379.027	77.69
379.253	86.69
379.478	83.69
379.704	93.69
379.929	91.69
380.155	99.69
380.38	93.69
380.606	99.69
380.831	89.69
381.057	98.69
381.282	90.69
381.507	87.69
381.733	86.69
381.958	88.69
382.184	99.69
382.409	93.69
382.634	93.69
382.86	86.69
383.085	109.69
383.31	92.69
383.535	109.69
383.761	78.69
383.986	97.69
384.211	93.69
384.436	95.69
384.662	93.69
384.887	98.69
385.112	109.69
385.337	107.69
385.562	103.69
385.787	87.69
386.013	114.69
386.238	108.69
386.463	97.69
386.688	105.69
386.913	109.69
387.138	89.69
387.363	102.69
387.588	111.69
387.813	100.69
388.038	107.69
388.263	109.69
388.488	120.69
388.713	93.69
388.938	90.69
389.163	93.69
389.387	86.69
389.612	81.69
389.837	101.69
390.062	99.69
390.287	83.69
390.512	97.69
390.736	88.69
390.961	86.69
391.186	83.69
391.411	100.69
391.636	88.69
391.86	95.69
392.085	80.69
392.31	75.69
392.534	84.69
392.759	81.69
392.984	83.69
393.208	98.69
393.433	131.69
393.658	109.69
393.882	95.69
394.107	84.69
394.331	93.69
394.556	88.69
394.78	81.69
395.005	87.69
395.229	77.69
395.454	86.69
395.678	89.69
395.903	97.69
396.127	76.69
396.352	88.69
396.576	82.69
396.801	100.69
397.025	95.69
397.249	100.69
397.474	102.69
397.698	89.69
397.922	91.69
398.147	66.69
398.371	81.69
398.595	74.69
398.82	81.69
399.044	67.69
399.268	70.69
399.492	84.69
399.717	102.69
399.941	101.69
400.165	78.69
400.389	75.69
400.613	78.69
400.837	89.69
401.062	89.69
401.286	91.69
401.51	97.69
401.734	91.69
401.958	99.69
402.182	105.69
402.406	112.69
402.63	96.69
402.854	90.69
403.078	65.69
403.302	84.69
403.526	84.69
403.75	93.69
403.974	77.69
404.198	88.69
404.422	84.69
404.645	83.69
404.869	87.69
405.093	85.69
405.317	105.69
405.541	105.69
405.765	92.69
405.988	107.69
406.212	147.69
406.436	167.69
406.66	118.69
406.883	76.69
407.107	88.69
407.331	93.69
407.555	97.69
407.778	82.69
408.002	89.69
408.226	77.69
408.449	78.69
408.673	89.69
408.896	96.69
409.12	98.69
409.344	90.69
409.567	91.69
409.791	96.69
410.014	106.69
410.238	106.69
410.461	74.69
410.685	86.69
410.908	96.69
411.132	100.69
411.355	83.69
411.578	97.69
411.802	80.69
412.025	88.69
412.249	94.69
412.472	82.69
412.695	89.69
412.919	86.69
413.142	69.69
413.365	81.69
413.589	84.69
413.812	85.69
414.035	100.69
414.258	96.69
414.482	93.69
414.705	94.69
414.928	96.69
415.151	100.69
415.374	77.69
415.597	91.69
415.821	93.69
416.044	66.69
416.267	97.69
416.49	87.69
416.713	77.69
416.936	87.69
417.159	95.69
417.382	83.69
417.605	81.69
417.828	92.69
418.051	77.69
418.274	85.69
418.497	87.69
418.72	83.69
418.943	78.69
419.166	84.69
419.389	62.69
419.611	77.69
419.834	85.69
420.057	90.69
420.28	70.69
420.503	82.69
420.726	79.69
420.948	87.69
421.171	84.69
421.394	88.69
421.617	77.69
421.839	79.69
422.062	88.69
422.285	101.69
422.507	96.69
422.73	103.69
422.953	88.69
423.175	96.69
423.398	97.69
423.621	85.69
423.843	83.69
424.066	89.69
424.288	67.69
424.511	83.69
424.733	86.69
424.956	91.69
425.178	76.69
425.401	103.69
425.623	103.69
425.846	87.69
426.068	92.69
426.291	94.69
426.513	78.69
426.735	92.69
426.958	85.69
427.18	91.69
427.402	114.69
427.625	122.69
427.847	101.69
428.069	114.69
428.292	89.69
428.514	69.69
428.736	76.69
428.958	79.69
429.181	75.69
429.403	89.69
429.625	83.69
429.847	96.69
430.069	85.69
430.292	81.69
430.514	86.69
430.736	88.69
430.958	93.69
431.18	85.69
431.402	75.69
431.624	73.69
431.846	80.69
432.068	85.69
432.29	75.69
432.512	75.69
432.734	85.69
432.956	85.69
433.178	110.69
433.4	90.69
433.622	89.69
433.844	85.69
434.066	81.69
434.287	93.69
434.509	90.69
434.731	77.69
434.953	77.69
435.175	88.69
435.397	87.69
435.618	97.69
435.84	90.69
436.062	108.69
436.284	103.69
436.505	91.69
436.727	74.69
436.949	81.69
437.17	91.69
437.392	70.69
437.614	79.69
437.835	102.69
438.057	116.69
438.278	100.69
438.5	94.69
438.721	108.69
438.943	84.69
439.165	89.69
439.386	89.69
439.608	80.69
439.829	89.69
440.05	104.69
440.272	125.69
440.493	103.69
440.715	91.69
440.936	93.69
441.158	84.69
441.379	78.69
441.6	86.69
441.822	96.69
442.043	86.69
442.264	90.69
442.486	92.69
442.707	89.69
442.928	101.69
443.149	132.69
443.371	116.69
443.592	91.69
443.813	93.69
444.034	97.69
444.255	95.69
444.476	87.69
444.698	77.69
444.919	82.69
445.14	125.69
445.361	114.69
445.582	113.69
445.803	119.69
446.024	103.69
446.245	110.69
446.466	105.69
446.687	79.69
446.908	90.69
447.129	89.69
447.35	93.69
447.571	95.69
447.792	73.69
448.013	99.69
448.234	101.69
448.455	95.69
448.675	111.69
448.896	116.69
449.117	94.69
449.338	95.69
449.559	111.69
449.779	109.69
450	85.69
450.221	77.69
450.442	88.69
450.662	90.69
450.883	110.69
451.104	114.69
451.324	82.69
451.545	68.69
451.766	83.69
451.986	93.69
452.207	91.69
452.428	82.69
452.648	94.69
452.869	109.69
453.089	90.69
453.31	101.69
453.53	80.69
453.751	85.69
453.971	83.69
454.192	87.69
454.412	63.69
454.633	79.69
454.853	90.69
455.073	88.69
455.294	84.69
455.514	89.69
455.734	77.69
455.955	74.69
456.175	79.69
456.395	91.69
456.616	73.69
456.836	92.69
457.056	95.69
457.276	84.69
457.497	85.69
457.717	93.69
457.937	81.69
458.157	79.69
458.377	72.69
458.598	86.69
458.818	119.69
459.038	119.69
459.258	102.69
459.478	91.69
459.698	86.69
459.918	86.69
460.138	84.69
460.358	89.69
460.578	89.69
460.798	94.69
461.018	83.69
461.238	87.69
461.458	73.69
461.678	77.69
461.898	75.69
462.118	85.69
462.338	87.69
462.558	88.69
462.777	86.69
462.997	85.69
463.217	85.69
463.437	85.69
463.657	91.69
463.876	75.69
464.096	84.69
464.316	81.69
464.536	96.69
464.755	91.69
464.975	83.69
465.195	125.69
465.414	129.69
465.634	83.69
465.854	77.69
466.073	77.69
466.293	83.69
466.512	91.69
466.732	85.69
466.951	84.69
467.171	85.69
467.391	85.69
467.61	94.69
467.829	110.69
468.049	102.69
468.268	93.69
468.488	95.69
468.707	92.69
468.927	98.69
469.146	71.69
469.365	88.69
469.585	79.69
469.804	91.69
470.023	85.69
470.243	87.69
470.462	97.69
470.681	102.69
470.901	86.69
471.12	80.69
471.339	89.69
471.558	82.69
471.777	79.69
471.997	98.69
472.216	90.69
472.435	125.69
472.654	85.69
472.873	88.69
473.092	76.69
473.311	94.69
473.53	91.69
473.749	77.69
473.968	91.69
474.187	98.69
474.406	93.69
474.625	85.69
474.844	73.69
475.063	69.69
475.282	96.69
475.501	94.69
475.72	85.69
475.939	95.69
476.158	84.69
476.377	85.69
476.596	93.69
476.814	85.69
477.033	84.69
477.252	84.69
477.471	83.69
477.69	91.69
477.908	81.69
478.127	84.69
478.346	86.69
478.564	79.69
478.783	88.69
479.002	91.69
479.22	78.69
479.439	95.69
479.658	109.69
479.876	83.69
480.095	89.69
480.313	97.69
480.532	82.69
480.751	76.69
480.969	103.69
481.188	195.69
481.406	129.69
481.624	89.69
481.843	91.69
482.061	95.69
482.28	91.69
482.498	78.69
482.717	80.69
482.935	83.69
483.153	94.69
483.372	78.69
483.59	90.69
483.808	89.69
484.027	84.69
484.245	79.69
484.463	86.69
484.681	88.69
484.9	99.69
485.118	81.69
485.336	95.69
485.554	103.69
485.772	99.69
485.99	93.69
486.209	100.69
486.427	104.69
486.645	114.69
486.863	114.69
487.081	101.69
487.299	82.69
487.517	84.69
487.735	72.69
487.953	84.69
488.171	90.69
488.389	104.69
488.607	84.69
488.825	91.69
489.043	68.69
489.261	84.69
489.479	86.69
489.696	77.69
489.914	77.69
490.132	74.69
490.35	90.69
490.568	94.69
490.786	86.69
491.003	106.69
491.221	89.69
491.439	90.69
491.657	85.69
491.874	93.69
492.092	96.69
492.31	83.69
492.527	88.69
492.745	86.69
492.963	98.69
493.18	93.69
493.398	107.69
493.615	101.69
493.833	90.69
494.05	93.69
494.268	89.69
494.485	89.69
494.703	71.69
494.92	83.69
495.138	86.69
495.355	93.69
495.573	113.69
495.79	88.69
496.008	88.69
496.225	84.69
496.442	78.69
496.66	104.69
496.877	77.69
497.094	91.69
497.312	90.69
497.529	80.69
497.746	91.69
497.963	96.69
498.181	83.69
498.398	92.69
498.615	97.69
498.832	103.69
499.049	87.69
499.267	87.69
499.484	85.69
499.701	95.69
499.918	84.69
500.135	96.69
500.352	86.69
500.569	87.69
500.786	93.69
501.003	69.69
501.22	73.69
501.437	97.69
501.654	91.69
501.871	115.69
502.088	103.69
502.305	82.69
502.522	101.69
502.739	90.69
502.956	109.69
503.172	83.69
503.389	89.69
503.606	86.69
503.823	92.69
504.04	99.69
504.256	93.69
504.473	88.69
504.69	79.69
504.907	89.69
505.123	89.69
505.34	85.69
505.557	90.69
505.773	86.69
505.99	75.69
506.207	87.69
506.423	82.69
506.64	89.69
506.856	86.69
507.073	93.69
507.289	102.69
507.506	94.69
507.722	104.69
507.939	99.69
508.155	103.69
508.372	95.69
508.588	98.69
508.805	83.69
509.021	78.69
509.238	90.69
509.454	93.69
509.67	103.69
509.887	102.69
510.103	102.69
510.319	171.69
510.536	552.69
510.752	1623.69
510.968	423.69
511.184	128.69
511.401	92.69
511.617	99.69
511.833	96.69
512.049	79.69
512.265	102.69
512.481	88.69
512.698	63.69
512.914	91.69
513.13	87.69
513.346	83.69
513.562	70.69
513.778	94.69
513.994	102.69
514.21	90.69
514.426	97.69
514.642	107.69
514.858	119.69
515.074	141.69
515.29	318.69
515.506	997.69
515.721	388.69
515.937	132.69
516.153	114.69
516.369	102.69
516.585	75.69
516.801	94.69
