Data from Uncirc_1989_H10_HRD10591_00088.txt Node
Date: Wed Jan 03 11:57:53 EST 2024
User: Yrep
Spectrometer: HR+D1059
Trigger mode: 1
Integration Time (sec): 1.000000E-1
Scans to average: 1
Electric dark correction enabled: true
Nonlinearity correction enabled: false
Boxcar width: 0
XAxis mode: Wavelengths
Number of Pixels in Spectrum: 2048
>>>>>Begin Spectral Data<<<<<
223.165	-23.69
223.4	-23.69
223.635	-23.69
223.869	-24.69
224.104	-18.69
224.338	-24.69
224.573	-21.69
224.808	-10.69
225.042	-12.69
225.277	-4.69
225.511	6.31
225.746	10.31
225.98	-9.69
226.215	14.31
226.449	40.31
226.683	25.31
226.918	22.31
227.152	32.31
227.387	41.31
227.621	43.31
227.856	53.31
228.09	51.31
228.324	56.31
228.559	85.31
228.793	59.31
229.027	71.31
229.262	73.31
229.496	74.31
229.73	81.31
229.964	79.31
230.199	74.31
230.433	69.31
230.667	73.31
230.901	92.31
231.136	81.31
231.37	91.31
231.604	86.31
231.838	72.31
232.072	77.31
232.306	83.31
232.541	84.31
232.775	76.31
233.009	83.31
233.243	79.31
233.477	83.31
233.711	80.31
233.945	74.31
234.179	98.31
234.413	89.31
234.647	91.31
234.881	72.31
235.115	72.31
235.349	77.31
235.583	85.31
235.817	89.31
236.051	82.31
236.285	68.31
236.519	68.31
236.753	71.31
236.987	84.31
237.221	87.31
237.455	83.31
237.689	84.31
237.922	75.31
238.156	81.31
238.39	82.31
238.624	82.31
238.858	70.31
239.091	84.31
239.325	81.31
239.559	90.31
239.793	65.31
240.027	89.31
240.26	71.31
240.494	80.31
240.728	73.31
240.961	73.31
241.195	86.31
241.429	87.31
241.662	84.31
241.896	74.31
242.13	79.31
242.363	83.31
242.597	81.31
242.83	76.31
243.064	93.31
243.298	77.31
243.531	77.31
243.765	80.31
243.998	83.31
244.232	80.31
244.465	80.31
244.699	89.31
244.932	85.31
245.166	87.31
245.399	82.31
245.633	75.31
245.866	73.31
246.099	79.31
246.333	69.31
246.566	67.31
246.8	92.31
247.033	100.31
247.266	93.31
247.5	89.31
247.733	79.31
247.966	87.31
248.2	82.31
248.433	79.31
248.666	91.31
248.899	88.31
249.133	81.31
249.366	101.31
249.599	99.31
249.832	93.31
250.066	94.31
250.299	73.31
250.532	74.31
250.765	91.31
250.998	75.31
251.231	88.31
251.465	88.31
251.698	87.31
251.931	82.31
252.164	98.31
252.397	72.31
252.63	96.31
252.863	86.31
253.096	84.31
253.329	72.31
253.562	87.31
253.795	73.31
254.028	93.31
254.261	83.31
254.494	79.31
254.727	83.31
254.96	87.31
255.193	77.31
255.426	93.31
255.659	86.31
255.892	96.31
256.124	84.31
256.357	81.31
256.59	91.31
256.823	96.31
257.056	81.31
257.289	98.31
257.521	73.31
257.754	86.31
257.987	91.31
258.22	86.31
258.452	85.31
258.685	79.31
258.918	77.31
259.151	88.31
259.383	90.31
259.616	94.31
259.849	93.31
260.081	81.31
260.314	101.31
260.547	88.31
260.779	85.31
261.012	95.31
261.244	89.31
261.477	95.31
261.71	83.31
261.942	123.31
262.175	104.31
262.407	95.31
262.64	91.31
262.872	90.31
263.105	80.31
263.337	82.31
263.57	91.31
263.802	76.31
264.035	75.31
264.267	83.31
264.499	81.31
264.732	85.31
264.964	99.31
265.197	90.31
265.429	86.31
265.661	72.31
265.894	87.31
266.126	93.31
266.358	95.31
266.591	85.31
266.823	84.31
267.055	74.31
267.287	77.31
267.52	100.31
267.752	84.31
267.984	85.31
268.216	100.31
268.448	93.31
268.681	96.31
268.913	92.31
269.145	72.31
269.377	89.31
269.609	108.31
269.841	94.31
270.073	84.31
270.306	92.31
270.538	96.31
270.77	97.31
271.002	106.31
271.234	83.31
271.466	83.31
271.698	91.31
271.93	95.31
272.162	94.31
272.394	87.31
272.626	85.31
272.858	82.31
273.09	88.31
273.322	87.31
273.553	93.31
273.785	86.31
274.017	104.31
274.249	83.31
274.481	93.31
274.713	97.31
274.945	87.31
275.176	91.31
275.408	100.31
275.64	89.31
275.872	93.31
276.104	87.31
276.335	89.31
276.567	108.31
276.799	101.31
277.031	113.31
277.262	106.31
277.494	103.31
277.726	99.31
277.957	96.31
278.189	99.31
278.421	81.31
278.652	74.31
278.884	96.31
279.115	96.31
279.347	89.31
279.579	80.31
279.81	95.31
280.042	100.31
280.273	110.31
280.505	101.31
280.736	93.31
280.968	95.31
281.199	99.31
281.431	92.31
281.662	81.31
281.894	105.31
282.125	102.31
282.356	117.31
282.588	125.31
282.819	110.31
283.051	102.31
283.282	90.31
283.513	98.31
283.745	87.31
283.976	90.31
284.207	74.31
284.439	102.31
284.67	87.31
284.901	89.31
285.132	84.31
285.364	96.31
285.595	89.31
285.826	98.31
286.057	87.31
286.288	100.31
286.52	94.31
286.751	93.31
286.982	89.31
287.213	103.31
287.444	84.31
287.675	95.31
287.906	95.31
288.138	101.31
288.369	88.31
288.6	97.31
288.831	95.31
289.062	93.31
289.293	91.31
289.524	102.31
289.755	92.31
289.986	90.31
290.217	78.31
290.448	100.31
290.679	89.31
290.91	99.31
291.141	90.31
291.371	87.31
291.602	100.31
291.833	103.31
292.064	95.31
292.295	93.31
292.526	89.31
292.757	91.31
292.987	104.31
293.218	93.31
293.449	75.31
293.68	82.31
293.91	80.31
294.141	87.31
294.372	98.31
294.603	101.31
294.833	103.31
295.064	87.31
295.295	101.31
295.525	99.31
295.756	83.31
295.987	100.31
296.217	124.31
296.448	122.31
296.679	75.31
296.909	99.31
297.14	75.31
297.37	98.31
297.601	83.31
297.831	99.31
298.062	96.31
298.292	96.31
298.523	103.31
298.753	98.31
298.984	90.31
299.214	93.31
299.445	91.31
299.675	90.31
299.905	93.31
300.136	108.31
300.366	88.31
300.597	98.31
300.827	98.31
301.057	90.31
301.288	109.31
301.518	95.31
301.748	97.31
301.979	102.31
302.209	93.31
302.439	79.31
302.669	88.31
302.9	106.31
303.13	87.31
303.36	97.31
303.59	93.31
303.82	105.31
304.051	105.31
304.281	92.31
304.511	97.31
304.741	76.31
304.971	87.31
305.201	87.31
305.431	86.31
305.661	98.31
305.891	99.31
306.121	95.31
306.352	94.31
306.582	90.31
306.812	99.31
307.042	106.31
307.272	106.31
307.502	127.31
307.731	97.31
307.961	93.31
308.191	102.31
308.421	95.31
308.651	80.31
308.881	88.31
309.111	93.31
309.341	89.31
309.571	99.31
309.8	87.31
310.03	97.31
310.26	106.31
310.49	95.31
310.72	100.31
310.949	103.31
311.179	116.31
311.409	97.31
311.639	108.31
311.868	105.31
312.098	89.31
312.328	97.31
312.557	106.31
312.787	114.31
313.017	98.31
313.246	103.31
313.476	110.31
313.706	85.31
313.935	96.31
314.165	105.31
314.394	104.31
314.624	93.31
314.853	90.31
315.083	84.31
315.312	89.31
315.542	90.31
315.771	101.31
316.001	111.31
316.23	104.31
316.46	79.31
316.689	99.31
316.919	102.31
317.148	100.31
317.377	92.31
317.607	89.31
317.836	95.31
318.065	88.31
318.295	99.31
318.524	92.31
318.753	91.31
318.983	108.31
319.212	99.31
319.441	92.31
319.67	112.31
319.9	96.31
320.129	79.31
320.358	89.31
320.587	94.31
320.816	108.31
321.046	109.31
321.275	109.31
321.504	109.31
321.733	101.31
321.962	99.31
322.191	102.31
322.42	116.31
322.649	105.31
322.878	122.31
323.108	116.31
323.337	120.31
323.566	118.31
323.795	146.31
324.024	183.31
324.253	357.31
324.482	727.31
324.71	1472.31
324.939	1881.31
325.168	694.31
325.397	216.31
325.626	132.31
325.855	119.31
326.084	123.31
326.313	143.31
326.542	140.31
326.77	227.31
326.999	405.31
327.228	833.31
327.457	1513.31
327.686	1186.31
327.914	357.31
328.143	220.31
328.372	193.31
328.6	141.31
328.829	113.31
329.058	118.31
329.287	136.31
329.515	123.31
329.744	124.31
329.972	134.31
330.201	214.31
330.43	262.31
330.658	147.31
330.887	140.31
331.115	117.31
331.344	107.31
331.572	110.31
331.801	107.31
332.03	99.31
332.258	105.31
332.486	102.31
332.715	84.31
332.943	93.31
333.172	88.31
333.4	96.31
333.629	118.31
333.857	120.31
334.085	163.31
334.314	231.31
334.542	312.31
334.771	289.31
334.999	137.31
335.227	100.31
335.455	95.31
335.684	96.31
335.912	102.31
336.14	111.31
336.369	113.31
336.597	100.31
336.825	108.31
337.053	113.31
337.281	81.31
337.51	96.31
337.738	84.31
337.966	102.31
338.194	97.31
338.422	85.31
338.65	91.31
338.878	114.31
339.106	92.31
339.334	102.31
339.562	87.31
339.79	98.31
340.018	96.31
340.246	97.31
340.474	98.31
340.702	88.31
340.93	110.31
341.158	92.31
341.386	93.31
341.614	101.31
341.842	100.31
342.07	96.31
342.298	100.31
342.526	112.31
342.754	88.31
342.981	93.31
343.209	92.31
343.437	82.31
343.665	88.31
343.893	100.31
344.12	100.31
344.348	84.31
344.576	86.31
344.804	85.31
345.031	90.31
345.259	87.31
345.487	97.31
345.714	108.31
345.942	106.31
346.17	93.31
346.397	101.31
346.625	104.31
346.853	88.31
347.08	101.31
347.308	102.31
347.535	92.31
347.763	100.31
347.99	87.31
348.218	96.31
348.445	99.31
348.673	87.31
348.9	92.31
349.128	99.31
349.355	105.31
349.583	96.31
349.81	96.31
350.037	97.31
350.265	95.31
350.492	84.31
350.72	115.31
350.947	108.31
351.174	105.31
351.402	96.31
351.629	103.31
351.856	114.31
352.083	99.31
352.311	110.31
352.538	105.31
352.765	100.31
352.992	101.31
353.22	112.31
353.447	114.31
353.674	99.31
353.901	93.31
354.128	95.31
354.355	100.31
354.583	88.31
354.81	99.31
355.037	102.31
355.264	95.31
355.491	92.31
355.718	95.31
355.945	104.31
356.172	102.31
356.399	82.31
356.626	100.31
356.853	101.31
357.08	98.31
357.307	95.31
357.534	91.31
357.761	83.31
357.988	116.31
358.215	103.31
358.441	108.31
358.668	99.31
358.895	95.31
359.122	96.31
359.349	81.31
359.576	99.31
359.802	104.31
360.029	120.31
360.256	103.31
360.483	98.31
360.709	95.31
360.936	87.31
361.163	105.31
361.39	92.31
361.616	100.31
361.843	79.31
362.07	103.31
362.296	87.31
362.523	85.31
362.749	89.31
362.976	109.31
363.203	109.31
363.429	85.31
363.656	84.31
363.882	100.31
364.109	84.31
364.335	86.31
364.562	96.31
364.788	92.31
365.015	105.31
365.241	100.31
365.468	102.31
365.694	95.31
365.92	89.31
366.147	76.31
366.373	104.31
366.599	93.31
366.826	94.31
367.052	97.31
367.278	96.31
367.505	93.31
367.731	105.31
367.957	84.31
368.184	106.31
368.41	92.31
368.636	114.31
368.862	121.31
369.089	100.31
369.315	103.31
369.541	84.31
369.767	91.31
369.993	95.31
370.219	95.31
370.445	92.31
370.672	95.31
370.898	87.31
371.124	109.31
371.35	83.31
371.576	82.31
371.802	98.31
372.028	91.31
372.254	87.31
372.48	104.31
372.706	102.31
372.932	97.31
373.158	90.31
373.384	82.31
373.61	102.31
373.835	79.31
374.061	95.31
374.287	93.31
374.513	100.31
374.739	107.31
374.965	103.31
375.191	101.31
375.416	99.31
375.642	95.31
375.868	96.31
376.094	112.31
376.319	101.31
376.545	91.31
376.771	96.31
376.997	102.31
377.222	97.31
377.448	93.31
377.674	99.31
377.899	84.31
378.125	89.31
378.35	98.31
378.576	101.31
378.802	93.31
379.027	85.31
379.253	86.31
379.478	101.31
379.704	95.31
379.929	83.31
380.155	95.31
380.38	105.31
380.606	97.31
380.831	92.31
381.057	91.31
381.282	88.31
381.507	89.31
381.733	94.31
381.958	90.31
382.184	102.31
382.409	93.31
382.634	104.31
382.86	94.31
383.085	88.31
383.31	89.31
383.535	107.31
383.761	104.31
383.986	104.31
384.211	90.31
384.436	105.31
384.662	103.31
384.887	114.31
385.112	102.31
385.337	113.31
385.562	105.31
385.787	99.31
386.013	98.31
386.238	100.31
386.463	108.31
386.688	105.31
386.913	102.31
387.138	99.31
387.363	94.31
387.588	100.31
387.813	114.31
388.038	105.31
388.263	91.31
388.488	106.31
388.713	101.31
388.938	103.31
389.163	108.31
389.387	105.31
389.612	96.31
389.837	93.31
390.062	87.31
390.287	89.31
390.512	100.31
390.736	86.31
390.961	97.31
391.186	104.31
391.411	98.31
391.636	86.31
391.86	75.31
392.085	81.31
392.31	93.31
392.534	106.31
392.759	92.31
392.984	89.31
393.208	89.31
393.433	95.31
393.658	93.31
393.882	102.31
394.107	86.31
394.331	92.31
394.556	98.31
394.78	99.31
395.005	88.31
395.229	94.31
395.454	73.31
395.678	96.31
395.903	87.31
396.127	91.31
396.352	98.31
396.576	95.31
396.801	98.31
397.025	95.31
397.249	89.31
397.474	88.31
397.698	87.31
397.922	80.31
398.147	88.31
398.371	91.31
398.595	99.31
398.82	92.31
399.044	81.31
399.268	98.31
399.492	97.31
399.717	91.31
399.941	99.31
400.165	97.31
400.389	89.31
400.613	83.31
400.837	76.31
401.062	84.31
401.286	90.31
401.51	95.31
401.734	105.31
401.958	111.31
402.182	126.31
402.406	145.31
402.63	105.31
402.854	95.31
403.078	103.31
403.302	96.31
403.526	101.31
403.75	99.31
403.974	96.31
404.198	101.31
404.422	90.31
404.645	95.31
404.869	98.31
405.093	83.31
405.317	107.31
405.541	104.31
405.765	94.31
405.988	97.31
406.212	140.31
406.436	194.31
406.66	135.31
406.883	99.31
407.107	88.31
407.331	101.31
407.555	85.31
407.778	101.31
408.002	95.31
408.226	82.31
408.449	99.31
408.673	95.31
408.896	100.31
409.12	88.31
409.344	84.31
409.567	99.31
409.791	100.31
410.014	87.31
410.238	90.31
410.461	100.31
410.685	104.31
410.908	108.31
411.132	101.31
411.355	100.31
411.578	96.31
411.802	88.31
412.025	85.31
412.249	93.31
412.472	91.31
412.695	102.31
412.919	97.31
413.142	102.31
413.365	93.31
413.589	96.31
413.812	88.31
414.035	93.31
414.258	98.31
414.482	90.31
414.705	91.31
414.928	96.31
415.151	90.31
415.374	105.31
415.597	90.31
415.821	90.31
416.044	91.31
416.267	108.31
416.49	88.31
416.713	97.31
416.936	82.31
417.159	90.31
417.382	84.31
417.605	82.31
417.828	100.31
418.051	99.31
418.274	99.31
418.497	86.31
418.72	70.31
418.943	80.31
419.166	96.31
419.389	100.31
419.611	106.31
419.834	96.31
420.057	102.31
420.28	91.31
420.503	86.31
420.726	82.31
420.948	95.31
421.171	97.31
421.394	93.31
421.617	89.31
421.839	98.31
422.062	92.31
422.285	85.31
422.507	102.31
422.73	114.31
422.953	97.31
423.175	91.31
423.398	95.31
423.621	87.31
423.843	90.31
424.066	89.31
424.288	92.31
424.511	93.31
424.733	94.31
424.956	90.31
425.178	93.31
425.401	90.31
425.623	109.31
425.846	83.31
426.068	92.31
426.291	83.31
426.513	83.31
426.735	88.31
426.958	95.31
427.18	107.31
427.402	136.31
427.625	140.31
427.847	127.31
428.069	127.31
428.292	89.31
428.514	91.31
428.736	86.31
428.958	99.31
429.181	87.31
429.403	90.31
429.625	79.31
429.847	89.31
430.069	86.31
430.292	85.31
430.514	93.31
430.736	97.31
430.958	75.31
431.18	99.31
431.402	88.31
431.624	79.31
431.846	76.31
432.068	92.31
432.29	83.31
432.512	89.31
432.734	76.31
432.956	88.31
433.178	108.31
433.4	97.31
433.622	100.31
433.844	89.31
434.066	98.31
434.287	89.31
434.509	89.31
434.731	97.31
434.953	96.31
435.175	99.31
435.397	96.31
435.618	84.31
435.84	83.31
436.062	112.31
436.284	106.31
436.505	100.31
436.727	89.31
436.949	91.31
437.17	82.31
437.392	85.31
437.614	98.31
437.835	95.31
438.057	103.31
438.278	74.31
438.5	78.31
438.721	116.31
438.943	102.31
439.165	87.31
439.386	106.31
439.608	79.31
439.829	103.31
440.05	114.31
440.272	133.31
440.493	100.31
440.715	96.31
440.936	83.31
441.158	99.31
441.379	91.31
441.6	100.31
441.822	81.31
442.043	88.31
442.264	95.31
442.486	87.31
442.707	99.31
442.928	90.31
443.149	120.31
443.371	117.31
443.592	92.31
443.813	86.31
444.034	98.31
444.255	71.31
444.476	97.31
444.698	75.31
444.919	101.31
445.14	127.31
445.361	137.31
445.582	109.31
445.803	128.31
446.024	133.31
446.245	133.31
446.466	107.31
446.687	90.31
446.908	97.31
447.129	97.31
447.35	94.31
447.571	91.31
447.792	104.31
448.013	96.31
448.234	106.31
448.455	100.31
448.675	112.31
448.896	112.31
449.117	84.31
449.338	105.31
449.559	105.31
449.779	110.31
450	100.31
450.221	88.31
450.442	85.31
450.662	106.31
450.883	97.31
451.104	111.31
451.324	108.31
451.545	88.31
451.766	91.31
451.986	86.31
452.207	88.31
452.428	100.31
452.648	107.31
452.869	104.31
453.089	115.31
453.31	106.31
453.53	84.31
453.751	96.31
453.971	98.31
454.192	107.31
454.412	100.31
454.633	91.31
454.853	91.31
455.073	91.31
455.294	88.31
455.514	94.31
455.734	73.31
455.955	87.31
456.175	81.31
456.395	76.31
456.616	88.31
456.836	89.31
457.056	91.31
457.276	89.31
457.497	87.31
457.717	84.31
457.937	99.31
458.157	79.31
458.377	98.31
458.598	109.31
458.818	141.31
459.038	140.31
459.258	127.31
459.478	107.31
459.698	101.31
459.918	91.31
460.138	83.31
460.358	104.31
460.578	95.31
460.798	95.31
461.018	95.31
461.238	82.31
461.458	87.31
461.678	87.31
461.898	97.31
462.118	90.31
462.338	91.31
462.558	79.31
462.777	86.31
462.997	84.31
463.217	106.31
463.437	92.31
463.657	99.31
463.876	100.31
464.096	87.31
464.316	95.31
464.536	85.31
464.755	107.31
464.975	101.31
465.195	140.31
465.414	143.31
465.634	98.31
465.854	82.31
466.073	85.31
466.293	87.31
466.512	72.31
466.732	80.31
466.951	87.31
467.171	89.31
467.391	92.31
467.61	107.31
467.829	111.31
468.049	168.31
468.268	178.31
468.488	122.31
468.707	86.31
468.927	82.31
469.146	90.31
469.365	103.31
469.585	85.31
469.804	101.31
470.023	98.31
470.243	96.31
470.462	109.31
470.681	104.31
470.901	99.31
471.12	98.31
471.339	107.31
471.558	92.31
471.777	92.31
471.997	127.31
472.216	261.31
472.435	404.31
472.654	161.31
472.873	108.31
473.092	92.31
473.311	100.31
473.53	96.31
473.749	95.31
473.968	94.31
474.187	94.31
474.406	85.31
474.625	87.31
474.844	71.31
475.063	91.31
475.282	86.31
475.501	106.31
475.72	84.31
475.939	83.31
476.158	84.31
476.377	102.31
476.596	95.31
476.814	108.31
477.033	81.31
477.252	89.31
477.471	97.31
477.69	96.31
477.908	102.31
478.127	99.31
478.346	98.31
478.564	99.31
478.783	93.31
479.002	97.31
479.22	76.31
479.439	91.31
479.658	113.31
479.876	95.31
480.095	93.31
480.313	93.31
480.532	103.31
480.751	115.31
480.969	234.31
481.188	682.31
481.406	447.31
481.624	143.31
481.843	106.31
482.061	99.31
482.28	93.31
482.498	87.31
482.717	92.31
482.935	93.31
483.153	83.31
483.372	84.31
483.59	89.31
483.808	89.31
484.027	98.31
484.245	83.31
484.463	83.31
484.681	103.31
484.9	93.31
485.118	100.31
485.336	85.31
485.554	90.31
485.772	92.31
485.99	105.31
486.209	116.31
486.427	104.31
486.645	94.31
486.863	109.31
487.081	101.31
487.299	87.31
487.517	93.31
487.735	86.31
487.953	98.31
488.171	108.31
488.389	88.31
488.607	101.31
488.825	99.31
489.043	97.31
489.261	93.31
489.479	103.31
489.696	87.31
489.914	86.31
490.132	109.31
490.35	81.31
490.568	90.31
490.786	85.31
491.003	102.31
491.221	92.31
491.439	96.31
491.657	107.31
491.874	93.31
492.092	101.31
492.31	102.31
492.527	99.31
492.745	90.31
492.963	93.31
493.18	102.31
493.398	87.31
493.615	103.31
493.833	87.31
494.05	89.31
494.268	69.31
494.485	92.31
494.703	92.31
494.92	87.31
495.138	97.31
495.355	95.31
495.573	84.31
495.79	90.31
496.008	88.31
496.225	106.31
496.442	96.31
496.66	100.31
496.877	101.31
497.094	96.31
497.312	92.31
497.529	84.31
497.746	88.31
497.963	98.31
498.181	101.31
498.398	104.31
498.615	99.31
498.832	100.31
499.049	101.31
499.267	97.31
499.484	92.31
499.701	82.31
499.918	96.31
500.135	91.31
500.352	95.31
500.569	84.31
500.786	98.31
501.003	95.31
501.22	96.31
501.437	104.31
501.654	92.31
501.871	98.31
502.088	101.31
502.305	102.31
502.522	91.31
502.739	85.31
502.956	100.31
503.172	89.31
503.389	92.31
503.606	91.31
503.823	94.31
504.04	85.31
504.256	95.31
504.473	85.31
504.69	87.31
504.907	77.31
505.123	102.31
505.34	85.31
505.557	92.31
505.773	84.31
505.99	90.31
506.207	93.31
506.423	103.31
506.64	89.31
506.856	102.31
507.073	97.31
507.289	88.31
507.506	93.31
507.722	107.31
507.939	106.31
508.155	99.31
508.372	92.31
508.588	89.31
508.805	83.31
509.021	98.31
509.238	93.31
509.454	99.31
509.67	93.31
509.887	112.31
510.103	127.31
510.319	182.31
510.536	627.31
510.752	1890.31
510.968	536.31
511.184	144.31
511.401	100.31
511.617	85.31
511.833	90.31
512.049	103.31
512.265	94.31
512.481	97.31
512.698	94.31
512.914	95.31
513.13	97.31
513.346	93.31
513.562	105.31
513.778	92.31
513.994	98.31
514.21	99.31
514.426	103.31
