Data from TenMicroDelayPb_HRD10591_00010.txt Node
Date: Mon Nov 24 14:55:10 EST 2025
User: Yrep
Spectrometer: HR+D1059
Trigger mode: 5
Integration Time (sec): 1.000000E-2
Scans to average: 1
Electric dark correction enabled: true
Nonlinearity correction enabled: false
Boxcar width: 0
XAxis mode: Wavelengths
Number of Pixels in Spectrum: 2048
>>>>>Begin Spectral Data<<<<<
223.165	-17.94
223.4	-17.94
223.635	-17.94
223.869	-22.94
224.104	-37.94
224.338	-8.94
224.573	-9.94
224.808	-9.94
225.042	2.06
225.277	-18.94
225.511	5.06
225.746	11.06
225.98	12.06
226.215	3.06
226.449	11.06
226.683	16.06
226.918	22.06
227.152	44.06
227.387	28.06
227.621	45.06
227.856	52.06
228.09	37.06
228.324	47.06
228.559	73.06
228.793	49.06
229.027	60.06
229.262	77.06
229.496	76.06
229.73	65.06
229.964	87.06
230.199	84.06
230.433	70.06
230.667	81.06
230.901	78.06
231.136	86.06
231.37	80.06
231.604	90.06
231.838	74.06
232.072	96.06
232.306	86.06
232.541	87.06
232.775	96.06
233.009	86.06
233.243	88.06
233.477	92.06
233.711	81.06
233.945	88.06
234.179	90.06
234.413	111.06
234.647	102.06
234.881	95.06
235.115	83.06
235.349	87.06
235.583	83.06
235.817	97.06
236.051	78.06
236.285	73.06
236.519	81.06
236.753	86.06
236.987	86.06
237.221	81.06
237.455	81.06
237.689	78.06
237.922	99.06
238.156	82.06
238.39	75.06
238.624	85.06
238.858	84.06
239.091	79.06
239.325	82.06
239.559	96.06
239.793	88.06
240.027	90.06
240.26	78.06
240.494	104.06
240.728	80.06
240.961	74.06
241.195	94.06
241.429	103.06
241.662	68.06
241.896	82.06
242.13	67.06
242.363	82.06
242.597	87.06
242.83	97.06
243.064	87.06
243.298	89.06
243.531	97.06
243.765	87.06
243.998	82.06
244.232	99.06
244.465	84.06
244.699	77.06
244.932	78.06
245.166	80.06
245.399	96.06
245.633	99.06
245.866	87.06
246.099	75.06
246.333	68.06
246.566	96.06
246.8	88.06
247.033	96.06
247.266	83.06
247.5	100.06
247.733	81.06
247.966	89.06
248.2	87.06
248.433	90.06
248.666	92.06
248.899	106.06
249.133	93.06
249.366	112.06
249.599	71.06
249.832	80.06
250.066	95.06
250.299	96.06
250.532	100.06
250.765	91.06
250.998	94.06
251.231	89.06
251.465	97.06
251.698	88.06
251.931	94.06
252.164	87.06
252.397	104.06
252.63	88.06
252.863	94.06
253.096	86.06
253.329	106.06
253.562	104.06
253.795	95.06
254.028	105.06
254.261	102.06
254.494	89.06
254.727	110.06
254.96	100.06
255.193	86.06
255.426	109.06
255.659	95.06
255.892	102.06
256.124	82.06
256.357	93.06
256.59	103.06
256.823	104.06
257.056	108.06
257.289	104.06
257.521	110.06
257.754	95.06
257.987	112.06
258.22	116.06
258.452	100.06
258.685	101.06
258.918	98.06
259.151	88.06
259.383	108.06
259.616	112.06
259.849	112.06
260.081	112.06
260.314	105.06
260.547	96.06
260.779	106.06
261.012	135.06
261.244	124.06
261.477	149.06
261.71	140.06
261.942	131.06
262.175	122.06
262.407	102.06
262.64	110.06
262.872	109.06
263.105	99.06
263.337	116.06
263.57	100.06
263.802	120.06
264.035	104.06
264.267	104.06
264.499	112.06
264.732	116.06
264.964	98.06
265.197	111.06
265.429	110.06
265.661	99.06
265.894	120.06
266.126	112.06
266.358	104.06
266.591	127.06
266.823	130.06
267.055	97.06
267.287	92.06
267.52	107.06
267.752	114.06
267.984	109.06
268.216	94.06
268.448	109.06
268.681	96.06
268.913	112.06
269.145	97.06
269.377	102.06
269.609	99.06
269.841	135.06
270.073	115.06
270.306	97.06
270.538	97.06
270.77	110.06
271.002	102.06
271.234	112.06
271.466	98.06
271.698	96.06
271.93	108.06
272.162	106.06
272.394	113.06
272.626	103.06
272.858	85.06
273.09	106.06
273.322	108.06
273.553	103.06
273.785	107.06
274.017	95.06
274.249	100.06
274.481	111.06
274.713	91.06
274.945	103.06
275.176	91.06
275.408	101.06
275.64	104.06
275.872	104.06
276.104	124.06
276.335	111.06
276.567	110.06
276.799	108.06
277.031	99.06
277.262	102.06
277.494	102.06
277.726	127.06
277.957	115.06
278.189	103.06
278.421	106.06
278.652	124.06
278.884	104.06
279.115	129.06
279.347	134.06
279.579	129.06
279.81	156.06
280.042	167.06
280.273	154.06
280.505	172.06
280.736	136.06
280.968	123.06
281.199	115.06
281.431	111.06
281.662	143.06
281.894	134.06
282.125	135.06
282.356	130.06
282.588	136.06
282.819	119.06
283.051	127.06
283.282	128.06
283.513	159.06
283.745	132.06
283.976	118.06
284.207	106.06
284.439	118.06
284.67	124.06
284.901	112.06
285.132	101.06
285.364	91.06
285.595	124.06
285.826	110.06
286.057	135.06
286.288	113.06
286.52	132.06
286.751	119.06
286.982	140.06
287.213	141.06
287.444	142.06
287.675	132.06
287.906	112.06
288.138	131.06
288.369	120.06
288.6	115.06
288.831	104.06
289.062	125.06
289.293	132.06
289.524	111.06
289.755	119.06
289.986	111.06
290.217	98.06
290.448	112.06
290.679	121.06
290.91	129.06
291.141	125.06
291.371	116.06
291.602	110.06
291.833	103.06
292.064	103.06
292.295	99.06
292.526	95.06
292.757	104.06
292.987	107.06
293.218	104.06
293.449	110.06
293.68	104.06
293.91	103.06
294.141	131.06
294.372	121.06
294.603	106.06
294.833	107.06
295.064	99.06
295.295	107.06
295.525	92.06
295.756	103.06
295.987	122.06
296.217	106.06
296.448	114.06
296.679	118.06
296.909	125.06
297.14	129.06
297.37	113.06
297.601	114.06
297.831	95.06
298.062	116.06
298.292	105.06
298.523	112.06
298.753	116.06
298.984	110.06
299.214	112.06
299.445	113.06
299.675	99.06
299.905	117.06
300.136	116.06
300.366	104.06
300.597	111.06
300.827	105.06
301.057	109.06
301.288	99.06
301.518	110.06
301.748	110.06
301.979	161.06
302.209	103.06
302.439	108.06
302.669	120.06
302.9	119.06
303.13	118.06
303.36	116.06
303.59	107.06
303.82	112.06
304.051	105.06
304.281	122.06
304.511	107.06
304.741	102.06
304.971	114.06
305.201	125.06
305.431	122.06
305.661	104.06
305.891	111.06
306.121	113.06
306.352	103.06
306.582	113.06
306.812	120.06
307.042	110.06
307.272	106.06
307.502	100.06
307.731	106.06
307.961	111.06
308.191	94.06
308.421	118.06
308.651	107.06
308.881	116.06
309.111	111.06
309.341	80.06
309.571	102.06
309.8	120.06
310.03	111.06
310.26	106.06
310.49	98.06
310.72	109.06
310.949	111.06
311.179	121.06
311.409	102.06
311.639	111.06
311.868	127.06
312.098	129.06
312.328	123.06
312.557	106.06
312.787	128.06
313.017	112.06
313.246	115.06
313.476	125.06
313.706	118.06
313.935	125.06
314.165	131.06
314.394	127.06
314.624	127.06
314.853	143.06
315.083	125.06
315.312	113.06
315.542	133.06
315.771	121.06
316.001	131.06
316.23	115.06
316.46	106.06
316.689	129.06
316.919	129.06
317.148	128.06
317.377	142.06
317.607	132.06
317.836	111.06
318.065	123.06
318.295	107.06
318.524	119.06
318.753	105.06
318.983	108.06
319.212	122.06
319.441	104.06
319.67	115.06
319.9	131.06
320.129	127.06
320.358	124.06
320.587	107.06
320.816	116.06
321.046	109.06
321.275	112.06
321.504	106.06
321.733	124.06
321.962	123.06
322.191	124.06
322.42	118.06
322.649	126.06
322.878	131.06
323.108	121.06
323.337	114.06
323.566	107.06
323.795	130.06
324.024	117.06
324.253	122.06
324.482	110.06
324.71	108.06
324.939	136.06
325.168	115.06
325.397	117.06
325.626	111.06
325.855	116.06
326.084	122.06
326.313	116.06
326.542	99.06
326.77	122.06
326.999	130.06
327.228	113.06
327.457	118.06
327.686	124.06
327.914	122.06
328.143	128.06
328.372	111.06
328.6	108.06
328.829	108.06
329.058	105.06
329.287	113.06
329.515	110.06
329.744	132.06
329.972	121.06
330.201	115.06
330.43	127.06
330.658	118.06
330.887	111.06
331.115	110.06
331.344	116.06
331.572	131.06
331.801	114.06
332.03	118.06
332.258	115.06
332.486	102.06
332.715	107.06
332.943	111.06
333.172	113.06
333.4	102.06
333.629	118.06
333.857	128.06
334.085	116.06
334.314	112.06
334.542	112.06
334.771	120.06
334.999	115.06
335.227	114.06
335.455	123.06
335.684	117.06
335.912	109.06
336.14	119.06
336.369	107.06
336.597	125.06
336.825	110.06
337.053	117.06
337.281	118.06
337.51	120.06
337.738	116.06
337.966	99.06
338.194	110.06
338.422	112.06
338.65	123.06
338.878	108.06
339.106	113.06
339.334	126.06
339.562	115.06
339.79	111.06
340.018	112.06
340.246	107.06
340.474	116.06
340.702	119.06
340.93	108.06
341.158	115.06
341.386	98.06
341.614	123.06
341.842	126.06
342.07	102.06
342.298	120.06
342.526	97.06
342.754	108.06
342.981	115.06
343.209	114.06
343.437	163.06
343.665	121.06
343.893	121.06
344.12	140.06
344.348	121.06
344.576	109.06
344.804	126.06
345.031	125.06
345.259	114.06
345.487	120.06
345.714	128.06
345.942	113.06
346.17	122.06
346.397	109.06
346.625	114.06
346.853	119.06
347.08	115.06
347.308	126.06
347.535	110.06
347.763	123.06
347.99	107.06
348.218	116.06
348.445	106.06
348.673	106.06
348.9	114.06
349.128	142.06
349.355	118.06
349.583	100.06
349.81	133.06
350.037	130.06
350.265	124.06
350.492	114.06
350.72	103.06
350.947	116.06
351.174	111.06
351.402	122.06
351.629	102.06
351.856	129.06
352.083	111.06
352.311	120.06
352.538	123.06
352.765	120.06
352.992	128.06
353.22	113.06
353.447	108.06
353.674	137.06
353.901	140.06
354.128	130.06
354.355	99.06
354.583	120.06
354.81	125.06
355.037	131.06
355.264	118.06
355.491	117.06
355.718	123.06
355.945	131.06
356.172	135.06
356.399	126.06
356.626	128.06
356.853	139.06
357.08	196.06
357.307	209.06
357.534	202.06
357.761	189.06
357.988	163.06
358.215	169.06
358.441	146.06
358.668	138.06
358.895	119.06
359.122	141.06
359.349	131.06
359.576	121.06
359.802	123.06
360.029	129.06
360.256	117.06
360.483	135.06
360.709	129.06
360.936	142.06
361.163	110.06
361.39	123.06
361.616	126.06
361.843	111.06
362.07	120.06
362.296	126.06
362.523	118.06
362.749	139.06
362.976	131.06
363.203	146.06
363.429	139.06
363.656	188.06
363.882	227.06
364.109	258.06
364.335	205.06
364.562	170.06
364.788	150.06
365.015	148.06
365.241	139.06
365.468	152.06
365.694	133.06
365.92	143.06
366.147	123.06
366.373	136.06
366.599	131.06
366.826	136.06
367.052	145.06
367.278	147.06
367.505	166.06
367.731	190.06
367.957	184.06
368.184	238.06
368.41	288.06
368.636	267.06
368.862	199.06
369.089	167.06
369.315	148.06
369.541	147.06
369.767	137.06
369.993	140.06
370.219	145.06
370.445	142.06
370.672	133.06
370.898	120.06
371.124	119.06
371.35	129.06
371.576	123.06
371.802	128.06
372.028	128.06
372.254	121.06
372.48	119.06
372.706	120.06
372.932	119.06
373.158	139.06
373.384	138.06
373.61	157.06
373.835	184.06
374.061	214.06
374.287	206.06
374.513	162.06
374.739	140.06
374.965	140.06
375.191	129.06
375.416	131.06
375.642	123.06
375.868	139.06
376.094	120.06
376.319	140.06
376.545	120.06
376.771	119.06
376.997	126.06
377.222	110.06
377.448	115.06
377.674	135.06
377.899	141.06
378.125	123.06
378.35	122.06
378.576	127.06
378.802	114.06
379.027	127.06
379.253	139.06
379.478	121.06
379.704	122.06
379.929	115.06
380.155	120.06
380.38	135.06
380.606	109.06
380.831	120.06
381.057	145.06
381.282	115.06
381.507	124.06
381.733	127.06
381.958	116.06
382.184	122.06
382.409	126.06
382.634	112.06
382.86	109.06
383.085	129.06
383.31	127.06
383.535	128.06
383.761	127.06
383.986	113.06
384.211	111.06
384.436	124.06
384.662	116.06
384.887	127.06
385.112	121.06
385.337	110.06
385.562	124.06
385.787	114.06
386.013	120.06
386.238	102.06
386.463	116.06
386.688	170.06
386.913	130.06
387.138	117.06
387.363	125.06
387.588	151.06
387.813	149.06
388.038	138.06
388.263	126.06
388.488	122.06
388.713	122.06
388.938	123.06
389.163	129.06
389.387	111.06
389.612	113.06
389.837	128.06
390.062	136.06
390.287	124.06
390.512	120.06
390.736	122.06
390.961	115.06
391.186	124.06
391.411	126.06
391.636	119.06
391.86	126.06
392.085	127.06
392.31	130.06
392.534	129.06
392.759	147.06
392.984	141.06
393.208	121.06
393.433	117.06
393.658	119.06
393.882	137.06
394.107	128.06
394.331	122.06
394.556	127.06
394.78	141.06
395.005	123.06
395.229	110.06
395.454	112.06
395.678	122.06
395.903	139.06
396.127	129.06
396.352	135.06
396.576	123.06
396.801	124.06
397.025	118.06
397.249	137.06
397.474	153.06
397.698	128.06
397.922	146.06
398.147	128.06
398.371	126.06
398.595	141.06
398.82	140.06
399.044	140.06
399.268	125.06
399.492	154.06
399.717	157.06
399.941	146.06
400.165	161.06
400.389	149.06
400.613	127.06
400.837	128.06
401.062	140.06
401.286	142.06
401.51	139.06
401.734	153.06
401.958	157.06
402.182	157.06
402.406	142.06
402.63	139.06
402.854	149.06
403.078	142.06
403.302	145.06
403.526	132.06
403.75	132.06
403.974	140.06
404.198	157.06
404.422	150.06
404.645	139.06
404.869	155.06
405.093	187.06
405.317	215.06
405.541	271.06
405.765	382.06
405.988	417.06
406.212	322.06
406.436	259.06
406.66	238.06
406.883	209.06
407.107	179.06
407.331	161.06
407.555	174.06
407.778	163.06
408.002	170.06
408.226	154.06
408.449	148.06
408.673	140.06
408.896	156.06
409.12	150.06
409.344	129.06
409.567	146.06
409.791	156.06
410.014	161.06
410.238	158.06
410.461	146.06
410.685	139.06
410.908	128.06
411.132	142.06
411.355	136.06
411.578	145.06
411.802	136.06
412.025	145.06
412.249	127.06
412.472	143.06
412.695	130.06
412.919	140.06
413.142	136.06
413.365	137.06
413.589	137.06
413.812	141.06
414.035	154.06
414.258	142.06
414.482	132.06
414.705	138.06
414.928	141.06
415.151	153.06
415.374	143.06
415.597	130.06
415.821	138.06
416.044	131.06
416.267	151.06
416.49	141.06
416.713	146.06
416.936	145.06
417.159	155.06
417.382	134.06
417.605	141.06
417.828	149.06
418.051	129.06
418.274	152.06
418.497	145.06
418.72	136.06
418.943	144.06
419.166	151.06
419.389	140.06
419.611	153.06
419.834	137.06
420.057	146.06
420.28	140.06
420.503	146.06
420.726	145.06
420.948	137.06
421.171	139.06
421.394	142.06
421.617	131.06
421.839	154.06
422.062	157.06
422.285	146.06
422.507	128.06
422.73	139.06
422.953	146.06
423.175	158.06
423.398	167.06
423.621	170.06
423.843	165.06
424.066	172.06
424.288	206.06
424.511	208.06
424.733	222.06
424.956	213.06
425.178	204.06
425.401	176.06
425.623	186.06
425.846	173.06
426.068	163.06
426.291	157.06
426.513	163.06
426.735	147.06
426.958	160.06
427.18	166.06
427.402	144.06
427.625	154.06
427.847	133.06
428.069	159.06
428.292	152.06
428.514	142.06
428.736	131.06
428.958	133.06
429.181	150.06
429.403	139.06
429.625	131.06
429.847	146.06
430.069	147.06
430.292	152.06
430.514	144.06
430.736	142.06
430.958	161.06
431.18	144.06
431.402	157.06
431.624	135.06
431.846	126.06
432.068	124.06
432.29	126.06
432.512	154.06
432.734	141.06
432.956	154.06
433.178	159.06
433.4	144.06
433.622	156.06
433.844	148.06
434.066	144.06
434.287	134.06
434.509	145.06
434.731	145.06
434.953	140.06
435.175	144.06
435.397	153.06
435.618	142.06
435.84	140.06
436.062	133.06
436.284	144.06
436.505	155.06
436.727	169.06
436.949	159.06
437.17	143.06
437.392	164.06
437.614	156.06
437.835	143.06
438.057	147.06
438.278	158.06
438.5	185.06
438.721	204.06
438.943	245.06
439.165	210.06
439.386	198.06
439.608	223.06
439.829	185.06
440.05	202.06
440.272	200.06
440.493	183.06
440.715	196.06
440.936	194.06
441.158	196.06
441.379	175.06
441.6	190.06
441.822	185.06
442.043	183.06
442.264	170.06
442.486	164.06
442.707	158.06
442.928	178.06
443.149	162.06
443.371	176.06
443.592	157.06
443.813	160.06
444.034	157.06
444.255	153.06
444.476	160.06
444.698	163.06
444.919	177.06
445.14	518.06
445.361	336.06
445.582	191.06
445.803	157.06
446.024	171.06
446.245	175.06
446.466	174.06
446.687	151.06
446.908	182.06
447.129	161.06
447.35	172.06
447.571	167.06
447.792	162.06
448.013	140.06
448.234	166.06
448.455	163.06
448.675	152.06
448.896	144.06
449.117	151.06
449.338	155.06
449.559	173.06
449.779	155.06
450	143.06
450.221	150.06
450.442	160.06
450.662	153.06
450.883	154.06
451.104	160.06
451.324	144.06
451.545	156.06
451.766	151.06
451.986	147.06
452.207	150.06
452.428	139.06
452.648	140.06
452.869	128.06
453.089	151.06
453.31	127.06
453.53	129.06
453.751	136.06
453.971	144.06
454.192	127.06
454.412	126.06
454.633	133.06
454.853	146.06
455.073	140.06
455.294	143.06
455.514	143.06
455.734	139.06
455.955	152.06
456.175	139.06
456.395	141.06
456.616	128.06
456.836	141.06
457.056	139.06
457.276	124.06
457.497	128.06
457.717	143.06
457.937	136.06
458.157	132.06
458.377	133.06
458.598	124.06
458.818	115.06
459.038	125.06
459.258	135.06
459.478	122.06
459.698	132.06
459.918	138.06
460.138	139.06
460.358	137.06
460.578	132.06
460.798	127.06
461.018	137.06
461.238	144.06
461.458	150.06
461.678	138.06
461.898	134.06
462.118	149.06
462.338	137.06
462.558	135.06
462.777	140.06
462.997	145.06
463.217	131.06
463.437	131.06
463.657	131.06
463.876	135.06
464.096	151.06
464.316	135.06
464.536	137.06
464.755	137.06
464.975	153.06
465.195	145.06
465.414	128.06
465.634	130.06
465.854	142.06
466.073	148.06
466.293	140.06
466.512	135.06
466.732	156.06
466.951	150.06
467.171	131.06
467.391	132.06
467.61	143.06
467.829	150.06
468.049	141.06
468.268	136.06
468.488	150.06
468.707	132.06
468.927	151.06
469.146	154.06
469.365	142.06
469.585	159.06
469.804	152.06
470.023	142.06
470.243	142.06
470.462	141.06
470.681	168.06
470.901	153.06
471.12	137.06
471.339	156.06
471.558	152.06
471.777	149.06
471.997	143.06
472.216	152.06
472.435	134.06
472.654	129.06
472.873	147.06
473.092	132.06
473.311	143.06
473.53	145.06
473.749	155.06
473.968	166.06
474.187	147.06
474.406	135.06
474.625	145.06
474.844	153.06
475.063	144.06
475.282	148.06
475.501	128.06
475.72	166.06
475.939	136.06
476.158	146.06
476.377	143.06
476.596	142.06
476.814	141.06
477.033	135.06
477.252	144.06
477.471	151.06
477.69	151.06
477.908	154.06
478.127	160.06
478.346	155.06
478.564	157.06
478.783	167.06
479.002	160.06
479.22	162.06
479.439	146.06
479.658	140.06
479.876	140.06
480.095	155.06
480.313	148.06
480.532	155.06
480.751	157.06
480.969	145.06
481.188	130.06
481.406	159.06
481.624	151.06
481.843	148.06
482.061	139.06
482.28	148.06
482.498	140.06
482.717	136.06
482.935	162.06
483.153	146.06
483.372	146.06
483.59	152.06
483.808	147.06
484.027	153.06
484.245	152.06
484.463	156.06
484.681	162.06
484.9	156.06
485.118	155.06
485.336	152.06
485.554	151.06
485.772	135.06
485.99	128.06
486.209	144.06
486.427	133.06
486.645	161.06
486.863	147.06
487.081	153.06
487.299	153.06
487.517	164.06
487.735	172.06
487.953	150.06
488.171	177.06
488.389	176.06
488.607	154.06
488.825	138.06
489.043	134.06
489.261	175.06
489.479	161.06
489.696	159.06
489.914	167.06
490.132	171.06
490.35	171.06
490.568	160.06
490.786	171.06
491.003	179.06
491.221	175.06
491.439	172.06
491.657	170.06
491.874	193.06
492.092	196.06
492.31	204.06
492.527	195.06
492.745	183.06
492.963	192.06
493.18	185.06
493.398	186.06
493.615	159.06
493.833	170.06
494.05	170.06
494.268	145.06
494.485	176.06
494.703	184.06
494.92	160.06
495.138	156.06
495.355	174.06
495.573	186.06
495.79	177.06
496.008	176.06
496.225	185.06
496.442	166.06
496.66	182.06
496.877	178.06
497.094	206.06
497.312	172.06
497.529	182.06
497.746	179.06
497.963	174.06
498.181	140.06
498.398	168.06
498.615	166.06
498.832	161.06
499.049	174.06
499.267	179.06
499.484	186.06
499.701	170.06
499.918	182.06
500.135	186.06
500.352	188.06
500.569	214.06
500.786	234.06
501.003	218.06
501.22	175.06
501.437	172.06
501.654	188.06
501.871	176.06
502.088	177.06
502.305	198.06
502.522	180.06
502.739	151.06
502.956	175.06
503.172	170.06
503.389	145.06
503.606	158.06
503.823	188.06
504.04	173.06
504.256	176.06
504.473	177.06
