Data from TenMicroDelayPb_HRD10591_00001.txt Node
Date: Mon Nov 24 14:55:05 EST 2025
User: Yrep
Spectrometer: HR+D1059
Trigger mode: 5
Integration Time (sec): 1.000000E-2
Scans to average: 1
Electric dark correction enabled: true
Nonlinearity correction enabled: false
Boxcar width: 0
XAxis mode: Wavelengths
Number of Pixels in Spectrum: 2048
>>>>>Begin Spectral Data<<<<<
223.165	-24.88
223.4	-24.88
223.635	-24.88
223.869	-33.88
224.104	-15.88
224.338	-9.88
224.573	-14.88
224.808	-8.88
225.042	-3.88
225.277	-1.88
225.511	2.12
225.746	23.12
225.98	3.12
226.215	14.12
226.449	16.12
226.683	-4.88
226.918	33.12
227.152	27.12
227.387	47.12
227.621	42.12
227.856	60.12
228.09	44.12
228.324	49.12
228.559	50.12
228.793	71.12
229.027	75.12
229.262	65.12
229.496	74.12
229.73	74.12
229.964	84.12
230.199	73.12
230.433	87.12
230.667	79.12
230.901	87.12
231.136	88.12
231.37	94.12
231.604	86.12
231.838	70.12
232.072	84.12
232.306	94.12
232.541	88.12
232.775	92.12
233.009	91.12
233.243	89.12
233.477	86.12
233.711	102.12
233.945	92.12
234.179	83.12
234.413	95.12
234.647	101.12
234.881	104.12
235.115	96.12
235.349	94.12
235.583	101.12
235.817	90.12
236.051	90.12
236.285	78.12
236.519	94.12
236.753	73.12
236.987	84.12
237.221	95.12
237.455	94.12
237.689	100.12
237.922	98.12
238.156	80.12
238.39	84.12
238.624	83.12
238.858	92.12
239.091	84.12
239.325	90.12
239.559	100.12
239.793	96.12
240.027	98.12
240.26	91.12
240.494	102.12
240.728	71.12
240.961	87.12
241.195	102.12
241.429	110.12
241.662	94.12
241.896	92.12
242.13	84.12
242.363	78.12
242.597	86.12
242.83	94.12
243.064	106.12
243.298	89.12
243.531	89.12
243.765	108.12
243.998	97.12
244.232	109.12
244.465	101.12
244.699	97.12
244.932	92.12
245.166	93.12
245.399	97.12
245.633	94.12
245.866	84.12
246.099	100.12
246.333	79.12
246.566	78.12
246.8	80.12
247.033	90.12
247.266	83.12
247.5	94.12
247.733	95.12
247.966	112.12
248.2	111.12
248.433	92.12
248.666	98.12
248.899	98.12
249.133	100.12
249.366	111.12
249.599	97.12
249.832	86.12
250.066	113.12
250.299	106.12
250.532	95.12
250.765	90.12
250.998	84.12
251.231	92.12
251.465	113.12
251.698	93.12
251.931	98.12
252.164	75.12
252.397	95.12
252.63	109.12
252.863	90.12
253.096	97.12
253.329	103.12
253.562	104.12
253.795	123.12
254.028	108.12
254.261	108.12
254.494	91.12
254.727	120.12
254.96	95.12
255.193	98.12
255.426	108.12
255.659	101.12
255.892	117.12
256.124	115.12
256.357	110.12
256.59	109.12
256.823	115.12
257.056	103.12
257.289	114.12
257.521	110.12
257.754	102.12
257.987	115.12
258.22	116.12
258.452	107.12
258.685	109.12
258.918	91.12
259.151	93.12
259.383	111.12
259.616	109.12
259.849	104.12
260.081	112.12
260.314	102.12
260.547	120.12
260.779	118.12
261.012	122.12
261.244	125.12
261.477	159.12
261.71	117.12
261.942	124.12
262.175	117.12
262.407	116.12
262.64	102.12
262.872	110.12
263.105	94.12
263.337	114.12
263.57	106.12
263.802	106.12
264.035	100.12
264.267	111.12
264.499	99.12
264.732	115.12
264.964	127.12
265.197	115.12
265.429	108.12
265.661	112.12
265.894	109.12
266.126	123.12
266.358	120.12
266.591	125.12
266.823	134.12
267.055	112.12
267.287	108.12
267.52	100.12
267.752	110.12
267.984	116.12
268.216	115.12
268.448	114.12
268.681	114.12
268.913	109.12
269.145	121.12
269.377	121.12
269.609	102.12
269.841	110.12
270.073	113.12
270.306	117.12
270.538	101.12
270.77	104.12
271.002	110.12
271.234	115.12
271.466	102.12
271.698	96.12
271.93	93.12
272.162	109.12
272.394	111.12
272.626	105.12
272.858	115.12
273.09	112.12
273.322	104.12
273.553	103.12
273.785	113.12
274.017	103.12
274.249	101.12
274.481	101.12
274.713	106.12
274.945	124.12
275.176	89.12
275.408	102.12
275.64	102.12
275.872	107.12
276.104	115.12
276.335	115.12
276.567	99.12
276.799	104.12
277.031	105.12
277.262	101.12
277.494	120.12
277.726	130.12
277.957	106.12
278.189	118.12
278.421	112.12
278.652	130.12
278.884	123.12
279.115	122.12
279.347	135.12
279.579	161.12
279.81	144.12
280.042	170.12
280.273	163.12
280.505	160.12
280.736	136.12
280.968	140.12
281.199	124.12
281.431	125.12
281.662	131.12
281.894	124.12
282.125	122.12
282.356	137.12
282.588	139.12
282.819	131.12
283.051	143.12
283.282	148.12
283.513	175.12
283.745	152.12
283.976	138.12
284.207	114.12
284.439	122.12
284.67	116.12
284.901	129.12
285.132	124.12
285.364	108.12
285.595	124.12
285.826	132.12
286.057	130.12
286.288	114.12
286.52	132.12
286.751	128.12
286.982	134.12
287.213	125.12
287.444	132.12
287.675	149.12
287.906	135.12
288.138	121.12
288.369	121.12
288.6	123.12
288.831	106.12
289.062	123.12
289.293	109.12
289.524	122.12
289.755	112.12
289.986	98.12
290.217	105.12
290.448	106.12
290.679	122.12
290.91	106.12
291.141	108.12
291.371	127.12
291.602	118.12
291.833	108.12
292.064	116.12
292.295	116.12
292.526	125.12
292.757	113.12
292.987	122.12
293.218	107.12
293.449	112.12
293.68	106.12
293.91	105.12
294.141	120.12
294.372	117.12
294.603	115.12
294.833	124.12
295.064	117.12
295.295	105.12
295.525	103.12
295.756	110.12
295.987	115.12
296.217	127.12
296.448	115.12
296.679	93.12
296.909	114.12
297.14	116.12
297.37	128.12
297.601	111.12
297.831	110.12
298.062	103.12
298.292	119.12
298.523	122.12
298.753	112.12
298.984	124.12
299.214	90.12
299.445	107.12
299.675	122.12
299.905	114.12
300.136	105.12
300.366	108.12
300.597	119.12
300.827	106.12
301.057	105.12
301.288	112.12
301.518	107.12
301.748	102.12
301.979	166.12
302.209	115.12
302.439	106.12
302.669	119.12
302.9	125.12
303.13	104.12
303.36	125.12
303.59	111.12
303.82	118.12
304.051	122.12
304.281	131.12
304.511	151.12
304.741	119.12
304.971	120.12
305.201	139.12
305.431	114.12
305.661	117.12
305.891	139.12
306.121	126.12
306.352	130.12
306.582	122.12
306.812	111.12
307.042	117.12
307.272	114.12
307.502	111.12
307.731	119.12
307.961	121.12
308.191	123.12
308.421	112.12
308.651	121.12
308.881	133.12
309.111	106.12
309.341	108.12
309.571	121.12
309.8	113.12
310.03	114.12
310.26	109.12
310.49	105.12
310.72	122.12
310.949	107.12
311.179	100.12
311.409	115.12
311.639	113.12
311.868	119.12
312.098	103.12
312.328	108.12
312.557	116.12
312.787	111.12
313.017	126.12
313.246	122.12
313.476	123.12
313.706	127.12
313.935	110.12
314.165	130.12
314.394	117.12
314.624	108.12
314.853	124.12
315.083	120.12
315.312	125.12
315.542	118.12
315.771	135.12
316.001	116.12
316.23	125.12
316.46	140.12
316.689	116.12
316.919	122.12
317.148	131.12
317.377	133.12
317.607	135.12
317.836	120.12
318.065	126.12
318.295	120.12
318.524	110.12
318.753	122.12
318.983	99.12
319.212	122.12
319.441	122.12
319.67	120.12
319.9	124.12
320.129	118.12
320.358	117.12
320.587	120.12
320.816	101.12
321.046	121.12
321.275	118.12
321.504	104.12
321.733	115.12
321.962	103.12
322.191	116.12
322.42	118.12
322.649	118.12
322.878	120.12
323.108	119.12
323.337	116.12
323.566	108.12
323.795	127.12
324.024	131.12
324.253	119.12
324.482	123.12
324.71	134.12
324.939	144.12
325.168	113.12
325.397	124.12
325.626	117.12
325.855	116.12
326.084	110.12
326.313	135.12
326.542	120.12
326.77	121.12
326.999	137.12
327.228	123.12
327.457	116.12
327.686	125.12
327.914	112.12
328.143	132.12
328.372	129.12
328.6	120.12
328.829	120.12
329.058	111.12
329.287	118.12
329.515	113.12
329.744	126.12
329.972	112.12
330.201	128.12
330.43	120.12
330.658	119.12
330.887	97.12
331.115	105.12
331.344	122.12
331.572	114.12
331.801	119.12
332.03	103.12
332.258	107.12
332.486	113.12
332.715	123.12
332.943	126.12
333.172	115.12
333.4	108.12
333.629	132.12
333.857	114.12
334.085	113.12
334.314	114.12
334.542	118.12
334.771	119.12
334.999	138.12
335.227	116.12
335.455	123.12
335.684	141.12
335.912	113.12
336.14	129.12
336.369	127.12
336.597	115.12
336.825	119.12
337.053	116.12
337.281	129.12
337.51	110.12
337.738	140.12
337.966	132.12
338.194	117.12
338.422	126.12
338.65	124.12
338.878	136.12
339.106	103.12
339.334	136.12
339.562	126.12
339.79	138.12
340.018	116.12
340.246	123.12
340.474	120.12
340.702	117.12
340.93	117.12
341.158	130.12
341.386	124.12
341.614	113.12
341.842	124.12
342.07	112.12
342.298	120.12
342.526	124.12
342.754	120.12
342.981	126.12
343.209	117.12
343.437	174.12
343.665	108.12
343.893	110.12
344.12	138.12
344.348	138.12
344.576	116.12
344.804	129.12
345.031	117.12
345.259	116.12
345.487	135.12
345.714	128.12
345.942	108.12
346.17	114.12
346.397	116.12
346.625	119.12
346.853	105.12
347.08	119.12
347.308	129.12
347.535	118.12
347.763	123.12
347.99	126.12
348.218	123.12
348.445	112.12
348.673	124.12
348.9	124.12
349.128	131.12
349.355	128.12
349.583	108.12
349.81	126.12
350.037	114.12
350.265	126.12
350.492	103.12
350.72	110.12
350.947	119.12
351.174	125.12
351.402	124.12
351.629	122.12
351.856	115.12
352.083	118.12
352.311	128.12
352.538	140.12
352.765	111.12
352.992	153.12
353.22	119.12
353.447	110.12
353.674	136.12
353.901	115.12
354.128	112.12
354.355	108.12
354.583	108.12
354.81	133.12
355.037	128.12
355.264	124.12
355.491	112.12
355.718	122.12
355.945	138.12
356.172	123.12
356.399	133.12
356.626	136.12
356.853	155.12
357.08	188.12
357.307	223.12
357.534	195.12
357.761	186.12
357.988	173.12
358.215	169.12
358.441	138.12
358.668	137.12
358.895	123.12
359.122	121.12
359.349	136.12
359.576	123.12
359.802	114.12
360.029	123.12
360.256	129.12
360.483	136.12
360.709	124.12
360.936	154.12
361.163	116.12
361.39	131.12
361.616	110.12
361.843	139.12
362.07	132.12
362.296	129.12
362.523	119.12
362.749	131.12
362.976	149.12
363.203	145.12
363.429	147.12
363.656	181.12
363.882	213.12
364.109	240.12
364.335	211.12
364.562	174.12
364.788	154.12
365.015	159.12
365.241	139.12
365.468	137.12
365.694	113.12
365.92	141.12
366.147	127.12
366.373	127.12
366.599	135.12
366.826	160.12
367.052	163.12
367.278	174.12
367.505	163.12
367.731	190.12
367.957	188.12
368.184	234.12
368.41	286.12
368.636	258.12
368.862	220.12
369.089	162.12
369.315	151.12
369.541	163.12
369.767	145.12
369.993	152.12
370.219	147.12
370.445	135.12
370.672	126.12
370.898	127.12
371.124	135.12
371.35	126.12
371.576	131.12
371.802	133.12
372.028	120.12
372.254	133.12
372.48	126.12
372.706	125.12
372.932	128.12
373.158	136.12
373.384	154.12
373.61	182.12
373.835	183.12
374.061	223.12
374.287	213.12
374.513	165.12
374.739	151.12
374.965	139.12
375.191	135.12
375.416	135.12
375.642	137.12
375.868	149.12
376.094	139.12
376.319	127.12
376.545	124.12
376.771	128.12
376.997	141.12
377.222	123.12
377.448	134.12
377.674	133.12
377.899	119.12
378.125	108.12
378.35	117.12
378.576	147.12
378.802	124.12
379.027	130.12
379.253	143.12
379.478	114.12
379.704	141.12
379.929	122.12
380.155	135.12
380.38	145.12
380.606	132.12
380.831	139.12
381.057	150.12
381.282	126.12
381.507	129.12
381.733	112.12
381.958	118.12
382.184	135.12
382.409	120.12
382.634	129.12
382.86	122.12
383.085	148.12
383.31	129.12
383.535	139.12
383.761	134.12
383.986	145.12
384.211	119.12
384.436	133.12
384.662	133.12
384.887	136.12
385.112	139.12
385.337	128.12
385.562	126.12
385.787	130.12
386.013	135.12
386.238	118.12
386.463	122.12
386.688	175.12
386.913	124.12
387.138	127.12
387.363	135.12
387.588	147.12
387.813	118.12
388.038	127.12
388.263	130.12
388.488	135.12
388.713	133.12
388.938	119.12
389.163	120.12
389.387	131.12
389.612	122.12
389.837	134.12
390.062	131.12
390.287	135.12
390.512	114.12
390.736	120.12
390.961	121.12
391.186	140.12
391.411	118.12
391.636	129.12
391.86	129.12
392.085	131.12
392.31	123.12
392.534	138.12
392.759	136.12
392.984	143.12
393.208	130.12
393.433	128.12
393.658	134.12
393.882	134.12
394.107	117.12
394.331	135.12
394.556	124.12
394.78	139.12
395.005	140.12
395.229	135.12
395.454	133.12
395.678	113.12
395.903	142.12
396.127	145.12
396.352	142.12
396.576	141.12
396.801	129.12
397.025	139.12
397.249	117.12
397.474	154.12
397.698	139.12
397.922	133.12
398.147	127.12
398.371	124.12
398.595	132.12
398.82	146.12
399.044	156.12
399.268	137.12
399.492	133.12
399.717	158.12
399.941	150.12
400.165	141.12
400.389	139.12
400.613	143.12
400.837	131.12
401.062	148.12
401.286	155.12
401.51	152.12
401.734	146.12
401.958	154.12
402.182	153.12
402.406	143.12
402.63	138.12
402.854	138.12
403.078	154.12
403.302	147.12
403.526	150.12
403.75	146.12
403.974	144.12
404.198	157.12
404.422	160.12
404.645	151.12
404.869	173.12
405.093	189.12
405.317	212.12
405.541	270.12
405.765	357.12
405.988	392.12
406.212	320.12
406.436	240.12
406.66	232.12
406.883	212.12
407.107	187.12
407.331	188.12
407.555	152.12
407.778	167.12
408.002	162.12
408.226	149.12
408.449	156.12
408.673	147.12
408.896	147.12
409.12	143.12
409.344	150.12
409.567	136.12
409.791	158.12
410.014	159.12
410.238	149.12
410.461	146.12
410.685	142.12
410.908	149.12
411.132	151.12
411.355	150.12
411.578	147.12
411.802	142.12
412.025	147.12
412.249	140.12
412.472	146.12
412.695	144.12
412.919	132.12
413.142	136.12
413.365	152.12
413.589	139.12
413.812	135.12
414.035	151.12
414.258	143.12
414.482	136.12
414.705	141.12
414.928	161.12
415.151	156.12
415.374	134.12
415.597	137.12
415.821	148.12
416.044	141.12
416.267	135.12
416.49	146.12
416.713	150.12
416.936	172.12
417.159	137.12
417.382	130.12
417.605	139.12
417.828	150.12
418.051	140.12
418.274	145.12
418.497	157.12
418.72	143.12
418.943	139.12
419.166	148.12
419.389	151.12
419.611	139.12
419.834	154.12
420.057	156.12
420.28	146.12
420.503	143.12
420.726	162.12
420.948	138.12
421.171	134.12
421.394	147.12
421.617	170.12
421.839	146.12
422.062	156.12
422.285	153.12
422.507	151.12
422.73	145.12
422.953	136.12
423.175	161.12
423.398	168.12
423.621	181.12
423.843	170.12
424.066	185.12
424.288	199.12
424.511	220.12
424.733	231.12
424.956	212.12
425.178	196.12
425.401	198.12
425.623	176.12
425.846	179.12
426.068	169.12
426.291	165.12
426.513	161.12
426.735	179.12
426.958	152.12
427.18	168.12
427.402	163.12
427.625	165.12
427.847	132.12
428.069	148.12
428.292	155.12
428.514	164.12
428.736	144.12
428.958	158.12
429.181	155.12
429.403	150.12
429.625	156.12
429.847	149.12
430.069	158.12
430.292	187.12
430.514	146.12
430.736	147.12
430.958	155.12
431.18	136.12
431.402	154.12
431.624	146.12
431.846	122.12
432.068	130.12
432.29	130.12
432.512	165.12
432.734	174.12
432.956	144.12
433.178	162.12
433.4	174.12
433.622	163.12
433.844	144.12
434.066	163.12
434.287	156.12
434.509	140.12
434.731	164.12
434.953	146.12
435.175	151.12
435.397	156.12
435.618	161.12
435.84	158.12
436.062	161.12
436.284	158.12
436.505	179.12
436.727	170.12
436.949	158.12
437.17	162.12
437.392	171.12
437.614	174.12
437.835	142.12
438.057	168.12
438.278	176.12
438.5	174.12
438.721	203.12
438.943	232.12
439.165	210.12
439.386	205.12
439.608	214.12
439.829	200.12
440.05	201.12
440.272	211.12
440.493	186.12
440.715	189.12
440.936	191.12
441.158	193.12
441.379	184.12
441.6	190.12
441.822	184.12
442.043	186.12
442.264	190.12
442.486	182.12
442.707	164.12
442.928	159.12
443.149	173.12
443.371	186.12
443.592	167.12
443.813	170.12
444.034	163.12
444.255	181.12
444.476	174.12
444.698	176.12
444.919	155.12
445.14	562.12
445.361	368.12
445.582	190.12
445.803	176.12
446.024	165.12
446.245	184.12
446.466	175.12
446.687	161.12
446.908	172.12
447.129	173.12
447.35	188.12
447.571	179.12
447.792	156.12
448.013	164.12
448.234	171.12
448.455	160.12
448.675	161.12
448.896	155.12
449.117	151.12
449.338	172.12
449.559	161.12
449.779	161.12
450	175.12
450.221	164.12
450.442	165.12
450.662	146.12
450.883	159.12
451.104	164.12
451.324	147.12
451.545	138.12
451.766	154.12
451.986	150.12
452.207	149.12
452.428	147.12
452.648	156.12
452.869	162.12
453.089	132.12
453.31	125.12
453.53	156.12
453.751	135.12
453.971	150.12
454.192	130.12
454.412	126.12
454.633	129.12
454.853	146.12
455.073	146.12
455.294	148.12
455.514	162.12
455.734	124.12
455.955	146.12
456.175	139.12
456.395	137.12
456.616	125.12
456.836	140.12
457.056	141.12
457.276	132.12
457.497	156.12
457.717	130.12
457.937	142.12
458.157	135.12
458.377	128.12
458.598	144.12
458.818	136.12
459.038	127.12
459.258	129.12
459.478	132.12
459.698	127.12
459.918	150.12
460.138	155.12
460.358	152.12
460.578	167.12
460.798	159.12
461.018	154.12
461.238	150.12
461.458	155.12
461.678	156.12
461.898	140.12
462.118	172.12
462.338	148.12
462.558	151.12
462.777	149.12
462.997	140.12
463.217	127.12
463.437	154.12
463.657	150.12
463.876	159.12
464.096	147.12
464.316	135.12
464.536	136.12
464.755	152.12
464.975	130.12
465.195	147.12
465.414	157.12
465.634	129.12
465.854	167.12
466.073	137.12
466.293	133.12
466.512	157.12
466.732	158.12
466.951	154.12
467.171	142.12
467.391	140.12
467.61	151.12
467.829	151.12
468.049	148.12
468.268	152.12
468.488	146.12
468.707	158.12
468.927	156.12
469.146	140.12
469.365	151.12
469.585	153.12
469.804	157.12
470.023	164.12
470.243	170.12
470.462	157.12
470.681	163.12
470.901	151.12
471.12	153.12
471.339	167.12
471.558	144.12
471.777	163.12
471.997	158.12
472.216	154.12
472.435	141.12
472.654	140.12
472.873	144.12
473.092	142.12
473.311	153.12
473.53	134.12
473.749	166.12
473.968	150.12
474.187	157.12
474.406	154.12
474.625	142.12
474.844	156.12
475.063	148.12
475.282	166.12
475.501	134.12
475.72	172.12
475.939	140.12
476.158	149.12
476.377	155.12
476.596	146.12
476.814	134.12
477.033	144.12
477.252	157.12
477.471	157.12
477.69	163.12
477.908	161.12
478.127	176.12
478.346	156.12
478.564	162.12
478.783	147.12
479.002	172.12
479.22	171.12
479.439	158.12
479.658	156.12
479.876	155.12
480.095	140.12
480.313	158.12
480.532	158.12
480.751	149.12
480.969	146.12
481.188	134.12
481.406	144.12
481.624	159.12
481.843	133.12
482.061	141.12
482.28	134.12
482.498	146.12
482.717	159.12
482.935	159.12
483.153	164.12
483.372	163.12
483.59	162.12
483.808	151.12
484.027	145.12
484.245	167.12
484.463	167.12
484.681	174.12
484.9	150.12
485.118	172.12
485.336	144.12
485.554	141.12
485.772	132.12
485.99	160.12
486.209	158.12
486.427	148.12
486.645	148.12
486.863	158.12
487.081	160.12
487.299	158.12
487.517	191.12
487.735	180.12
487.953	164.12
488.171	172.12
488.389	189.12
488.607	161.12
488.825	161.12
489.043	160.12
489.261	180.12
489.479	166.12
489.696	168.12
489.914	167.12
490.132	162.12
490.35	173.12
490.568	182.12
490.786	176.12
491.003	172.12
491.221	180.12
491.439	201.12
491.657	196.12
491.874	206.12
492.092	208.12
492.31	200.12
492.527	180.12
492.745	178.12
492.963	208.12
493.18	180.12
493.398	191.12
493.615	177.12
493.833	183.12
494.05	169.12
494.268	178.12
494.485	189.12
494.703	188.12
494.92	184.12
495.138	177.12
495.355	192.12
495.573	207.12
495.79	165.12
496.008	198.12
496.225	189.12
496.442	193.12
496.66	192.12
496.877	171.12
497.094	196.12
497.312	174.12
497.529	165.12
497.746	175.12
497.963	156.12
498.181	178.12
498.398	163.12
498.615	178.12
498.832	189.12
499.049	180.12
499.267	188.12
499.484	187.12
499.701	198.12
499.918	221.12
500.135	194.12
500.352	181.12
500.569	211.12
500.786	248.12
501.003	227.12
501.22	216.12
501.437	184.12
501.654	192.12
501.871	184.12
502.088	194.12
502.305	196.12
502.522	186.12
502.739	186.12
502.956	162.12
503.172	175.12
503.389	170.12
503.606	168.12
503.823	188.12
504.04	191.12
