Data from TenMicroDelayPb_HRD10591_00007.txt Node
Date: Mon Nov 24 14:55:08 EST 2025
User: Yrep
Spectrometer: HR+D1059
Trigger mode: 5
Integration Time (sec): 1.000000E-2
Scans to average: 1
Electric dark correction enabled: true
Nonlinearity correction enabled: false
Boxcar width: 0
XAxis mode: Wavelengths
Number of Pixels in Spectrum: 2048
>>>>>Begin Spectral Data<<<<<
223.165	-23.38
223.4	-23.38
223.635	-23.38
223.869	-38.38
224.104	-25.38
224.338	-6.38
224.573	-6.38
224.808	-15.38
225.042	1.62
225.277	-5.38
225.511	5.62
225.746	13.62
225.98	1.62
226.215	16.62
226.449	18.62
226.683	-0.38
226.918	34.62
227.152	28.62
227.387	41.62
227.621	23.62
227.856	53.62
228.09	45.62
228.324	49.62
228.559	81.62
228.793	63.62
229.027	67.62
229.262	70.62
229.496	75.62
229.73	73.62
229.964	85.62
230.199	66.62
230.433	71.62
230.667	79.62
230.901	77.62
231.136	80.62
231.37	81.62
231.604	83.62
231.838	78.62
232.072	79.62
232.306	87.62
232.541	67.62
232.775	71.62
233.009	82.62
233.243	89.62
233.477	80.62
233.711	92.62
233.945	90.62
234.179	89.62
234.413	88.62
234.647	89.62
234.881	86.62
235.115	93.62
235.349	85.62
235.583	98.62
235.817	66.62
236.051	83.62
236.285	85.62
236.519	88.62
236.753	86.62
236.987	79.62
237.221	78.62
237.455	77.62
237.689	93.62
237.922	79.62
238.156	77.62
238.39	79.62
238.624	86.62
238.858	88.62
239.091	72.62
239.325	71.62
239.559	74.62
239.793	87.62
240.027	110.62
240.26	90.62
240.494	83.62
240.728	82.62
240.961	87.62
241.195	96.62
241.429	106.62
241.662	78.62
241.896	85.62
242.13	86.62
242.363	78.62
242.597	89.62
242.83	94.62
243.064	86.62
243.298	90.62
243.531	87.62
243.765	97.62
243.998	95.62
244.232	96.62
244.465	101.62
244.699	91.62
244.932	84.62
245.166	93.62
245.399	86.62
245.633	86.62
245.866	85.62
246.099	70.62
246.333	82.62
246.566	96.62
246.8	80.62
247.033	78.62
247.266	80.62
247.5	79.62
247.733	87.62
247.966	90.62
248.2	92.62
248.433	77.62
248.666	87.62
248.899	94.62
249.133	78.62
249.366	101.62
249.599	82.62
249.832	109.62
250.066	107.62
250.299	101.62
250.532	99.62
250.765	92.62
250.998	78.62
251.231	104.62
251.465	84.62
251.698	100.62
251.931	91.62
252.164	89.62
252.397	87.62
252.63	105.62
252.863	94.62
253.096	89.62
253.329	108.62
253.562	91.62
253.795	106.62
254.028	103.62
254.261	101.62
254.494	85.62
254.727	111.62
254.96	119.62
255.193	89.62
255.426	85.62
255.659	90.62
255.892	107.62
256.124	104.62
256.357	101.62
256.59	110.62
256.823	105.62
257.056	97.62
257.289	119.62
257.521	92.62
257.754	105.62
257.987	91.62
258.22	115.62
258.452	107.62
258.685	110.62
258.918	99.62
259.151	97.62
259.383	121.62
259.616	117.62
259.849	98.62
260.081	103.62
260.314	104.62
260.547	112.62
260.779	110.62
261.012	120.62
261.244	130.62
261.477	144.62
261.71	115.62
261.942	116.62
262.175	113.62
262.407	117.62
262.64	106.62
262.872	97.62
263.105	96.62
263.337	116.62
263.57	103.62
263.802	92.62
264.035	125.62
264.267	98.62
264.499	96.62
264.732	113.62
264.964	111.62
265.197	115.62
265.429	118.62
265.661	112.62
265.894	120.62
266.126	111.62
266.358	130.62
266.591	116.62
266.823	119.62
267.055	122.62
267.287	112.62
267.52	102.62
267.752	116.62
267.984	92.62
268.216	107.62
268.448	109.62
268.681	99.62
268.913	111.62
269.145	105.62
269.377	116.62
269.609	114.62
269.841	118.62
270.073	95.62
270.306	87.62
270.538	95.62
270.77	90.62
271.002	115.62
271.234	102.62
271.466	115.62
271.698	109.62
271.93	99.62
272.162	101.62
272.394	112.62
272.626	102.62
272.858	94.62
273.09	105.62
273.322	96.62
273.553	109.62
273.785	109.62
274.017	89.62
274.249	110.62
274.481	90.62
274.713	96.62
274.945	114.62
275.176	117.62
275.408	101.62
275.64	107.62
275.872	101.62
276.104	108.62
276.335	90.62
276.567	101.62
276.799	112.62
277.031	109.62
277.262	114.62
277.494	130.62
277.726	124.62
277.957	103.62
278.189	109.62
278.421	107.62
278.652	112.62
278.884	119.62
279.115	122.62
279.347	133.62
279.579	136.62
279.81	143.62
280.042	176.62
280.273	185.62
280.505	169.62
280.736	140.62
280.968	121.62
281.199	128.62
281.431	108.62
281.662	130.62
281.894	126.62
282.125	129.62
282.356	126.62
282.588	148.62
282.819	129.62
283.051	130.62
283.282	136.62
283.513	149.62
283.745	145.62
283.976	130.62
284.207	115.62
284.439	123.62
284.67	126.62
284.901	113.62
285.132	107.62
285.364	106.62
285.595	103.62
285.826	125.62
286.057	133.62
286.288	119.62
286.52	119.62
286.751	120.62
286.982	118.62
287.213	127.62
287.444	138.62
287.675	132.62
287.906	140.62
288.138	111.62
288.369	118.62
288.6	123.62
288.831	103.62
289.062	124.62
289.293	124.62
289.524	111.62
289.755	106.62
289.986	115.62
290.217	94.62
290.448	101.62
290.679	117.62
290.91	110.62
291.141	110.62
291.371	107.62
291.602	106.62
291.833	108.62
292.064	107.62
292.295	121.62
292.526	102.62
292.757	113.62
292.987	101.62
293.218	93.62
293.449	121.62
293.68	109.62
293.91	121.62
294.141	115.62
294.372	113.62
294.603	117.62
294.833	81.62
295.064	101.62
295.295	111.62
295.525	116.62
295.756	109.62
295.987	124.62
296.217	98.62
296.448	108.62
296.679	114.62
296.909	119.62
297.14	106.62
297.37	120.62
297.601	121.62
297.831	115.62
298.062	112.62
298.292	111.62
298.523	131.62
298.753	114.62
298.984	102.62
299.214	120.62
299.445	88.62
299.675	105.62
299.905	109.62
300.136	105.62
300.366	110.62
300.597	122.62
300.827	119.62
301.057	117.62
301.288	97.62
301.518	113.62
301.748	103.62
301.979	157.62
302.209	113.62
302.439	110.62
302.669	107.62
302.9	116.62
303.13	106.62
303.36	125.62
303.59	101.62
303.82	104.62
304.051	102.62
304.281	125.62
304.511	139.62
304.741	115.62
304.971	98.62
305.201	126.62
305.431	120.62
305.661	122.62
305.891	110.62
306.121	117.62
306.352	97.62
306.582	119.62
306.812	106.62
307.042	98.62
307.272	111.62
307.502	103.62
307.731	100.62
307.961	104.62
308.191	111.62
308.421	109.62
308.651	134.62
308.881	105.62
309.111	114.62
309.341	114.62
309.571	94.62
309.8	116.62
310.03	95.62
310.26	108.62
310.49	116.62
310.72	102.62
310.949	103.62
311.179	105.62
311.409	112.62
311.639	116.62
311.868	117.62
312.098	111.62
312.328	104.62
312.557	111.62
312.787	115.62
313.017	138.62
313.246	126.62
313.476	108.62
313.706	135.62
313.935	117.62
314.165	111.62
314.394	108.62
314.624	124.62
314.853	137.62
315.083	123.62
315.312	128.62
315.542	135.62
315.771	123.62
316.001	112.62
316.23	124.62
316.46	126.62
316.689	110.62
316.919	116.62
317.148	120.62
317.377	130.62
317.607	122.62
317.836	100.62
318.065	101.62
318.295	105.62
318.524	115.62
318.753	113.62
318.983	120.62
319.212	129.62
319.441	110.62
319.67	110.62
319.9	111.62
320.129	126.62
320.358	125.62
320.587	112.62
320.816	127.62
321.046	124.62
321.275	130.62
321.504	110.62
321.733	121.62
321.962	109.62
322.191	109.62
322.42	119.62
322.649	133.62
322.878	129.62
323.108	131.62
323.337	111.62
323.566	131.62
323.795	116.62
324.024	111.62
324.253	112.62
324.482	110.62
324.71	123.62
324.939	122.62
325.168	105.62
325.397	124.62
325.626	128.62
325.855	103.62
326.084	109.62
326.313	123.62
326.542	128.62
326.77	130.62
326.999	118.62
327.228	112.62
327.457	115.62
327.686	115.62
327.914	116.62
328.143	137.62
328.372	111.62
328.6	106.62
328.829	117.62
329.058	114.62
329.287	115.62
329.515	127.62
329.744	127.62
329.972	109.62
330.201	132.62
330.43	115.62
330.658	109.62
330.887	121.62
331.115	121.62
331.344	111.62
331.572	113.62
331.801	117.62
332.03	123.62
332.258	130.62
332.486	107.62
332.715	116.62
332.943	105.62
333.172	125.62
333.4	104.62
333.629	130.62
333.857	128.62
334.085	108.62
334.314	101.62
334.542	109.62
334.771	113.62
334.999	133.62
335.227	114.62
335.455	121.62
335.684	134.62
335.912	138.62
336.14	97.62
336.369	107.62
336.597	106.62
336.825	120.62
337.053	119.62
337.281	113.62
337.51	119.62
337.738	131.62
337.966	100.62
338.194	113.62
338.422	110.62
338.65	120.62
338.878	119.62
339.106	119.62
339.334	131.62
339.562	111.62
339.79	114.62
340.018	108.62
340.246	113.62
340.474	108.62
340.702	119.62
340.93	106.62
341.158	105.62
341.386	109.62
341.614	119.62
341.842	123.62
342.07	123.62
342.298	107.62
342.526	120.62
342.754	113.62
342.981	122.62
343.209	111.62
343.437	167.62
343.665	121.62
343.893	118.62
344.12	130.62
344.348	137.62
344.576	103.62
344.804	112.62
345.031	96.62
345.259	126.62
345.487	116.62
345.714	121.62
345.942	118.62
346.17	125.62
346.397	114.62
346.625	115.62
346.853	109.62
347.08	108.62
347.308	130.62
347.535	114.62
347.763	124.62
347.99	113.62
348.218	107.62
348.445	106.62
348.673	111.62
348.9	113.62
349.128	122.62
349.355	127.62
349.583	121.62
349.81	117.62
350.037	110.62
350.265	111.62
350.492	94.62
350.72	116.62
350.947	99.62
351.174	111.62
351.402	125.62
351.629	112.62
351.856	113.62
352.083	113.62
352.311	123.62
352.538	103.62
352.765	136.62
352.992	123.62
353.22	121.62
353.447	118.62
353.674	137.62
353.901	123.62
354.128	124.62
354.355	115.62
354.583	105.62
354.81	132.62
355.037	122.62
355.264	132.62
355.491	127.62
355.718	109.62
355.945	123.62
356.172	131.62
356.399	120.62
356.626	134.62
356.853	147.62
357.08	199.62
357.307	208.62
357.534	230.62
357.761	189.62
357.988	169.62
358.215	162.62
358.441	121.62
358.668	137.62
358.895	132.62
359.122	131.62
359.349	127.62
359.576	137.62
359.802	123.62
360.029	115.62
360.256	125.62
360.483	122.62
360.709	119.62
360.936	137.62
361.163	139.62
361.39	113.62
361.616	121.62
361.843	130.62
362.07	144.62
362.296	132.62
362.523	130.62
362.749	122.62
362.976	125.62
363.203	156.62
363.429	157.62
363.656	176.62
363.882	209.62
364.109	258.62
364.335	211.62
364.562	179.62
364.788	140.62
365.015	154.62
365.241	139.62
365.468	139.62
365.694	131.62
365.92	128.62
366.147	130.62
366.373	138.62
366.599	136.62
366.826	129.62
367.052	162.62
367.278	166.62
367.505	175.62
367.731	209.62
367.957	199.62
368.184	255.62
368.41	275.62
368.636	272.62
368.862	209.62
369.089	179.62
369.315	159.62
369.541	157.62
369.767	131.62
369.993	149.62
370.219	130.62
370.445	129.62
370.672	137.62
370.898	111.62
371.124	131.62
371.35	126.62
371.576	126.62
371.802	120.62
372.028	125.62
372.254	126.62
372.48	122.62
372.706	120.62
372.932	137.62
373.158	132.62
373.384	153.62
373.61	176.62
373.835	199.62
374.061	211.62
374.287	226.62
374.513	185.62
374.739	143.62
374.965	150.62
375.191	127.62
375.416	127.62
375.642	135.62
375.868	152.62
376.094	118.62
376.319	126.62
376.545	117.62
376.771	126.62
376.997	134.62
377.222	125.62
377.448	129.62
377.674	129.62
377.899	128.62
378.125	125.62
378.35	128.62
378.576	130.62
378.802	137.62
379.027	126.62
379.253	145.62
379.478	112.62
379.704	138.62
379.929	127.62
380.155	138.62
380.38	131.62
380.606	132.62
380.831	120.62
381.057	150.62
381.282	119.62
381.507	113.62
381.733	127.62
381.958	117.62
382.184	117.62
382.409	110.62
382.634	130.62
382.86	136.62
383.085	133.62
383.31	128.62
383.535	141.62
383.761	121.62
383.986	125.62
384.211	113.62
384.436	111.62
384.662	103.62
384.887	121.62
385.112	127.62
385.337	124.62
385.562	133.62
385.787	120.62
386.013	127.62
386.238	127.62
386.463	121.62
386.688	186.62
386.913	128.62
387.138	113.62
387.363	142.62
387.588	158.62
387.813	126.62
388.038	139.62
388.263	114.62
388.488	134.62
388.713	121.62
388.938	113.62
389.163	129.62
389.387	134.62
389.612	135.62
389.837	114.62
390.062	138.62
390.287	131.62
390.512	112.62
390.736	115.62
390.961	123.62
391.186	113.62
391.411	123.62
391.636	120.62
391.86	135.62
392.085	127.62
392.31	101.62
392.534	136.62
392.759	139.62
392.984	128.62
393.208	133.62
393.433	126.62
393.658	138.62
393.882	119.62
394.107	135.62
394.331	128.62
394.556	131.62
394.78	144.62
395.005	131.62
395.229	130.62
395.454	143.62
395.678	110.62
395.903	135.62
396.127	140.62
396.352	139.62
396.576	146.62
396.801	122.62
397.025	139.62
397.249	131.62
397.474	163.62
397.698	129.62
397.922	133.62
398.147	119.62
398.371	114.62
398.595	143.62
398.82	128.62
399.044	127.62
399.268	135.62
399.492	146.62
399.717	159.62
399.941	134.62
400.165	146.62
400.389	136.62
400.613	133.62
400.837	135.62
401.062	129.62
401.286	151.62
401.51	140.62
401.734	147.62
401.958	154.62
402.182	157.62
402.406	147.62
402.63	143.62
402.854	137.62
403.078	150.62
403.302	154.62
403.526	160.62
403.75	151.62
403.974	145.62
404.198	156.62
404.422	168.62
404.645	154.62
404.869	157.62
405.093	181.62
405.317	229.62
405.541	302.62
405.765	383.62
405.988	403.62
406.212	334.62
406.436	266.62
406.66	234.62
406.883	198.62
407.107	186.62
407.331	183.62
407.555	173.62
407.778	163.62
408.002	158.62
408.226	163.62
408.449	158.62
408.673	157.62
408.896	157.62
409.12	157.62
409.344	147.62
409.567	125.62
409.791	159.62
410.014	140.62
410.238	165.62
410.461	173.62
410.685	147.62
410.908	143.62
411.132	159.62
411.355	133.62
411.578	140.62
411.802	146.62
412.025	145.62
412.249	149.62
412.472	149.62
412.695	149.62
412.919	135.62
413.142	133.62
413.365	140.62
413.589	131.62
413.812	150.62
414.035	163.62
414.258	142.62
414.482	153.62
414.705	146.62
414.928	145.62
415.151	161.62
415.374	128.62
415.597	139.62
415.821	130.62
416.044	156.62
416.267	154.62
416.49	143.62
416.713	142.62
416.936	163.62
417.159	149.62
417.382	134.62
417.605	136.62
417.828	141.62
418.051	166.62
418.274	142.62
418.497	131.62
418.72	143.62
418.943	136.62
419.166	135.62
419.389	152.62
419.611	135.62
419.834	141.62
420.057	152.62
420.28	146.62
420.503	141.62
420.726	154.62
420.948	138.62
421.171	126.62
421.394	143.62
421.617	144.62
421.839	138.62
422.062	148.62
422.285	135.62
422.507	148.62
422.73	133.62
422.953	147.62
423.175	151.62
423.398	167.62
423.621	188.62
423.843	187.62
424.066	195.62
424.288	196.62
424.511	229.62
424.733	231.62
424.956	239.62
425.178	210.62
425.401	190.62
425.623	181.62
425.846	204.62
426.068	180.62
426.291	160.62
426.513	166.62
426.735	186.62
426.958	168.62
427.18	165.62
427.402	181.62
427.625	162.62
427.847	169.62
428.069	171.62
428.292	150.62
428.514	162.62
428.736	158.62
428.958	143.62
429.181	151.62
429.403	163.62
429.625	159.62
429.847	134.62
430.069	152.62
430.292	154.62
430.514	150.62
430.736	151.62
430.958	170.62
431.18	150.62
431.402	144.62
431.624	142.62
431.846	136.62
432.068	150.62
432.29	146.62
432.512	156.62
432.734	138.62
432.956	157.62
433.178	157.62
433.4	157.62
433.622	181.62
433.844	163.62
434.066	151.62
434.287	143.62
434.509	133.62
434.731	141.62
434.953	142.62
435.175	160.62
435.397	147.62
435.618	140.62
435.84	158.62
436.062	143.62
436.284	152.62
436.505	160.62
436.727	150.62
436.949	147.62
437.17	170.62
437.392	147.62
437.614	171.62
437.835	141.62
438.057	158.62
438.278	194.62
438.5	195.62
438.721	217.62
438.943	237.62
439.165	241.62
439.386	219.62
439.608	218.62
439.829	198.62
440.05	207.62
440.272	185.62
440.493	190.62
440.715	185.62
440.936	204.62
441.158	213.62
441.379	201.62
441.6	191.62
441.822	186.62
442.043	195.62
442.264	185.62
442.486	182.62
442.707	153.62
442.928	160.62
443.149	169.62
443.371	195.62
443.592	168.62
443.813	165.62
444.034	155.62
444.255	185.62
444.476	165.62
444.698	146.62
444.919	165.62
445.14	543.62
445.361	347.62
445.582	166.62
445.803	158.62
446.024	169.62
446.245	183.62
446.466	181.62
446.687	171.62
446.908	178.62
447.129	169.62
447.35	170.62
447.571	154.62
447.792	169.62
448.013	159.62
448.234	161.62
448.455	168.62
448.675	166.62
448.896	149.62
449.117	177.62
449.338	141.62
449.559	174.62
449.779	146.62
450	152.62
450.221	162.62
450.442	156.62
450.662	144.62
450.883	133.62
451.104	166.62
451.324	153.62
451.545	150.62
451.766	150.62
451.986	134.62
452.207	145.62
452.428	141.62
452.648	145.62
452.869	128.62
453.089	123.62
453.31	137.62
453.53	144.62
453.751	142.62
453.971	134.62
454.192	144.62
454.412	142.62
454.633	143.62
454.853	143.62
455.073	139.62
455.294	158.62
455.514	157.62
455.734	140.62
455.955	132.62
456.175	134.62
456.395	123.62
456.616	135.62
456.836	135.62
457.056	136.62
457.276	136.62
457.497	135.62
457.717	154.62
457.937	137.62
458.157	137.62
458.377	121.62
458.598	119.62
458.818	122.62
459.038	140.62
459.258	125.62
459.478	127.62
459.698	138.62
459.918	138.62
460.138	125.62
460.358	128.62
460.578	145.62
460.798	151.62
461.018	145.62
461.238	131.62
461.458	131.62
461.678	149.62
461.898	150.62
462.118	144.62
462.338	120.62
462.558	150.62
462.777	141.62
462.997	151.62
463.217	138.62
463.437	137.62
463.657	141.62
463.876	139.62
464.096	157.62
464.316	137.62
464.536	159.62
464.755	166.62
464.975	153.62
465.195	136.62
465.414	144.62
465.634	144.62
465.854	150.62
466.073	136.62
466.293	151.62
466.512	143.62
466.732	137.62
466.951	156.62
467.171	153.62
467.391	139.62
467.61	142.62
467.829	148.62
468.049	141.62
468.268	147.62
468.488	143.62
468.707	129.62
468.927	152.62
469.146	151.62
469.365	150.62
469.585	147.62
469.804	168.62
470.023	143.62
470.243	154.62
470.462	173.62
470.681	150.62
470.901	159.62
471.12	154.62
471.339	145.62
471.558	152.62
471.777	153.62
471.997	156.62
472.216	138.62
472.435	139.62
472.654	128.62
472.873	160.62
473.092	144.62
473.311	151.62
473.53	140.62
473.749	163.62
473.968	156.62
474.187	139.62
474.406	136.62
474.625	153.62
474.844	139.62
475.063	150.62
475.282	127.62
475.501	144.62
475.72	166.62
475.939	160.62
476.158	127.62
476.377	144.62
476.596	141.62
476.814	137.62
477.033	138.62
477.252	161.62
477.471	147.62
477.69	177.62
477.908	147.62
478.127	170.62
478.346	162.62
478.564	159.62
478.783	169.62
479.002	185.62
479.22	153.62
479.439	170.62
479.658	140.62
479.876	134.62
480.095	149.62
480.313	153.62
480.532	164.62
480.751	141.62
480.969	145.62
481.188	142.62
481.406	152.62
481.624	146.62
481.843	151.62
482.061	129.62
482.28	159.62
482.498	149.62
482.717	152.62
482.935	154.62
483.153	171.62
483.372	152.62
483.59	171.62
483.808	161.62
484.027	157.62
484.245	145.62
484.463	142.62
484.681	182.62
484.9	151.62
485.118	165.62
485.336	157.62
485.554	136.62
485.772	143.62
485.99	151.62
486.209	158.62
486.427	139.62
486.645	148.62
486.863	153.62
487.081	157.62
487.299	158.62
487.517	178.62
487.735	169.62
487.953	173.62
488.171	202.62
488.389	162.62
488.607	154.62
488.825	166.62
489.043	158.62
489.261	165.62
489.479	170.62
489.696	162.62
489.914	142.62
490.132	170.62
490.35	174.62
490.568	179.62
490.786	174.62
491.003	175.62
491.221	170.62
491.439	187.62
491.657	173.62
491.874	189.62
492.092	202.62
492.31	208.62
492.527	189.62
492.745	193.62
492.963	201.62
493.18	195.62
493.398	181.62
493.615	177.62
493.833	179.62
494.05	154.62
494.268	188.62
494.485	170.62
494.703	184.62
494.92	175.62
495.138	159.62
495.355	180.62
495.573	207.62
495.79	176.62
496.008	195.62
496.225	188.62
496.442	194.62
496.66	186.62
496.877	180.62
497.094	193.62
497.312	194.62
497.529	185.62
497.746	169.62
497.963	151.62
498.181	160.62
498.398	175.62
498.615	194.62
498.832	181.62
499.049	174.62
499.267	181.62
499.484	184.62
499.701	202.62
499.918	191.62
500.135	190.62
500.352	205.62
500.569	221.62
500.786	264.62
501.003	209.62
501.22	205.62
501.437	189.62
501.654	185.62
501.871	198.62
502.088	161.62
502.305	179.62
502.522	175.62
502.739	178.62
502.956	184.62
503.172	175.62
503.389	169.62
503.606	158.62
503.823	179.62
504.04	178.62
504.256	199.62
504.473	175.62
