Data from TenMicroDelayPb_HRD10591_00004.txt Node
Date: Mon Nov 24 14:55:07 EST 2025
User: Yrep
Spectrometer: HR+D1059
Trigger mode: 5
Integration Time (sec): 1.000000E-2
Scans to average: 1
Electric dark correction enabled: true
Nonlinearity correction enabled: false
Boxcar width: 0
XAxis mode: Wavelengths
Number of Pixels in Spectrum: 2048
>>>>>Begin Spectral Data<<<<<
223.165	-20
223.4	-20
223.635	-20
223.869	-22
224.104	-23
224.338	-12
224.573	-11
224.808	-12
225.042	11
225.277	-10
225.511	-6
225.746	7
225.98	9
226.215	19
226.449	6
226.683	-2
226.918	31
227.152	35
227.387	30
227.621	43
227.856	50
228.09	36
228.324	51
228.559	55
228.793	58
229.027	69
229.262	62
229.496	68
229.73	61
229.964	74
230.199	67
230.433	89
230.667	75
230.901	82
231.136	80
231.37	82
231.604	82
231.838	75
232.072	80
232.306	86
232.541	79
232.775	76
233.009	94
233.243	86
233.477	92
233.711	74
233.945	77
234.179	70
234.413	99
234.647	93
234.881	90
235.115	96
235.349	94
235.583	100
235.817	77
236.051	92
236.285	81
236.519	77
236.753	83
236.987	96
237.221	90
237.455	96
237.689	86
237.922	78
238.156	62
238.39	72
238.624	79
238.858	102
239.091	79
239.325	91
239.559	79
239.793	76
240.027	88
240.26	99
240.494	77
240.728	81
240.961	79
241.195	90
241.429	98
241.662	97
241.896	102
242.13	80
242.363	82
242.597	96
242.83	86
243.064	70
243.298	102
243.531	87
243.765	81
243.998	96
244.232	116
244.465	102
244.699	92
244.932	96
245.166	89
245.399	93
245.633	90
245.866	82
246.099	81
246.333	88
246.566	75
246.8	95
247.033	87
247.266	98
247.5	76
247.733	95
247.966	97
248.2	93
248.433	95
248.666	86
248.899	96
249.133	95
249.366	115
249.599	108
249.832	96
250.066	106
250.299	79
250.532	92
250.765	101
250.998	87
251.231	110
251.465	99
251.698	104
251.931	89
252.164	86
252.397	104
252.63	101
252.863	104
253.096	88
253.329	102
253.562	103
253.795	113
254.028	92
254.261	111
254.494	106
254.727	126
254.96	114
255.193	75
255.426	88
255.659	87
255.892	118
256.124	96
256.357	98
256.59	125
256.823	113
257.056	96
257.289	98
257.521	115
257.754	104
257.987	94
258.22	113
258.452	99
258.685	100
258.918	95
259.151	110
259.383	110
259.616	99
259.849	99
260.081	112
260.314	112
260.547	114
260.779	115
261.012	106
261.244	111
261.477	152
261.71	132
261.942	113
262.175	113
262.407	99
262.64	116
262.872	95
263.105	107
263.337	107
263.57	120
263.802	110
264.035	93
264.267	90
264.499	128
264.732	96
264.964	111
265.197	123
265.429	96
265.661	107
265.894	102
266.126	107
266.358	121
266.591	131
266.823	117
267.055	95
267.287	120
267.52	88
267.752	111
267.984	107
268.216	107
268.448	111
268.681	100
268.913	89
269.145	118
269.377	110
269.609	97
269.841	94
270.073	104
270.306	109
270.538	106
270.77	89
271.002	98
271.234	95
271.466	112
271.698	93
271.93	94
272.162	103
272.394	128
272.626	112
272.858	105
273.09	102
273.322	100
273.553	98
273.785	101
274.017	107
274.249	132
274.481	103
274.713	105
274.945	105
275.176	91
275.408	104
275.64	95
275.872	104
276.104	88
276.335	108
276.567	89
276.799	96
277.031	107
277.262	97
277.494	102
277.726	115
277.957	102
278.189	102
278.421	105
278.652	114
278.884	118
279.115	132
279.347	125
279.579	128
279.81	145
280.042	161
280.273	183
280.505	174
280.736	132
280.968	125
281.199	136
281.431	121
281.662	123
281.894	128
282.125	136
282.356	134
282.588	143
282.819	136
283.051	118
283.282	141
283.513	182
283.745	153
283.976	123
284.207	127
284.439	130
284.67	128
284.901	122
285.132	107
285.364	98
285.595	112
285.826	121
286.057	114
286.288	99
286.52	111
286.751	106
286.982	128
287.213	140
287.444	154
287.675	127
287.906	116
288.138	109
288.369	108
288.6	122
288.831	91
289.062	115
289.293	104
289.524	104
289.755	96
289.986	110
290.217	98
290.448	106
290.679	110
290.91	122
291.141	108
291.371	99
291.602	113
291.833	107
292.064	112
292.295	112
292.526	112
292.757	103
292.987	124
293.218	106
293.449	115
293.68	105
293.91	107
294.141	105
294.372	113
294.603	107
294.833	117
295.064	104
295.295	90
295.525	112
295.756	100
295.987	102
296.217	121
296.448	121
296.679	135
296.909	108
297.14	119
297.37	132
297.601	98
297.831	112
298.062	120
298.292	101
298.523	120
298.753	113
298.984	107
299.214	102
299.445	100
299.675	120
299.905	126
300.136	117
300.366	111
300.597	117
300.827	112
301.057	111
301.288	116
301.518	107
301.748	107
301.979	172
302.209	100
302.439	107
302.669	115
302.9	128
303.13	121
303.36	111
303.59	113
303.82	105
304.051	125
304.281	110
304.511	129
304.741	112
304.971	100
305.201	122
305.431	122
305.661	124
305.891	94
306.121	108
306.352	106
306.582	111
306.812	116
307.042	110
307.272	120
307.502	109
307.731	112
307.961	117
308.191	97
308.421	112
308.651	110
308.881	114
309.111	100
309.341	115
309.571	107
309.8	111
310.03	110
310.26	103
310.49	106
310.72	114
310.949	97
311.179	117
311.409	114
311.639	123
311.868	114
312.098	118
312.328	127
312.557	119
312.787	122
313.017	133
313.246	126
313.476	107
313.706	106
313.935	115
314.165	135
314.394	114
314.624	121
314.853	135
315.083	132
315.312	138
315.542	123
315.771	147
316.001	122
316.23	119
316.46	111
316.689	132
316.919	117
317.148	138
317.377	118
317.607	122
317.836	124
318.065	131
318.295	113
318.524	119
318.753	125
318.983	116
319.212	122
319.441	113
319.67	119
319.9	119
320.129	123
320.358	123
320.587	114
320.816	99
321.046	113
321.275	128
321.504	112
321.733	109
321.962	106
322.191	115
322.42	112
322.649	108
322.878	130
323.108	119
323.337	118
323.566	110
323.795	113
324.024	120
324.253	119
324.482	115
324.71	118
324.939	120
325.168	119
325.397	112
325.626	124
325.855	112
326.084	128
326.313	123
326.542	110
326.77	135
326.999	120
327.228	114
327.457	112
327.686	122
327.914	119
328.143	139
328.372	123
328.6	118
328.829	124
329.058	111
329.287	110
329.515	114
329.744	129
329.972	114
330.201	115
330.43	118
330.658	95
330.887	115
331.115	114
331.344	120
331.572	119
331.801	108
332.03	115
332.258	127
332.486	112
332.715	108
332.943	119
333.172	118
333.4	110
333.629	133
333.857	130
334.085	116
334.314	124
334.542	102
334.771	115
334.999	119
335.227	123
335.455	136
335.684	134
335.912	138
336.14	118
336.369	115
336.597	118
336.825	111
337.053	104
337.281	121
337.51	108
337.738	128
337.966	121
338.194	118
338.422	106
338.65	137
338.878	130
339.106	110
339.334	130
339.562	115
339.79	112
340.018	116
340.246	122
340.474	115
340.702	126
340.93	116
341.158	102
341.386	117
341.614	110
341.842	116
342.07	123
342.298	118
342.526	122
342.754	113
342.981	124
343.209	116
343.437	176
343.665	119
343.893	115
344.12	141
344.348	121
344.576	124
344.804	115
345.031	119
345.259	122
345.487	119
345.714	122
345.942	96
346.17	122
346.397	118
346.625	95
346.853	125
347.08	102
347.308	102
347.535	114
347.763	127
347.99	126
348.218	119
348.445	134
348.673	125
348.9	123
349.128	139
349.355	117
349.583	113
349.81	114
350.037	125
350.265	112
350.492	108
350.72	107
350.947	100
351.174	120
351.402	116
351.629	112
351.856	113
352.083	108
352.311	120
352.538	127
352.765	124
352.992	132
353.22	133
353.447	125
353.674	143
353.901	118
354.128	116
354.355	110
354.583	117
354.81	128
355.037	126
355.264	139
355.491	122
355.718	125
355.945	142
356.172	118
356.399	142
356.626	136
356.853	169
357.08	173
357.307	187
357.534	194
357.761	171
357.988	175
358.215	153
358.441	149
358.668	140
358.895	127
359.122	143
359.349	139
359.576	132
359.802	127
360.029	113
360.256	120
360.483	118
360.709	110
360.936	139
361.163	139
361.39	104
361.616	130
361.843	131
362.07	133
362.296	132
362.523	124
362.749	126
362.976	127
363.203	161
363.429	152
363.656	194
363.882	206
364.109	242
364.335	218
364.562	159
364.788	148
365.015	155
365.241	143
365.468	138
365.694	131
365.92	137
366.147	115
366.373	135
366.599	135
366.826	139
367.052	174
367.278	182
367.505	170
367.731	180
367.957	189
368.184	227
368.41	272
368.636	250
368.862	219
369.089	161
369.315	152
369.541	163
369.767	162
369.993	162
370.219	133
370.445	137
370.672	135
370.898	139
371.124	112
371.35	115
371.576	133
371.802	115
372.028	133
372.254	137
372.48	116
372.706	132
372.932	125
373.158	140
373.384	166
373.61	171
373.835	189
374.061	222
374.287	199
374.513	182
374.739	159
374.965	152
375.191	147
375.416	129
375.642	141
375.868	149
376.094	129
376.319	123
376.545	122
376.771	136
376.997	144
377.222	126
377.448	111
377.674	131
377.899	131
378.125	131
378.35	137
378.576	120
378.802	140
379.027	130
379.253	121
379.478	128
379.704	119
379.929	118
380.155	114
380.38	126
380.606	119
380.831	125
381.057	133
381.282	112
381.507	121
381.733	129
381.958	122
382.184	127
382.409	123
382.634	124
382.86	118
383.085	131
383.31	135
383.535	136
383.761	132
383.986	142
384.211	126
384.436	119
384.662	115
384.887	121
385.112	122
385.337	123
385.562	115
385.787	126
386.013	129
386.238	116
386.463	140
386.688	163
386.913	120
387.138	118
387.363	114
387.588	143
387.813	140
388.038	124
388.263	122
388.488	117
388.713	127
388.938	106
389.163	124
389.387	121
389.612	125
389.837	119
390.062	137
390.287	137
390.512	123
390.736	124
390.961	131
391.186	125
391.411	126
391.636	120
391.86	121
392.085	112
392.31	130
392.534	125
392.759	146
392.984	145
393.208	134
393.433	119
393.658	130
393.882	128
394.107	122
394.331	142
394.556	130
394.78	146
395.005	129
395.229	134
395.454	122
395.678	126
395.903	126
396.127	124
396.352	142
396.576	133
396.801	136
397.025	137
397.249	145
397.474	140
397.698	132
397.922	128
398.147	141
398.371	137
398.595	150
398.82	135
399.044	138
399.268	142
399.492	126
399.717	144
399.941	125
400.165	131
400.389	138
400.613	144
400.837	142
401.062	142
401.286	140
401.51	140
401.734	166
401.958	152
402.182	143
402.406	148
402.63	141
402.854	160
403.078	152
403.302	148
403.526	149
403.75	145
403.974	154
404.198	148
404.422	155
404.645	149
404.869	169
405.093	176
405.317	219
405.541	282
405.765	386
405.988	392
406.212	319
406.436	246
406.66	236
406.883	194
407.107	209
407.331	167
407.555	157
407.778	152
408.002	157
408.226	154
408.449	159
408.673	139
408.896	148
409.12	154
409.344	157
409.567	151
409.791	141
410.014	138
410.238	143
410.461	148
410.685	154
410.908	130
411.132	143
411.355	150
411.578	154
411.802	157
412.025	156
412.249	138
412.472	146
412.695	153
412.919	151
413.142	144
413.365	148
413.589	139
413.812	156
414.035	170
414.258	144
414.482	155
414.705	150
414.928	155
415.151	147
415.374	142
415.597	142
415.821	145
416.044	141
416.267	133
416.49	147
416.713	158
416.936	146
417.159	134
417.382	154
417.605	145
417.828	159
418.051	146
418.274	140
418.497	158
418.72	144
418.943	149
419.166	148
419.389	164
419.611	134
419.834	150
420.057	143
420.28	154
420.503	136
420.726	154
420.948	150
421.171	150
421.394	159
421.617	154
421.839	161
422.062	159
422.285	145
422.507	166
422.73	154
422.953	148
423.175	154
423.398	171
423.621	186
423.843	186
424.066	187
424.288	217
424.511	232
424.733	231
424.956	216
425.178	194
425.401	191
425.623	194
425.846	186
426.068	173
426.291	176
426.513	167
426.735	182
426.958	176
427.18	166
427.402	158
427.625	159
427.847	155
428.069	150
428.292	162
428.514	158
428.736	151
428.958	153
429.181	159
429.403	162
429.625	151
429.847	159
430.069	154
430.292	168
430.514	153
430.736	137
430.958	149
431.18	133
431.402	137
431.624	145
431.846	153
432.068	142
432.29	164
432.512	156
432.734	162
432.956	162
433.178	175
433.4	152
433.622	153
433.844	159
434.066	172
434.287	152
434.509	146
434.731	144
434.953	137
435.175	154
435.397	162
435.618	142
435.84	155
436.062	166
436.284	167
436.505	151
436.727	160
436.949	181
437.17	152
437.392	155
437.614	161
437.835	141
438.057	167
438.278	160
438.5	192
438.721	233
438.943	234
439.165	225
439.386	200
439.608	198
439.829	209
440.05	209
440.272	209
440.493	195
440.715	193
440.936	200
441.158	217
441.379	189
441.6	195
441.822	178
442.043	192
442.264	171
442.486	187
442.707	178
442.928	166
443.149	169
443.371	181
443.592	162
443.813	170
444.034	169
444.255	185
444.476	158
444.698	171
444.919	157
445.14	521
445.361	346
445.582	186
445.803	157
446.024	155
446.245	161
446.466	165
446.687	168
446.908	174
447.129	174
447.35	187
447.571	159
447.792	175
448.013	169
448.234	168
448.455	150
448.675	153
448.896	162
449.117	151
449.338	148
449.559	156
449.779	153
450	144
450.221	153
450.442	152
450.662	136
450.883	163
451.104	164
451.324	139
451.545	154
451.766	141
451.986	137
452.207	131
452.428	147
452.648	164
452.869	159
453.089	132
453.31	135
453.53	141
453.751	143
453.971	133
454.192	133
454.412	146
454.633	155
454.853	141
455.073	138
455.294	146
455.514	150
455.734	140
455.955	146
456.175	155
456.395	144
456.616	143
456.836	150
457.056	129
457.276	126
457.497	132
457.717	136
457.937	143
458.157	142
458.377	124
458.598	135
458.818	123
459.038	121
459.258	132
459.478	139
459.698	144
459.918	151
460.138	138
460.358	146
460.578	155
460.798	148
461.018	119
461.238	141
461.458	141
461.678	148
461.898	145
462.118	144
462.338	139
462.558	151
462.777	135
462.997	140
463.217	133
463.437	136
463.657	136
463.876	149
464.096	134
464.316	138
464.536	152
464.755	157
464.975	148
465.195	146
465.414	154
465.634	129
465.854	150
466.073	138
466.293	136
466.512	143
466.732	143
466.951	146
467.171	159
467.391	156
467.61	150
467.829	154
468.049	132
468.268	154
468.488	146
468.707	145
468.927	157
469.146	147
469.365	154
469.585	151
469.804	166
470.023	139
470.243	158
470.462	158
470.681	152
470.901	146
471.12	167
471.339	142
471.558	135
471.777	166
471.997	160
472.216	142
472.435	133
472.654	140
472.873	142
473.092	139
473.311	146
473.53	142
473.749	135
473.968	172
474.187	150
474.406	149
474.625	147
474.844	144
475.063	137
475.282	147
475.501	140
475.72	156
475.939	151
476.158	138
476.377	136
476.596	147
476.814	149
477.033	148
477.252	137
477.471	137
477.69	147
477.908	155
478.127	170
478.346	162
478.564	152
478.783	160
479.002	142
479.22	160
479.439	171
479.658	162
479.876	146
480.095	157
480.313	160
480.532	152
480.751	154
480.969	145
481.188	135
481.406	159
481.624	150
481.843	143
482.061	138
482.28	144
482.498	143
482.717	141
482.935	160
483.153	145
483.372	166
483.59	165
483.808	162
484.027	168
484.245	143
484.463	157
484.681	187
484.9	158
485.118	171
485.336	164
485.554	155
485.772	152
485.99	130
486.209	150
486.427	155
486.645	155
486.863	157
487.081	156
487.299	159
487.517	166
487.735	184
487.953	183
488.171	180
488.389	170
488.607	162
488.825	152
489.043	160
489.261	163
489.479	166
489.696	167
489.914	164
490.132	174
490.35	176
490.568	175
490.786	178
491.003	177
491.221	183
491.439	185
491.657	198
491.874	202
492.092	184
492.31	216
492.527	187
492.745	185
492.963	193
493.18	181
493.398	182
493.615	178
493.833	160
494.05	171
494.268	172
494.485	167
494.703	192
494.92	172
495.138	170
495.355	193
495.573	184
495.79	177
496.008	200
496.225	201
496.442	178
496.66	190
496.877	186
497.094	212
497.312	182
497.529	172
497.746	182
497.963	162
498.181	168
498.398	156
498.615	182
498.832	173
499.049	169
499.267	179
499.484	173
499.701	190
499.918	200
500.135	184
500.352	196
500.569	216
500.786	246
501.003	225
501.22	209
501.437	195
501.654	182
501.871	170
502.088	186
502.305	184
502.522	189
502.739	170
502.956	188
503.172	189
503.389	191
503.606	154
503.823	182
504.04	188
504.256	187
504.473	171
504.69	184
504.907	208
505.123	174
505.34	172
505.557	183
505.773	178
505.99	162
506.207	157
506.423	180
506.64	165
506.856	163
507.073	166
507.289	170
507.506	161
507.722	175
507.939	152
508.155	166
508.372	147
508.588	157
508.805	154
509.021	161
509.238	155
509.454	140
509.67	150
509.887	140
510.103	152
510.319	165
510.536	148
510.752	134
510.968	138
511.184	145
511.401	140
511.617	134
511.833	136
512.049	142
512.265	139
512.481	144
512.698	160
512.914	148
513.13	144
513.346	153
513.562	138
513.778	159
513.994	150
514.21	161
514.426	152
514.642	144
514.858	168
515.074	152
515.29	142
515.506	144
515.721	132
515.937	144
516.153	140
516.369	139
516.585	137
516.801	146
517.016	151
517.232	147
517.448	160
517.664	157
517.879	160
518.095	142
518.311	142
518.527	150
518.742	131
518.958	142
519.173	152
519.389	154
519.605	150
519.82	152
520.036	169
520.251	154
520.467	153
520.682	157
520.898	136
521.113	155
521.329	153
521.544	144
521.76	143
521.975	156
522.19	145
522.406	149
522.621	152
522.836	139
523.052	158
523.267	152
523.482	155
523.698	158
523.913	145
524.128	148
524.343	142
524.559	144
524.774	150
524.989	147
525.204	162
525.419	135
525.634	139
525.849	139
526.064	143
526.28	154
526.495	131
526.71	144
526.925	152
527.14	140
527.355	137
527.57	137
527.785	147
527.999	129
528.214	149
528.429	138
528.644	137
528.859	162
529.074	136
529.289	171
529.503	142
529.718	146
529.933	137
530.148	149
530.363	147
530.577	132
530.792	132
531.007	120
531.221	136
531.436	119
531.651	149
531.865	126
532.08	134
532.295	138
532.509	135
532.724	151
532.938	143
533.153	140
533.367	143
533.582	136
533.796	150
534.011	134
534.225	128
534.44	123
534.654	134
534.868	143
535.083	128
535.297	136
535.511	163
535.726	161
535.94	162
536.154	148
536.369	143
536.583	139
536.797	148
537.011	150
537.225	169
537.44	172
537.654	189
537.868	167
538.082	154
538.296	165
538.51	171
538.724	162
538.938	161
539.153	184
539.367	145
539.581	149
539.795	147
540.009	151
540.222	129
540.436	136
540.65	125
540.864	127
541.078	147
541.292	154
541.506	149
541.72	158
541.934	158
542.147	148
542.361	150
542.575	144
542.789	147
543.002	120
543.216	148
543.43	145
543.644	142
543.857	124
544.071	138
544.285	143
544.498	136
544.712	138
544.925	140
545.139	128
545.352	156
545.566	149
545.779	139
545.993	141
546.206	148
546.42	142
546.633	139
546.847	155
547.06	140
547.274	136
547.487	143
547.7	148
547.914	137
548.127	138
548.34	140
548.554	125
548.767	164
548.98	131
549.193	142
549.407	113
549.62	139
549.833	124
550.046	138
550.259	143
550.473	150
550.686	148
550.899	160
551.112	128
551.325	125
551.538	145
551.751	131
551.964	142
552.177	146
552.39	142
552.603	149
552.816	144
553.029	150
553.242	144
553.455	158
553.667	135
553.88	145
554.093	152
554.306	161
554.519	152
554.732	145
554.944	158
555.157	138
555.37	130
555.583	136
555.795	157
556.008	143
556.221	145
556.433	153
556.646	157
556.859	145
557.071	140
557.284	148
557.496	144
557.709	150
557.921	151
558.134	163
558.346	153
558.559	146
558.771	149
558.984	136
559.196	152
559.409	159
559.621	171
559.833	180
560.046	168
560.258	188
560.47	209
560.683	228
560.895	270
561.107	271
561.32	224
561.532	205
561.744	172
561.956	183
562.168	159
562.381	166
562.593	156
562.805	168
563.017	158
563.229	145
563.441	152
563.653	140
563.865	142
564.077	136
564.289	136
564.501	135
564.713	142
564.925	137
565.137	135
565.349	159
565.561	146
565.773	140
565.985	138
566.197	138
566.408	124
566.62	138
