Data from TenMicroDelayPb_HRD10591_00006.txt Node
Date: Mon Nov 24 14:55:08 EST 2025
User: Yrep
Spectrometer: HR+D1059
Trigger mode: 5
Integration Time (sec): 1.000000E-2
Scans to average: 1
Electric dark correction enabled: true
Nonlinearity correction enabled: false
Boxcar width: 0
XAxis mode: Wavelengths
Number of Pixels in Spectrum: 2048
>>>>>Begin Spectral Data<<<<<
223.165	-30
223.4	-30
223.635	-30
223.869	-29
224.104	-29
224.338	-4
224.573	-20
224.808	-8
225.042	7
225.277	-4
225.511	-14
225.746	12
225.98	10
226.215	28
226.449	23
226.683	8
226.918	17
227.152	33
227.387	47
227.621	51
227.856	52
228.09	49
228.324	58
228.559	73
228.793	45
229.027	86
229.262	69
229.496	60
229.73	74
229.964	92
230.199	84
230.433	86
230.667	67
230.901	86
231.136	76
231.37	81
231.604	86
231.838	83
232.072	101
232.306	90
232.541	105
232.775	94
233.009	85
233.243	94
233.477	101
233.711	90
233.945	93
234.179	92
234.413	97
234.647	95
234.881	92
235.115	89
235.349	88
235.583	99
235.817	81
236.051	83
236.285	86
236.519	96
236.753	88
236.987	90
237.221	98
237.455	91
237.689	92
237.922	85
238.156	92
238.39	97
238.624	80
238.858	92
239.091	81
239.325	98
239.559	89
239.793	87
240.027	99
240.26	86
240.494	92
240.728	106
240.961	94
241.195	101
241.429	84
241.662	88
241.896	95
242.13	88
242.363	85
242.597	82
242.83	85
243.064	90
243.298	76
243.531	90
243.765	86
243.998	74
244.232	102
244.465	75
244.699	103
244.932	106
245.166	81
245.399	81
245.633	84
245.866	99
246.099	78
246.333	97
246.566	92
246.8	97
247.033	88
247.266	83
247.5	84
247.733	84
247.966	91
248.2	98
248.433	94
248.666	97
248.899	109
249.133	88
249.366	120
249.599	89
249.832	79
250.066	97
250.299	98
250.532	94
250.765	110
250.998	101
251.231	89
251.465	105
251.698	94
251.931	104
252.164	92
252.397	99
252.63	99
252.863	95
253.096	105
253.329	94
253.562	107
253.795	123
254.028	115
254.261	114
254.494	116
254.727	100
254.96	117
255.193	96
255.426	84
255.659	97
255.892	106
256.124	102
256.357	108
256.59	102
256.823	103
257.056	110
257.289	107
257.521	97
257.754	112
257.987	106
258.22	122
258.452	99
258.685	114
258.918	100
259.151	96
259.383	92
259.616	76
259.849	110
260.081	114
260.314	104
260.547	104
260.779	117
261.012	116
261.244	134
261.477	150
261.71	137
261.942	106
262.175	112
262.407	94
262.64	109
262.872	111
263.105	124
263.337	107
263.57	96
263.802	92
264.035	117
264.267	125
264.499	117
264.732	126
264.964	97
265.197	108
265.429	116
265.661	112
265.894	109
266.126	134
266.358	131
266.591	125
266.823	118
267.055	98
267.287	112
267.52	109
267.752	112
267.984	106
268.216	99
268.448	99
268.681	100
268.913	114
269.145	102
269.377	91
269.609	102
269.841	106
270.073	109
270.306	121
270.538	106
270.77	109
271.002	99
271.234	98
271.466	115
271.698	104
271.93	95
272.162	104
272.394	117
272.626	111
272.858	102
273.09	114
273.322	110
273.553	93
273.785	120
274.017	109
274.249	115
274.481	108
274.713	108
274.945	114
275.176	98
275.408	96
275.64	100
275.872	100
276.104	102
276.335	97
276.567	99
276.799	99
277.031	108
277.262	100
277.494	110
277.726	116
277.957	97
278.189	110
278.421	119
278.652	124
278.884	124
279.115	130
279.347	123
279.579	146
279.81	152
280.042	172
280.273	173
280.505	173
280.736	141
280.968	137
281.199	127
281.431	143
281.662	129
281.894	112
282.125	121
282.356	145
282.588	138
282.819	137
283.051	147
283.282	140
283.513	148
283.745	149
283.976	123
284.207	127
284.439	125
284.67	115
284.901	120
285.132	118
285.364	138
285.595	109
285.826	111
286.057	129
286.288	118
286.52	131
286.751	122
286.982	144
287.213	150
287.444	156
287.675	143
287.906	120
288.138	121
288.369	104
288.6	129
288.831	101
289.062	111
289.293	115
289.524	113
289.755	129
289.986	107
290.217	107
290.448	95
290.679	98
290.91	113
291.141	106
291.371	112
291.602	112
291.833	98
292.064	125
292.295	110
292.526	105
292.757	117
292.987	114
293.218	100
293.449	109
293.68	113
293.91	95
294.141	133
294.372	108
294.603	129
294.833	102
295.064	105
295.295	108
295.525	112
295.756	101
295.987	113
296.217	115
296.448	104
296.679	110
296.909	132
297.14	107
297.37	110
297.601	120
297.831	98
298.062	107
298.292	98
298.523	119
298.753	100
298.984	103
299.214	101
299.445	118
299.675	134
299.905	117
300.136	115
300.366	120
300.597	116
300.827	109
301.057	115
301.288	100
301.518	93
301.748	129
301.979	181
302.209	123
302.439	114
302.669	122
302.9	124
303.13	114
303.36	112
303.59	100
303.82	112
304.051	112
304.281	128
304.511	150
304.741	109
304.971	101
305.201	143
305.431	116
305.661	114
305.891	116
306.121	127
306.352	106
306.582	112
306.812	102
307.042	116
307.272	109
307.502	120
307.731	110
307.961	115
308.191	90
308.421	129
308.651	124
308.881	112
309.111	116
309.341	116
309.571	120
309.8	106
310.03	125
310.26	117
310.49	105
310.72	110
310.949	114
311.179	110
311.409	111
311.639	106
311.868	111
312.098	114
312.328	128
312.557	115
312.787	121
313.017	130
313.246	130
313.476	129
313.706	116
313.935	115
314.165	119
314.394	138
314.624	134
314.853	133
315.083	124
315.312	124
315.542	121
315.771	121
316.001	114
316.23	129
316.46	125
316.689	119
316.919	125
317.148	125
317.377	129
317.607	119
317.836	107
318.065	105
318.295	130
318.524	117
318.753	126
318.983	116
319.212	118
319.441	115
319.67	118
319.9	122
320.129	109
320.358	119
320.587	114
320.816	104
321.046	114
321.275	125
321.504	118
321.733	114
321.962	114
322.191	113
322.42	112
322.649	121
322.878	149
323.108	136
323.337	116
323.566	106
323.795	122
324.024	121
324.253	142
324.482	112
324.71	118
324.939	126
325.168	129
325.397	116
325.626	120
325.855	104
326.084	131
326.313	120
326.542	108
326.77	119
326.999	107
327.228	110
327.457	118
327.686	113
327.914	129
328.143	138
328.372	105
328.6	129
328.829	125
329.058	105
329.287	121
329.515	108
329.744	125
329.972	112
330.201	128
330.43	114
330.658	107
330.887	129
331.115	106
331.344	106
331.572	119
331.801	119
332.03	131
332.258	126
332.486	110
332.715	121
332.943	125
333.172	113
333.4	108
333.629	117
333.857	116
334.085	132
334.314	123
334.542	124
334.771	118
334.999	128
335.227	122
335.455	122
335.684	133
335.912	108
336.14	109
336.369	118
336.597	117
336.825	137
337.053	108
337.281	134
337.51	124
337.738	124
337.966	111
338.194	116
338.422	125
338.65	126
338.878	127
339.106	121
339.334	121
339.562	110
339.79	127
340.018	121
340.246	115
340.474	114
340.702	124
340.93	104
341.158	123
341.386	116
341.614	119
341.842	110
342.07	104
342.298	115
342.526	117
342.754	111
342.981	111
343.209	131
343.437	177
343.665	131
343.893	109
344.12	129
344.348	128
344.576	133
344.804	128
345.031	130
345.259	136
345.487	128
345.714	106
345.942	106
346.17	119
346.397	123
346.625	128
346.853	125
347.08	110
347.308	133
347.535	117
347.763	102
347.99	110
348.218	115
348.445	117
348.673	117
348.9	105
349.128	126
349.355	123
349.583	120
349.81	109
350.037	112
350.265	114
350.492	117
350.72	108
350.947	121
351.174	114
351.402	114
351.629	122
351.856	116
352.083	129
352.311	121
352.538	123
352.765	115
352.992	130
353.22	133
353.447	124
353.674	125
353.901	120
354.128	127
354.355	123
354.583	125
354.81	123
355.037	123
355.264	124
355.491	119
355.718	121
355.945	136
356.172	128
356.399	134
356.626	143
356.853	142
357.08	176
357.307	202
357.534	207
357.761	193
357.988	180
358.215	154
358.441	139
358.668	142
358.895	129
359.122	130
359.349	118
359.576	142
359.802	123
360.029	134
360.256	134
360.483	123
360.709	125
360.936	143
361.163	146
361.39	133
361.616	121
361.843	125
362.07	130
362.296	128
362.523	143
362.749	134
362.976	136
363.203	168
363.429	155
363.656	184
363.882	206
364.109	243
364.335	214
364.562	150
364.788	144
365.015	151
365.241	152
365.468	149
365.694	143
365.92	134
366.147	124
366.373	131
366.599	133
366.826	139
367.052	161
367.278	173
367.505	165
367.731	200
367.957	194
368.184	244
368.41	287
368.636	285
368.862	229
369.089	176
369.315	149
369.541	147
369.767	156
369.993	132
370.219	133
370.445	136
370.672	136
370.898	123
371.124	138
371.35	130
371.576	131
371.802	126
372.028	120
372.254	125
372.48	138
372.706	124
372.932	122
373.158	148
373.384	164
373.61	168
373.835	189
374.061	215
374.287	208
374.513	164
374.739	139
374.965	136
375.191	147
375.416	133
375.642	120
375.868	143
376.094	141
376.319	120
376.545	126
376.771	130
376.997	120
377.222	146
377.448	129
377.674	118
377.899	120
378.125	114
378.35	125
378.576	130
378.802	130
379.027	126
379.253	145
379.478	131
379.704	128
379.929	120
380.155	125
380.38	113
380.606	113
380.831	117
381.057	141
381.282	119
381.507	130
381.733	124
381.958	126
382.184	139
382.409	117
382.634	140
382.86	126
383.085	144
383.31	117
383.535	134
383.761	126
383.986	119
384.211	138
384.436	126
384.662	122
384.887	131
385.112	132
385.337	145
385.562	124
385.787	121
386.013	132
386.238	138
386.463	148
386.688	164
386.913	117
387.138	117
387.363	133
387.588	133
387.813	132
388.038	123
388.263	129
388.488	125
388.713	137
388.938	130
389.163	126
389.387	111
389.612	124
389.837	113
390.062	134
390.287	124
390.512	115
390.736	121
390.961	106
391.186	124
391.411	136
391.636	126
391.86	116
392.085	144
392.31	126
392.534	134
392.759	134
392.984	126
393.208	125
393.433	133
393.658	123
393.882	127
394.107	148
394.331	139
394.556	128
394.78	119
395.005	117
395.229	127
395.454	130
395.678	137
395.903	137
396.127	137
396.352	134
396.576	124
396.801	138
397.025	129
397.249	146
397.474	150
397.698	130
397.922	148
398.147	136
398.371	148
398.595	117
398.82	123
399.044	140
399.268	138
399.492	138
399.717	141
399.941	121
400.165	158
400.389	131
400.613	133
400.837	163
401.062	153
401.286	133
401.51	145
401.734	141
401.958	158
402.182	173
402.406	138
402.63	130
402.854	138
403.078	148
403.302	137
403.526	140
403.75	145
403.974	150
404.198	152
404.422	155
404.645	162
404.869	169
405.093	183
405.317	210
405.541	280
405.765	380
405.988	417
406.212	327
406.436	255
406.66	218
406.883	211
407.107	196
407.331	178
407.555	172
407.778	173
408.002	158
408.226	157
408.449	163
408.673	152
408.896	171
409.12	153
409.344	159
409.567	155
409.791	150
410.014	156
410.238	140
410.461	152
410.685	138
410.908	130
411.132	157
411.355	144
411.578	170
411.802	160
412.025	142
412.249	155
412.472	140
412.695	150
412.919	144
413.142	145
413.365	149
413.589	150
413.812	133
414.035	161
414.258	143
414.482	145
414.705	140
414.928	146
415.151	140
415.374	146
415.597	141
415.821	137
416.044	141
416.267	136
416.49	142
416.713	149
416.936	155
417.159	154
417.382	146
417.605	142
417.828	149
418.051	133
418.274	164
418.497	157
418.72	127
418.943	152
419.166	146
419.389	159
419.611	150
419.834	139
420.057	143
420.28	140
420.503	150
420.726	155
420.948	160
421.171	135
421.394	134
421.617	141
421.839	145
422.062	158
422.285	153
422.507	148
422.73	155
422.953	170
423.175	152
423.398	161
423.621	176
423.843	168
424.066	184
424.288	185
424.511	210
424.733	239
424.956	231
425.178	213
425.401	186
425.623	182
425.846	165
426.068	170
426.291	172
426.513	168
426.735	161
426.958	162
427.18	170
427.402	169
427.625	162
427.847	158
428.069	168
428.292	151
428.514	170
428.736	142
428.958	148
429.181	159
429.403	158
429.625	154
429.847	154
430.069	144
430.292	161
430.514	144
430.736	145
430.958	149
431.18	166
431.402	145
431.624	142
431.846	134
432.068	146
432.29	146
432.512	136
432.734	142
432.956	154
433.178	169
433.4	148
433.622	168
433.844	148
434.066	153
434.287	148
434.509	139
434.731	143
434.953	150
435.175	155
435.397	165
435.618	151
435.84	153
436.062	147
436.284	159
436.505	156
436.727	156
436.949	158
437.17	157
437.392	153
437.614	172
437.835	184
438.057	157
438.278	173
438.5	186
438.721	220
438.943	240
439.165	216
439.386	213
439.608	225
439.829	190
440.05	201
440.272	199
440.493	191
440.715	187
440.936	211
441.158	212
441.379	189
441.6	202
441.822	182
442.043	168
442.264	161
442.486	178
442.707	172
442.928	180
443.149	176
443.371	165
443.592	162
443.813	171
444.034	166
444.255	154
444.476	187
444.698	175
444.919	177
445.14	528
445.361	346
445.582	198
445.803	164
446.024	159
446.245	184
446.466	172
446.687	161
446.908	175
447.129	183
447.35	177
447.571	173
447.792	168
448.013	141
448.234	159
448.455	158
448.675	151
448.896	151
449.117	153
449.338	168
449.559	164
449.779	168
450	158
450.221	156
450.442	153
450.662	146
450.883	145
451.104	168
451.324	156
451.545	148
451.766	146
451.986	154
452.207	138
452.428	157
452.648	154
452.869	154
453.089	132
453.31	137
453.53	132
453.751	150
453.971	156
454.192	139
454.412	133
454.633	145
454.853	157
455.073	146
455.294	139
455.514	165
455.734	157
455.955	126
456.175	134
456.395	144
456.616	148
456.836	132
457.056	136
457.276	142
457.497	136
457.717	138
457.937	149
458.157	132
458.377	153
458.598	145
458.818	128
459.038	110
459.258	138
459.478	133
459.698	143
459.918	149
460.138	129
460.358	146
460.578	165
460.798	162
461.018	154
461.238	131
461.458	139
461.678	154
461.898	143
462.118	170
462.338	143
462.558	152
462.777	138
462.997	149
463.217	137
463.437	141
463.657	138
463.876	140
464.096	136
464.316	132
464.536	146
464.755	139
464.975	144
465.195	156
465.414	145
465.634	143
465.854	144
466.073	153
466.293	131
466.512	142
466.732	154
466.951	153
467.171	144
467.391	152
467.61	142
467.829	158
468.049	142
468.268	132
468.488	146
468.707	155
468.927	142
469.146	152
469.365	134
469.585	154
469.804	156
470.023	144
470.243	149
470.462	156
470.681	141
470.901	161
471.12	165
471.339	178
471.558	159
471.777	158
471.997	142
472.216	152
472.435	143
472.654	141
472.873	153
473.092	144
473.311	148
473.53	135
473.749	149
473.968	159
474.187	148
474.406	138
474.625	150
474.844	158
475.063	154
475.282	145
475.501	145
475.72	151
475.939	137
476.158	139
476.377	165
476.596	151
476.814	132
477.033	156
477.252	135
477.471	152
477.69	160
477.908	172
478.127	179
478.346	161
478.564	153
478.783	154
479.002	159
479.22	152
479.439	165
479.658	148
479.876	153
480.095	137
480.313	141
480.532	162
480.751	162
480.969	134
481.188	134
481.406	149
481.624	145
481.843	129
482.061	141
482.28	149
482.498	155
482.717	147
482.935	150
483.153	166
483.372	152
483.59	157
483.808	152
484.027	163
484.245	169
484.463	154
484.681	184
484.9	182
485.118	154
485.336	138
485.554	137
485.772	156
485.99	137
486.209	158
486.427	148
486.645	158
486.863	169
487.081	158
487.299	149
487.517	176
487.735	173
487.953	180
488.171	191
488.389	176
488.607	172
488.825	145
489.043	155
489.261	166
489.479	177
489.696	175
489.914	166
490.132	172
490.35	169
490.568	175
490.786	177
491.003	190
491.221	187
491.439	195
491.657	174
491.874	202
492.092	213
492.31	204
492.527	202
492.745	194
492.963	197
493.18	184
493.398	199
493.615	189
493.833	182
494.05	176
494.268	179
494.485	185
494.703	191
494.92	184
495.138	181
495.355	195
495.573	193
495.79	192
496.008	188
496.225	170
496.442	182
496.66	191
496.877	188
497.094	197
497.312	204
497.529	178
497.746	181
497.963	160
498.181	173
498.398	154
498.615	171
498.832	157
499.049	190
499.267	190
499.484	187
499.701	198
499.918	192
500.135	199
500.352	191
500.569	215
500.786	230
501.003	210
501.22	196
501.437	192
501.654	210
501.871	185
502.088	184
502.305	184
502.522	162
502.739	183
502.956	176
503.172	197
503.389	161
503.606	163
503.823	178
504.04	178
504.256	189
504.473	186
504.69	181
504.907	195
505.123	172
505.34	172
505.557	173
505.773	184
505.99	170
506.207	172
506.423	164
506.64	163
506.856	149
507.073	169
507.289	165
507.506	161
507.722	177
507.939	168
508.155	172
508.372	146
508.588	170
508.805	187
509.021	151
509.238	157
509.454	129
509.67	140
509.887	156
510.103	138
510.319	133
510.536	170
510.752	138
510.968	156
511.184	152
511.401	130
511.617	159
511.833	154
512.049	141
512.265	153
512.481	156
512.698	129
512.914	147
513.13	147
513.346	130
513.562	141
513.778	158
513.994	141
514.21	152
514.426	149
514.642	147
514.858	137
515.074	155
515.29	155
515.506	139
515.721	148
515.937	172
516.153	154
516.369	151
516.585	144
516.801	140
517.016	154
517.232	139
517.448	161
517.664	152
517.879	136
518.095	156
518.311	153
518.527	154
518.742	137
518.958	140
519.173	156
519.389	154
519.605	143
519.82	149
520.036	153
520.251	158
520.467	142
520.682	155
520.898	136
521.113	149
521.329	153
521.544	139
521.76	144
521.975	145
522.19	148
522.406	155
522.621	162
522.836	137
523.052	162
523.267	160
523.482	153
523.698	157
523.913	150
524.128	138
524.343	131
524.559	161
524.774	151
524.989	148
525.204	155
525.419	148
525.634	141
525.849	158
526.064	148
526.28	154
526.495	139
526.71	143
526.925	130
527.14	135
527.355	133
527.57	138
527.785	138
527.999	126
528.214	154
528.429	146
528.644	132
528.859	160
529.074	149
529.289	165
529.503	153
529.718	149
529.933	147
530.148	132
530.363	142
530.577	131
530.792	144
531.007	144
531.221	145
531.436	131
531.651	138
531.865	124
532.08	123
532.295	148
532.509	149
532.724	139
532.938	141
533.153	141
533.367	146
533.582	147
533.796	144
534.011	116
534.225	145
534.44	136
534.654	159
534.868	138
535.083	148
535.297	155
535.511	162
535.726	163
535.94	140
536.154	146
536.369	149
536.583	158
536.797	162
537.011	157
537.225	178
537.44	173
537.654	177
537.868	157
538.082	162
538.296	149
538.51	155
538.724	170
538.938	148
539.153	141
539.367	146
539.581	150
539.795	137
540.009	159
540.222	170
540.436	155
540.65	141
540.864	142
541.078	147
541.292	145
541.506	152
541.72	143
541.934	147
542.147	158
542.361	148
542.575	152
542.789	140
543.002	141
543.216	141
543.43	130
543.644	140
543.857	142
544.071	133
544.285	155
544.498	133
544.712	155
544.925	144
545.139	147
545.352	133
545.566	150
545.779	145
545.993	153
546.206	151
546.42	137
546.633	142
546.847	174
547.06	139
547.274	140
547.487	151
547.7	144
547.914	140
548.127	145
548.34	146
548.554	138
548.767	133
548.98	142
549.193	138
549.407	147
549.62	142
549.833	138
550.046	138
550.259	137
550.473	131
550.686	165
550.899	140
551.112	143
551.325	133
551.538	148
551.751	138
551.964	137
552.177	149
552.39	135
552.603	132
552.816	154
553.029	147
553.242	146
553.455	128
553.667	158
553.88	128
554.093	150
554.306	144
554.519	157
554.732	161
554.944	163
555.157	140
555.37	142
555.583	161
555.795	154
556.008	151
556.221	138
556.433	134
556.646	151
556.859	150
557.071	140
557.284	152
557.496	159
557.709	164
557.921	141
558.134	163
558.346	165
558.559	152
558.771	164
558.984	154
559.196	153
559.409	161
559.621	175
559.833	159
560.046	176
560.258	203
560.47	201
560.683	223
560.895	242
561.107	267
561.32	232
561.532	192
561.744	183
561.956	165
562.168	189
562.381	150
562.593	144
562.805	161
563.017	164
563.229	152
563.441	153
563.653	143
563.865	148
564.077	140
564.289	139
564.501	133
564.713	149
564.925	148
565.137	141
565.349	128
565.561	142
565.773	130
565.985	129
566.197	135
566.408	121
