Data from TenMicroDelayPb_HRD10591_00009.txt Node
Date: Mon Nov 24 14:55:09 EST 2025
User: Yrep
Spectrometer: HR+D1059
Trigger mode: 5
Integration Time (sec): 1.000000E-2
Scans to average: 1
Electric dark correction enabled: true
Nonlinearity correction enabled: false
Boxcar width: 0
XAxis mode: Wavelengths
Number of Pixels in Spectrum: 2048
>>>>>Begin Spectral Data<<<<<
223.165	-19.5
223.4	-19.5
223.635	-19.5
223.869	-26.5
224.104	-32.5
224.338	-14.5
224.573	-22.5
224.808	-9.5
225.042	2.5
225.277	0.5
225.511	-6.5
225.746	10.5
225.98	7.5
226.215	18.5
226.449	25.5
226.683	18.5
226.918	23.5
227.152	24.5
227.387	41.5
227.621	43.5
227.856	56.5
228.09	43.5
228.324	44.5
228.559	50.5
228.793	66.5
229.027	72.5
229.262	70.5
229.496	83.5
229.73	75.5
229.964	79.5
230.199	75.5
230.433	69.5
230.667	94.5
230.901	83.5
231.136	76.5
231.37	80.5
231.604	85.5
231.838	73.5
232.072	84.5
232.306	81.5
232.541	74.5
232.775	97.5
233.009	91.5
233.243	91.5
233.477	98.5
233.711	102.5
233.945	101.5
234.179	82.5
234.413	93.5
234.647	103.5
234.881	82.5
235.115	80.5
235.349	91.5
235.583	107.5
235.817	99.5
236.051	89.5
236.285	97.5
236.519	86.5
236.753	88.5
236.987	102.5
237.221	77.5
237.455	63.5
237.689	80.5
237.922	73.5
238.156	84.5
238.39	78.5
238.624	85.5
238.858	104.5
239.091	105.5
239.325	67.5
239.559	113.5
239.793	106.5
240.027	107.5
240.26	88.5
240.494	93.5
240.728	86.5
240.961	77.5
241.195	96.5
241.429	105.5
241.662	82.5
241.896	87.5
242.13	95.5
242.363	82.5
242.597	79.5
242.83	94.5
243.064	93.5
243.298	93.5
243.531	82.5
243.765	101.5
243.998	97.5
244.232	95.5
244.465	100.5
244.699	93.5
244.932	77.5
245.166	111.5
245.399	95.5
245.633	91.5
245.866	84.5
246.099	77.5
246.333	90.5
246.566	94.5
246.8	73.5
247.033	95.5
247.266	87.5
247.5	96.5
247.733	93.5
247.966	85.5
248.2	94.5
248.433	86.5
248.666	80.5
248.899	100.5
249.133	93.5
249.366	111.5
249.599	99.5
249.832	78.5
250.066	101.5
250.299	92.5
250.532	96.5
250.765	78.5
250.998	76.5
251.231	98.5
251.465	103.5
251.698	101.5
251.931	88.5
252.164	95.5
252.397	89.5
252.63	100.5
252.863	98.5
253.096	89.5
253.329	95.5
253.562	95.5
253.795	107.5
254.028	96.5
254.261	100.5
254.494	99.5
254.727	100.5
254.96	98.5
255.193	105.5
255.426	95.5
255.659	113.5
255.892	106.5
256.124	88.5
256.357	99.5
256.59	97.5
256.823	95.5
257.056	105.5
257.289	105.5
257.521	101.5
257.754	89.5
257.987	94.5
258.22	122.5
258.452	101.5
258.685	103.5
258.918	83.5
259.151	111.5
259.383	115.5
259.616	99.5
259.849	101.5
260.081	116.5
260.314	94.5
260.547	94.5
260.779	126.5
261.012	130.5
261.244	134.5
261.477	143.5
261.71	136.5
261.942	111.5
262.175	105.5
262.407	110.5
262.64	103.5
262.872	98.5
263.105	110.5
263.337	107.5
263.57	101.5
263.802	96.5
264.035	109.5
264.267	104.5
264.499	127.5
264.732	114.5
264.964	119.5
265.197	113.5
265.429	104.5
265.661	109.5
265.894	93.5
266.126	114.5
266.358	118.5
266.591	116.5
266.823	127.5
267.055	98.5
267.287	109.5
267.52	101.5
267.752	127.5
267.984	108.5
268.216	95.5
268.448	103.5
268.681	112.5
268.913	108.5
269.145	102.5
269.377	110.5
269.609	103.5
269.841	109.5
270.073	109.5
270.306	112.5
270.538	113.5
270.77	87.5
271.002	107.5
271.234	94.5
271.466	97.5
271.698	90.5
271.93	95.5
272.162	99.5
272.394	123.5
272.626	106.5
272.858	102.5
273.09	101.5
273.322	114.5
273.553	114.5
273.785	103.5
274.017	91.5
274.249	94.5
274.481	83.5
274.713	108.5
274.945	92.5
275.176	107.5
275.408	119.5
275.64	105.5
275.872	105.5
276.104	119.5
276.335	114.5
276.567	106.5
276.799	113.5
277.031	105.5
277.262	94.5
277.494	117.5
277.726	95.5
277.957	115.5
278.189	109.5
278.421	111.5
278.652	105.5
278.884	114.5
279.115	135.5
279.347	138.5
279.579	137.5
279.81	138.5
280.042	165.5
280.273	180.5
280.505	167.5
280.736	135.5
280.968	131.5
281.199	144.5
281.431	118.5
281.662	126.5
281.894	134.5
282.125	135.5
282.356	127.5
282.588	136.5
282.819	119.5
283.051	131.5
283.282	154.5
283.513	183.5
283.745	142.5
283.976	133.5
284.207	119.5
284.439	116.5
284.67	134.5
284.901	115.5
285.132	105.5
285.364	113.5
285.595	123.5
285.826	102.5
286.057	116.5
286.288	126.5
286.52	116.5
286.751	122.5
286.982	106.5
287.213	141.5
287.444	137.5
287.675	153.5
287.906	137.5
288.138	90.5
288.369	110.5
288.6	108.5
288.831	97.5
289.062	119.5
289.293	128.5
289.524	111.5
289.755	111.5
289.986	123.5
290.217	110.5
290.448	97.5
290.679	113.5
290.91	122.5
291.141	94.5
291.371	109.5
291.602	101.5
291.833	94.5
292.064	118.5
292.295	109.5
292.526	111.5
292.757	108.5
292.987	107.5
293.218	117.5
293.449	107.5
293.68	97.5
293.91	97.5
294.141	134.5
294.372	105.5
294.603	103.5
294.833	112.5
295.064	111.5
295.295	103.5
295.525	103.5
295.756	101.5
295.987	115.5
296.217	103.5
296.448	115.5
296.679	107.5
296.909	113.5
297.14	132.5
297.37	122.5
297.601	113.5
297.831	118.5
298.062	118.5
298.292	113.5
298.523	119.5
298.753	103.5
298.984	113.5
299.214	106.5
299.445	107.5
299.675	119.5
299.905	120.5
300.136	104.5
300.366	108.5
300.597	112.5
300.827	106.5
301.057	103.5
301.288	111.5
301.518	117.5
301.748	116.5
301.979	173.5
302.209	109.5
302.439	126.5
302.669	123.5
302.9	106.5
303.13	127.5
303.36	114.5
303.59	103.5
303.82	137.5
304.051	103.5
304.281	121.5
304.511	128.5
304.741	115.5
304.971	104.5
305.201	106.5
305.431	112.5
305.661	113.5
305.891	127.5
306.121	117.5
306.352	118.5
306.582	112.5
306.812	116.5
307.042	95.5
307.272	101.5
307.502	105.5
307.731	104.5
307.961	107.5
308.191	120.5
308.421	110.5
308.651	115.5
308.881	118.5
309.111	101.5
309.341	113.5
309.571	105.5
309.8	104.5
310.03	95.5
310.26	101.5
310.49	102.5
310.72	98.5
310.949	117.5
311.179	121.5
311.409	106.5
311.639	114.5
311.868	107.5
312.098	118.5
312.328	124.5
312.557	118.5
312.787	129.5
313.017	133.5
313.246	119.5
313.476	109.5
313.706	109.5
313.935	126.5
314.165	139.5
314.394	127.5
314.624	121.5
314.853	125.5
315.083	133.5
315.312	118.5
315.542	120.5
315.771	126.5
316.001	122.5
316.23	115.5
316.46	111.5
316.689	129.5
316.919	116.5
317.148	125.5
317.377	149.5
317.607	122.5
317.836	123.5
318.065	128.5
318.295	109.5
318.524	122.5
318.753	129.5
318.983	120.5
319.212	140.5
319.441	126.5
319.67	106.5
319.9	137.5
320.129	118.5
320.358	116.5
320.587	122.5
320.816	120.5
321.046	118.5
321.275	123.5
321.504	95.5
321.733	110.5
321.962	110.5
322.191	126.5
322.42	93.5
322.649	130.5
322.878	128.5
323.108	127.5
323.337	136.5
323.566	121.5
323.795	118.5
324.024	109.5
324.253	123.5
324.482	123.5
324.71	116.5
324.939	118.5
325.168	107.5
325.397	123.5
325.626	117.5
325.855	107.5
326.084	115.5
326.313	118.5
326.542	123.5
326.77	127.5
326.999	121.5
327.228	128.5
327.457	115.5
327.686	127.5
327.914	105.5
328.143	132.5
328.372	105.5
328.6	115.5
328.829	119.5
329.058	127.5
329.287	106.5
329.515	129.5
329.744	119.5
329.972	105.5
330.201	110.5
330.43	110.5
330.658	110.5
330.887	139.5
331.115	135.5
331.344	120.5
331.572	120.5
331.801	117.5
332.03	113.5
332.258	122.5
332.486	115.5
332.715	125.5
332.943	121.5
333.172	137.5
333.4	105.5
333.629	128.5
333.857	120.5
334.085	109.5
334.314	117.5
334.542	107.5
334.771	113.5
334.999	130.5
335.227	107.5
335.455	112.5
335.684	128.5
335.912	126.5
336.14	133.5
336.369	115.5
336.597	117.5
336.825	117.5
337.053	124.5
337.281	111.5
337.51	118.5
337.738	130.5
337.966	112.5
338.194	111.5
338.422	101.5
338.65	130.5
338.878	129.5
339.106	135.5
339.334	121.5
339.562	123.5
339.79	124.5
340.018	114.5
340.246	109.5
340.474	117.5
340.702	121.5
340.93	117.5
341.158	108.5
341.386	112.5
341.614	121.5
341.842	124.5
342.07	101.5
342.298	120.5
342.526	106.5
342.754	124.5
342.981	107.5
343.209	132.5
343.437	177.5
343.665	121.5
343.893	120.5
344.12	134.5
344.348	101.5
344.576	122.5
344.804	128.5
345.031	109.5
345.259	116.5
345.487	115.5
345.714	130.5
345.942	116.5
346.17	109.5
346.397	113.5
346.625	115.5
346.853	126.5
347.08	123.5
347.308	113.5
347.535	122.5
347.763	117.5
347.99	127.5
348.218	111.5
348.445	101.5
348.673	105.5
348.9	127.5
349.128	145.5
349.355	120.5
349.583	127.5
349.81	128.5
350.037	121.5
350.265	122.5
350.492	105.5
350.72	113.5
350.947	119.5
351.174	127.5
351.402	118.5
351.629	113.5
351.856	107.5
352.083	121.5
352.311	115.5
352.538	120.5
352.765	121.5
352.992	139.5
353.22	131.5
353.447	98.5
353.674	121.5
353.901	133.5
354.128	120.5
354.355	125.5
354.583	125.5
354.81	125.5
355.037	147.5
355.264	116.5
355.491	127.5
355.718	136.5
355.945	126.5
356.172	128.5
356.399	142.5
356.626	116.5
356.853	147.5
357.08	181.5
357.307	217.5
357.534	203.5
357.761	198.5
357.988	177.5
358.215	162.5
358.441	137.5
358.668	126.5
358.895	126.5
359.122	142.5
359.349	121.5
359.576	122.5
359.802	123.5
360.029	116.5
360.256	140.5
360.483	126.5
360.709	129.5
360.936	151.5
361.163	123.5
361.39	125.5
361.616	115.5
361.843	137.5
362.07	138.5
362.296	128.5
362.523	121.5
362.749	140.5
362.976	128.5
363.203	150.5
363.429	151.5
363.656	186.5
363.882	221.5
364.109	242.5
364.335	201.5
364.562	164.5
364.788	138.5
365.015	143.5
365.241	136.5
365.468	131.5
365.694	122.5
365.92	138.5
366.147	119.5
366.373	137.5
366.599	131.5
366.826	135.5
367.052	155.5
367.278	170.5
367.505	186.5
367.731	190.5
367.957	197.5
368.184	236.5
368.41	288.5
368.636	272.5
368.862	193.5
369.089	170.5
369.315	156.5
369.541	157.5
369.767	140.5
369.993	145.5
370.219	123.5
370.445	123.5
370.672	131.5
370.898	122.5
371.124	128.5
371.35	123.5
371.576	130.5
371.802	124.5
372.028	134.5
372.254	142.5
372.48	129.5
372.706	135.5
372.932	127.5
373.158	126.5
373.384	162.5
373.61	172.5
373.835	201.5
374.061	227.5
374.287	208.5
374.513	174.5
374.739	138.5
374.965	145.5
375.191	123.5
375.416	136.5
375.642	137.5
375.868	148.5
376.094	131.5
376.319	125.5
376.545	125.5
376.771	134.5
376.997	127.5
377.222	120.5
377.448	130.5
377.674	130.5
377.899	127.5
378.125	138.5
378.35	137.5
378.576	125.5
378.802	118.5
379.027	125.5
379.253	129.5
379.478	130.5
379.704	117.5
379.929	115.5
380.155	119.5
380.38	115.5
380.606	103.5
380.831	120.5
381.057	155.5
381.282	138.5
381.507	123.5
381.733	138.5
381.958	114.5
382.184	105.5
382.409	125.5
382.634	128.5
382.86	126.5
383.085	126.5
383.31	112.5
383.535	125.5
383.761	131.5
383.986	133.5
384.211	135.5
384.436	119.5
384.662	125.5
384.887	122.5
385.112	116.5
385.337	135.5
385.562	126.5
385.787	129.5
386.013	114.5
386.238	128.5
386.463	139.5
386.688	178.5
386.913	129.5
387.138	123.5
387.363	119.5
387.588	147.5
387.813	126.5
388.038	125.5
388.263	139.5
388.488	137.5
388.713	129.5
388.938	118.5
389.163	118.5
389.387	132.5
389.612	127.5
389.837	124.5
390.062	127.5
390.287	130.5
390.512	134.5
390.736	119.5
390.961	121.5
391.186	133.5
391.411	124.5
391.636	122.5
391.86	123.5
392.085	129.5
392.31	135.5
392.534	126.5
392.759	131.5
392.984	137.5
393.208	125.5
393.433	118.5
393.658	134.5
393.882	133.5
394.107	132.5
394.331	142.5
394.556	125.5
394.78	134.5
395.005	138.5
395.229	122.5
395.454	146.5
395.678	135.5
395.903	145.5
396.127	135.5
396.352	127.5
396.576	118.5
396.801	119.5
397.025	128.5
397.249	123.5
397.474	150.5
397.698	139.5
397.922	143.5
398.147	126.5
398.371	131.5
398.595	128.5
398.82	131.5
399.044	131.5
399.268	150.5
399.492	139.5
399.717	154.5
399.941	141.5
400.165	135.5
400.389	135.5
400.613	136.5
400.837	138.5
401.062	153.5
401.286	147.5
401.51	147.5
401.734	167.5
401.958	140.5
402.182	165.5
402.406	132.5
402.63	137.5
402.854	125.5
403.078	135.5
403.302	145.5
403.526	138.5
403.75	138.5
403.974	157.5
404.198	166.5
404.422	151.5
404.645	165.5
404.869	155.5
405.093	205.5
405.317	214.5
405.541	278.5
405.765	394.5
405.988	422.5
406.212	331.5
406.436	258.5
406.66	233.5
406.883	206.5
407.107	195.5
407.331	166.5
407.555	171.5
407.778	158.5
408.002	167.5
408.226	155.5
408.449	148.5
408.673	150.5
408.896	155.5
409.12	153.5
409.344	160.5
409.567	157.5
409.791	149.5
410.014	150.5
410.238	141.5
410.461	150.5
410.685	141.5
410.908	144.5
411.132	147.5
411.355	150.5
411.578	136.5
411.802	137.5
412.025	157.5
412.249	129.5
412.472	129.5
412.695	146.5
412.919	144.5
413.142	143.5
413.365	142.5
413.589	139.5
413.812	134.5
414.035	167.5
414.258	153.5
414.482	121.5
414.705	134.5
414.928	151.5
415.151	127.5
415.374	136.5
415.597	162.5
415.821	125.5
416.044	132.5
416.267	136.5
416.49	141.5
416.713	149.5
416.936	157.5
417.159	137.5
417.382	114.5
417.605	134.5
417.828	143.5
418.051	141.5
418.274	145.5
418.497	130.5
418.72	131.5
418.943	144.5
419.166	147.5
419.389	161.5
419.611	158.5
419.834	156.5
420.057	147.5
420.28	150.5
420.503	156.5
420.726	128.5
420.948	128.5
421.171	154.5
421.394	159.5
421.617	141.5
421.839	149.5
422.062	159.5
422.285	148.5
422.507	146.5
422.73	147.5
422.953	155.5
423.175	148.5
423.398	156.5
423.621	193.5
423.843	170.5
424.066	192.5
424.288	192.5
424.511	208.5
424.733	215.5
424.956	223.5
425.178	209.5
425.401	187.5
425.623	192.5
425.846	171.5
426.068	170.5
426.291	180.5
426.513	165.5
426.735	181.5
426.958	158.5
427.18	146.5
427.402	178.5
427.625	182.5
427.847	153.5
428.069	166.5
428.292	174.5
428.514	179.5
428.736	156.5
428.958	149.5
429.181	157.5
429.403	161.5
429.625	152.5
429.847	160.5
430.069	157.5
430.292	147.5
430.514	141.5
430.736	143.5
430.958	159.5
431.18	143.5
431.402	144.5
431.624	148.5
431.846	150.5
432.068	146.5
432.29	145.5
432.512	165.5
432.734	170.5
432.956	165.5
433.178	160.5
433.4	149.5
433.622	175.5
433.844	154.5
434.066	142.5
434.287	152.5
434.509	130.5
434.731	144.5
434.953	159.5
435.175	153.5
435.397	157.5
435.618	146.5
435.84	124.5
436.062	153.5
436.284	153.5
436.505	173.5
436.727	183.5
436.949	148.5
437.17	138.5
437.392	150.5
437.614	150.5
437.835	163.5
438.057	151.5
438.278	162.5
438.5	180.5
438.721	219.5
438.943	231.5
439.165	214.5
439.386	218.5
439.608	205.5
439.829	195.5
440.05	201.5
440.272	210.5
440.493	178.5
440.715	199.5
440.936	232.5
441.158	184.5
441.379	179.5
441.6	195.5
441.822	192.5
442.043	180.5
442.264	172.5
442.486	174.5
442.707	181.5
442.928	167.5
443.149	179.5
443.371	177.5
443.592	161.5
443.813	157.5
444.034	162.5
444.255	183.5
444.476	157.5
444.698	166.5
444.919	177.5
445.14	534.5
445.361	354.5
445.582	177.5
445.803	154.5
446.024	154.5
446.245	173.5
446.466	156.5
446.687	162.5
446.908	173.5
447.129	165.5
447.35	146.5
447.571	171.5
447.792	163.5
448.013	155.5
448.234	161.5
448.455	170.5
448.675	157.5
448.896	149.5
449.117	159.5
449.338	149.5
449.559	157.5
449.779	170.5
450	146.5
450.221	148.5
450.442	152.5
450.662	142.5
450.883	161.5
451.104	162.5
451.324	149.5
451.545	153.5
451.766	155.5
451.986	144.5
452.207	154.5
452.428	142.5
452.648	156.5
452.869	136.5
453.089	132.5
453.31	130.5
453.53	137.5
453.751	141.5
453.971	141.5
454.192	134.5
454.412	123.5
454.633	157.5
454.853	159.5
455.073	141.5
455.294	142.5
455.514	160.5
455.734	139.5
455.955	143.5
456.175	131.5
456.395	140.5
456.616	137.5
456.836	126.5
457.056	130.5
457.276	139.5
457.497	134.5
457.717	135.5
457.937	146.5
458.157	132.5
458.377	124.5
458.598	127.5
458.818	135.5
459.038	128.5
459.258	149.5
459.478	152.5
459.698	128.5
459.918	129.5
460.138	129.5
460.358	135.5
460.578	166.5
460.798	140.5
461.018	162.5
461.238	160.5
461.458	143.5
461.678	135.5
461.898	152.5
462.118	152.5
462.338	142.5
462.558	161.5
462.777	134.5
462.997	131.5
463.217	130.5
463.437	136.5
463.657	146.5
463.876	139.5
464.096	141.5
464.316	130.5
464.536	134.5
464.755	155.5
464.975	146.5
465.195	152.5
465.414	161.5
465.634	137.5
465.854	142.5
466.073	145.5
466.293	142.5
466.512	144.5
466.732	138.5
466.951	151.5
467.171	162.5
467.391	152.5
467.61	139.5
467.829	150.5
468.049	154.5
468.268	151.5
468.488	150.5
468.707	143.5
468.927	139.5
469.146	135.5
469.365	144.5
469.585	134.5
469.804	155.5
470.023	136.5
470.243	157.5
470.462	158.5
470.681	146.5
470.901	145.5
471.12	143.5
471.339	166.5
471.558	145.5
471.777	142.5
471.997	150.5
472.216	158.5
472.435	131.5
472.654	127.5
472.873	144.5
473.092	153.5
473.311	147.5
473.53	147.5
473.749	169.5
473.968	150.5
474.187	127.5
474.406	129.5
474.625	161.5
474.844	130.5
475.063	159.5
475.282	166.5
475.501	139.5
475.72	162.5
475.939	129.5
476.158	123.5
476.377	141.5
476.596	144.5
476.814	141.5
477.033	119.5
477.252	139.5
477.471	146.5
477.69	156.5
477.908	167.5
478.127	175.5
478.346	148.5
478.564	153.5
478.783	149.5
479.002	170.5
479.22	157.5
479.439	149.5
479.658	137.5
479.876	145.5
480.095	140.5
480.313	146.5
480.532	152.5
480.751	150.5
480.969	133.5
481.188	135.5
481.406	154.5
481.624	150.5
481.843	129.5
482.061	118.5
482.28	146.5
482.498	144.5
482.717	156.5
482.935	152.5
483.153	168.5
483.372	178.5
483.59	160.5
483.808	152.5
484.027	156.5
484.245	151.5
484.463	153.5
484.681	161.5
484.9	167.5
485.118	166.5
485.336	166.5
485.554	150.5
485.772	148.5
485.99	144.5
486.209	145.5
486.427	162.5
486.645	173.5
486.863	165.5
487.081	142.5
487.299	148.5
487.517	154.5
487.735	186.5
487.953	193.5
488.171	169.5
488.389	172.5
488.607	151.5
488.825	160.5
489.043	155.5
489.261	167.5
489.479	185.5
489.696	186.5
489.914	156.5
490.132	160.5
490.35	160.5
490.568	175.5
490.786	181.5
491.003	189.5
491.221	183.5
491.439	181.5
491.657	197.5
491.874	203.5
492.092	214.5
492.31	211.5
492.527	209.5
492.745	185.5
492.963	189.5
493.18	182.5
493.398	187.5
493.615	168.5
493.833	172.5
494.05	193.5
494.268	173.5
494.485	181.5
494.703	195.5
494.92	193.5
495.138	175.5
495.355	187.5
495.573	199.5
495.79	168.5
496.008	189.5
496.225	183.5
496.442	166.5
496.66	182.5
496.877	166.5
497.094	192.5
497.312	169.5
497.529	170.5
497.746	170.5
497.963	170.5
498.181	176.5
498.398	157.5
498.615	161.5
498.832	175.5
499.049	161.5
499.267	187.5
499.484	173.5
499.701	183.5
499.918	196.5
500.135	189.5
500.352	201.5
500.569	206.5
500.786	239.5
501.003	227.5
501.22	185.5
501.437	202.5
501.654	189.5
501.871	194.5
502.088	184.5
502.305	193.5
502.522	190.5
502.739	175.5
502.956	171.5
503.172	170.5
503.389	162.5
503.606	183.5
503.823	183.5
504.04	170.5
504.256	182.5
504.473	153.5
504.69	194.5
504.907	205.5
505.123	170.5
505.34	161.5
505.557	184.5
505.773	165.5
505.99	173.5
506.207	186.5
506.423	179.5
506.64	156.5
506.856	181.5
507.073	170.5
507.289	181.5
507.506	157.5
507.722	153.5
507.939	163.5
508.155	150.5
508.372	150.5
508.588	154.5
508.805	168.5
509.021	158.5
509.238	152.5
509.454	157.5
509.67	143.5
509.887	147.5
510.103	135.5
510.319	136.5
510.536	152.5
510.752	144.5
510.968	137.5
511.184	147.5
511.401	138.5
511.617	157.5
511.833	121.5
512.049	140.5
512.265	143.5
512.481	137.5
512.698	142.5
512.914	138.5
513.13	135.5
513.346	138.5
513.562	146.5
513.778	155.5
513.994	138.5
514.21	151.5
514.426	155.5
514.642	142.5
514.858	132.5
515.074	151.5
515.29	161.5
515.506	137.5
515.721	149.5
515.937	157.5
516.153	152.5
516.369	134.5
516.585	142.5
516.801	143.5
517.016	163.5
517.232	153.5
517.448	151.5
517.664	149.5
517.879	135.5
518.095	147.5
518.311	145.5
518.527	154.5
518.742	139.5
518.958	131.5
519.173	160.5
519.389	152.5
519.605	141.5
519.82	141.5
520.036	155.5
520.251	153.5
520.467	147.5
520.682	153.5
520.898	146.5
521.113	142.5
521.329	138.5
521.544	136.5
521.76	147.5
521.975	135.5
522.19	152.5
522.406	144.5
