Data from TenMicroDelayPb_HRD10591_00002.txt Node
Date: Mon Nov 24 14:55:06 EST 2025
User: Yrep
Spectrometer: HR+D1059
Trigger mode: 5
Integration Time (sec): 1.000000E-2
Scans to average: 1
Electric dark correction enabled: true
Nonlinearity correction enabled: false
Boxcar width: 0
XAxis mode: Wavelengths
Number of Pixels in Spectrum: 2048
>>>>>Begin Spectral Data<<<<<
223.165	-30.88
223.4	-30.88
223.635	-30.88
223.869	-28.88
224.104	-27.88
224.338	-22.88
224.573	-11.88
224.808	-4.88
225.042	11.12
225.277	-4.88
225.511	7.12
225.746	10.12
225.98	6.12
226.215	15.12
226.449	18.12
226.683	13.12
226.918	19.12
227.152	32.12
227.387	47.12
227.621	61.12
227.856	58.12
228.09	54.12
228.324	46.12
228.559	65.12
228.793	77.12
229.027	80.12
229.262	88.12
229.496	70.12
229.73	86.12
229.964	79.12
230.199	91.12
230.433	69.12
230.667	94.12
230.901	89.12
231.136	80.12
231.37	84.12
231.604	90.12
231.838	93.12
232.072	93.12
232.306	90.12
232.541	110.12
232.775	75.12
233.009	87.12
233.243	84.12
233.477	89.12
233.711	92.12
233.945	107.12
234.179	99.12
234.413	105.12
234.647	103.12
234.881	76.12
235.115	101.12
235.349	89.12
235.583	93.12
235.817	86.12
236.051	93.12
236.285	108.12
236.519	107.12
236.753	87.12
236.987	75.12
237.221	87.12
237.455	86.12
237.689	86.12
237.922	99.12
238.156	72.12
238.39	82.12
238.624	75.12
238.858	89.12
239.091	76.12
239.325	81.12
239.559	93.12
239.793	94.12
240.027	93.12
240.26	101.12
240.494	94.12
240.728	97.12
240.961	103.12
241.195	89.12
241.429	83.12
241.662	81.12
241.896	89.12
242.13	94.12
242.363	93.12
242.597	85.12
242.83	105.12
243.064	86.12
243.298	105.12
243.531	88.12
243.765	97.12
243.998	78.12
244.232	98.12
244.465	95.12
244.699	83.12
244.932	98.12
245.166	100.12
245.399	89.12
245.633	105.12
245.866	89.12
246.099	91.12
246.333	77.12
246.566	89.12
246.8	77.12
247.033	99.12
247.266	84.12
247.5	99.12
247.733	93.12
247.966	83.12
248.2	101.12
248.433	95.12
248.666	76.12
248.899	101.12
249.133	105.12
249.366	118.12
249.599	90.12
249.832	87.12
250.066	109.12
250.299	100.12
250.532	97.12
250.765	95.12
250.998	100.12
251.231	91.12
251.465	100.12
251.698	91.12
251.931	98.12
252.164	95.12
252.397	92.12
252.63	102.12
252.863	106.12
253.096	105.12
253.329	112.12
253.562	102.12
253.795	89.12
254.028	117.12
254.261	90.12
254.494	97.12
254.727	108.12
254.96	108.12
255.193	99.12
255.426	117.12
255.659	105.12
255.892	123.12
256.124	102.12
256.357	95.12
256.59	101.12
256.823	92.12
257.056	90.12
257.289	105.12
257.521	118.12
257.754	105.12
257.987	115.12
258.22	115.12
258.452	110.12
258.685	115.12
258.918	109.12
259.151	103.12
259.383	120.12
259.616	109.12
259.849	96.12
260.081	112.12
260.314	96.12
260.547	113.12
260.779	117.12
261.012	111.12
261.244	123.12
261.477	147.12
261.71	128.12
261.942	125.12
262.175	121.12
262.407	120.12
262.64	100.12
262.872	117.12
263.105	122.12
263.337	118.12
263.57	108.12
263.802	126.12
264.035	124.12
264.267	108.12
264.499	100.12
264.732	112.12
264.964	116.12
265.197	116.12
265.429	122.12
265.661	121.12
265.894	114.12
266.126	122.12
266.358	113.12
266.591	123.12
266.823	127.12
267.055	107.12
267.287	115.12
267.52	112.12
267.752	108.12
267.984	105.12
268.216	103.12
268.448	116.12
268.681	110.12
268.913	99.12
269.145	109.12
269.377	111.12
269.609	101.12
269.841	115.12
270.073	95.12
270.306	108.12
270.538	94.12
270.77	89.12
271.002	119.12
271.234	93.12
271.466	118.12
271.698	103.12
271.93	121.12
272.162	102.12
272.394	124.12
272.626	99.12
272.858	97.12
273.09	110.12
273.322	112.12
273.553	118.12
273.785	120.12
274.017	107.12
274.249	100.12
274.481	104.12
274.713	101.12
274.945	120.12
275.176	86.12
275.408	114.12
275.64	114.12
275.872	116.12
276.104	125.12
276.335	105.12
276.567	101.12
276.799	83.12
277.031	102.12
277.262	111.12
277.494	121.12
277.726	113.12
277.957	120.12
278.189	116.12
278.421	129.12
278.652	139.12
278.884	131.12
279.115	126.12
279.347	130.12
279.579	146.12
279.81	154.12
280.042	185.12
280.273	175.12
280.505	175.12
280.736	138.12
280.968	139.12
281.199	129.12
281.431	129.12
281.662	130.12
281.894	142.12
282.125	144.12
282.356	127.12
282.588	132.12
282.819	139.12
283.051	133.12
283.282	128.12
283.513	172.12
283.745	137.12
283.976	134.12
284.207	138.12
284.439	121.12
284.67	120.12
284.901	101.12
285.132	113.12
285.364	127.12
285.595	124.12
285.826	117.12
286.057	108.12
286.288	119.12
286.52	118.12
286.751	117.12
286.982	157.12
287.213	130.12
287.444	150.12
287.675	143.12
287.906	131.12
288.138	109.12
288.369	111.12
288.6	108.12
288.831	106.12
289.062	121.12
289.293	99.12
289.524	117.12
289.755	111.12
289.986	107.12
290.217	107.12
290.448	94.12
290.679	121.12
290.91	103.12
291.141	96.12
291.371	127.12
291.602	115.12
291.833	112.12
292.064	122.12
292.295	111.12
292.526	112.12
292.757	100.12
292.987	118.12
293.218	98.12
293.449	114.12
293.68	109.12
293.91	117.12
294.141	127.12
294.372	110.12
294.603	115.12
294.833	129.12
295.064	113.12
295.295	107.12
295.525	115.12
295.756	112.12
295.987	119.12
296.217	109.12
296.448	126.12
296.679	118.12
296.909	118.12
297.14	93.12
297.37	123.12
297.601	111.12
297.831	127.12
298.062	112.12
298.292	113.12
298.523	124.12
298.753	109.12
298.984	110.12
299.214	109.12
299.445	99.12
299.675	106.12
299.905	109.12
300.136	107.12
300.366	107.12
300.597	118.12
300.827	129.12
301.057	115.12
301.288	107.12
301.518	131.12
301.748	114.12
301.979	170.12
302.209	116.12
302.439	112.12
302.669	112.12
302.9	109.12
303.13	121.12
303.36	112.12
303.59	103.12
303.82	109.12
304.051	121.12
304.281	118.12
304.511	142.12
304.741	123.12
304.971	107.12
305.201	116.12
305.431	107.12
305.661	115.12
305.891	107.12
306.121	125.12
306.352	126.12
306.582	108.12
306.812	118.12
307.042	118.12
307.272	90.12
307.502	100.12
307.731	106.12
307.961	135.12
308.191	121.12
308.421	113.12
308.651	126.12
308.881	128.12
309.111	121.12
309.341	113.12
309.571	123.12
309.8	93.12
310.03	101.12
310.26	118.12
310.49	126.12
310.72	120.12
310.949	113.12
311.179	116.12
311.409	99.12
311.639	119.12
311.868	131.12
312.098	115.12
312.328	118.12
312.557	106.12
312.787	113.12
313.017	121.12
313.246	120.12
313.476	126.12
313.706	130.12
313.935	121.12
314.165	123.12
314.394	108.12
314.624	125.12
314.853	132.12
315.083	123.12
315.312	132.12
315.542	115.12
315.771	137.12
316.001	128.12
316.23	125.12
316.46	105.12
316.689	119.12
316.919	122.12
317.148	125.12
317.377	135.12
317.607	142.12
317.836	127.12
318.065	115.12
318.295	135.12
318.524	115.12
318.753	114.12
318.983	119.12
319.212	126.12
319.441	115.12
319.67	127.12
319.9	126.12
320.129	128.12
320.358	115.12
320.587	121.12
320.816	125.12
321.046	108.12
321.275	116.12
321.504	133.12
321.733	117.12
321.962	114.12
322.191	111.12
322.42	100.12
322.649	127.12
322.878	129.12
323.108	124.12
323.337	117.12
323.566	105.12
323.795	112.12
324.024	127.12
324.253	109.12
324.482	130.12
324.71	111.12
324.939	135.12
325.168	125.12
325.397	127.12
325.626	107.12
325.855	126.12
326.084	114.12
326.313	117.12
326.542	103.12
326.77	135.12
326.999	125.12
327.228	120.12
327.457	129.12
327.686	131.12
327.914	127.12
328.143	137.12
328.372	115.12
328.6	137.12
328.829	134.12
329.058	124.12
329.287	118.12
329.515	132.12
329.744	128.12
329.972	120.12
330.201	124.12
330.43	108.12
330.658	107.12
330.887	118.12
331.115	129.12
331.344	133.12
331.572	127.12
331.801	120.12
332.03	115.12
332.258	117.12
332.486	128.12
332.715	125.12
332.943	119.12
333.172	123.12
333.4	128.12
333.629	125.12
333.857	122.12
334.085	131.12
334.314	109.12
334.542	121.12
334.771	123.12
334.999	114.12
335.227	109.12
335.455	134.12
335.684	130.12
335.912	123.12
336.14	119.12
336.369	131.12
336.597	110.12
336.825	130.12
337.053	113.12
337.281	114.12
337.51	117.12
337.738	123.12
337.966	121.12
338.194	109.12
338.422	121.12
338.65	127.12
338.878	142.12
339.106	123.12
339.334	136.12
339.562	130.12
339.79	130.12
340.018	115.12
340.246	117.12
340.474	132.12
340.702	113.12
340.93	129.12
341.158	128.12
341.386	118.12
341.614	126.12
341.842	121.12
342.07	113.12
342.298	111.12
342.526	111.12
342.754	118.12
342.981	112.12
343.209	119.12
343.437	172.12
343.665	121.12
343.893	121.12
344.12	139.12
344.348	124.12
344.576	122.12
344.804	121.12
345.031	118.12
345.259	139.12
345.487	134.12
345.714	137.12
345.942	127.12
346.17	140.12
346.397	117.12
346.625	108.12
346.853	114.12
347.08	122.12
347.308	130.12
347.535	134.12
347.763	118.12
347.99	118.12
348.218	121.12
348.445	116.12
348.673	111.12
348.9	118.12
349.128	126.12
349.355	112.12
349.583	99.12
349.81	113.12
350.037	119.12
350.265	132.12
350.492	118.12
350.72	125.12
350.947	110.12
351.174	141.12
351.402	118.12
351.629	117.12
351.856	125.12
352.083	123.12
352.311	113.12
352.538	101.12
352.765	117.12
352.992	143.12
353.22	125.12
353.447	121.12
353.674	134.12
353.901	127.12
354.128	126.12
354.355	104.12
354.583	122.12
354.81	125.12
355.037	130.12
355.264	121.12
355.491	130.12
355.718	122.12
355.945	138.12
356.172	140.12
356.399	128.12
356.626	140.12
356.853	163.12
357.08	191.12
357.307	214.12
357.534	209.12
357.761	192.12
357.988	179.12
358.215	158.12
358.441	133.12
358.668	139.12
358.895	138.12
359.122	138.12
359.349	131.12
359.576	126.12
359.802	129.12
360.029	130.12
360.256	124.12
360.483	121.12
360.709	123.12
360.936	139.12
361.163	135.12
361.39	127.12
361.616	138.12
361.843	134.12
362.07	130.12
362.296	132.12
362.523	122.12
362.749	136.12
362.976	133.12
363.203	149.12
363.429	160.12
363.656	210.12
363.882	230.12
364.109	247.12
364.335	214.12
364.562	159.12
364.788	146.12
365.015	146.12
365.241	136.12
365.468	155.12
365.694	139.12
365.92	138.12
366.147	127.12
366.373	136.12
366.599	139.12
366.826	147.12
367.052	159.12
367.278	170.12
367.505	156.12
367.731	199.12
367.957	189.12
368.184	221.12
368.41	285.12
368.636	267.12
368.862	222.12
369.089	166.12
369.315	160.12
369.541	160.12
369.767	160.12
369.993	138.12
370.219	146.12
370.445	142.12
370.672	133.12
370.898	125.12
371.124	143.12
371.35	134.12
371.576	128.12
371.802	131.12
372.028	135.12
372.254	128.12
372.48	132.12
372.706	135.12
372.932	130.12
373.158	141.12
373.384	172.12
373.61	183.12
373.835	188.12
374.061	227.12
374.287	232.12
374.513	162.12
374.739	154.12
374.965	148.12
375.191	148.12
375.416	137.12
375.642	134.12
375.868	148.12
376.094	136.12
376.319	149.12
376.545	131.12
376.771	124.12
376.997	132.12
377.222	133.12
377.448	126.12
377.674	114.12
377.899	119.12
378.125	133.12
378.35	147.12
378.576	142.12
378.802	116.12
379.027	127.12
379.253	145.12
379.478	118.12
379.704	135.12
379.929	126.12
380.155	116.12
380.38	126.12
380.606	128.12
380.831	127.12
381.057	152.12
381.282	120.12
381.507	126.12
381.733	134.12
381.958	127.12
382.184	110.12
382.409	128.12
382.634	142.12
382.86	117.12
383.085	133.12
383.31	134.12
383.535	131.12
383.761	120.12
383.986	149.12
384.211	131.12
384.436	137.12
384.662	117.12
384.887	130.12
385.112	137.12
385.337	136.12
385.562	126.12
385.787	144.12
386.013	128.12
386.238	129.12
386.463	137.12
386.688	205.12
386.913	128.12
387.138	127.12
387.363	131.12
387.588	139.12
387.813	143.12
388.038	123.12
388.263	133.12
388.488	119.12
388.713	129.12
388.938	123.12
389.163	128.12
389.387	122.12
389.612	122.12
389.837	138.12
390.062	131.12
390.287	130.12
390.512	133.12
390.736	129.12
390.961	136.12
391.186	127.12
391.411	120.12
391.636	119.12
391.86	131.12
392.085	147.12
392.31	139.12
392.534	145.12
392.759	137.12
392.984	142.12
393.208	142.12
393.433	145.12
393.658	130.12
393.882	150.12
394.107	143.12
394.331	125.12
394.556	153.12
394.78	145.12
395.005	134.12
395.229	127.12
395.454	140.12
395.678	144.12
395.903	133.12
396.127	138.12
396.352	138.12
396.576	131.12
396.801	132.12
397.025	136.12
397.249	134.12
397.474	171.12
397.698	141.12
397.922	134.12
398.147	147.12
398.371	132.12
398.595	142.12
398.82	141.12
399.044	141.12
399.268	140.12
399.492	148.12
399.717	133.12
399.941	133.12
400.165	150.12
400.389	139.12
400.613	144.12
400.837	147.12
401.062	143.12
401.286	145.12
401.51	141.12
401.734	156.12
401.958	165.12
402.182	154.12
402.406	136.12
402.63	140.12
402.854	149.12
403.078	153.12
403.302	164.12
403.526	159.12
403.75	141.12
403.974	151.12
404.198	163.12
404.422	161.12
404.645	162.12
404.869	179.12
405.093	185.12
405.317	220.12
405.541	270.12
405.765	375.12
405.988	407.12
406.212	336.12
406.436	260.12
406.66	243.12
406.883	211.12
407.107	186.12
407.331	181.12
407.555	182.12
407.778	163.12
408.002	159.12
408.226	164.12
408.449	166.12
408.673	166.12
408.896	154.12
409.12	139.12
409.344	150.12
409.567	156.12
409.791	139.12
410.014	160.12
410.238	156.12
410.461	144.12
410.685	152.12
410.908	136.12
411.132	149.12
411.355	142.12
411.578	149.12
411.802	148.12
412.025	138.12
412.249	157.12
412.472	139.12
412.695	155.12
412.919	163.12
413.142	144.12
413.365	141.12
413.589	137.12
413.812	141.12
414.035	171.12
414.258	161.12
414.482	143.12
414.705	152.12
414.928	155.12
415.151	130.12
415.374	131.12
415.597	141.12
415.821	148.12
416.044	135.12
416.267	151.12
416.49	156.12
416.713	158.12
416.936	143.12
417.159	142.12
417.382	128.12
417.605	146.12
417.828	157.12
418.051	129.12
418.274	156.12
418.497	145.12
418.72	139.12
418.943	158.12
419.166	166.12
419.389	159.12
419.611	161.12
419.834	150.12
420.057	141.12
420.28	162.12
420.503	164.12
420.726	162.12
420.948	147.12
421.171	162.12
421.394	159.12
421.617	162.12
421.839	155.12
422.062	154.12
422.285	146.12
422.507	150.12
422.73	142.12
422.953	169.12
423.175	154.12
423.398	157.12
423.621	179.12
423.843	189.12
424.066	181.12
424.288	205.12
424.511	230.12
424.733	247.12
424.956	226.12
425.178	220.12
425.401	209.12
425.623	182.12
425.846	183.12
426.068	174.12
426.291	191.12
426.513	174.12
426.735	172.12
426.958	174.12
427.18	171.12
427.402	165.12
427.625	163.12
427.847	148.12
428.069	167.12
428.292	165.12
428.514	159.12
428.736	179.12
428.958	161.12
429.181	172.12
429.403	161.12
429.625	158.12
429.847	171.12
430.069	158.12
430.292	165.12
430.514	150.12
430.736	152.12
430.958	149.12
431.18	149.12
431.402	163.12
431.624	148.12
431.846	146.12
432.068	133.12
432.29	160.12
432.512	160.12
432.734	147.12
432.956	147.12
433.178	186.12
433.4	166.12
433.622	160.12
433.844	151.12
434.066	166.12
434.287	150.12
434.509	146.12
434.731	153.12
434.953	144.12
435.175	164.12
435.397	166.12
435.618	146.12
435.84	155.12
436.062	144.12
436.284	158.12
436.505	152.12
436.727	173.12
436.949	153.12
437.17	164.12
437.392	158.12
437.614	169.12
437.835	163.12
438.057	181.12
438.278	186.12
438.5	203.12
438.721	239.12
438.943	220.12
439.165	243.12
439.386	219.12
439.608	220.12
439.829	203.12
440.05	207.12
440.272	203.12
440.493	201.12
440.715	189.12
440.936	211.12
441.158	213.12
441.379	183.12
441.6	205.12
441.822	179.12
442.043	183.12
442.264	178.12
442.486	179.12
442.707	161.12
442.928	174.12
443.149	165.12
443.371	182.12
443.592	173.12
443.813	170.12
444.034	175.12
444.255	176.12
444.476	181.12
444.698	177.12
444.919	170.12
445.14	561.12
445.361	358.12
445.582	185.12
445.803	172.12
446.024	177.12
446.245	172.12
446.466	181.12
446.687	155.12
446.908	184.12
447.129	191.12
447.35	181.12
447.571	163.12
447.792	159.12
448.013	158.12
448.234	168.12
448.455	160.12
448.675	140.12
448.896	158.12
449.117	152.12
449.338	160.12
449.559	174.12
449.779	159.12
450	165.12
450.221	157.12
450.442	172.12
450.662	166.12
450.883	166.12
451.104	172.12
451.324	159.12
451.545	150.12
451.766	157.12
451.986	143.12
452.207	152.12
452.428	152.12
452.648	157.12
452.869	165.12
453.089	145.12
453.31	134.12
453.53	146.12
453.751	145.12
453.971	138.12
454.192	155.12
454.412	163.12
454.633	142.12
454.853	153.12
455.073	145.12
455.294	153.12
455.514	155.12
455.734	132.12
455.955	142.12
456.175	122.12
456.395	142.12
456.616	151.12
456.836	138.12
457.056	157.12
457.276	131.12
457.497	139.12
457.717	137.12
457.937	147.12
458.157	146.12
458.377	132.12
458.598	116.12
458.818	132.12
459.038	144.12
459.258	134.12
459.478	127.12
459.698	125.12
459.918	128.12
460.138	151.12
460.358	127.12
460.578	164.12
460.798	150.12
461.018	153.12
461.238	163.12
461.458	158.12
461.678	161.12
461.898	141.12
462.118	155.12
462.338	166.12
462.558	148.12
462.777	149.12
462.997	135.12
463.217	135.12
463.437	155.12
463.657	151.12
463.876	163.12
464.096	145.12
464.316	129.12
464.536	151.12
464.755	157.12
464.975	162.12
465.195	159.12
465.414	158.12
465.634	147.12
465.854	151.12
466.073	147.12
466.293	143.12
466.512	139.12
466.732	133.12
466.951	166.12
467.171	141.12
467.391	162.12
467.61	159.12
467.829	158.12
468.049	137.12
468.268	138.12
468.488	165.12
468.707	141.12
468.927	157.12
469.146	147.12
469.365	161.12
469.585	147.12
469.804	161.12
470.023	157.12
470.243	164.12
470.462	167.12
470.681	158.12
470.901	148.12
471.12	156.12
471.339	171.12
471.558	176.12
471.777	161.12
471.997	171.12
472.216	154.12
472.435	144.12
472.654	152.12
472.873	148.12
473.092	150.12
473.311	155.12
473.53	147.12
473.749	145.12
473.968	168.12
474.187	142.12
474.406	134.12
474.625	146.12
474.844	165.12
475.063	142.12
475.282	137.12
475.501	157.12
475.72	190.12
475.939	147.12
476.158	145.12
476.377	149.12
476.596	150.12
476.814	136.12
477.033	142.12
477.252	157.12
477.471	160.12
477.69	155.12
477.908	164.12
478.127	164.12
478.346	152.12
478.564	156.12
478.783	144.12
479.002	180.12
479.22	148.12
479.439	191.12
479.658	158.12
479.876	146.12
480.095	150.12
480.313	170.12
480.532	157.12
480.751	158.12
480.969	153.12
481.188	153.12
481.406	161.12
481.624	168.12
481.843	130.12
482.061	143.12
482.28	145.12
482.498	147.12
482.717	153.12
482.935	182.12
483.153	179.12
483.372	172.12
483.59	162.12
483.808	154.12
484.027	153.12
484.245	156.12
484.463	159.12
484.681	178.12
484.9	153.12
485.118	172.12
485.336	156.12
485.554	150.12
485.772	151.12
485.99	138.12
486.209	146.12
486.427	146.12
486.645	154.12
486.863	154.12
487.081	163.12
487.299	165.12
487.517	160.12
487.735	206.12
487.953	189.12
488.171	170.12
488.389	164.12
488.607	149.12
488.825	158.12
489.043	147.12
489.261	175.12
489.479	162.12
489.696	166.12
489.914	154.12
490.132	164.12
490.35	171.12
490.568	177.12
490.786	178.12
491.003	164.12
491.221	190.12
491.439	201.12
491.657	201.12
491.874	211.12
492.092	220.12
492.31	205.12
492.527	214.12
492.745	200.12
492.963	187.12
493.18	179.12
493.398	186.12
493.615	188.12
493.833	178.12
494.05	172.12
494.268	196.12
494.485	186.12
494.703	187.12
494.92	204.12
495.138	182.12
495.355	188.12
495.573	181.12
495.79	185.12
496.008	199.12
496.225	199.12
496.442	185.12
496.66	187.12
496.877	188.12
497.094	216.12
497.312	169.12
497.529	165.12
497.746	198.12
497.963	162.12
498.181	156.12
498.398	176.12
498.615	162.12
498.832	173.12
499.049	171.12
499.267	185.12
499.484	161.12
499.701	212.12
499.918	194.12
500.135	200.12
500.352	208.12
500.569	226.12
500.786	246.12
501.003	213.12
501.22	204.12
501.437	219.12
501.654	185.12
501.871	192.12
502.088	176.12
502.305	181.12
502.522	184.12
502.739	199.12
502.956	185.12
503.172	178.12
503.389	161.12
503.606	176.12
503.823	186.12
504.04	190.12
