Data from TenMicroDelayPb_HRD10591_00003.txt Node
Date: Mon Nov 24 14:55:06 EST 2025
User: Yrep
Spectrometer: HR+D1059
Trigger mode: 5
Integration Time (sec): 1.000000E-2
Scans to average: 1
Electric dark correction enabled: true
Nonlinearity correction enabled: false
Boxcar width: 0
XAxis mode: Wavelengths
Number of Pixels in Spectrum: 2048
>>>>>Begin Spectral Data<<<<<
223.165	-37.56
223.4	-37.56
223.635	-37.56
223.869	-22.56
224.104	-41.56
224.338	-6.56
224.573	-2.56
224.808	-11.56
225.042	-2.56
225.277	1.44
225.511	-5.56
225.746	6.44
225.98	7.44
226.215	20.44
226.449	10.44
226.683	29.44
226.918	20.44
227.152	34.44
227.387	43.44
227.621	30.44
227.856	58.44
228.09	28.44
228.324	46.44
228.559	74.44
228.793	71.44
229.027	64.44
229.262	74.44
229.496	76.44
229.73	87.44
229.964	92.44
230.199	86.44
230.433	77.44
230.667	79.44
230.901	76.44
231.136	81.44
231.37	79.44
231.604	95.44
231.838	87.44
232.072	85.44
232.306	89.44
232.541	87.44
232.775	81.44
233.009	85.44
233.243	96.44
233.477	104.44
233.711	97.44
233.945	93.44
234.179	81.44
234.413	92.44
234.647	86.44
234.881	83.44
235.115	78.44
235.349	80.44
235.583	96.44
235.817	86.44
236.051	98.44
236.285	84.44
236.519	101.44
236.753	103.44
236.987	88.44
237.221	99.44
237.455	92.44
237.689	94.44
237.922	82.44
238.156	70.44
238.39	79.44
238.624	88.44
238.858	87.44
239.091	93.44
239.325	95.44
239.559	89.44
239.793	97.44
240.027	104.44
240.26	107.44
240.494	93.44
240.728	94.44
240.961	93.44
241.195	99.44
241.429	85.44
241.662	89.44
241.896	84.44
242.13	92.44
242.363	84.44
242.597	95.44
242.83	102.44
243.064	98.44
243.298	90.44
243.531	83.44
243.765	94.44
243.998	104.44
244.232	106.44
244.465	102.44
244.699	78.44
244.932	85.44
245.166	94.44
245.399	96.44
245.633	97.44
245.866	78.44
246.099	83.44
246.333	92.44
246.566	81.44
246.8	95.44
247.033	84.44
247.266	74.44
247.5	92.44
247.733	92.44
247.966	96.44
248.2	92.44
248.433	107.44
248.666	91.44
248.899	80.44
249.133	97.44
249.366	116.44
249.599	82.44
249.832	78.44
250.066	113.44
250.299	92.44
250.532	92.44
250.765	109.44
250.998	98.44
251.231	90.44
251.465	94.44
251.698	76.44
251.931	102.44
252.164	81.44
252.397	101.44
252.63	104.44
252.863	116.44
253.096	107.44
253.329	112.44
253.562	94.44
253.795	92.44
254.028	121.44
254.261	102.44
254.494	101.44
254.727	96.44
254.96	98.44
255.193	104.44
255.426	97.44
255.659	96.44
255.892	99.44
256.124	110.44
256.357	106.44
256.59	103.44
256.823	110.44
257.056	121.44
257.289	101.44
257.521	113.44
257.754	100.44
257.987	100.44
258.22	111.44
258.452	113.44
258.685	92.44
258.918	96.44
259.151	116.44
259.383	123.44
259.616	88.44
259.849	94.44
260.081	115.44
260.314	111.44
260.547	107.44
260.779	117.44
261.012	125.44
261.244	121.44
261.477	148.44
261.71	120.44
261.942	139.44
262.175	124.44
262.407	113.44
262.64	108.44
262.872	124.44
263.105	104.44
263.337	118.44
263.57	108.44
263.802	91.44
264.035	114.44
264.267	108.44
264.499	104.44
264.732	112.44
264.964	133.44
265.197	104.44
265.429	124.44
265.661	116.44
265.894	116.44
266.126	130.44
266.358	125.44
266.591	118.44
266.823	121.44
267.055	98.44
267.287	98.44
267.52	112.44
267.752	117.44
267.984	100.44
268.216	114.44
268.448	116.44
268.681	109.44
268.913	117.44
269.145	83.44
269.377	97.44
269.609	126.44
269.841	119.44
270.073	110.44
270.306	116.44
270.538	107.44
270.77	97.44
271.002	108.44
271.234	108.44
271.466	111.44
271.698	108.44
271.93	104.44
272.162	103.44
272.394	112.44
272.626	93.44
272.858	100.44
273.09	104.44
273.322	106.44
273.553	106.44
273.785	109.44
274.017	111.44
274.249	100.44
274.481	94.44
274.713	101.44
274.945	108.44
275.176	98.44
275.408	98.44
275.64	111.44
275.872	117.44
276.104	107.44
276.335	111.44
276.567	102.44
276.799	112.44
277.031	104.44
277.262	101.44
277.494	114.44
277.726	114.44
277.957	104.44
278.189	106.44
278.421	97.44
278.652	106.44
278.884	125.44
279.115	128.44
279.347	126.44
279.579	144.44
279.81	139.44
280.042	171.44
280.273	180.44
280.505	179.44
280.736	142.44
280.968	136.44
281.199	131.44
281.431	148.44
281.662	128.44
281.894	141.44
282.125	116.44
282.356	144.44
282.588	126.44
282.819	122.44
283.051	147.44
283.282	136.44
283.513	166.44
283.745	147.44
283.976	146.44
284.207	136.44
284.439	125.44
284.67	128.44
284.901	110.44
285.132	114.44
285.364	117.44
285.595	127.44
285.826	108.44
286.057	122.44
286.288	117.44
286.52	125.44
286.751	116.44
286.982	141.44
287.213	135.44
287.444	155.44
287.675	135.44
287.906	146.44
288.138	104.44
288.369	117.44
288.6	124.44
288.831	95.44
289.062	121.44
289.293	120.44
289.524	110.44
289.755	113.44
289.986	114.44
290.217	98.44
290.448	97.44
290.679	107.44
290.91	106.44
291.141	105.44
291.371	108.44
291.602	116.44
291.833	116.44
292.064	104.44
292.295	116.44
292.526	113.44
292.757	118.44
292.987	123.44
293.218	93.44
293.449	108.44
293.68	106.44
293.91	105.44
294.141	125.44
294.372	102.44
294.603	123.44
294.833	96.44
295.064	94.44
295.295	109.44
295.525	104.44
295.756	114.44
295.987	104.44
296.217	118.44
296.448	99.44
296.679	110.44
296.909	114.44
297.14	113.44
297.37	116.44
297.601	111.44
297.831	102.44
298.062	119.44
298.292	120.44
298.523	130.44
298.753	124.44
298.984	117.44
299.214	110.44
299.445	114.44
299.675	112.44
299.905	112.44
300.136	116.44
300.366	105.44
300.597	105.44
300.827	116.44
301.057	107.44
301.288	96.44
301.518	109.44
301.748	124.44
301.979	182.44
302.209	123.44
302.439	106.44
302.669	118.44
302.9	104.44
303.13	111.44
303.36	94.44
303.59	119.44
303.82	100.44
304.051	110.44
304.281	120.44
304.511	132.44
304.741	115.44
304.971	114.44
305.201	129.44
305.431	136.44
305.661	128.44
305.891	122.44
306.121	122.44
306.352	127.44
306.582	110.44
306.812	117.44
307.042	116.44
307.272	115.44
307.502	107.44
307.731	122.44
307.961	123.44
308.191	118.44
308.421	115.44
308.651	117.44
308.881	131.44
309.111	111.44
309.341	128.44
309.571	112.44
309.8	121.44
310.03	113.44
310.26	111.44
310.49	125.44
310.72	110.44
310.949	113.44
311.179	104.44
311.409	102.44
311.639	101.44
311.868	134.44
312.098	129.44
312.328	121.44
312.557	127.44
312.787	125.44
313.017	134.44
313.246	135.44
313.476	135.44
313.706	120.44
313.935	125.44
314.165	114.44
314.394	131.44
314.624	130.44
314.853	117.44
315.083	138.44
315.312	137.44
315.542	125.44
315.771	138.44
316.001	120.44
316.23	126.44
316.46	121.44
316.689	116.44
316.919	124.44
317.148	128.44
317.377	136.44
317.607	117.44
317.836	120.44
318.065	124.44
318.295	122.44
318.524	118.44
318.753	119.44
318.983	114.44
319.212	116.44
319.441	120.44
319.67	136.44
319.9	118.44
320.129	115.44
320.358	110.44
320.587	124.44
320.816	124.44
321.046	117.44
321.275	131.44
321.504	113.44
321.733	113.44
321.962	109.44
322.191	132.44
322.42	130.44
322.649	120.44
322.878	125.44
323.108	123.44
323.337	111.44
323.566	126.44
323.795	117.44
324.024	129.44
324.253	122.44
324.482	119.44
324.71	121.44
324.939	121.44
325.168	126.44
325.397	114.44
325.626	111.44
325.855	112.44
326.084	114.44
326.313	120.44
326.542	108.44
326.77	123.44
326.999	105.44
327.228	112.44
327.457	126.44
327.686	132.44
327.914	122.44
328.143	141.44
328.372	110.44
328.6	115.44
328.829	122.44
329.058	110.44
329.287	127.44
329.515	114.44
329.744	142.44
329.972	124.44
330.201	114.44
330.43	118.44
330.658	125.44
330.887	119.44
331.115	110.44
331.344	121.44
331.572	123.44
331.801	126.44
332.03	117.44
332.258	108.44
332.486	124.44
332.715	130.44
332.943	114.44
333.172	134.44
333.4	132.44
333.629	120.44
333.857	121.44
334.085	112.44
334.314	117.44
334.542	123.44
334.771	126.44
334.999	116.44
335.227	116.44
335.455	123.44
335.684	132.44
335.912	127.44
336.14	124.44
336.369	122.44
336.597	133.44
336.825	125.44
337.053	122.44
337.281	111.44
337.51	122.44
337.738	143.44
337.966	106.44
338.194	116.44
338.422	116.44
338.65	121.44
338.878	126.44
339.106	130.44
339.334	125.44
339.562	123.44
339.79	101.44
340.018	124.44
340.246	122.44
340.474	116.44
340.702	113.44
340.93	116.44
341.158	116.44
341.386	119.44
341.614	116.44
341.842	108.44
342.07	111.44
342.298	118.44
342.526	105.44
342.754	110.44
342.981	120.44
343.209	117.44
343.437	142.44
343.665	116.44
343.893	123.44
344.12	138.44
344.348	130.44
344.576	118.44
344.804	119.44
345.031	112.44
345.259	144.44
345.487	125.44
345.714	120.44
345.942	118.44
346.17	125.44
346.397	120.44
346.625	106.44
346.853	115.44
347.08	120.44
347.308	106.44
347.535	115.44
347.763	123.44
347.99	132.44
348.218	106.44
348.445	106.44
348.673	112.44
348.9	120.44
349.128	133.44
349.355	119.44
349.583	116.44
349.81	113.44
350.037	111.44
350.265	120.44
350.492	129.44
350.72	120.44
350.947	128.44
351.174	114.44
351.402	126.44
351.629	104.44
351.856	111.44
352.083	118.44
352.311	117.44
352.538	108.44
352.765	131.44
352.992	138.44
353.22	119.44
353.447	124.44
353.674	140.44
353.901	139.44
354.128	128.44
354.355	123.44
354.583	115.44
354.81	128.44
355.037	134.44
355.264	123.44
355.491	123.44
355.718	114.44
355.945	155.44
356.172	138.44
356.399	157.44
356.626	130.44
356.853	165.44
357.08	172.44
357.307	205.44
357.534	201.44
357.761	172.44
357.988	184.44
358.215	165.44
358.441	130.44
358.668	140.44
358.895	128.44
359.122	138.44
359.349	138.44
359.576	124.44
359.802	123.44
360.029	143.44
360.256	133.44
360.483	124.44
360.709	129.44
360.936	136.44
361.163	128.44
361.39	125.44
361.616	131.44
361.843	128.44
362.07	132.44
362.296	123.44
362.523	104.44
362.749	128.44
362.976	118.44
363.203	157.44
363.429	147.44
363.656	181.44
363.882	207.44
364.109	242.44
364.335	204.44
364.562	158.44
364.788	146.44
365.015	150.44
365.241	147.44
365.468	148.44
365.694	139.44
365.92	157.44
366.147	137.44
366.373	119.44
366.599	129.44
366.826	139.44
367.052	147.44
367.278	164.44
367.505	165.44
367.731	202.44
367.957	178.44
368.184	246.44
368.41	278.44
368.636	255.44
368.862	204.44
369.089	178.44
369.315	140.44
369.541	159.44
369.767	140.44
369.993	152.44
370.219	127.44
370.445	117.44
370.672	112.44
370.898	125.44
371.124	112.44
371.35	145.44
371.576	131.44
371.802	123.44
372.028	141.44
372.254	120.44
372.48	129.44
372.706	125.44
372.932	145.44
373.158	154.44
373.384	140.44
373.61	162.44
373.835	198.44
374.061	232.44
374.287	206.44
374.513	169.44
374.739	131.44
374.965	145.44
375.191	137.44
375.416	135.44
375.642	149.44
375.868	142.44
376.094	117.44
376.319	139.44
376.545	132.44
376.771	126.44
376.997	117.44
377.222	125.44
377.448	124.44
377.674	131.44
377.899	125.44
378.125	129.44
378.35	141.44
378.576	132.44
378.802	118.44
379.027	138.44
379.253	120.44
379.478	123.44
379.704	124.44
379.929	127.44
380.155	106.44
380.38	114.44
380.606	129.44
380.831	127.44
381.057	160.44
381.282	129.44
381.507	117.44
381.733	124.44
381.958	123.44
382.184	118.44
382.409	129.44
382.634	131.44
382.86	119.44
383.085	134.44
383.31	127.44
383.535	140.44
383.761	130.44
383.986	131.44
384.211	122.44
384.436	124.44
384.662	123.44
384.887	114.44
385.112	128.44
385.337	123.44
385.562	120.44
385.787	122.44
386.013	146.44
386.238	112.44
386.463	134.44
386.688	186.44
386.913	117.44
387.138	136.44
387.363	129.44
387.588	134.44
387.813	133.44
388.038	129.44
388.263	125.44
388.488	120.44
388.713	125.44
388.938	116.44
389.163	122.44
389.387	131.44
389.612	130.44
389.837	121.44
390.062	123.44
390.287	126.44
390.512	129.44
390.736	117.44
390.961	136.44
391.186	130.44
391.411	134.44
391.636	114.44
391.86	128.44
392.085	124.44
392.31	112.44
392.534	134.44
392.759	133.44
392.984	129.44
393.208	139.44
393.433	140.44
393.658	138.44
393.882	114.44
394.107	132.44
394.331	129.44
394.556	111.44
394.78	139.44
395.005	129.44
395.229	132.44
395.454	132.44
395.678	126.44
395.903	117.44
396.127	132.44
396.352	124.44
396.576	116.44
396.801	138.44
397.025	135.44
397.249	140.44
397.474	145.44
397.698	128.44
397.922	137.44
398.147	140.44
398.371	143.44
398.595	138.44
398.82	127.44
399.044	110.44
399.268	141.44
399.492	132.44
399.717	154.44
399.941	150.44
400.165	152.44
400.389	141.44
400.613	133.44
400.837	131.44
401.062	144.44
401.286	149.44
401.51	147.44
401.734	176.44
401.958	157.44
402.182	155.44
402.406	144.44
402.63	148.44
402.854	143.44
403.078	141.44
403.302	138.44
403.526	149.44
403.75	154.44
403.974	154.44
404.198	150.44
404.422	155.44
404.645	154.44
404.869	170.44
405.093	178.44
405.317	208.44
405.541	262.44
405.765	339.44
405.988	408.44
406.212	336.44
406.436	269.44
406.66	224.44
406.883	209.44
407.107	197.44
407.331	185.44
407.555	192.44
407.778	168.44
408.002	157.44
408.226	161.44
408.449	149.44
408.673	155.44
408.896	146.44
409.12	164.44
409.344	153.44
409.567	137.44
409.791	164.44
410.014	146.44
410.238	143.44
410.461	129.44
410.685	134.44
410.908	146.44
411.132	153.44
411.355	162.44
411.578	163.44
411.802	151.44
412.025	138.44
412.249	138.44
412.472	143.44
412.695	132.44
412.919	155.44
413.142	139.44
413.365	152.44
413.589	160.44
413.812	146.44
414.035	144.44
414.258	144.44
414.482	123.44
414.705	129.44
414.928	161.44
415.151	155.44
415.374	138.44
415.597	135.44
415.821	154.44
416.044	145.44
416.267	134.44
416.49	156.44
416.713	143.44
416.936	146.44
417.159	153.44
417.382	149.44
417.605	137.44
417.828	159.44
418.051	146.44
418.274	177.44
418.497	128.44
418.72	128.44
418.943	151.44
419.166	132.44
419.389	147.44
419.611	146.44
419.834	146.44
420.057	155.44
420.28	147.44
420.503	154.44
420.726	144.44
420.948	150.44
421.171	149.44
421.394	154.44
421.617	157.44
421.839	148.44
422.062	148.44
422.285	150.44
422.507	154.44
422.73	155.44
422.953	151.44
423.175	140.44
423.398	158.44
423.621	182.44
423.843	185.44
424.066	181.44
424.288	194.44
424.511	213.44
424.733	223.44
424.956	215.44
425.178	205.44
425.401	211.44
425.623	187.44
425.846	177.44
426.068	169.44
426.291	190.44
426.513	171.44
426.735	166.44
426.958	187.44
427.18	156.44
427.402	170.44
427.625	172.44
427.847	160.44
428.069	151.44
428.292	150.44
428.514	160.44
428.736	163.44
428.958	161.44
429.181	162.44
429.403	150.44
429.625	155.44
429.847	143.44
430.069	144.44
430.292	170.44
430.514	159.44
430.736	129.44
430.958	148.44
431.18	142.44
431.402	141.44
431.624	138.44
431.846	155.44
432.068	142.44
432.29	137.44
432.512	160.44
432.734	137.44
432.956	159.44
433.178	152.44
433.4	146.44
433.622	164.44
433.844	165.44
434.066	162.44
434.287	154.44
434.509	131.44
434.731	141.44
434.953	148.44
435.175	155.44
435.397	162.44
435.618	156.44
435.84	154.44
436.062	157.44
436.284	158.44
436.505	164.44
436.727	153.44
436.949	157.44
437.17	172.44
437.392	164.44
437.614	175.44
437.835	147.44
438.057	172.44
438.278	182.44
438.5	191.44
438.721	212.44
438.943	245.44
439.165	206.44
439.386	202.44
439.608	217.44
439.829	213.44
440.05	200.44
440.272	198.44
440.493	200.44
440.715	202.44
440.936	212.44
441.158	214.44
441.379	199.44
441.6	196.44
441.822	195.44
442.043	193.44
442.264	173.44
442.486	179.44
442.707	186.44
442.928	168.44
443.149	165.44
443.371	170.44
443.592	177.44
443.813	171.44
444.034	182.44
444.255	174.44
444.476	173.44
444.698	171.44
444.919	177.44
445.14	560.44
445.361	331.44
445.582	186.44
445.803	161.44
446.024	190.44
446.245	202.44
446.466	169.44
446.687	166.44
446.908	174.44
447.129	171.44
447.35	165.44
447.571	175.44
447.792	169.44
448.013	162.44
448.234	163.44
448.455	164.44
448.675	148.44
448.896	173.44
449.117	180.44
449.338	149.44
449.559	156.44
449.779	157.44
450	149.44
450.221	147.44
450.442	157.44
450.662	158.44
450.883	165.44
451.104	154.44
451.324	148.44
451.545	148.44
451.766	153.44
451.986	156.44
452.207	154.44
452.428	156.44
452.648	145.44
452.869	150.44
453.089	147.44
453.31	117.44
453.53	154.44
453.751	149.44
453.971	128.44
454.192	138.44
454.412	147.44
454.633	143.44
454.853	149.44
455.073	149.44
455.294	149.44
455.514	156.44
455.734	154.44
455.955	144.44
456.175	150.44
456.395	140.44
456.616	138.44
456.836	140.44
457.056	140.44
457.276	129.44
457.497	128.44
457.717	134.44
457.937	141.44
458.157	148.44
458.377	133.44
458.598	135.44
458.818	151.44
459.038	137.44
459.258	135.44
459.478	135.44
459.698	127.44
459.918	139.44
460.138	130.44
460.358	129.44
460.578	143.44
460.798	152.44
461.018	145.44
461.238	159.44
461.458	156.44
461.678	145.44
461.898	148.44
462.118	146.44
462.338	154.44
462.558	138.44
462.777	135.44
462.997	149.44
463.217	134.44
463.437	139.44
463.657	135.44
463.876	156.44
464.096	148.44
464.316	144.44
464.536	143.44
464.755	146.44
464.975	148.44
465.195	150.44
465.414	168.44
465.634	123.44
465.854	137.44
466.073	143.44
466.293	133.44
466.512	141.44
466.732	161.44
466.951	155.44
467.171	141.44
467.391	156.44
467.61	159.44
467.829	138.44
468.049	166.44
468.268	147.44
468.488	135.44
468.707	145.44
468.927	139.44
469.146	147.44
469.365	157.44
469.585	142.44
469.804	158.44
470.023	134.44
470.243	144.44
470.462	147.44
470.681	161.44
470.901	153.44
471.12	155.44
471.339	159.44
471.558	152.44
471.777	139.44
471.997	158.44
472.216	158.44
472.435	141.44
472.654	129.44
472.873	162.44
473.092	128.44
473.311	153.44
473.53	141.44
473.749	154.44
473.968	143.44
474.187	129.44
474.406	145.44
474.625	142.44
474.844	156.44
475.063	161.44
475.282	152.44
475.501	149.44
475.72	157.44
475.939	150.44
476.158	159.44
476.377	150.44
476.596	153.44
476.814	144.44
477.033	133.44
477.252	145.44
477.471	153.44
477.69	162.44
477.908	158.44
478.127	170.44
478.346	160.44
478.564	170.44
478.783	164.44
479.002	146.44
479.22	148.44
479.439	168.44
479.658	142.44
479.876	144.44
480.095	146.44
480.313	160.44
480.532	161.44
480.751	155.44
480.969	154.44
481.188	156.44
481.406	158.44
481.624	142.44
481.843	145.44
482.061	150.44
482.28	156.44
482.498	157.44
482.717	144.44
482.935	146.44
483.153	157.44
483.372	160.44
483.59	165.44
483.808	156.44
484.027	162.44
484.245	156.44
484.463	155.44
484.681	184.44
484.9	155.44
485.118	165.44
485.336	147.44
485.554	142.44
485.772	148.44
485.99	144.44
486.209	148.44
486.427	128.44
486.645	171.44
486.863	168.44
487.081	159.44
487.299	163.44
487.517	170.44
487.735	174.44
487.953	203.44
488.171	177.44
488.389	173.44
488.607	160.44
488.825	158.44
489.043	154.44
489.261	176.44
489.479	168.44
489.696	172.44
489.914	163.44
490.132	157.44
490.35	170.44
490.568	177.44
490.786	180.44
491.003	174.44
491.221	186.44
491.439	184.44
491.657	185.44
491.874	209.44
492.092	198.44
492.31	203.44
492.527	204.44
492.745	193.44
492.963	194.44
493.18	195.44
493.398	185.44
493.615	150.44
493.833	168.44
494.05	171.44
494.268	163.44
494.485	188.44
494.703	183.44
494.92	178.44
495.138	196.44
495.355	185.44
495.573	203.44
495.79	193.44
496.008	198.44
496.225	182.44
496.442	186.44
496.66	199.44
496.877	186.44
497.094	200.44
497.312	182.44
497.529	192.44
497.746	180.44
497.963	181.44
498.181	175.44
498.398	173.44
498.615	182.44
498.832	163.44
499.049	186.44
499.267	180.44
499.484	205.44
499.701	191.44
499.918	194.44
500.135	196.44
500.352	212.44
500.569	218.44
500.786	250.44
501.003	224.44
501.22	206.44
501.437	181.44
501.654	197.44
501.871	165.44
502.088	180.44
502.305	187.44
502.522	186.44
502.739	196.44
502.956	186.44
503.172	161.44
503.389	165.44
503.606	164.44
503.823	173.44
504.04	181.44
504.256	193.44
