Data from TenMicroDelayPb_HRD10591_00008.txt Node
Date: Mon Nov 24 14:55:09 EST 2025
User: Yrep
Spectrometer: HR+D1059
Trigger mode: 5
Integration Time (sec): 1.000000E-2
Scans to average: 1
Electric dark correction enabled: true
Nonlinearity correction enabled: false
Boxcar width: 0
XAxis mode: Wavelengths
Number of Pixels in Spectrum: 2048
>>>>>Begin Spectral Data<<<<<
223.165	-34.94
223.4	-34.94
223.635	-34.94
223.869	-18.94
224.104	-16.94
224.338	-8.94
224.573	-4.94
224.808	-11.94
225.042	-12.94
225.277	-14.94
225.511	13.06
225.746	6.06
225.98	5.06
226.215	8.06
226.449	10.06
226.683	9.06
226.918	32.06
227.152	41.06
227.387	41.06
227.621	43.06
227.856	64.06
228.09	59.06
228.324	59.06
228.559	60.06
228.793	66.06
229.027	78.06
229.262	85.06
229.496	82.06
229.73	83.06
229.964	78.06
230.199	79.06
230.433	76.06
230.667	85.06
230.901	89.06
231.136	82.06
231.37	87.06
231.604	79.06
231.838	109.06
232.072	90.06
232.306	85.06
232.541	107.06
232.775	99.06
233.009	96.06
233.243	99.06
233.477	91.06
233.711	103.06
233.945	99.06
234.179	79.06
234.413	105.06
234.647	94.06
234.881	71.06
235.115	86.06
235.349	71.06
235.583	91.06
235.817	93.06
236.051	79.06
236.285	78.06
236.519	109.06
236.753	99.06
236.987	85.06
237.221	77.06
237.455	90.06
237.689	85.06
237.922	86.06
238.156	95.06
238.39	95.06
238.624	86.06
238.858	88.06
239.091	88.06
239.325	92.06
239.559	97.06
239.793	107.06
240.027	100.06
240.26	108.06
240.494	92.06
240.728	98.06
240.961	84.06
241.195	107.06
241.429	102.06
241.662	79.06
241.896	69.06
242.13	89.06
242.363	98.06
242.597	86.06
242.83	93.06
243.064	97.06
243.298	102.06
243.531	95.06
243.765	74.06
243.998	93.06
244.232	103.06
244.465	100.06
244.699	90.06
244.932	89.06
245.166	92.06
245.399	99.06
245.633	89.06
245.866	77.06
246.099	87.06
246.333	98.06
246.566	86.06
246.8	94.06
247.033	94.06
247.266	93.06
247.5	71.06
247.733	93.06
247.966	99.06
248.2	90.06
248.433	92.06
248.666	88.06
248.899	95.06
249.133	105.06
249.366	130.06
249.599	97.06
249.832	107.06
250.066	113.06
250.299	87.06
250.532	101.06
250.765	114.06
250.998	90.06
251.231	98.06
251.465	96.06
251.698	95.06
251.931	102.06
252.164	101.06
252.397	93.06
252.63	103.06
252.863	98.06
253.096	92.06
253.329	118.06
253.562	105.06
253.795	105.06
254.028	109.06
254.261	121.06
254.494	89.06
254.727	121.06
254.96	108.06
255.193	93.06
255.426	109.06
255.659	109.06
255.892	113.06
256.124	86.06
256.357	113.06
256.59	119.06
256.823	103.06
257.056	102.06
257.289	98.06
257.521	116.06
257.754	117.06
257.987	110.06
258.22	131.06
258.452	101.06
258.685	109.06
258.918	96.06
259.151	117.06
259.383	114.06
259.616	104.06
259.849	107.06
260.081	117.06
260.314	109.06
260.547	114.06
260.779	107.06
261.012	128.06
261.244	136.06
261.477	145.06
261.71	141.06
261.942	122.06
262.175	119.06
262.407	102.06
262.64	100.06
262.872	91.06
263.105	98.06
263.337	128.06
263.57	102.06
263.802	109.06
264.035	113.06
264.267	108.06
264.499	109.06
264.732	107.06
264.964	113.06
265.197	111.06
265.429	123.06
265.661	107.06
265.894	110.06
266.126	119.06
266.358	127.06
266.591	138.06
266.823	129.06
267.055	115.06
267.287	103.06
267.52	106.06
267.752	107.06
267.984	109.06
268.216	99.06
268.448	115.06
268.681	111.06
268.913	111.06
269.145	124.06
269.377	118.06
269.609	111.06
269.841	107.06
270.073	102.06
270.306	94.06
270.538	99.06
270.77	111.06
271.002	115.06
271.234	110.06
271.466	108.06
271.698	93.06
271.93	117.06
272.162	111.06
272.394	99.06
272.626	100.06
272.858	102.06
273.09	122.06
273.322	115.06
273.553	114.06
273.785	117.06
274.017	101.06
274.249	92.06
274.481	109.06
274.713	105.06
274.945	125.06
275.176	98.06
275.408	106.06
275.64	105.06
275.872	121.06
276.104	119.06
276.335	106.06
276.567	112.06
276.799	103.06
277.031	101.06
277.262	118.06
277.494	128.06
277.726	121.06
277.957	119.06
278.189	110.06
278.421	99.06
278.652	121.06
278.884	114.06
279.115	123.06
279.347	121.06
279.579	132.06
279.81	153.06
280.042	158.06
280.273	167.06
280.505	176.06
280.736	153.06
280.968	134.06
281.199	125.06
281.431	115.06
281.662	137.06
281.894	128.06
282.125	119.06
282.356	130.06
282.588	137.06
282.819	129.06
283.051	135.06
283.282	141.06
283.513	175.06
283.745	146.06
283.976	121.06
284.207	127.06
284.439	117.06
284.67	123.06
284.901	118.06
285.132	129.06
285.364	115.06
285.595	113.06
285.826	117.06
286.057	130.06
286.288	118.06
286.52	108.06
286.751	123.06
286.982	126.06
287.213	130.06
287.444	165.06
287.675	137.06
287.906	130.06
288.138	121.06
288.369	120.06
288.6	125.06
288.831	110.06
289.062	128.06
289.293	127.06
289.524	109.06
289.755	103.06
289.986	113.06
290.217	118.06
290.448	103.06
290.679	121.06
290.91	104.06
291.141	112.06
291.371	120.06
291.602	112.06
291.833	123.06
292.064	113.06
292.295	120.06
292.526	100.06
292.757	117.06
292.987	115.06
293.218	105.06
293.449	108.06
293.68	117.06
293.91	120.06
294.141	116.06
294.372	109.06
294.603	105.06
294.833	109.06
295.064	93.06
295.295	127.06
295.525	103.06
295.756	126.06
295.987	118.06
296.217	105.06
296.448	119.06
296.679	125.06
296.909	124.06
297.14	130.06
297.37	137.06
297.601	118.06
297.831	115.06
298.062	117.06
298.292	110.06
298.523	123.06
298.753	113.06
298.984	106.06
299.214	112.06
299.445	115.06
299.675	117.06
299.905	122.06
300.136	116.06
300.366	111.06
300.597	116.06
300.827	114.06
301.057	106.06
301.288	110.06
301.518	121.06
301.748	111.06
301.979	186.06
302.209	108.06
302.439	102.06
302.669	115.06
302.9	115.06
303.13	102.06
303.36	116.06
303.59	117.06
303.82	118.06
304.051	126.06
304.281	122.06
304.511	128.06
304.741	105.06
304.971	107.06
305.201	124.06
305.431	129.06
305.661	112.06
305.891	117.06
306.121	131.06
306.352	128.06
306.582	114.06
306.812	117.06
307.042	111.06
307.272	127.06
307.502	127.06
307.731	121.06
307.961	110.06
308.191	105.06
308.421	118.06
308.651	117.06
308.881	100.06
309.111	102.06
309.341	110.06
309.571	117.06
309.8	130.06
310.03	107.06
310.26	102.06
310.49	119.06
310.72	117.06
310.949	121.06
311.179	119.06
311.409	122.06
311.639	138.06
311.868	112.06
312.098	121.06
312.328	113.06
312.557	142.06
312.787	126.06
313.017	146.06
313.246	134.06
313.476	126.06
313.706	119.06
313.935	105.06
314.165	118.06
314.394	134.06
314.624	115.06
314.853	130.06
315.083	134.06
315.312	124.06
315.542	124.06
315.771	115.06
316.001	121.06
316.23	125.06
316.46	124.06
316.689	133.06
316.919	126.06
317.148	134.06
317.377	133.06
317.607	148.06
317.836	126.06
318.065	126.06
318.295	133.06
318.524	117.06
318.753	115.06
318.983	114.06
319.212	127.06
319.441	110.06
319.67	121.06
319.9	112.06
320.129	117.06
320.358	109.06
320.587	120.06
320.816	126.06
321.046	108.06
321.275	121.06
321.504	121.06
321.733	124.06
321.962	113.06
322.191	128.06
322.42	120.06
322.649	126.06
322.878	119.06
323.108	136.06
323.337	125.06
323.566	121.06
323.795	115.06
324.024	121.06
324.253	111.06
324.482	114.06
324.71	138.06
324.939	130.06
325.168	119.06
325.397	128.06
325.626	128.06
325.855	112.06
326.084	116.06
326.313	128.06
326.542	112.06
326.77	118.06
326.999	110.06
327.228	112.06
327.457	116.06
327.686	113.06
327.914	125.06
328.143	131.06
328.372	111.06
328.6	132.06
328.829	124.06
329.058	122.06
329.287	121.06
329.515	123.06
329.744	113.06
329.972	129.06
330.201	117.06
330.43	122.06
330.658	102.06
330.887	98.06
331.115	122.06
331.344	112.06
331.572	129.06
331.801	121.06
332.03	118.06
332.258	128.06
332.486	98.06
332.715	111.06
332.943	125.06
333.172	112.06
333.4	93.06
333.629	124.06
333.857	118.06
334.085	122.06
334.314	127.06
334.542	121.06
334.771	125.06
334.999	119.06
335.227	110.06
335.455	124.06
335.684	134.06
335.912	124.06
336.14	130.06
336.369	112.06
336.597	114.06
336.825	120.06
337.053	108.06
337.281	121.06
337.51	116.06
337.738	134.06
337.966	113.06
338.194	105.06
338.422	116.06
338.65	140.06
338.878	139.06
339.106	128.06
339.334	126.06
339.562	132.06
339.79	124.06
340.018	129.06
340.246	121.06
340.474	125.06
340.702	124.06
340.93	123.06
341.158	129.06
341.386	115.06
341.614	107.06
341.842	116.06
342.07	101.06
342.298	139.06
342.526	113.06
342.754	107.06
342.981	123.06
343.209	121.06
343.437	157.06
343.665	123.06
343.893	117.06
344.12	140.06
344.348	118.06
344.576	121.06
344.804	115.06
345.031	124.06
345.259	119.06
345.487	129.06
345.714	119.06
345.942	122.06
346.17	125.06
346.397	122.06
346.625	124.06
346.853	109.06
347.08	121.06
347.308	126.06
347.535	106.06
347.763	106.06
347.99	128.06
348.218	111.06
348.445	120.06
348.673	117.06
348.9	122.06
349.128	129.06
349.355	105.06
349.583	110.06
349.81	111.06
350.037	124.06
350.265	117.06
350.492	114.06
350.72	111.06
350.947	122.06
351.174	113.06
351.402	111.06
351.629	115.06
351.856	123.06
352.083	114.06
352.311	133.06
352.538	118.06
352.765	119.06
352.992	139.06
353.22	126.06
353.447	137.06
353.674	139.06
353.901	132.06
354.128	140.06
354.355	90.06
354.583	112.06
354.81	121.06
355.037	122.06
355.264	128.06
355.491	122.06
355.718	111.06
355.945	117.06
356.172	132.06
356.399	121.06
356.626	140.06
356.853	157.06
357.08	192.06
357.307	212.06
357.534	215.06
357.761	196.06
357.988	181.06
358.215	149.06
358.441	141.06
358.668	137.06
358.895	132.06
359.122	141.06
359.349	119.06
359.576	136.06
359.802	133.06
360.029	135.06
360.256	133.06
360.483	117.06
360.709	117.06
360.936	146.06
361.163	133.06
361.39	125.06
361.616	118.06
361.843	133.06
362.07	122.06
362.296	121.06
362.523	111.06
362.749	125.06
362.976	141.06
363.203	148.06
363.429	142.06
363.656	202.06
363.882	232.06
364.109	254.06
364.335	203.06
364.562	164.06
364.788	157.06
365.015	143.06
365.241	150.06
365.468	135.06
365.694	133.06
365.92	147.06
366.147	132.06
366.373	138.06
366.599	154.06
366.826	131.06
367.052	154.06
367.278	172.06
367.505	179.06
367.731	193.06
367.957	193.06
368.184	245.06
368.41	269.06
368.636	267.06
368.862	216.06
369.089	178.06
369.315	145.06
369.541	149.06
369.767	141.06
369.993	145.06
370.219	140.06
370.445	141.06
370.672	142.06
370.898	126.06
371.124	132.06
371.35	135.06
371.576	141.06
371.802	123.06
372.028	134.06
372.254	137.06
372.48	139.06
372.706	129.06
372.932	132.06
373.158	138.06
373.384	164.06
373.61	155.06
373.835	207.06
374.061	209.06
374.287	205.06
374.513	174.06
374.739	148.06
374.965	149.06
375.191	143.06
375.416	135.06
375.642	135.06
375.868	151.06
376.094	126.06
376.319	135.06
376.545	125.06
376.771	131.06
376.997	136.06
377.222	123.06
377.448	117.06
377.674	131.06
377.899	130.06
378.125	134.06
378.35	134.06
378.576	117.06
378.802	136.06
379.027	130.06
379.253	134.06
379.478	133.06
379.704	120.06
379.929	123.06
380.155	126.06
380.38	117.06
380.606	133.06
380.831	133.06
381.057	155.06
381.282	134.06
381.507	132.06
381.733	123.06
381.958	105.06
382.184	113.06
382.409	133.06
382.634	140.06
382.86	109.06
383.085	135.06
383.31	116.06
383.535	137.06
383.761	131.06
383.986	144.06
384.211	121.06
384.436	122.06
384.662	131.06
384.887	115.06
385.112	131.06
385.337	142.06
385.562	123.06
385.787	123.06
386.013	133.06
386.238	136.06
386.463	111.06
386.688	173.06
386.913	130.06
387.138	117.06
387.363	126.06
387.588	151.06
387.813	133.06
388.038	135.06
388.263	142.06
388.488	124.06
388.713	129.06
388.938	128.06
389.163	122.06
389.387	133.06
389.612	131.06
389.837	127.06
390.062	137.06
390.287	138.06
390.512	133.06
390.736	133.06
390.961	122.06
391.186	124.06
391.411	131.06
391.636	138.06
391.86	131.06
392.085	130.06
392.31	119.06
392.534	131.06
392.759	139.06
392.984	129.06
393.208	131.06
393.433	135.06
393.658	122.06
393.882	117.06
394.107	139.06
394.331	131.06
394.556	133.06
394.78	122.06
395.005	130.06
395.229	128.06
395.454	151.06
395.678	117.06
395.903	118.06
396.127	148.06
396.352	137.06
396.576	124.06
396.801	127.06
397.025	127.06
397.249	133.06
397.474	150.06
397.698	145.06
397.922	141.06
398.147	116.06
398.371	130.06
398.595	141.06
398.82	145.06
399.044	136.06
399.268	151.06
399.492	135.06
399.717	138.06
399.941	132.06
400.165	151.06
400.389	142.06
400.613	126.06
400.837	142.06
401.062	149.06
401.286	138.06
401.51	146.06
401.734	159.06
401.958	166.06
402.182	156.06
402.406	147.06
402.63	143.06
402.854	144.06
403.078	144.06
403.302	145.06
403.526	165.06
403.75	156.06
403.974	146.06
404.198	151.06
404.422	148.06
404.645	143.06
404.869	172.06
405.093	199.06
405.317	213.06
405.541	281.06
405.765	381.06
405.988	397.06
406.212	327.06
406.436	265.06
406.66	233.06
406.883	213.06
407.107	185.06
407.331	180.06
407.555	178.06
407.778	166.06
408.002	166.06
408.226	167.06
408.449	170.06
408.673	147.06
408.896	154.06
409.12	155.06
409.344	159.06
409.567	156.06
409.791	159.06
410.014	162.06
410.238	155.06
410.461	153.06
410.685	143.06
410.908	132.06
411.132	141.06
411.355	151.06
411.578	142.06
411.802	134.06
412.025	141.06
412.249	151.06
412.472	137.06
412.695	148.06
412.919	157.06
413.142	133.06
413.365	139.06
413.589	153.06
413.812	151.06
414.035	158.06
414.258	139.06
414.482	130.06
414.705	136.06
414.928	146.06
415.151	147.06
415.374	158.06
415.597	156.06
415.821	135.06
416.044	152.06
416.267	151.06
416.49	143.06
416.713	157.06
416.936	149.06
417.159	152.06
417.382	135.06
417.605	141.06
417.828	134.06
418.051	134.06
418.274	158.06
418.497	154.06
418.72	151.06
418.943	137.06
419.166	150.06
419.389	149.06
419.611	144.06
419.834	154.06
420.057	159.06
420.28	141.06
420.503	127.06
420.726	129.06
420.948	145.06
421.171	158.06
421.394	155.06
421.617	145.06
421.839	155.06
422.062	138.06
422.285	162.06
422.507	167.06
422.73	154.06
422.953	156.06
423.175	145.06
423.398	164.06
423.621	169.06
423.843	164.06
424.066	173.06
424.288	202.06
424.511	213.06
424.733	231.06
424.956	209.06
425.178	209.06
425.401	197.06
425.623	185.06
425.846	171.06
426.068	184.06
426.291	178.06
426.513	162.06
426.735	186.06
426.958	174.06
427.18	170.06
427.402	161.06
427.625	165.06
427.847	158.06
428.069	174.06
428.292	154.06
428.514	154.06
428.736	166.06
428.958	163.06
429.181	154.06
429.403	150.06
429.625	155.06
429.847	157.06
430.069	166.06
430.292	162.06
430.514	159.06
430.736	152.06
430.958	139.06
431.18	146.06
431.402	146.06
431.624	156.06
431.846	153.06
432.068	142.06
432.29	134.06
432.512	152.06
432.734	153.06
432.956	153.06
433.178	172.06
433.4	159.06
433.622	162.06
433.844	159.06
434.066	154.06
434.287	141.06
434.509	130.06
434.731	131.06
434.953	144.06
435.175	165.06
435.397	155.06
435.618	139.06
435.84	157.06
436.062	155.06
436.284	156.06
436.505	159.06
436.727	150.06
436.949	159.06
437.17	150.06
437.392	163.06
437.614	161.06
437.835	156.06
438.057	151.06
438.278	179.06
438.5	182.06
438.721	219.06
438.943	222.06
439.165	226.06
439.386	198.06
439.608	224.06
439.829	193.06
440.05	214.06
440.272	193.06
440.493	201.06
440.715	185.06
440.936	205.06
441.158	197.06
441.379	190.06
441.6	199.06
441.822	178.06
442.043	177.06
442.264	178.06
442.486	182.06
442.707	183.06
442.928	179.06
443.149	175.06
443.371	155.06
443.592	151.06
443.813	182.06
444.034	177.06
444.255	175.06
444.476	177.06
444.698	150.06
444.919	162.06
445.14	530.06
445.361	345.06
445.582	180.06
445.803	161.06
446.024	169.06
446.245	176.06
446.466	178.06
446.687	162.06
446.908	170.06
447.129	178.06
447.35	174.06
447.571	187.06
447.792	157.06
448.013	158.06
448.234	157.06
448.455	165.06
448.675	174.06
448.896	178.06
449.117	165.06
449.338	164.06
449.559	171.06
449.779	154.06
450	153.06
450.221	157.06
450.442	153.06
450.662	152.06
450.883	171.06
451.104	159.06
451.324	155.06
451.545	147.06
451.766	151.06
451.986	169.06
452.207	140.06
452.428	137.06
452.648	153.06
452.869	138.06
453.089	135.06
453.31	150.06
453.53	147.06
453.751	148.06
453.971	142.06
454.192	123.06
454.412	129.06
454.633	141.06
454.853	147.06
455.073	142.06
455.294	140.06
455.514	162.06
455.734	144.06
455.955	160.06
456.175	135.06
456.395	149.06
456.616	129.06
456.836	135.06
457.056	141.06
457.276	146.06
457.497	133.06
457.717	130.06
457.937	137.06
458.157	132.06
458.377	142.06
458.598	132.06
458.818	146.06
459.038	131.06
459.258	147.06
459.478	133.06
459.698	136.06
459.918	134.06
460.138	141.06
460.358	144.06
460.578	160.06
460.798	153.06
461.018	154.06
461.238	159.06
461.458	155.06
461.678	140.06
461.898	154.06
462.118	164.06
462.338	145.06
462.558	163.06
462.777	131.06
462.997	143.06
463.217	159.06
463.437	148.06
463.657	144.06
463.876	154.06
464.096	139.06
464.316	148.06
464.536	140.06
464.755	147.06
464.975	140.06
465.195	151.06
465.414	144.06
465.634	147.06
465.854	135.06
466.073	129.06
466.293	141.06
466.512	155.06
466.732	145.06
466.951	172.06
467.171	155.06
467.391	158.06
467.61	150.06
467.829	138.06
468.049	160.06
468.268	134.06
468.488	156.06
468.707	138.06
468.927	153.06
469.146	125.06
469.365	164.06
469.585	163.06
469.804	166.06
470.023	138.06
470.243	166.06
470.462	166.06
470.681	161.06
470.901	150.06
471.12	167.06
471.339	164.06
471.558	148.06
471.777	158.06
471.997	149.06
472.216	159.06
472.435	131.06
472.654	140.06
472.873	151.06
473.092	132.06
473.311	147.06
473.53	154.06
473.749	158.06
473.968	150.06
474.187	140.06
474.406	155.06
474.625	150.06
474.844	166.06
475.063	139.06
475.282	148.06
475.501	134.06
475.72	161.06
475.939	145.06
476.158	144.06
476.377	174.06
476.596	141.06
476.814	146.06
477.033	157.06
477.252	151.06
477.471	149.06
477.69	143.06
477.908	148.06
478.127	177.06
478.346	167.06
478.564	155.06
478.783	166.06
479.002	171.06
479.22	155.06
479.439	163.06
479.658	165.06
479.876	141.06
480.095	160.06
480.313	145.06
480.532	167.06
480.751	152.06
480.969	139.06
481.188	141.06
481.406	164.06
481.624	150.06
481.843	138.06
482.061	150.06
482.28	141.06
482.498	147.06
482.717	154.06
482.935	157.06
483.153	155.06
483.372	154.06
483.59	161.06
483.808	154.06
484.027	159.06
484.245	174.06
484.463	145.06
484.681	171.06
484.9	155.06
485.118	159.06
485.336	137.06
485.554	143.06
485.772	155.06
485.99	148.06
486.209	153.06
486.427	133.06
486.645	139.06
486.863	152.06
487.081	156.06
487.299	154.06
487.517	160.06
487.735	173.06
487.953	180.06
488.171	187.06
488.389	169.06
488.607	162.06
488.825	161.06
489.043	156.06
489.261	189.06
489.479	165.06
489.696	158.06
489.914	149.06
490.132	166.06
490.35	177.06
490.568	175.06
490.786	192.06
491.003	189.06
491.221	170.06
491.439	181.06
491.657	201.06
491.874	203.06
492.092	192.06
492.31	212.06
492.527	206.06
492.745	196.06
492.963	198.06
493.18	182.06
493.398	186.06
493.615	185.06
493.833	175.06
494.05	169.06
494.268	188.06
494.485	199.06
494.703	182.06
494.92	192.06
495.138	181.06
495.355	176.06
495.573	199.06
495.79	179.06
496.008	179.06
496.225	198.06
496.442	183.06
496.66	213.06
496.877	173.06
497.094	202.06
497.312	181.06
497.529	177.06
497.746	189.06
497.963	161.06
498.181	165.06
498.398	143.06
498.615	160.06
498.832	162.06
499.049	182.06
499.267	185.06
499.484	184.06
499.701	199.06
499.918	202.06
500.135	192.06
500.352	199.06
500.569	211.06
500.786	247.06
501.003	228.06
501.22	198.06
501.437	181.06
501.654	183.06
501.871	198.06
502.088	160.06
502.305	193.06
502.522	190.06
502.739	187.06
502.956	164.06
503.172	178.06
503.389	170.06
503.606	162.06
503.823	185.06
504.04	182.06
