Data from SampD_HRD10591_00060.txt Node
Date: Mon Jan 19 11:41:41 EST 2026
User: Yrep
Spectrometer: HR+D1059
Trigger mode: 0
Integration Time (sec): 3.443000E-1
Scans to average: 1
Electric dark correction enabled: true
Nonlinearity correction enabled: false
Boxcar width: 0
XAxis mode: Wavelengths
Number of Pixels in Spectrum: 2048
>>>>>Begin Spectral Data<<<<<
223.165	-39.94
223.4	-39.94
223.635	-39.94
223.869	-30.94
224.104	-19.94
224.338	-1.94
224.573	-10.94
224.808	-24.94
225.042	-10.94
225.277	-7.94
225.511	5.06
225.746	17.06
225.98	8.06
226.215	15.06
226.449	6.06
226.683	25.06
226.918	33.06
227.152	38.06
227.387	39.06
227.621	47.06
227.856	41.06
228.09	41.06
228.324	52.06
228.559	64.06
228.793	65.06
229.027	77.06
229.262	70.06
229.496	71.06
229.73	76.06
229.964	77.06
230.199	76.06
230.433	75.06
230.667	77.06
230.901	84.06
231.136	85.06
231.37	93.06
231.604	77.06
231.838	87.06
232.072	72.06
232.306	84.06
232.541	89.06
232.775	90.06
233.009	97.06
233.243	100.06
233.477	93.06
233.711	92.06
233.945	73.06
234.179	84.06
234.413	84.06
234.647	79.06
234.881	77.06
235.115	81.06
235.349	83.06
235.583	95.06
235.817	92.06
236.051	83.06
236.285	77.06
236.519	73.06
236.753	81.06
236.987	99.06
237.221	88.06
237.455	92.06
237.689	87.06
237.922	74.06
238.156	76.06
238.39	74.06
238.624	80.06
238.858	88.06
239.091	101.06
239.325	84.06
239.559	85.06
239.793	89.06
240.027	81.06
240.26	71.06
240.494	86.06
240.728	84.06
240.961	91.06
241.195	99.06
241.429	84.06
241.662	90.06
241.896	76.06
242.13	68.06
242.363	79.06
242.597	86.06
242.83	87.06
243.064	85.06
243.298	86.06
243.531	87.06
243.765	85.06
243.998	93.06
244.232	78.06
244.465	92.06
244.699	99.06
244.932	89.06
245.166	83.06
245.399	95.06
245.633	95.06
245.866	88.06
246.099	84.06
246.333	95.06
246.566	87.06
246.8	99.06
247.033	96.06
247.266	95.06
247.5	96.06
247.733	100.06
247.966	95.06
248.2	87.06
248.433	87.06
248.666	88.06
248.899	95.06
249.133	75.06
249.366	99.06
249.599	95.06
249.832	105.06
250.066	107.06
250.299	81.06
250.532	86.06
250.765	99.06
250.998	92.06
251.231	96.06
251.465	92.06
251.698	88.06
251.931	84.06
252.164	82.06
252.397	80.06
252.63	103.06
252.863	90.06
253.096	84.06
253.329	92.06
253.562	92.06
253.795	105.06
254.028	99.06
254.261	103.06
254.494	86.06
254.727	117.06
254.96	113.06
255.193	91.06
255.426	95.06
255.659	104.06
255.892	102.06
256.124	72.06
256.357	103.06
256.59	99.06
256.823	101.06
257.056	89.06
257.289	79.06
257.521	105.06
257.754	100.06
257.987	98.06
258.22	105.06
258.452	105.06
258.685	95.06
258.918	94.06
259.151	102.06
259.383	113.06
259.616	102.06
259.849	96.06
260.081	92.06
260.314	109.06
260.547	96.06
260.779	110.06
261.012	87.06
261.244	88.06
261.477	108.06
261.71	79.06
261.942	84.06
262.175	101.06
262.407	91.06
262.64	92.06
262.872	100.06
263.105	109.06
263.337	108.06
263.57	105.06
263.802	127.06
264.035	112.06
264.267	104.06
264.499	103.06
264.732	100.06
264.964	83.06
265.197	100.06
265.429	99.06
265.661	110.06
265.894	83.06
266.126	98.06
266.358	112.06
266.591	111.06
266.823	101.06
267.055	99.06
267.287	102.06
267.52	82.06
267.752	102.06
267.984	113.06
268.216	112.06
268.448	120.06
268.681	102.06
268.913	104.06
269.145	103.06
269.377	102.06
269.609	104.06
269.841	107.06
270.073	109.06
270.306	112.06
270.538	110.06
270.77	99.06
271.002	79.06
271.234	108.06
271.466	110.06
271.698	89.06
271.93	105.06
272.162	113.06
272.394	121.06
272.626	113.06
272.858	111.06
273.09	108.06
273.322	91.06
273.553	111.06
273.785	111.06
274.017	97.06
274.249	106.06
274.481	100.06
274.713	107.06
274.945	106.06
275.176	108.06
275.408	127.06
275.64	126.06
275.872	97.06
276.104	108.06
276.335	113.06
276.567	110.06
276.799	101.06
277.031	103.06
277.262	106.06
277.494	104.06
277.726	115.06
277.957	105.06
278.189	103.06
278.421	116.06
278.652	110.06
278.884	93.06
279.115	101.06
279.347	103.06
279.579	114.06
279.81	110.06
280.042	120.06
280.273	103.06
280.505	109.06
280.736	104.06
280.968	101.06
281.199	114.06
281.431	113.06
281.662	108.06
281.894	112.06
282.125	123.06
282.356	102.06
282.588	109.06
282.819	109.06
283.051	102.06
283.282	105.06
283.513	135.06
283.745	115.06
283.976	111.06
284.207	101.06
284.439	107.06
284.67	123.06
284.901	117.06
285.132	124.06
285.364	123.06
285.595	117.06
285.826	118.06
286.057	127.06
286.288	104.06
286.52	126.06
286.751	118.06
286.982	115.06
287.213	120.06
287.444	129.06
287.675	101.06
287.906	132.06
288.138	126.06
288.369	110.06
288.6	102.06
288.831	117.06
289.062	118.06
289.293	121.06
289.524	116.06
289.755	127.06
289.986	117.06
290.217	142.06
290.448	114.06
290.679	128.06
290.91	123.06
291.141	127.06
291.371	126.06
291.602	128.06
291.833	121.06
292.064	128.06
292.295	126.06
292.526	118.06
292.757	114.06
292.987	121.06
293.218	119.06
293.449	110.06
293.68	134.06
293.91	112.06
294.141	129.06
294.372	129.06
294.603	115.06
294.833	125.06
295.064	128.06
295.295	118.06
295.525	100.06
295.756	127.06
295.987	120.06
296.217	112.06
296.448	106.06
296.679	120.06
296.909	123.06
297.14	115.06
297.37	124.06
297.601	121.06
297.831	123.06
298.062	126.06
298.292	128.06
298.523	119.06
298.753	124.06
298.984	110.06
299.214	118.06
299.445	118.06
299.675	125.06
299.905	141.06
300.136	125.06
300.366	121.06
300.597	131.06
300.827	129.06
301.057	116.06
301.288	114.06
301.518	127.06
301.748	143.06
301.979	169.06
302.209	130.06
302.439	118.06
302.669	113.06
302.9	113.06
303.13	141.06
303.36	124.06
303.59	131.06
303.82	131.06
304.051	124.06
304.281	122.06
304.511	139.06
304.741	135.06
304.971	127.06
305.201	128.06
305.431	113.06
305.661	118.06
305.891	117.06
306.121	130.06
306.352	119.06
306.582	120.06
306.812	121.06
307.042	123.06
307.272	131.06
307.502	131.06
307.731	126.06
307.961	132.06
308.191	129.06
308.421	108.06
308.651	114.06
308.881	110.06
309.111	116.06
309.341	118.06
309.571	120.06
309.8	127.06
310.03	134.06
310.26	136.06
310.49	113.06
310.72	112.06
310.949	120.06
311.179	124.06
311.409	132.06
311.639	126.06
311.868	134.06
312.098	118.06
312.328	125.06
312.557	128.06
312.787	135.06
313.017	120.06
313.246	144.06
313.476	120.06
313.706	119.06
313.935	116.06
314.165	130.06
314.394	112.06
314.624	131.06
314.853	136.06
315.083	132.06
315.312	121.06
315.542	118.06
315.771	133.06
316.001	129.06
316.23	131.06
316.46	120.06
316.689	133.06
316.919	126.06
317.148	140.06
317.377	133.06
317.607	124.06
317.836	103.06
318.065	123.06
318.295	115.06
318.524	124.06
318.753	120.06
318.983	119.06
319.212	151.06
319.441	132.06
319.67	134.06
319.9	125.06
320.129	111.06
320.358	126.06
320.587	144.06
320.816	124.06
321.046	132.06
321.275	130.06
321.504	133.06
321.733	149.06
321.962	131.06
322.191	127.06
322.42	124.06
322.649	130.06
322.878	142.06
323.108	145.06
323.337	130.06
323.566	127.06
323.795	141.06
324.024	123.06
324.253	125.06
324.482	140.06
324.71	117.06
324.939	124.06
325.168	127.06
325.397	131.06
325.626	139.06
325.855	131.06
326.084	121.06
326.313	153.06
326.542	125.06
326.77	131.06
326.999	136.06
327.228	133.06
327.457	126.06
327.686	139.06
327.914	123.06
328.143	139.06
328.372	132.06
328.6	135.06
328.829	134.06
329.058	126.06
329.287	126.06
329.515	118.06
329.744	126.06
329.972	134.06
330.201	133.06
330.43	139.06
330.658	125.06
330.887	135.06
331.115	146.06
331.344	145.06
331.572	146.06
331.801	138.06
332.03	120.06
332.258	158.06
332.486	147.06
332.715	158.06
332.943	132.06
333.172	139.06
333.4	158.06
333.629	152.06
333.857	169.06
334.085	161.06
334.314	155.06
334.542	140.06
334.771	134.06
334.999	152.06
335.227	152.06
335.455	145.06
335.684	148.06
335.912	156.06
336.14	141.06
336.369	139.06
336.597	139.06
336.825	143.06
337.053	134.06
337.281	129.06
337.51	137.06
337.738	140.06
337.966	128.06
338.194	142.06
338.422	143.06
338.65	133.06
338.878	135.06
339.106	131.06
339.334	149.06
339.562	139.06
339.79	155.06
340.018	128.06
340.246	125.06
340.474	127.06
340.702	126.06
340.93	118.06
341.158	128.06
341.386	128.06
341.614	145.06
341.842	120.06
342.07	128.06
342.298	137.06
342.526	134.06
342.754	140.06
342.981	144.06
343.209	138.06
343.437	170.06
343.665	130.06
343.893	155.06
344.12	161.06
344.348	164.06
344.576	141.06
344.804	152.06
345.031	143.06
345.259	123.06
345.487	123.06
345.714	129.06
345.942	139.06
346.17	123.06
346.397	143.06
346.625	143.06
346.853	133.06
347.08	136.06
347.308	132.06
347.535	137.06
347.763	123.06
347.99	144.06
348.218	129.06
348.445	123.06
348.673	142.06
348.9	141.06
349.128	137.06
349.355	143.06
349.583	133.06
349.81	133.06
350.037	132.06
350.265	136.06
350.492	131.06
350.72	130.06
350.947	137.06
351.174	131.06
351.402	139.06
351.629	142.06
351.856	126.06
352.083	129.06
352.311	127.06
352.538	123.06
352.765	132.06
352.992	138.06
353.22	134.06
353.447	138.06
353.674	146.06
353.901	137.06
354.128	140.06
354.355	129.06
354.583	123.06
354.81	151.06
355.037	134.06
355.264	135.06
355.491	149.06
355.718	142.06
355.945	138.06
356.172	142.06
356.399	132.06
356.626	135.06
356.853	119.06
357.08	129.06
357.307	153.06
357.534	148.06
357.761	133.06
357.988	157.06
358.215	121.06
358.441	130.06
358.668	146.06
358.895	143.06
359.122	141.06
359.349	132.06
359.576	122.06
359.802	120.06
360.029	131.06
360.256	146.06
360.483	125.06
360.709	120.06
360.936	159.06
361.163	133.06
361.39	133.06
361.616	131.06
361.843	124.06
362.07	125.06
362.296	129.06
362.523	140.06
362.749	125.06
362.976	132.06
363.203	140.06
363.429	125.06
363.656	131.06
363.882	132.06
364.109	136.06
364.335	133.06
364.562	134.06
364.788	123.06
365.015	134.06
365.241	152.06
365.468	138.06
365.694	133.06
365.92	132.06
366.147	119.06
366.373	129.06
366.599	133.06
366.826	131.06
367.052	136.06
367.278	125.06
367.505	125.06
367.731	153.06
367.957	143.06
368.184	127.06
368.41	128.06
368.636	127.06
368.862	148.06
369.089	137.06
369.315	121.06
369.541	144.06
369.767	155.06
369.993	156.06
370.219	126.06
370.445	132.06
370.672	127.06
370.898	146.06
371.124	134.06
371.35	149.06
371.576	146.06
371.802	127.06
372.028	145.06
372.254	145.06
372.48	147.06
372.706	159.06
372.932	121.06
373.158	131.06
373.384	155.06
373.61	146.06
373.835	152.06
374.061	139.06
374.287	131.06
374.513	139.06
374.739	140.06
374.965	121.06
375.191	132.06
375.416	147.06
375.642	141.06
375.868	143.06
376.094	143.06
376.319	147.06
376.545	140.06
376.771	136.06
376.997	140.06
377.222	118.06
377.448	143.06
377.674	149.06
377.899	145.06
378.125	124.06
378.35	133.06
378.576	141.06
378.802	137.06
379.027	146.06
379.253	134.06
379.478	136.06
379.704	145.06
379.929	139.06
380.155	128.06
380.38	135.06
380.606	135.06
380.831	143.06
381.057	163.06
381.282	155.06
381.507	147.06
381.733	157.06
381.958	134.06
382.184	155.06
382.409	143.06
382.634	164.06
382.86	151.06
383.085	148.06
383.31	150.06
383.535	152.06
383.761	147.06
383.986	137.06
384.211	150.06
384.436	162.06
384.662	149.06
384.887	155.06
385.112	166.06
385.337	160.06
385.562	151.06
385.787	162.06
386.013	175.06
386.238	154.06
386.463	155.06
386.688	184.06
386.913	159.06
387.138	162.06
387.363	151.06
387.588	167.06
387.813	150.06
388.038	167.06
388.263	151.06
388.488	143.06
388.713	153.06
388.938	158.06
389.163	161.06
389.387	162.06
389.612	159.06
389.837	156.06
390.062	154.06
390.287	167.06
390.512	163.06
390.736	149.06
390.961	151.06
391.186	168.06
391.411	160.06
391.636	172.06
391.86	165.06
392.085	166.06
392.31	165.06
392.534	156.06
392.759	179.06
392.984	165.06
393.208	175.06
393.433	147.06
393.658	155.06
393.882	163.06
394.107	169.06
394.331	165.06
394.556	168.06
394.78	168.06
395.005	169.06
395.229	159.06
395.454	170.06
395.678	168.06
395.903	167.06
396.127	151.06
396.352	148.06
396.576	170.06
396.801	155.06
397.025	166.06
397.249	171.06
397.474	175.06
397.698	162.06
397.922	163.06
398.147	171.06
398.371	171.06
398.595	188.06
398.82	187.06
399.044	198.06
399.268	201.06
399.492	230.06
399.717	255.06
399.941	203.06
400.165	217.06
400.389	189.06
400.613	173.06
400.837	175.06
401.062	176.06
401.286	180.06
401.51	175.06
401.734	169.06
401.958	194.06
402.182	184.06
402.406	191.06
402.63	182.06
402.854	172.06
403.078	184.06
403.302	202.06
403.526	196.06
403.75	205.06
403.974	196.06
404.198	191.06
404.422	189.06
404.645	192.06
404.869	184.06
405.093	203.06
405.317	197.06
405.541	193.06
405.765	188.06
405.988	191.06
406.212	196.06
406.436	185.06
406.66	211.06
406.883	206.06
407.107	210.06
407.331	193.06
407.555	215.06
407.778	211.06
408.002	209.06
408.226	195.06
408.449	188.06
408.673	212.06
408.896	206.06
409.12	205.06
409.344	190.06
409.567	201.06
409.791	200.06
410.014	192.06
410.238	187.06
410.461	196.06
410.685	191.06
410.908	179.06
411.132	194.06
411.355	187.06
411.578	191.06
411.802	188.06
412.025	179.06
412.249	197.06
412.472	181.06
412.695	181.06
412.919	170.06
413.142	180.06
413.365	182.06
413.589	168.06
413.812	172.06
414.035	195.06
414.258	174.06
414.482	183.06
414.705	180.06
414.928	182.06
415.151	190.06
415.374	192.06
415.597	177.06
415.821	167.06
416.044	168.06
416.267	165.06
416.49	173.06
416.713	177.06
416.936	186.06
417.159	169.06
417.382	176.06
417.605	175.06
417.828	175.06
418.051	175.06
418.274	183.06
418.497	192.06
418.72	182.06
418.943	186.06
419.166	185.06
419.389	211.06
419.611	203.06
419.834	186.06
420.057	198.06
420.28	186.06
420.503	187.06
420.726	183.06
420.948	183.06
421.171	193.06
421.394	179.06
421.617	179.06
421.839	172.06
422.062	184.06
422.285	183.06
422.507	189.06
422.73	184.06
422.953	193.06
423.175	200.06
423.398	178.06
423.621	184.06
423.843	186.06
424.066	186.06
424.288	197.06
424.511	180.06
424.733	198.06
424.956	192.06
425.178	182.06
425.401	168.06
425.623	176.06
425.846	168.06
426.068	167.06
426.291	170.06
426.513	179.06
426.735	190.06
426.958	166.06
427.18	176.06
427.402	190.06
427.625	171.06
427.847	160.06
428.069	160.06
428.292	164.06
428.514	176.06
428.736	172.06
428.958	161.06
429.181	166.06
429.403	180.06
429.625	155.06
429.847	165.06
430.069	181.06
430.292	183.06
430.514	177.06
430.736	160.06
430.958	171.06
431.18	173.06
431.402	167.06
431.624	162.06
431.846	167.06
432.068	173.06
432.29	167.06
432.512	173.06
432.734	164.06
432.956	187.06
433.178	179.06
433.4	166.06
433.622	173.06
433.844	176.06
434.066	168.06
434.287	181.06
434.509	163.06
434.731	187.06
434.953	159.06
435.175	184.06
435.397	174.06
435.618	196.06
435.84	169.06
436.062	176.06
436.284	166.06
436.505	183.06
436.727	187.06
436.949	166.06
437.17	164.06
437.392	180.06
437.614	158.06
437.835	159.06
438.057	174.06
438.278	164.06
438.5	152.06
438.721	177.06
438.943	168.06
439.165	165.06
439.386	169.06
439.608	163.06
439.829	180.06
440.05	183.06
440.272	175.06
440.493	179.06
440.715	159.06
440.936	174.06
441.158	168.06
441.379	180.06
441.6	180.06
441.822	189.06
442.043	167.06
442.264	178.06
442.486	182.06
442.707	191.06
442.928	181.06
443.149	194.06
443.371	202.06
443.592	188.06
443.813	187.06
444.034	182.06
444.255	196.06
444.476	203.06
444.698	196.06
444.919	214.06
445.14	445.06
445.361	311.06
445.582	186.06
445.803	179.06
446.024	169.06
446.245	161.06
446.466	189.06
446.687	164.06
446.908	169.06
447.129	165.06
447.35	172.06
447.571	171.06
447.792	160.06
448.013	171.06
448.234	166.06
448.455	155.06
448.675	161.06
448.896	168.06
449.117	147.06
449.338	176.06
449.559	161.06
449.779	165.06
450	165.06
450.221	175.06
450.442	161.06
450.662	182.06
450.883	165.06
451.104	175.06
451.324	159.06
451.545	176.06
451.766	163.06
451.986	167.06
452.207	167.06
452.428	159.06
452.648	163.06
452.869	163.06
453.089	158.06
453.31	153.06
453.53	148.06
453.751	156.06
453.971	165.06
454.192	157.06
454.412	150.06
454.633	146.06
454.853	162.06
455.073	156.06
455.294	133.06
455.514	168.06
455.734	167.06
455.955	157.06
456.175	147.06
456.395	143.06
456.616	155.06
456.836	148.06
457.056	144.06
457.276	145.06
457.497	148.06
457.717	149.06
457.937	141.06
458.157	159.06
458.377	145.06
458.598	156.06
458.818	156.06
459.038	164.06
459.258	166.06
459.478	171.06
459.698	186.06
459.918	178.06
460.138	195.06
460.358	195.06
460.578	199.06
460.798	180.06
461.018	191.06
461.238	186.06
461.458	203.06
461.678	173.06
461.898	194.06
462.118	187.06
462.338	197.06
462.558	196.06
462.777	209.06
462.997	216.06
463.217	222.06
463.437	219.06
463.657	207.06
463.876	188.06
464.096	205.06
464.316	201.06
464.536	201.06
464.755	205.06
464.975	188.06
465.195	189.06
465.414	181.06
465.634	175.06
465.854	172.06
466.073	167.06
466.293	158.06
466.512	164.06
466.732	151.06
466.951	167.06
467.171	180.06
467.391	161.06
467.61	165.06
467.829	179.06
468.049	163.06
468.268	155.06
468.488	159.06
468.707	156.06
468.927	174.06
469.146	149.06
469.365	182.06
469.585	167.06
469.804	171.06
470.023	172.06
470.243	170.06
470.462	189.06
470.681	159.06
470.901	173.06
471.12	175.06
471.339	168.06
471.558	152.06
471.777	184.06
471.997	164.06
472.216	165.06
472.435	159.06
472.654	179.06
472.873	159.06
473.092	164.06
473.311	162.06
473.53	173.06
473.749	157.06
473.968	173.06
474.187	159.06
474.406	165.06
474.625	173.06
474.844	163.06
475.063	155.06
475.282	156.06
475.501	175.06
475.72	181.06
475.939	159.06
476.158	165.06
476.377	178.06
476.596	158.06
476.814	165.06
477.033	154.06
477.252	171.06
477.471	193.06
477.69	192.06
477.908	173.06
478.127	174.06
478.346	183.06
478.564	187.06
478.783	178.06
479.002	168.06
479.22	188.06
479.439	177.06
479.658	185.06
479.876	188.06
480.095	174.06
480.313	185.06
480.532	193.06
480.751	187.06
480.969	187.06
481.188	181.06
481.406	173.06
481.624	176.06
481.843	149.06
482.061	152.06
482.28	175.06
482.498	167.06
482.717	181.06
482.935	179.06
483.153	173.06
483.372	165.06
483.59	190.06
483.808	163.06
484.027	168.06
484.245	183.06
484.463	177.06
484.681	205.06
484.9	173.06
485.118	191.06
485.336	168.06
485.554	170.06
485.772	162.06
485.99	168.06
486.209	173.06
486.427	161.06
486.645	174.06
486.863	181.06
487.081	197.06
487.299	178.06
487.517	194.06
487.735	183.06
487.953	183.06
488.171	181.06
488.389	182.06
488.607	169.06
488.825	177.06
489.043	179.06
489.261	196.06
489.479	183.06
489.696	179.06
489.914	164.06
490.132	165.06
490.35	181.06
490.568	172.06
490.786	185.06
491.003	178.06
491.221	179.06
491.439	183.06
491.657	200.06
491.874	177.06
492.092	181.06
492.31	209.06
492.527	192.06
492.745	198.06
492.963	189.06
493.18	175.06
493.398	190.06
493.615	194.06
493.833	190.06
494.05	203.06
494.268	182.06
494.485	170.06
494.703	175.06
494.92	199.06
495.138	190.06
495.355	208.06
495.573	194.06
495.79	185.06
496.008	184.06
496.225	177.06
496.442	197.06
496.66	197.06
496.877	206.06
497.094	192.06
497.312	182.06
497.529	198.06
497.746	198.06
497.963	207.06
498.181	211.06
498.398	227.06
498.615	244.06
498.832	246.06
499.049	273.06
499.267	273.06
499.484	285.06
499.701	309.06
499.918	338.06
500.135	365.06
500.352	395.06
500.569	419.06
500.786	402.06
501.003	371.06
501.22	337.06
501.437	317.06
501.654	303.06
501.871	260.06
502.088	243.06
502.305	232.06
502.522	254.06
502.739	237.06
502.956	223.06
503.172	205.06
503.389	213.06
503.606	202.06
503.823	208.06
504.04	203.06
504.256	211.06
504.473	217.06
