Data from SampD_HRD10591_00087.txt Node
Date: Mon Jan 19 11:41:51 EST 2026
User: Yrep
Spectrometer: HR+D1059
Trigger mode: 0
Integration Time (sec): 3.443000E-1
Scans to average: 1
Electric dark correction enabled: true
Nonlinearity correction enabled: false
Boxcar width: 0
XAxis mode: Wavelengths
Number of Pixels in Spectrum: 2048
>>>>>Begin Spectral Data<<<<<
223.165	-21.62
223.4	-21.62
223.635	-21.62
223.869	-36.62
224.104	-31.62
224.338	1.38
224.573	-25.62
224.808	-9.62
225.042	-6.62
225.277	-7.62
225.511	-0.62
225.746	12.38
225.98	14.38
226.215	18.38
226.449	3.38
226.683	27.38
226.918	31.38
227.152	31.38
227.387	33.38
227.621	40.38
227.856	47.38
228.09	36.38
228.324	49.38
228.559	71.38
228.793	58.38
229.027	84.38
229.262	55.38
229.496	85.38
229.73	68.38
229.964	62.38
230.199	86.38
230.433	90.38
230.667	86.38
230.901	79.38
231.136	79.38
231.37	88.38
231.604	89.38
231.838	79.38
232.072	81.38
232.306	99.38
232.541	87.38
232.775	99.38
233.009	84.38
233.243	95.38
233.477	86.38
233.711	88.38
233.945	87.38
234.179	89.38
234.413	92.38
234.647	86.38
234.881	86.38
235.115	96.38
235.349	89.38
235.583	86.38
235.817	89.38
236.051	84.38
236.285	63.38
236.519	89.38
236.753	74.38
236.987	80.38
237.221	101.38
237.455	91.38
237.689	86.38
237.922	99.38
238.156	94.38
238.39	84.38
238.624	87.38
238.858	86.38
239.091	81.38
239.325	79.38
239.559	78.38
239.793	86.38
240.027	95.38
240.26	102.38
240.494	79.38
240.728	80.38
240.961	80.38
241.195	117.38
241.429	84.38
241.662	86.38
241.896	84.38
242.13	86.38
242.363	87.38
242.597	79.38
242.83	86.38
243.064	79.38
243.298	93.38
243.531	80.38
243.765	78.38
243.998	95.38
244.232	83.38
244.465	80.38
244.699	92.38
244.932	79.38
245.166	92.38
245.399	85.38
245.633	85.38
245.866	86.38
246.099	95.38
246.333	89.38
246.566	76.38
246.8	74.38
247.033	91.38
247.266	104.38
247.5	97.38
247.733	84.38
247.966	108.38
248.2	80.38
248.433	85.38
248.666	80.38
248.899	96.38
249.133	106.38
249.366	104.38
249.599	94.38
249.832	97.38
250.066	108.38
250.299	99.38
250.532	88.38
250.765	93.38
250.998	99.38
251.231	90.38
251.465	85.38
251.698	86.38
251.931	98.38
252.164	85.38
252.397	92.38
252.63	93.38
252.863	100.38
253.096	91.38
253.329	97.38
253.562	108.38
253.795	101.38
254.028	96.38
254.261	106.38
254.494	95.38
254.727	116.38
254.96	92.38
255.193	84.38
255.426	96.38
255.659	102.38
255.892	104.38
256.124	113.38
256.357	91.38
256.59	109.38
256.823	88.38
257.056	96.38
257.289	94.38
257.521	102.38
257.754	91.38
257.987	91.38
258.22	87.38
258.452	95.38
258.685	84.38
258.918	86.38
259.151	103.38
259.383	111.38
259.616	109.38
259.849	108.38
260.081	108.38
260.314	106.38
260.547	100.38
260.779	108.38
261.012	97.38
261.244	105.38
261.477	121.38
261.71	93.38
261.942	87.38
262.175	98.38
262.407	104.38
262.64	108.38
262.872	108.38
263.105	103.38
263.337	119.38
263.57	113.38
263.802	104.38
264.035	110.38
264.267	104.38
264.499	100.38
264.732	113.38
264.964	113.38
265.197	87.38
265.429	115.38
265.661	123.38
265.894	115.38
266.126	116.38
266.358	123.38
266.591	102.38
266.823	109.38
267.055	95.38
267.287	117.38
267.52	93.38
267.752	108.38
267.984	105.38
268.216	104.38
268.448	106.38
268.681	112.38
268.913	124.38
269.145	96.38
269.377	116.38
269.609	101.38
269.841	103.38
270.073	106.38
270.306	109.38
270.538	121.38
270.77	111.38
271.002	100.38
271.234	102.38
271.466	112.38
271.698	100.38
271.93	109.38
272.162	103.38
272.394	109.38
272.626	118.38
272.858	100.38
273.09	113.38
273.322	111.38
273.553	107.38
273.785	111.38
274.017	123.38
274.249	112.38
274.481	119.38
274.713	110.38
274.945	110.38
275.176	109.38
275.408	111.38
275.64	125.38
275.872	120.38
276.104	115.38
276.335	110.38
276.567	120.38
276.799	99.38
277.031	123.38
277.262	104.38
277.494	133.38
277.726	133.38
277.957	117.38
278.189	100.38
278.421	119.38
278.652	109.38
278.884	110.38
279.115	133.38
279.347	116.38
279.579	109.38
279.81	108.38
280.042	111.38
280.273	117.38
280.505	112.38
280.736	110.38
280.968	126.38
281.199	113.38
281.431	118.38
281.662	121.38
281.894	126.38
282.125	111.38
282.356	104.38
282.588	121.38
282.819	115.38
283.051	123.38
283.282	118.38
283.513	127.38
283.745	107.38
283.976	111.38
284.207	129.38
284.439	124.38
284.67	127.38
284.901	113.38
285.132	124.38
285.364	119.38
285.595	125.38
285.826	116.38
286.057	116.38
286.288	120.38
286.52	108.38
286.751	117.38
286.982	126.38
287.213	113.38
287.444	133.38
287.675	118.38
287.906	124.38
288.138	123.38
288.369	111.38
288.6	115.38
288.831	120.38
289.062	112.38
289.293	116.38
289.524	128.38
289.755	129.38
289.986	125.38
290.217	120.38
290.448	144.38
290.679	117.38
290.91	113.38
291.141	119.38
291.371	114.38
291.602	120.38
291.833	112.38
292.064	123.38
292.295	126.38
292.526	111.38
292.757	127.38
292.987	128.38
293.218	125.38
293.449	115.38
293.68	126.38
293.91	122.38
294.141	140.38
294.372	122.38
294.603	129.38
294.833	126.38
295.064	115.38
295.295	120.38
295.525	115.38
295.756	137.38
295.987	123.38
296.217	123.38
296.448	144.38
296.679	121.38
296.909	138.38
297.14	117.38
297.37	139.38
297.601	130.38
297.831	128.38
298.062	129.38
298.292	131.38
298.523	139.38
298.753	126.38
298.984	119.38
299.214	143.38
299.445	118.38
299.675	119.38
299.905	139.38
300.136	133.38
300.366	131.38
300.597	135.38
300.827	130.38
301.057	135.38
301.288	155.38
301.518	133.38
301.748	120.38
301.979	182.38
302.209	146.38
302.439	130.38
302.669	141.38
302.9	132.38
303.13	132.38
303.36	143.38
303.59	116.38
303.82	135.38
304.051	135.38
304.281	121.38
304.511	129.38
304.741	130.38
304.971	134.38
305.201	116.38
305.431	153.38
305.661	126.38
305.891	128.38
306.121	120.38
306.352	121.38
306.582	141.38
306.812	140.38
307.042	135.38
307.272	143.38
307.502	118.38
307.731	134.38
307.961	123.38
308.191	148.38
308.421	141.38
308.651	135.38
308.881	135.38
309.111	119.38
309.341	136.38
309.571	128.38
309.8	132.38
310.03	126.38
310.26	136.38
310.49	128.38
310.72	127.38
310.949	131.38
311.179	139.38
311.409	131.38
311.639	137.38
311.868	139.38
312.098	137.38
312.328	139.38
312.557	141.38
312.787	128.38
313.017	136.38
313.246	135.38
313.476	120.38
313.706	130.38
313.935	151.38
314.165	136.38
314.394	134.38
314.624	133.38
314.853	126.38
315.083	121.38
315.312	145.38
315.542	132.38
315.771	147.38
316.001	131.38
316.23	132.38
316.46	136.38
316.689	131.38
316.919	125.38
317.148	157.38
317.377	153.38
317.607	150.38
317.836	137.38
318.065	125.38
318.295	129.38
318.524	136.38
318.753	141.38
318.983	122.38
319.212	136.38
319.441	140.38
319.67	146.38
319.9	142.38
320.129	132.38
320.358	145.38
320.587	136.38
320.816	139.38
321.046	121.38
321.275	153.38
321.504	133.38
321.733	133.38
321.962	127.38
322.191	142.38
322.42	132.38
322.649	130.38
322.878	149.38
323.108	129.38
323.337	145.38
323.566	136.38
323.795	150.38
324.024	149.38
324.253	143.38
324.482	125.38
324.71	122.38
324.939	141.38
325.168	137.38
325.397	129.38
325.626	146.38
325.855	147.38
326.084	134.38
326.313	156.38
326.542	123.38
326.77	144.38
326.999	130.38
327.228	144.38
327.457	144.38
327.686	155.38
327.914	134.38
328.143	149.38
328.372	147.38
328.6	151.38
328.829	147.38
329.058	142.38
329.287	129.38
329.515	141.38
329.744	150.38
329.972	142.38
330.201	139.38
330.43	153.38
330.658	137.38
330.887	156.38
331.115	148.38
331.344	147.38
331.572	159.38
331.801	165.38
332.03	150.38
332.258	131.38
332.486	149.38
332.715	161.38
332.943	171.38
333.172	171.38
333.4	164.38
333.629	173.38
333.857	161.38
334.085	170.38
334.314	147.38
334.542	164.38
334.771	154.38
334.999	151.38
335.227	172.38
335.455	148.38
335.684	171.38
335.912	162.38
336.14	141.38
336.369	157.38
336.597	156.38
336.825	156.38
337.053	153.38
337.281	160.38
337.51	149.38
337.738	144.38
337.966	153.38
338.194	161.38
338.422	156.38
338.65	152.38
338.878	143.38
339.106	133.38
339.334	144.38
339.562	133.38
339.79	133.38
340.018	142.38
340.246	135.38
340.474	141.38
340.702	144.38
340.93	134.38
341.158	152.38
341.386	148.38
341.614	134.38
341.842	153.38
342.07	146.38
342.298	162.38
342.526	129.38
342.754	147.38
342.981	140.38
343.209	148.38
343.437	172.38
343.665	147.38
343.893	158.38
344.12	189.38
344.348	155.38
344.576	150.38
344.804	164.38
345.031	155.38
345.259	158.38
345.487	150.38
345.714	152.38
345.942	138.38
346.17	141.38
346.397	162.38
346.625	138.38
346.853	140.38
347.08	135.38
347.308	154.38
347.535	138.38
347.763	146.38
347.99	157.38
348.218	149.38
348.445	159.38
348.673	154.38
348.9	162.38
349.128	136.38
349.355	133.38
349.583	139.38
349.81	142.38
350.037	143.38
350.265	136.38
350.492	129.38
350.72	132.38
350.947	140.38
351.174	155.38
351.402	126.38
351.629	142.38
351.856	133.38
352.083	135.38
352.311	133.38
352.538	140.38
352.765	136.38
352.992	137.38
353.22	134.38
353.447	137.38
353.674	156.38
353.901	144.38
354.128	154.38
354.355	123.38
354.583	145.38
354.81	153.38
355.037	142.38
355.264	142.38
355.491	135.38
355.718	133.38
355.945	139.38
356.172	141.38
356.399	130.38
356.626	159.38
356.853	139.38
357.08	147.38
357.307	128.38
357.534	121.38
357.761	143.38
357.988	155.38
358.215	151.38
358.441	130.38
358.668	144.38
358.895	152.38
359.122	141.38
359.349	134.38
359.576	130.38
359.802	139.38
360.029	131.38
360.256	136.38
360.483	147.38
360.709	150.38
360.936	148.38
361.163	141.38
361.39	143.38
361.616	144.38
361.843	130.38
362.07	121.38
362.296	161.38
362.523	136.38
362.749	150.38
362.976	136.38
363.203	152.38
363.429	148.38
363.656	137.38
363.882	141.38
364.109	144.38
364.335	141.38
364.562	142.38
364.788	149.38
365.015	139.38
365.241	137.38
365.468	141.38
365.694	142.38
365.92	143.38
366.147	139.38
366.373	139.38
366.599	143.38
366.826	130.38
367.052	135.38
367.278	144.38
367.505	140.38
367.731	133.38
367.957	140.38
368.184	132.38
368.41	130.38
368.636	131.38
368.862	148.38
369.089	147.38
369.315	156.38
369.541	155.38
369.767	148.38
369.993	138.38
370.219	143.38
370.445	144.38
370.672	135.38
370.898	158.38
371.124	151.38
371.35	147.38
371.576	146.38
371.802	146.38
372.028	137.38
372.254	146.38
372.48	140.38
372.706	155.38
372.932	153.38
373.158	148.38
373.384	153.38
373.61	156.38
373.835	151.38
374.061	139.38
374.287	142.38
374.513	165.38
374.739	144.38
374.965	143.38
375.191	145.38
375.416	163.38
375.642	160.38
375.868	160.38
376.094	140.38
376.319	149.38
376.545	159.38
376.771	143.38
376.997	163.38
377.222	159.38
377.448	140.38
377.674	155.38
377.899	165.38
378.125	140.38
378.35	148.38
378.576	133.38
378.802	159.38
379.027	142.38
379.253	150.38
379.478	148.38
379.704	164.38
379.929	150.38
380.155	163.38
380.38	139.38
380.606	163.38
380.831	165.38
381.057	181.38
381.282	142.38
381.507	157.38
381.733	141.38
381.958	136.38
382.184	156.38
382.409	151.38
382.634	152.38
382.86	142.38
383.085	155.38
383.31	152.38
383.535	151.38
383.761	151.38
383.986	160.38
384.211	149.38
384.436	161.38
384.662	172.38
384.887	150.38
385.112	151.38
385.337	163.38
385.562	178.38
385.787	156.38
386.013	160.38
386.238	169.38
386.463	174.38
386.688	209.38
386.913	155.38
387.138	167.38
387.363	177.38
387.588	164.38
387.813	159.38
388.038	175.38
388.263	185.38
388.488	173.38
388.713	167.38
388.938	163.38
389.163	139.38
389.387	159.38
389.612	161.38
389.837	166.38
390.062	182.38
390.287	163.38
390.512	168.38
390.736	151.38
390.961	162.38
391.186	165.38
391.411	173.38
391.636	189.38
391.86	170.38
392.085	179.38
392.31	171.38
392.534	167.38
392.759	160.38
392.984	189.38
393.208	172.38
393.433	181.38
393.658	180.38
393.882	168.38
394.107	160.38
394.331	180.38
394.556	158.38
394.78	178.38
395.005	177.38
395.229	189.38
395.454	169.38
395.678	190.38
395.903	181.38
396.127	173.38
396.352	155.38
396.576	172.38
396.801	173.38
397.025	180.38
397.249	188.38
397.474	196.38
397.698	185.38
397.922	179.38
398.147	171.38
398.371	195.38
398.595	178.38
398.82	174.38
399.044	198.38
399.268	216.38
399.492	239.38
399.717	254.38
399.941	241.38
400.165	232.38
400.389	200.38
400.613	181.38
400.837	194.38
401.062	180.38
401.286	173.38
401.51	173.38
401.734	181.38
401.958	198.38
402.182	188.38
402.406	201.38
402.63	190.38
402.854	192.38
403.078	205.38
403.302	208.38
403.526	205.38
403.75	226.38
403.974	220.38
404.198	200.38
404.422	219.38
404.645	201.38
404.869	207.38
405.093	208.38
405.317	196.38
405.541	198.38
405.765	206.38
405.988	211.38
406.212	211.38
406.436	197.38
406.66	203.38
406.883	200.38
407.107	217.38
407.331	226.38
407.555	215.38
407.778	229.38
408.002	209.38
408.226	203.38
408.449	210.38
408.673	199.38
408.896	211.38
409.12	189.38
409.344	215.38
409.567	209.38
409.791	220.38
410.014	213.38
410.238	204.38
410.461	197.38
410.685	202.38
410.908	178.38
411.132	219.38
411.355	185.38
411.578	210.38
411.802	195.38
412.025	194.38
412.249	186.38
412.472	185.38
412.695	179.38
412.919	189.38
413.142	173.38
413.365	199.38
413.589	178.38
413.812	189.38
414.035	188.38
414.258	193.38
414.482	202.38
414.705	196.38
414.928	200.38
415.151	192.38
415.374	190.38
415.597	181.38
415.821	180.38
416.044	187.38
416.267	183.38
416.49	195.38
416.713	189.38
416.936	186.38
417.159	194.38
417.382	193.38
417.605	167.38
417.828	197.38
418.051	196.38
418.274	189.38
418.497	190.38
418.72	187.38
418.943	196.38
419.166	192.38
419.389	215.38
419.611	206.38
419.834	211.38
420.057	196.38
420.28	183.38
420.503	192.38
420.726	196.38
420.948	187.38
421.171	197.38
421.394	181.38
421.617	207.38
421.839	184.38
422.062	208.38
422.285	185.38
422.507	205.38
422.73	197.38
422.953	209.38
423.175	205.38
423.398	201.38
423.621	207.38
423.843	183.38
424.066	212.38
424.288	195.38
424.511	204.38
424.733	211.38
424.956	208.38
425.178	207.38
425.401	209.38
425.623	180.38
425.846	181.38
426.068	179.38
426.291	183.38
426.513	202.38
426.735	181.38
426.958	186.38
427.18	187.38
427.402	171.38
427.625	164.38
427.847	186.38
428.069	184.38
428.292	180.38
428.514	180.38
428.736	187.38
428.958	170.38
429.181	188.38
429.403	178.38
429.625	166.38
429.847	173.38
430.069	183.38
430.292	181.38
430.514	176.38
430.736	176.38
430.958	189.38
431.18	178.38
431.402	190.38
431.624	168.38
431.846	161.38
432.068	183.38
432.29	186.38
432.512	195.38
432.734	184.38
432.956	179.38
433.178	186.38
433.4	184.38
433.622	177.38
433.844	181.38
434.066	169.38
434.287	183.38
434.509	194.38
434.731	194.38
434.953	194.38
435.175	191.38
435.397	176.38
435.618	184.38
435.84	178.38
436.062	182.38
436.284	181.38
436.505	190.38
436.727	183.38
436.949	180.38
437.17	166.38
437.392	175.38
437.614	189.38
437.835	168.38
438.057	171.38
438.278	170.38
438.5	177.38
438.721	172.38
438.943	192.38
439.165	180.38
439.386	175.38
439.608	175.38
439.829	163.38
440.05	175.38
440.272	183.38
440.493	187.38
440.715	180.38
440.936	165.38
441.158	201.38
441.379	200.38
441.6	188.38
441.822	183.38
442.043	179.38
442.264	178.38
442.486	190.38
442.707	198.38
442.928	207.38
443.149	182.38
443.371	191.38
443.592	191.38
443.813	194.38
444.034	195.38
444.255	205.38
444.476	211.38
444.698	227.38
444.919	240.38
445.14	469.38
445.361	304.38
445.582	224.38
445.803	199.38
446.024	180.38
446.245	193.38
446.466	185.38
446.687	183.38
446.908	190.38
447.129	185.38
447.35	169.38
447.571	182.38
447.792	166.38
448.013	172.38
448.234	187.38
448.455	176.38
448.675	182.38
448.896	172.38
449.117	175.38
449.338	175.38
449.559	169.38
449.779	177.38
450	158.38
450.221	181.38
450.442	167.38
450.662	159.38
450.883	183.38
451.104	181.38
451.324	156.38
451.545	169.38
451.766	169.38
451.986	180.38
452.207	179.38
452.428	183.38
452.648	170.38
452.869	176.38
453.089	175.38
453.31	165.38
453.53	161.38
453.751	162.38
453.971	176.38
454.192	163.38
454.412	161.38
454.633	161.38
454.853	160.38
455.073	162.38
455.294	161.38
455.514	168.38
455.734	156.38
455.955	147.38
456.175	155.38
456.395	163.38
456.616	172.38
456.836	160.38
457.056	162.38
457.276	160.38
457.497	152.38
457.717	165.38
457.937	190.38
458.157	153.38
458.377	165.38
458.598	177.38
458.818	168.38
459.038	165.38
459.258	164.38
459.478	184.38
459.698	190.38
459.918	184.38
460.138	194.38
460.358	193.38
460.578	192.38
460.798	191.38
461.018	191.38
461.238	208.38
461.458	199.38
461.678	203.38
461.898	210.38
462.118	222.38
462.338	205.38
462.558	222.38
462.777	222.38
462.997	229.38
463.217	242.38
463.437	216.38
463.657	231.38
463.876	225.38
464.096	224.38
464.316	241.38
464.536	232.38
464.755	205.38
464.975	204.38
465.195	193.38
465.414	196.38
465.634	170.38
465.854	176.38
466.073	174.38
466.293	185.38
466.512	173.38
466.732	181.38
466.951	172.38
467.171	188.38
467.391	168.38
467.61	176.38
467.829	175.38
468.049	184.38
468.268	161.38
468.488	170.38
468.707	156.38
468.927	173.38
469.146	166.38
469.365	173.38
469.585	168.38
469.804	168.38
470.023	176.38
470.243	181.38
470.462	188.38
470.681	191.38
470.901	187.38
471.12	168.38
471.339	180.38
471.558	169.38
471.777	177.38
471.997	159.38
472.216	179.38
472.435	165.38
472.654	186.38
472.873	171.38
473.092	164.38
473.311	175.38
473.53	156.38
473.749	168.38
473.968	184.38
474.187	162.38
474.406	175.38
474.625	187.38
474.844	196.38
475.063	174.38
475.282	180.38
475.501	178.38
475.72	180.38
475.939	173.38
476.158	178.38
476.377	181.38
476.596	165.38
476.814	185.38
477.033	176.38
477.252	180.38
477.471	160.38
477.69	180.38
477.908	194.38
478.127	173.38
478.346	179.38
478.564	189.38
478.783	184.38
479.002	197.38
479.22	200.38
479.439	195.38
479.658	203.38
479.876	208.38
480.095	190.38
480.313	201.38
480.532	203.38
480.751	209.38
480.969	191.38
481.188	200.38
481.406	186.38
481.624	197.38
481.843	211.38
482.061	178.38
482.28	179.38
482.498	192.38
482.717	170.38
482.935	182.38
483.153	189.38
483.372	184.38
483.59	188.38
483.808	184.38
484.027	190.38
484.245	195.38
484.463	177.38
484.681	212.38
484.9	191.38
485.118	200.38
485.336	186.38
485.554	185.38
485.772	203.38
485.99	190.38
486.209	204.38
486.427	204.38
486.645	181.38
486.863	196.38
487.081	181.38
487.299	192.38
487.517	192.38
487.735	202.38
487.953	195.38
488.171	206.38
488.389	208.38
488.607	200.38
488.825	182.38
489.043	198.38
489.261	193.38
489.479	200.38
489.696	166.38
489.914	189.38
490.132	192.38
490.35	200.38
490.568	196.38
490.786	195.38
491.003	204.38
491.221	203.38
491.439	199.38
491.657	192.38
491.874	201.38
492.092	193.38
492.31	191.38
492.527	189.38
492.745	207.38
492.963	219.38
493.18	199.38
493.398	193.38
493.615	207.38
493.833	211.38
494.05	204.38
494.268	199.38
494.485	209.38
494.703	198.38
494.92	199.38
495.138	192.38
495.355	210.38
495.573	209.38
495.79	189.38
496.008	191.38
496.225	196.38
496.442	208.38
496.66	227.38
496.877	207.38
497.094	237.38
497.312	216.38
497.529	220.38
497.746	206.38
497.963	219.38
498.181	240.38
498.398	235.38
498.615	259.38
498.832	268.38
499.049	278.38
499.267	316.38
499.484	320.38
499.701	348.38
499.918	373.38
500.135	431.38
500.352	454.38
500.569	461.38
500.786	464.38
501.003	403.38
501.22	381.38
501.437	347.38
501.654	313.38
501.871	290.38
502.088	269.38
502.305	257.38
502.522	248.38
502.739	243.38
502.956	228.38
503.172	245.38
503.389	217.38
503.606	194.38
503.823	210.38
504.04	225.38
504.256	231.38
504.473	216.38
