Data from SampD_HRD10591_00053.txt Node
Date: Mon Jan 19 11:41:39 EST 2026
User: Yrep
Spectrometer: HR+D1059
Trigger mode: 0
Integration Time (sec): 3.443000E-1
Scans to average: 1
Electric dark correction enabled: true
Nonlinearity correction enabled: false
Boxcar width: 0
XAxis mode: Wavelengths
Number of Pixels in Spectrum: 2048
>>>>>Begin Spectral Data<<<<<
223.165	-28.69
223.4	-28.69
223.635	-28.69
223.869	-28.69
224.104	-27.69
224.338	-10.69
224.573	-12.69
224.808	-14.69
225.042	-7.69
225.277	1.31
225.511	2.31
225.746	13.31
225.98	22.31
226.215	4.31
226.449	4.31
226.683	22.31
226.918	29.31
227.152	31.31
227.387	40.31
227.621	37.31
227.856	48.31
228.09	41.31
228.324	60.31
228.559	48.31
228.793	56.31
229.027	63.31
229.262	66.31
229.496	88.31
229.73	64.31
229.964	82.31
230.199	95.31
230.433	83.31
230.667	86.31
230.901	80.31
231.136	92.31
231.37	93.31
231.604	89.31
231.838	94.31
232.072	81.31
232.306	87.31
232.541	88.31
232.775	78.31
233.009	88.31
233.243	81.31
233.477	86.31
233.711	83.31
233.945	98.31
234.179	80.31
234.413	83.31
234.647	101.31
234.881	88.31
235.115	77.31
235.349	83.31
235.583	73.31
235.817	78.31
236.051	79.31
236.285	85.31
236.519	91.31
236.753	91.31
236.987	81.31
237.221	85.31
237.455	98.31
237.689	90.31
237.922	89.31
238.156	75.31
238.39	75.31
238.624	83.31
238.858	79.31
239.091	96.31
239.325	75.31
239.559	91.31
239.793	91.31
240.027	99.31
240.26	85.31
240.494	95.31
240.728	69.31
240.961	70.31
241.195	79.31
241.429	84.31
241.662	85.31
241.896	91.31
242.13	87.31
242.363	88.31
242.597	95.31
242.83	86.31
243.064	92.31
243.298	81.31
243.531	70.31
243.765	84.31
243.998	79.31
244.232	90.31
244.465	97.31
244.699	87.31
244.932	92.31
245.166	93.31
245.399	92.31
245.633	86.31
245.866	94.31
246.099	100.31
246.333	81.31
246.566	89.31
246.8	84.31
247.033	77.31
247.266	94.31
247.5	89.31
247.733	83.31
247.966	87.31
248.2	93.31
248.433	90.31
248.666	87.31
248.899	85.31
249.133	97.31
249.366	95.31
249.599	85.31
249.832	101.31
250.066	92.31
250.299	100.31
250.532	88.31
250.765	108.31
250.998	83.31
251.231	87.31
251.465	84.31
251.698	100.31
251.931	104.31
252.164	99.31
252.397	94.31
252.63	103.31
252.863	93.31
253.096	94.31
253.329	103.31
253.562	90.31
253.795	95.31
254.028	98.31
254.261	85.31
254.494	81.31
254.727	111.31
254.96	82.31
255.193	88.31
255.426	78.31
255.659	91.31
255.892	107.31
256.124	99.31
256.357	96.31
256.59	92.31
256.823	101.31
257.056	102.31
257.289	88.31
257.521	102.31
257.754	103.31
257.987	92.31
258.22	101.31
258.452	102.31
258.685	83.31
258.918	99.31
259.151	86.31
259.383	86.31
259.616	106.31
259.849	93.31
260.081	99.31
260.314	102.31
260.547	95.31
260.779	96.31
261.012	92.31
261.244	91.31
261.477	109.31
261.71	96.31
261.942	85.31
262.175	93.31
262.407	96.31
262.64	94.31
262.872	99.31
263.105	98.31
263.337	96.31
263.57	108.31
263.802	103.31
264.035	100.31
264.267	98.31
264.499	97.31
264.732	98.31
264.964	117.31
265.197	88.31
265.429	124.31
265.661	104.31
265.894	86.31
266.126	126.31
266.358	109.31
266.591	104.31
266.823	107.31
267.055	102.31
267.287	97.31
267.52	103.31
267.752	89.31
267.984	117.31
268.216	110.31
268.448	111.31
268.681	107.31
268.913	115.31
269.145	109.31
269.377	114.31
269.609	97.31
269.841	106.31
270.073	99.31
270.306	108.31
270.538	104.31
270.77	95.31
271.002	106.31
271.234	103.31
271.466	112.31
271.698	112.31
271.93	101.31
272.162	99.31
272.394	114.31
272.626	119.31
272.858	104.31
273.09	115.31
273.322	104.31
273.553	105.31
273.785	111.31
274.017	109.31
274.249	106.31
274.481	104.31
274.713	97.31
274.945	113.31
275.176	107.31
275.408	110.31
275.64	125.31
275.872	120.31
276.104	132.31
276.335	117.31
276.567	118.31
276.799	121.31
277.031	106.31
277.262	113.31
277.494	109.31
277.726	100.31
277.957	120.31
278.189	95.31
278.421	106.31
278.652	93.31
278.884	93.31
279.115	112.31
279.347	109.31
279.579	97.31
279.81	100.31
280.042	103.31
280.273	126.31
280.505	134.31
280.736	114.31
280.968	116.31
281.199	125.31
281.431	131.31
281.662	104.31
281.894	114.31
282.125	108.31
282.356	100.31
282.588	129.31
282.819	119.31
283.051	115.31
283.282	101.31
283.513	127.31
283.745	125.31
283.976	113.31
284.207	118.31
284.439	119.31
284.67	117.31
284.901	129.31
285.132	119.31
285.364	112.31
285.595	117.31
285.826	129.31
286.057	118.31
286.288	127.31
286.52	125.31
286.751	116.31
286.982	124.31
287.213	118.31
287.444	130.31
287.675	127.31
287.906	123.31
288.138	126.31
288.369	116.31
288.6	99.31
288.831	105.31
289.062	135.31
289.293	133.31
289.524	130.31
289.755	119.31
289.986	117.31
290.217	119.31
290.448	128.31
290.679	140.31
290.91	126.31
291.141	132.31
291.371	128.31
291.602	127.31
291.833	118.31
292.064	120.31
292.295	118.31
292.526	116.31
292.757	116.31
292.987	111.31
293.218	124.31
293.449	108.31
293.68	115.31
293.91	127.31
294.141	116.31
294.372	118.31
294.603	117.31
294.833	128.31
295.064	132.31
295.295	115.31
295.525	108.31
295.756	118.31
295.987	105.31
296.217	109.31
296.448	133.31
296.679	120.31
296.909	129.31
297.14	121.31
297.37	134.31
297.601	116.31
297.831	123.31
298.062	124.31
298.292	118.31
298.523	127.31
298.753	131.31
298.984	128.31
299.214	132.31
299.445	125.31
299.675	136.31
299.905	123.31
300.136	123.31
300.366	123.31
300.597	134.31
300.827	125.31
301.057	111.31
301.288	133.31
301.518	134.31
301.748	108.31
301.979	169.31
302.209	129.31
302.439	129.31
302.669	119.31
302.9	127.31
303.13	128.31
303.36	130.31
303.59	142.31
303.82	129.31
304.051	125.31
304.281	129.31
304.511	124.31
304.741	121.31
304.971	116.31
305.201	120.31
305.431	118.31
305.661	133.31
305.891	121.31
306.121	128.31
306.352	130.31
306.582	125.31
306.812	122.31
307.042	128.31
307.272	140.31
307.502	117.31
307.731	140.31
307.961	132.31
308.191	123.31
308.421	128.31
308.651	126.31
308.881	128.31
309.111	124.31
309.341	111.31
309.571	125.31
309.8	125.31
310.03	126.31
310.26	130.31
310.49	122.31
310.72	123.31
310.949	123.31
311.179	123.31
311.409	113.31
311.639	139.31
311.868	121.31
312.098	140.31
312.328	122.31
312.557	132.31
312.787	124.31
313.017	132.31
313.246	149.31
313.476	134.31
313.706	137.31
313.935	123.31
314.165	130.31
314.394	120.31
314.624	130.31
314.853	134.31
315.083	130.31
315.312	124.31
315.542	142.31
315.771	128.31
316.001	139.31
316.23	143.31
316.46	128.31
316.689	131.31
316.919	129.31
317.148	139.31
317.377	133.31
317.607	138.31
317.836	140.31
318.065	121.31
318.295	126.31
318.524	124.31
318.753	130.31
318.983	129.31
319.212	137.31
319.441	136.31
319.67	130.31
319.9	125.31
320.129	124.31
320.358	130.31
320.587	139.31
320.816	123.31
321.046	139.31
321.275	137.31
321.504	132.31
321.733	127.31
321.962	123.31
322.191	124.31
322.42	126.31
322.649	129.31
322.878	136.31
323.108	141.31
323.337	139.31
323.566	130.31
323.795	151.31
324.024	124.31
324.253	140.31
324.482	133.31
324.71	130.31
324.939	144.31
325.168	130.31
325.397	147.31
325.626	135.31
325.855	130.31
326.084	141.31
326.313	134.31
326.542	142.31
326.77	139.31
326.999	131.31
327.228	132.31
327.457	133.31
327.686	144.31
327.914	130.31
328.143	138.31
328.372	134.31
328.6	141.31
328.829	131.31
329.058	131.31
329.287	138.31
329.515	137.31
329.744	141.31
329.972	142.31
330.201	165.31
330.43	124.31
330.658	118.31
330.887	128.31
331.115	133.31
331.344	133.31
331.572	134.31
331.801	143.31
332.03	141.31
332.258	141.31
332.486	140.31
332.715	149.31
332.943	147.31
333.172	145.31
333.4	165.31
333.629	173.31
333.857	161.31
334.085	167.31
334.314	155.31
334.542	137.31
334.771	155.31
334.999	152.31
335.227	145.31
335.455	153.31
335.684	157.31
335.912	152.31
336.14	157.31
336.369	165.31
336.597	148.31
336.825	147.31
337.053	141.31
337.281	138.31
337.51	154.31
337.738	143.31
337.966	124.31
338.194	136.31
338.422	135.31
338.65	143.31
338.878	139.31
339.106	134.31
339.334	144.31
339.562	140.31
339.79	158.31
340.018	153.31
340.246	142.31
340.474	151.31
340.702	139.31
340.93	128.31
341.158	127.31
341.386	139.31
341.614	139.31
341.842	133.31
342.07	141.31
342.298	137.31
342.526	129.31
342.754	132.31
342.981	140.31
343.209	137.31
343.437	169.31
343.665	143.31
343.893	158.31
344.12	157.31
344.348	159.31
344.576	157.31
344.804	148.31
345.031	147.31
345.259	139.31
345.487	132.31
345.714	133.31
345.942	125.31
346.17	158.31
346.397	133.31
346.625	128.31
346.853	134.31
347.08	145.31
347.308	141.31
347.535	142.31
347.763	145.31
347.99	155.31
348.218	146.31
348.445	141.31
348.673	130.31
348.9	137.31
349.128	147.31
349.355	143.31
349.583	149.31
349.81	141.31
350.037	153.31
350.265	146.31
350.492	136.31
350.72	122.31
350.947	142.31
351.174	139.31
351.402	143.31
351.629	131.31
351.856	135.31
352.083	157.31
352.311	144.31
352.538	128.31
352.765	134.31
352.992	144.31
353.22	135.31
353.447	130.31
353.674	151.31
353.901	140.31
354.128	134.31
354.355	141.31
354.583	136.31
354.81	134.31
355.037	143.31
355.264	134.31
355.491	136.31
355.718	141.31
355.945	130.31
356.172	135.31
356.399	131.31
356.626	134.31
356.853	146.31
357.08	147.31
357.307	131.31
357.534	128.31
357.761	141.31
357.988	150.31
358.215	145.31
358.441	132.31
358.668	132.31
358.895	142.31
359.122	134.31
359.349	128.31
359.576	137.31
359.802	135.31
360.029	144.31
360.256	128.31
360.483	135.31
360.709	125.31
360.936	136.31
361.163	137.31
361.39	141.31
361.616	142.31
361.843	134.31
362.07	139.31
362.296	132.31
362.523	132.31
362.749	141.31
362.976	132.31
363.203	147.31
363.429	131.31
363.656	135.31
363.882	136.31
364.109	142.31
364.335	145.31
364.562	134.31
364.788	110.31
365.015	146.31
365.241	151.31
365.468	152.31
365.694	121.31
365.92	116.31
366.147	124.31
366.373	132.31
366.599	142.31
366.826	130.31
367.052	141.31
367.278	150.31
367.505	123.31
367.731	143.31
367.957	126.31
368.184	130.31
368.41	126.31
368.636	141.31
368.862	128.31
369.089	129.31
369.315	140.31
369.541	139.31
369.767	150.31
369.993	132.31
370.219	147.31
370.445	136.31
370.672	134.31
370.898	126.31
371.124	136.31
371.35	157.31
371.576	131.31
371.802	158.31
372.028	127.31
372.254	139.31
372.48	144.31
372.706	135.31
372.932	140.31
373.158	147.31
373.384	147.31
373.61	145.31
373.835	161.31
374.061	136.31
374.287	141.31
374.513	161.31
374.739	133.31
374.965	139.31
375.191	157.31
375.416	147.31
375.642	143.31
375.868	162.31
376.094	151.31
376.319	143.31
376.545	169.31
376.771	162.31
376.997	160.31
377.222	131.31
377.448	145.31
377.674	123.31
377.899	143.31
378.125	158.31
378.35	141.31
378.576	148.31
378.802	145.31
379.027	131.31
379.253	152.31
379.478	155.31
379.704	141.31
379.929	144.31
380.155	134.31
380.38	146.31
380.606	134.31
380.831	139.31
381.057	146.31
381.282	136.31
381.507	131.31
381.733	153.31
381.958	149.31
382.184	143.31
382.409	136.31
382.634	143.31
382.86	151.31
383.085	154.31
383.31	140.31
383.535	163.31
383.761	160.31
383.986	158.31
384.211	150.31
384.436	152.31
384.662	154.31
384.887	155.31
385.112	165.31
385.337	156.31
385.562	164.31
385.787	160.31
386.013	155.31
386.238	172.31
386.463	157.31
386.688	181.31
386.913	162.31
387.138	167.31
387.363	162.31
387.588	176.31
387.813	165.31
388.038	152.31
388.263	161.31
388.488	151.31
388.713	145.31
388.938	167.31
389.163	156.31
389.387	157.31
389.612	164.31
389.837	143.31
390.062	167.31
390.287	143.31
390.512	153.31
390.736	145.31
390.961	161.31
391.186	166.31
391.411	168.31
391.636	162.31
391.86	156.31
392.085	169.31
392.31	171.31
392.534	178.31
392.759	160.31
392.984	156.31
393.208	175.31
393.433	165.31
393.658	171.31
393.882	159.31
394.107	172.31
394.331	169.31
394.556	152.31
394.78	167.31
395.005	176.31
395.229	161.31
395.454	185.31
395.678	180.31
395.903	161.31
396.127	174.31
396.352	142.31
396.576	173.31
396.801	155.31
397.025	157.31
397.249	173.31
397.474	195.31
397.698	168.31
397.922	177.31
398.147	171.31
398.371	182.31
398.595	187.31
398.82	170.31
399.044	200.31
399.268	222.31
399.492	229.31
399.717	248.31
399.941	228.31
400.165	225.31
400.389	194.31
400.613	198.31
400.837	182.31
401.062	174.31
401.286	186.31
401.51	187.31
401.734	165.31
401.958	175.31
402.182	186.31
402.406	182.31
402.63	196.31
402.854	190.31
403.078	196.31
403.302	179.31
403.526	199.31
403.75	204.31
403.974	207.31
404.198	198.31
404.422	195.31
404.645	207.31
404.869	201.31
405.093	188.31
405.317	184.31
405.541	188.31
405.765	195.31
405.988	187.31
406.212	186.31
406.436	197.31
406.66	215.31
406.883	209.31
407.107	215.31
407.331	214.31
407.555	208.31
407.778	204.31
408.002	210.31
408.226	220.31
408.449	210.31
408.673	182.31
408.896	189.31
409.12	187.31
409.344	200.31
409.567	189.31
409.791	194.31
410.014	192.31
410.238	201.31
410.461	183.31
410.685	210.31
410.908	185.31
411.132	203.31
411.355	187.31
411.578	207.31
411.802	204.31
412.025	183.31
412.249	195.31
412.472	187.31
412.695	186.31
412.919	171.31
413.142	190.31
413.365	183.31
413.589	197.31
413.812	179.31
414.035	180.31
414.258	175.31
414.482	199.31
414.705	192.31
414.928	184.31
415.151	183.31
415.374	185.31
415.597	190.31
415.821	190.31
416.044	176.31
416.267	180.31
416.49	176.31
416.713	174.31
416.936	184.31
417.159	191.31
417.382	187.31
417.605	185.31
417.828	181.31
418.051	178.31
418.274	191.31
418.497	171.31
418.72	194.31
418.943	212.31
419.166	181.31
419.389	199.31
419.611	200.31
419.834	187.31
420.057	192.31
420.28	189.31
420.503	187.31
420.726	169.31
420.948	191.31
421.171	185.31
421.394	185.31
421.617	188.31
421.839	170.31
422.062	175.31
422.285	184.31
422.507	178.31
422.73	175.31
422.953	190.31
423.175	171.31
423.398	184.31
423.621	192.31
423.843	189.31
424.066	193.31
424.288	192.31
424.511	182.31
424.733	222.31
424.956	180.31
425.178	183.31
425.401	199.31
425.623	199.31
425.846	180.31
426.068	165.31
426.291	182.31
426.513	163.31
426.735	169.31
426.958	181.31
427.18	165.31
427.402	167.31
427.625	161.31
427.847	176.31
428.069	170.31
428.292	170.31
428.514	163.31
428.736	174.31
428.958	165.31
429.181	179.31
429.403	164.31
429.625	165.31
429.847	163.31
430.069	156.31
430.292	174.31
430.514	173.31
430.736	173.31
430.958	169.31
431.18	168.31
431.402	164.31
431.624	169.31
431.846	167.31
432.068	172.31
432.29	187.31
432.512	169.31
432.734	165.31
432.956	177.31
433.178	192.31
433.4	174.31
433.622	183.31
433.844	181.31
434.066	165.31
434.287	163.31
434.509	175.31
434.731	204.31
434.953	191.31
435.175	196.31
435.397	184.31
435.618	190.31
435.84	190.31
436.062	166.31
436.284	163.31
436.505	181.31
436.727	168.31
436.949	170.31
437.17	164.31
437.392	172.31
437.614	156.31
437.835	159.31
438.057	150.31
438.278	152.31
438.5	169.31
438.721	164.31
438.943	173.31
439.165	159.31
439.386	172.31
439.608	163.31
439.829	165.31
440.05	177.31
440.272	173.31
440.493	175.31
440.715	186.31
440.936	173.31
441.158	182.31
441.379	181.31
441.6	196.31
441.822	212.31
442.043	170.31
442.264	170.31
442.486	186.31
442.707	179.31
442.928	176.31
443.149	189.31
443.371	194.31
443.592	165.31
443.813	178.31
444.034	182.31
444.255	200.31
444.476	203.31
444.698	211.31
444.919	205.31
445.14	451.31
445.361	301.31
445.582	175.31
445.803	190.31
446.024	180.31
446.245	178.31
446.466	187.31
446.687	171.31
446.908	174.31
447.129	173.31
447.35	166.31
447.571	165.31
447.792	149.31
448.013	164.31
448.234	173.31
448.455	161.31
448.675	150.31
448.896	158.31
449.117	152.31
449.338	173.31
449.559	177.31
449.779	168.31
450	155.31
450.221	136.31
450.442	182.31
450.662	163.31
450.883	170.31
451.104	190.31
451.324	167.31
451.545	154.31
451.766	168.31
451.986	160.31
452.207	179.31
452.428	153.31
452.648	163.31
452.869	164.31
453.089	167.31
453.31	154.31
453.53	143.31
453.751	163.31
453.971	177.31
454.192	167.31
454.412	143.31
454.633	159.31
454.853	159.31
455.073	156.31
455.294	166.31
455.514	153.31
455.734	141.31
455.955	157.31
456.175	164.31
456.395	162.31
456.616	161.31
456.836	169.31
457.056	165.31
457.276	167.31
457.497	159.31
457.717	172.31
457.937	172.31
458.157	142.31
458.377	166.31
458.598	144.31
458.818	173.31
459.038	156.31
459.258	165.31
459.478	161.31
459.698	166.31
459.918	167.31
460.138	193.31
460.358	197.31
460.578	187.31
460.798	192.31
461.018	199.31
461.238	194.31
461.458	191.31
461.678	176.31
461.898	197.31
462.118	189.31
462.338	210.31
462.558	195.31
462.777	201.31
462.997	227.31
463.217	227.31
463.437	243.31
463.657	204.31
463.876	213.31
464.096	206.31
464.316	217.31
464.536	209.31
464.755	192.31
464.975	211.31
465.195	198.31
465.414	200.31
465.634	176.31
465.854	172.31
466.073	169.31
466.293	173.31
466.512	168.31
466.732	165.31
466.951	173.31
467.171	166.31
467.391	164.31
467.61	185.31
467.829	189.31
468.049	168.31
468.268	157.31
468.488	176.31
468.707	161.31
468.927	166.31
469.146	152.31
469.365	160.31
469.585	170.31
469.804	179.31
470.023	171.31
470.243	167.31
470.462	173.31
470.681	165.31
470.901	161.31
471.12	181.31
471.339	178.31
471.558	162.31
471.777	159.31
471.997	172.31
472.216	165.31
472.435	158.31
472.654	148.31
472.873	168.31
473.092	154.31
473.311	154.31
473.53	147.31
473.749	172.31
473.968	165.31
474.187	155.31
474.406	160.31
474.625	167.31
474.844	163.31
475.063	165.31
475.282	174.31
475.501	154.31
475.72	170.31
475.939	180.31
476.158	180.31
476.377	158.31
476.596	164.31
476.814	153.31
477.033	167.31
477.252	176.31
477.471	174.31
477.69	174.31
477.908	178.31
478.127	193.31
478.346	175.31
478.564	182.31
478.783	188.31
479.002	198.31
479.22	212.31
479.439	190.31
479.658	172.31
479.876	187.31
480.095	178.31
480.313	184.31
480.532	194.31
480.751	194.31
480.969	194.31
481.188	185.31
481.406	187.31
481.624	162.31
481.843	170.31
482.061	188.31
482.28	173.31
482.498	175.31
482.717	162.31
482.935	178.31
483.153	184.31
483.372	176.31
483.59	170.31
483.808	172.31
484.027	191.31
484.245	189.31
484.463	185.31
484.681	199.31
484.9	160.31
485.118	187.31
485.336	185.31
485.554	173.31
485.772	181.31
485.99	182.31
486.209	180.31
486.427	177.31
486.645	179.31
486.863	186.31
487.081	196.31
487.299	184.31
487.517	181.31
487.735	193.31
487.953	178.31
488.171	198.31
488.389	194.31
488.607	174.31
488.825	177.31
489.043	184.31
489.261	180.31
489.479	180.31
489.696	181.31
489.914	175.31
490.132	162.31
490.35	191.31
490.568	181.31
490.786	194.31
491.003	187.31
491.221	184.31
491.439	175.31
491.657	177.31
491.874	194.31
492.092	197.31
492.31	185.31
492.527	196.31
492.745	190.31
492.963	199.31
493.18	185.31
493.398	190.31
493.615	192.31
493.833	187.31
494.05	195.31
494.268	204.31
494.485	190.31
494.703	201.31
494.92	207.31
495.138	207.31
495.355	188.31
495.573	213.31
495.79	185.31
496.008	197.31
496.225	188.31
496.442	195.31
496.66	205.31
496.877	209.31
497.094	209.31
497.312	203.31
497.529	209.31
497.746	213.31
497.963	196.31
498.181	211.31
498.398	219.31
498.615	236.31
498.832	233.31
499.049	244.31
499.267	280.31
499.484	298.31
499.701	311.31
499.918	355.31
500.135	382.31
500.352	443.31
500.569	434.31
500.786	431.31
501.003	386.31
501.22	356.31
501.437	332.31
501.654	290.31
501.871	271.31
502.088	255.31
502.305	252.31
502.522	231.31
502.739	249.31
502.956	225.31
503.172	190.31
503.389	197.31
503.606	197.31
503.823	205.31
504.04	219.31
504.256	215.31
504.473	196.31
504.69	217.31
