Data from SampD_HRD10591_00048.txt Node
Date: Mon Jan 19 11:41:37 EST 2026
User: Yrep
Spectrometer: HR+D1059
Trigger mode: 0
Integration Time (sec): 3.443000E-1
Scans to average: 1
Electric dark correction enabled: true
Nonlinearity correction enabled: false
Boxcar width: 0
XAxis mode: Wavelengths
Number of Pixels in Spectrum: 2048
>>>>>Begin Spectral Data<<<<<
223.165	-17.56
223.4	-17.56
223.635	-17.56
223.869	-20.56
224.104	-29.56
224.338	-24.56
224.573	-23.56
224.808	-13.56
225.042	5.44
225.277	-10.56
225.511	-5.56
225.746	17.44
225.98	5.44
226.215	17.44
226.449	8.44
226.683	26.44
226.918	31.44
227.152	33.44
227.387	30.44
227.621	46.44
227.856	42.44
228.09	57.44
228.324	46.44
228.559	59.44
228.793	60.44
229.027	65.44
229.262	55.44
229.496	70.44
229.73	67.44
229.964	78.44
230.199	89.44
230.433	83.44
230.667	89.44
230.901	95.44
231.136	85.44
231.37	81.44
231.604	94.44
231.838	90.44
232.072	92.44
232.306	77.44
232.541	86.44
232.775	91.44
233.009	81.44
233.243	88.44
233.477	83.44
233.711	81.44
233.945	72.44
234.179	74.44
234.413	86.44
234.647	81.44
234.881	72.44
235.115	93.44
235.349	89.44
235.583	90.44
235.817	86.44
236.051	80.44
236.285	84.44
236.519	75.44
236.753	87.44
236.987	79.44
237.221	90.44
237.455	84.44
237.689	84.44
237.922	83.44
238.156	89.44
238.39	86.44
238.624	88.44
238.858	89.44
239.091	78.44
239.325	81.44
239.559	92.44
239.793	87.44
240.027	99.44
240.26	86.44
240.494	86.44
240.728	83.44
240.961	87.44
241.195	94.44
241.429	90.44
241.662	88.44
241.896	90.44
242.13	101.44
242.363	95.44
242.597	93.44
242.83	82.44
243.064	105.44
243.298	79.44
243.531	97.44
243.765	91.44
243.998	94.44
244.232	98.44
244.465	97.44
244.699	86.44
244.932	104.44
245.166	85.44
245.399	79.44
245.633	89.44
245.866	77.44
246.099	94.44
246.333	83.44
246.566	101.44
246.8	83.44
247.033	90.44
247.266	101.44
247.5	88.44
247.733	86.44
247.966	87.44
248.2	88.44
248.433	91.44
248.666	82.44
248.899	100.44
249.133	94.44
249.366	93.44
249.599	93.44
249.832	89.44
250.066	117.44
250.299	94.44
250.532	77.44
250.765	105.44
250.998	83.44
251.231	87.44
251.465	85.44
251.698	82.44
251.931	72.44
252.164	83.44
252.397	88.44
252.63	98.44
252.863	88.44
253.096	86.44
253.329	90.44
253.562	94.44
253.795	84.44
254.028	87.44
254.261	92.44
254.494	99.44
254.727	97.44
254.96	108.44
255.193	86.44
255.426	92.44
255.659	97.44
255.892	101.44
256.124	86.44
256.357	98.44
256.59	84.44
256.823	94.44
257.056	105.44
257.289	99.44
257.521	82.44
257.754	100.44
257.987	78.44
258.22	85.44
258.452	90.44
258.685	91.44
258.918	105.44
259.151	94.44
259.383	106.44
259.616	97.44
259.849	104.44
260.081	115.44
260.314	106.44
260.547	100.44
260.779	100.44
261.012	89.44
261.244	96.44
261.477	113.44
261.71	105.44
261.942	102.44
262.175	104.44
262.407	99.44
262.64	97.44
262.872	101.44
263.105	95.44
263.337	102.44
263.57	96.44
263.802	101.44
264.035	104.44
264.267	95.44
264.499	102.44
264.732	111.44
264.964	112.44
265.197	104.44
265.429	95.44
265.661	99.44
265.894	95.44
266.126	105.44
266.358	105.44
266.591	110.44
266.823	111.44
267.055	100.44
267.287	106.44
267.52	104.44
267.752	99.44
267.984	110.44
268.216	108.44
268.448	117.44
268.681	110.44
268.913	113.44
269.145	126.44
269.377	114.44
269.609	103.44
269.841	119.44
270.073	108.44
270.306	99.44
270.538	107.44
270.77	120.44
271.002	119.44
271.234	100.44
271.466	119.44
271.698	104.44
271.93	110.44
272.162	113.44
272.394	118.44
272.626	107.44
272.858	111.44
273.09	108.44
273.322	90.44
273.553	105.44
273.785	97.44
274.017	95.44
274.249	98.44
274.481	104.44
274.713	102.44
274.945	108.44
275.176	101.44
275.408	90.44
275.64	113.44
275.872	113.44
276.104	114.44
276.335	120.44
276.567	96.44
276.799	107.44
277.031	104.44
277.262	105.44
277.494	120.44
277.726	103.44
277.957	110.44
278.189	118.44
278.421	121.44
278.652	109.44
278.884	103.44
279.115	104.44
279.347	100.44
279.579	121.44
279.81	110.44
280.042	98.44
280.273	104.44
280.505	107.44
280.736	113.44
280.968	101.44
281.199	119.44
281.431	120.44
281.662	126.44
281.894	119.44
282.125	119.44
282.356	107.44
282.588	100.44
282.819	115.44
283.051	106.44
283.282	118.44
283.513	111.44
283.745	125.44
283.976	112.44
284.207	134.44
284.439	121.44
284.67	122.44
284.901	110.44
285.132	107.44
285.364	115.44
285.595	107.44
285.826	101.44
286.057	127.44
286.288	113.44
286.52	110.44
286.751	111.44
286.982	119.44
287.213	108.44
287.444	121.44
287.675	108.44
287.906	129.44
288.138	122.44
288.369	125.44
288.6	115.44
288.831	125.44
289.062	111.44
289.293	122.44
289.524	117.44
289.755	110.44
289.986	97.44
290.217	119.44
290.448	117.44
290.679	107.44
290.91	120.44
291.141	118.44
291.371	117.44
291.602	123.44
291.833	117.44
292.064	121.44
292.295	126.44
292.526	107.44
292.757	122.44
292.987	116.44
293.218	120.44
293.449	107.44
293.68	123.44
293.91	123.44
294.141	111.44
294.372	126.44
294.603	116.44
294.833	114.44
295.064	126.44
295.295	116.44
295.525	123.44
295.756	125.44
295.987	123.44
296.217	139.44
296.448	134.44
296.679	127.44
296.909	124.44
297.14	110.44
297.37	138.44
297.601	111.44
297.831	133.44
298.062	130.44
298.292	131.44
298.523	143.44
298.753	131.44
298.984	122.44
299.214	128.44
299.445	133.44
299.675	127.44
299.905	116.44
300.136	127.44
300.366	121.44
300.597	126.44
300.827	133.44
301.057	109.44
301.288	113.44
301.518	151.44
301.748	130.44
301.979	159.44
302.209	131.44
302.439	133.44
302.669	121.44
302.9	127.44
303.13	130.44
303.36	116.44
303.59	123.44
303.82	102.44
304.051	122.44
304.281	131.44
304.511	125.44
304.741	117.44
304.971	127.44
305.201	122.44
305.431	138.44
305.661	121.44
305.891	125.44
306.121	130.44
306.352	135.44
306.582	121.44
306.812	121.44
307.042	128.44
307.272	126.44
307.502	132.44
307.731	129.44
307.961	106.44
308.191	111.44
308.421	121.44
308.651	125.44
308.881	127.44
309.111	131.44
309.341	129.44
309.571	117.44
309.8	129.44
310.03	114.44
310.26	123.44
310.49	128.44
310.72	123.44
310.949	132.44
311.179	136.44
311.409	125.44
311.639	136.44
311.868	130.44
312.098	144.44
312.328	121.44
312.557	130.44
312.787	118.44
313.017	135.44
313.246	139.44
313.476	123.44
313.706	134.44
313.935	129.44
314.165	136.44
314.394	133.44
314.624	138.44
314.853	135.44
315.083	137.44
315.312	129.44
315.542	128.44
315.771	119.44
316.001	131.44
316.23	146.44
316.46	134.44
316.689	123.44
316.919	126.44
317.148	128.44
317.377	119.44
317.607	131.44
317.836	131.44
318.065	134.44
318.295	122.44
318.524	131.44
318.753	129.44
318.983	118.44
319.212	123.44
319.441	135.44
319.67	117.44
319.9	132.44
320.129	116.44
320.358	133.44
320.587	134.44
320.816	127.44
321.046	122.44
321.275	130.44
321.504	138.44
321.733	133.44
321.962	129.44
322.191	147.44
322.42	134.44
322.649	126.44
322.878	130.44
323.108	141.44
323.337	123.44
323.566	129.44
323.795	117.44
324.024	133.44
324.253	122.44
324.482	130.44
324.71	120.44
324.939	139.44
325.168	119.44
325.397	125.44
325.626	122.44
325.855	130.44
326.084	137.44
326.313	137.44
326.542	130.44
326.77	121.44
326.999	125.44
327.228	123.44
327.457	131.44
327.686	155.44
327.914	134.44
328.143	143.44
328.372	123.44
328.6	126.44
328.829	141.44
329.058	135.44
329.287	144.44
329.515	131.44
329.744	147.44
329.972	131.44
330.201	143.44
330.43	125.44
330.658	139.44
330.887	126.44
331.115	136.44
331.344	122.44
331.572	145.44
331.801	134.44
332.03	149.44
332.258	146.44
332.486	143.44
332.715	143.44
332.943	131.44
333.172	154.44
333.4	153.44
333.629	145.44
333.857	145.44
334.085	160.44
334.314	146.44
334.542	131.44
334.771	146.44
334.999	162.44
335.227	149.44
335.455	158.44
335.684	155.44
335.912	150.44
336.14	155.44
336.369	144.44
336.597	149.44
336.825	157.44
337.053	162.44
337.281	159.44
337.51	131.44
337.738	137.44
337.966	144.44
338.194	145.44
338.422	134.44
338.65	143.44
338.878	152.44
339.106	144.44
339.334	146.44
339.562	133.44
339.79	126.44
340.018	137.44
340.246	128.44
340.474	137.44
340.702	130.44
340.93	122.44
341.158	131.44
341.386	146.44
341.614	141.44
341.842	141.44
342.07	139.44
342.298	141.44
342.526	146.44
342.754	134.44
342.981	151.44
343.209	149.44
343.437	173.44
343.665	165.44
343.893	148.44
344.12	146.44
344.348	146.44
344.576	137.44
344.804	137.44
345.031	134.44
345.259	134.44
345.487	137.44
345.714	153.44
345.942	132.44
346.17	133.44
346.397	144.44
346.625	136.44
346.853	139.44
347.08	136.44
347.308	137.44
347.535	135.44
347.763	131.44
347.99	147.44
348.218	136.44
348.445	136.44
348.673	137.44
348.9	138.44
349.128	146.44
349.355	130.44
349.583	129.44
349.81	129.44
350.037	125.44
350.265	141.44
350.492	133.44
350.72	126.44
350.947	137.44
351.174	119.44
351.402	134.44
351.629	134.44
351.856	123.44
352.083	128.44
352.311	133.44
352.538	135.44
352.765	132.44
352.992	158.44
353.22	133.44
353.447	122.44
353.674	144.44
353.901	138.44
354.128	122.44
354.355	150.44
354.583	127.44
354.81	132.44
355.037	138.44
355.264	137.44
355.491	130.44
355.718	130.44
355.945	127.44
356.172	129.44
356.399	142.44
356.626	131.44
356.853	147.44
357.08	146.44
357.307	162.44
357.534	133.44
357.761	128.44
357.988	150.44
358.215	130.44
358.441	132.44
358.668	148.44
358.895	158.44
359.122	129.44
359.349	134.44
359.576	133.44
359.802	116.44
360.029	129.44
360.256	154.44
360.483	121.44
360.709	128.44
360.936	146.44
361.163	135.44
361.39	135.44
361.616	125.44
361.843	134.44
362.07	121.44
362.296	127.44
362.523	132.44
362.749	121.44
362.976	131.44
363.203	146.44
363.429	120.44
363.656	128.44
363.882	141.44
364.109	132.44
364.335	141.44
364.562	150.44
364.788	127.44
365.015	150.44
365.241	132.44
365.468	134.44
365.694	142.44
365.92	136.44
366.147	138.44
366.373	136.44
366.599	145.44
366.826	137.44
367.052	142.44
367.278	125.44
367.505	120.44
367.731	145.44
367.957	124.44
368.184	131.44
368.41	142.44
368.636	133.44
368.862	133.44
369.089	127.44
369.315	133.44
369.541	135.44
369.767	142.44
369.993	135.44
370.219	138.44
370.445	131.44
370.672	137.44
370.898	153.44
371.124	131.44
371.35	128.44
371.576	133.44
371.802	136.44
372.028	137.44
372.254	149.44
372.48	153.44
372.706	143.44
372.932	146.44
373.158	157.44
373.384	146.44
373.61	145.44
373.835	141.44
374.061	144.44
374.287	140.44
374.513	139.44
374.739	159.44
374.965	140.44
375.191	160.44
375.416	134.44
375.642	117.44
375.868	145.44
376.094	130.44
376.319	138.44
376.545	135.44
376.771	152.44
376.997	144.44
377.222	130.44
377.448	154.44
377.674	130.44
377.899	143.44
378.125	142.44
378.35	147.44
378.576	141.44
378.802	150.44
379.027	136.44
379.253	123.44
379.478	137.44
379.704	118.44
379.929	119.44
380.155	124.44
380.38	154.44
380.606	132.44
380.831	149.44
381.057	152.44
381.282	152.44
381.507	144.44
381.733	143.44
381.958	134.44
382.184	130.44
382.409	153.44
382.634	154.44
382.86	151.44
383.085	152.44
383.31	162.44
383.535	156.44
383.761	155.44
383.986	158.44
384.211	164.44
384.436	167.44
384.662	155.44
384.887	166.44
385.112	144.44
385.337	155.44
385.562	168.44
385.787	164.44
386.013	158.44
386.238	155.44
386.463	161.44
386.688	186.44
386.913	159.44
387.138	161.44
387.363	174.44
387.588	173.44
387.813	156.44
388.038	156.44
388.263	184.44
388.488	162.44
388.713	146.44
388.938	149.44
389.163	150.44
389.387	152.44
389.612	161.44
389.837	165.44
390.062	145.44
390.287	161.44
390.512	148.44
390.736	145.44
390.961	159.44
391.186	166.44
391.411	162.44
391.636	163.44
391.86	166.44
392.085	180.44
392.31	174.44
392.534	176.44
392.759	170.44
392.984	173.44
393.208	146.44
393.433	157.44
393.658	178.44
393.882	165.44
394.107	143.44
394.331	160.44
394.556	163.44
394.78	149.44
395.005	163.44
395.229	167.44
395.454	169.44
395.678	155.44
395.903	185.44
396.127	162.44
396.352	156.44
396.576	148.44
396.801	159.44
397.025	149.44
397.249	156.44
397.474	160.44
397.698	176.44
397.922	157.44
398.147	162.44
398.371	178.44
398.595	186.44
398.82	169.44
399.044	186.44
399.268	219.44
399.492	235.44
399.717	244.44
399.941	221.44
400.165	204.44
400.389	192.44
400.613	187.44
400.837	186.44
401.062	191.44
401.286	176.44
401.51	179.44
401.734	167.44
401.958	183.44
402.182	176.44
402.406	180.44
402.63	177.44
402.854	186.44
403.078	184.44
403.302	196.44
403.526	193.44
403.75	205.44
403.974	188.44
404.198	198.44
404.422	218.44
404.645	186.44
404.869	191.44
405.093	189.44
405.317	196.44
405.541	175.44
405.765	167.44
405.988	199.44
406.212	188.44
406.436	197.44
406.66	216.44
406.883	202.44
407.107	216.44
407.331	210.44
407.555	210.44
407.778	212.44
408.002	195.44
408.226	195.44
408.449	201.44
408.673	201.44
408.896	190.44
409.12	197.44
409.344	180.44
409.567	190.44
409.791	192.44
410.014	186.44
410.238	206.44
410.461	192.44
410.685	188.44
410.908	170.44
411.132	192.44
411.355	193.44
411.578	179.44
411.802	179.44
412.025	187.44
412.249	189.44
412.472	189.44
412.695	179.44
412.919	182.44
413.142	175.44
413.365	179.44
413.589	189.44
413.812	176.44
414.035	199.44
414.258	183.44
414.482	188.44
414.705	180.44
414.928	195.44
415.151	184.44
415.374	181.44
415.597	160.44
415.821	170.44
416.044	180.44
416.267	185.44
416.49	168.44
416.713	178.44
416.936	160.44
417.159	183.44
417.382	179.44
417.605	177.44
417.828	186.44
418.051	182.44
418.274	179.44
418.497	190.44
418.72	192.44
418.943	199.44
419.166	199.44
419.389	193.44
419.611	192.44
419.834	191.44
420.057	188.44
420.28	198.44
420.503	185.44
420.726	186.44
420.948	179.44
421.171	183.44
421.394	173.44
421.617	178.44
421.839	180.44
422.062	182.44
422.285	192.44
422.507	205.44
422.73	179.44
422.953	191.44
423.175	192.44
423.398	180.44
423.621	192.44
423.843	183.44
424.066	201.44
424.288	196.44
424.511	188.44
424.733	189.44
424.956	178.44
425.178	174.44
425.401	189.44
425.623	179.44
425.846	166.44
426.068	172.44
426.291	177.44
426.513	169.44
426.735	180.44
426.958	191.44
427.18	177.44
427.402	179.44
427.625	162.44
427.847	175.44
428.069	171.44
428.292	177.44
428.514	171.44
428.736	157.44
428.958	183.44
429.181	169.44
429.403	169.44
429.625	181.44
429.847	173.44
430.069	158.44
430.292	188.44
430.514	165.44
430.736	165.44
430.958	163.44
431.18	170.44
431.402	171.44
431.624	171.44
431.846	167.44
432.068	165.44
432.29	185.44
432.512	187.44
432.734	160.44
432.956	171.44
433.178	175.44
433.4	189.44
433.622	198.44
433.844	179.44
434.066	164.44
434.287	180.44
434.509	178.44
434.731	184.44
434.953	173.44
435.175	182.44
435.397	182.44
435.618	173.44
435.84	174.44
436.062	179.44
436.284	194.44
436.505	176.44
436.727	169.44
436.949	191.44
437.17	170.44
437.392	169.44
437.614	165.44
437.835	166.44
438.057	166.44
438.278	164.44
438.5	169.44
438.721	155.44
438.943	170.44
439.165	167.44
439.386	169.44
439.608	171.44
439.829	184.44
440.05	173.44
440.272	188.44
440.493	174.44
440.715	160.44
440.936	178.44
441.158	185.44
441.379	186.44
441.6	189.44
441.822	202.44
442.043	183.44
442.264	167.44
442.486	184.44
442.707	175.44
442.928	181.44
443.149	181.44
443.371	190.44
443.592	178.44
443.813	189.44
444.034	188.44
444.255	183.44
444.476	189.44
444.698	178.44
444.919	203.44
445.14	454.44
445.361	316.44
445.582	187.44
445.803	161.44
446.024	165.44
446.245	172.44
446.466	182.44
446.687	175.44
446.908	182.44
447.129	162.44
447.35	165.44
447.571	154.44
447.792	177.44
448.013	171.44
448.234	151.44
448.455	172.44
448.675	151.44
448.896	149.44
449.117	161.44
449.338	154.44
449.559	170.44
449.779	169.44
450	155.44
450.221	165.44
450.442	165.44
450.662	163.44
450.883	159.44
451.104	184.44
451.324	175.44
451.545	157.44
451.766	174.44
451.986	167.44
452.207	163.44
452.428	173.44
452.648	160.44
452.869	165.44
453.089	145.44
453.31	151.44
453.53	155.44
453.751	158.44
453.971	157.44
454.192	164.44
454.412	147.44
454.633	161.44
454.853	145.44
455.073	172.44
455.294	150.44
455.514	149.44
455.734	163.44
455.955	169.44
456.175	142.44
456.395	164.44
456.616	151.44
456.836	151.44
457.056	163.44
457.276	152.44
457.497	158.44
457.717	144.44
457.937	168.44
458.157	148.44
458.377	164.44
458.598	160.44
458.818	159.44
459.038	153.44
459.258	165.44
459.478	169.44
459.698	162.44
459.918	178.44
460.138	193.44
460.358	195.44
460.578	193.44
460.798	194.44
461.018	186.44
461.238	187.44
461.458	179.44
461.678	177.44
461.898	188.44
462.118	192.44
462.338	186.44
462.558	203.44
462.777	214.44
462.997	230.44
463.217	236.44
463.437	224.44
463.657	210.44
463.876	191.44
464.096	191.44
464.316	200.44
464.536	217.44
464.755	194.44
464.975	191.44
465.195	190.44
465.414	204.44
465.634	191.44
465.854	173.44
466.073	163.44
466.293	172.44
466.512	174.44
466.732	168.44
466.951	159.44
467.171	161.44
467.391	168.44
467.61	168.44
467.829	164.44
468.049	176.44
468.268	161.44
468.488	147.44
468.707	152.44
468.927	162.44
469.146	163.44
469.365	175.44
469.585	157.44
469.804	160.44
470.023	165.44
470.243	187.44
470.462	184.44
470.681	183.44
470.901	158.44
471.12	185.44
471.339	162.44
471.558	163.44
471.777	178.44
471.997	164.44
472.216	151.44
472.435	162.44
472.654	147.44
472.873	149.44
473.092	169.44
473.311	166.44
473.53	152.44
473.749	154.44
473.968	171.44
474.187	170.44
474.406	158.44
474.625	164.44
474.844	189.44
475.063	150.44
475.282	147.44
475.501	169.44
475.72	186.44
475.939	169.44
476.158	161.44
476.377	158.44
476.596	152.44
476.814	165.44
477.033	171.44
477.252	179.44
477.471	167.44
477.69	158.44
477.908	170.44
478.127	196.44
478.346	205.44
478.564	190.44
478.783	167.44
479.002	195.44
479.22	161.44
479.439	175.44
479.658	176.44
479.876	203.44
480.095	189.44
480.313	192.44
480.532	214.44
480.751	198.44
480.969	178.44
481.188	175.44
481.406	186.44
481.624	175.44
481.843	172.44
482.061	181.44
482.28	171.44
482.498	161.44
482.717	162.44
482.935	176.44
483.153	167.44
483.372	148.44
483.59	174.44
483.808	174.44
484.027	193.44
484.245	182.44
484.463	178.44
484.681	192.44
484.9	185.44
485.118	182.44
485.336	163.44
485.554	181.44
485.772	202.44
485.99	191.44
486.209	186.44
486.427	184.44
486.645	178.44
486.863	188.44
487.081	183.44
487.299	181.44
487.517	179.44
487.735	197.44
487.953	195.44
488.171	181.44
488.389	193.44
488.607	196.44
488.825	180.44
489.043	173.44
489.261	174.44
489.479	167.44
489.696	189.44
489.914	194.44
490.132	186.44
490.35	206.44
490.568	189.44
490.786	181.44
491.003	198.44
491.221	189.44
491.439	194.44
491.657	183.44
491.874	214.44
492.092	190.44
492.31	178.44
492.527	183.44
492.745	191.44
492.963	185.44
493.18	176.44
493.398	177.44
493.615	194.44
493.833	195.44
494.05	202.44
494.268	205.44
494.485	200.44
494.703	185.44
494.92	193.44
495.138	203.44
495.355	181.44
495.573	213.44
495.79	185.44
496.008	205.44
496.225	197.44
496.442	184.44
496.66	202.44
496.877	203.44
497.094	216.44
497.312	213.44
497.529	211.44
497.746	201.44
497.963	219.44
498.181	217.44
498.398	227.44
498.615	226.44
498.832	242.44
499.049	249.44
499.267	273.44
499.484	284.44
499.701	326.44
499.918	345.44
500.135	373.44
500.352	437.44
500.569	406.44
500.786	423.44
501.003	365.44
501.22	350.44
501.437	327.44
501.654	302.44
501.871	271.44
502.088	263.44
502.305	237.44
502.522	243.44
502.739	224.44
502.956	220.44
503.172	210.44
503.389	204.44
503.606	212.44
503.823	198.44
504.04	199.44
504.256	207.44
504.473	201.44
504.69	198.44
