Data from SampD_HRD10591_00042.txt Node
Date: Mon Jan 19 11:41:35 EST 2026
User: Yrep
Spectrometer: HR+D1059
Trigger mode: 0
Integration Time (sec): 3.443000E-1
Scans to average: 1
Electric dark correction enabled: true
Nonlinearity correction enabled: false
Boxcar width: 0
XAxis mode: Wavelengths
Number of Pixels in Spectrum: 2048
>>>>>Begin Spectral Data<<<<<
223.165	-37.12
223.4	-37.12
223.635	-37.12
223.869	-23.12
224.104	-12.12
224.338	-11.12
224.573	-20.12
224.808	-22.12
225.042	-1.12
225.277	-2.12
225.511	-1.12
225.746	0.88
225.98	12.88
226.215	12.88
226.449	22.88
226.683	13.88
226.918	25.88
227.152	40.88
227.387	38.88
227.621	42.88
227.856	52.88
228.09	30.88
228.324	51.88
228.559	51.88
228.793	59.88
229.027	68.88
229.262	82.88
229.496	73.88
229.73	77.88
229.964	87.88
230.199	71.88
230.433	77.88
230.667	63.88
230.901	74.88
231.136	82.88
231.37	95.88
231.604	106.88
231.838	89.88
232.072	82.88
232.306	73.88
232.541	79.88
232.775	76.88
233.009	91.88
233.243	88.88
233.477	82.88
233.711	76.88
233.945	79.88
234.179	79.88
234.413	78.88
234.647	83.88
234.881	79.88
235.115	84.88
235.349	77.88
235.583	89.88
235.817	75.88
236.051	90.88
236.285	81.88
236.519	83.88
236.753	74.88
236.987	73.88
237.221	80.88
237.455	86.88
237.689	69.88
237.922	82.88
238.156	91.88
238.39	82.88
238.624	62.88
238.858	83.88
239.091	79.88
239.325	81.88
239.559	77.88
239.793	73.88
240.027	97.88
240.26	88.88
240.494	79.88
240.728	71.88
240.961	80.88
241.195	92.88
241.429	87.88
241.662	85.88
241.896	67.88
242.13	94.88
242.363	77.88
242.597	83.88
242.83	73.88
243.064	75.88
243.298	73.88
243.531	94.88
243.765	81.88
243.998	81.88
244.232	97.88
244.465	92.88
244.699	77.88
244.932	78.88
245.166	79.88
245.399	83.88
245.633	70.88
245.866	80.88
246.099	93.88
246.333	89.88
246.566	91.88
246.8	79.88
247.033	93.88
247.266	95.88
247.5	82.88
247.733	82.88
247.966	89.88
248.2	91.88
248.433	83.88
248.666	106.88
248.899	85.88
249.133	93.88
249.366	99.88
249.599	84.88
249.832	88.88
250.066	108.88
250.299	85.88
250.532	86.88
250.765	98.88
250.998	89.88
251.231	92.88
251.465	95.88
251.698	101.88
251.931	79.88
252.164	93.88
252.397	83.88
252.63	94.88
252.863	78.88
253.096	90.88
253.329	78.88
253.562	86.88
253.795	97.88
254.028	100.88
254.261	105.88
254.494	79.88
254.727	97.88
254.96	94.88
255.193	88.88
255.426	64.88
255.659	89.88
255.892	103.88
256.124	89.88
256.357	80.88
256.59	103.88
256.823	88.88
257.056	97.88
257.289	78.88
257.521	100.88
257.754	113.88
257.987	96.88
258.22	110.88
258.452	99.88
258.685	90.88
258.918	105.88
259.151	93.88
259.383	99.88
259.616	88.88
259.849	100.88
260.081	117.88
260.314	82.88
260.547	89.88
260.779	105.88
261.012	106.88
261.244	92.88
261.477	76.88
261.71	106.88
261.942	95.88
262.175	101.88
262.407	93.88
262.64	94.88
262.872	113.88
263.105	97.88
263.337	95.88
263.57	98.88
263.802	91.88
264.035	91.88
264.267	105.88
264.499	96.88
264.732	97.88
264.964	101.88
265.197	86.88
265.429	108.88
265.661	114.88
265.894	113.88
266.126	105.88
266.358	99.88
266.591	101.88
266.823	104.88
267.055	101.88
267.287	123.88
267.52	107.88
267.752	97.88
267.984	101.88
268.216	114.88
268.448	104.88
268.681	116.88
268.913	109.88
269.145	124.88
269.377	96.88
269.609	98.88
269.841	102.88
270.073	93.88
270.306	106.88
270.538	117.88
270.77	120.88
271.002	97.88
271.234	98.88
271.466	117.88
271.698	93.88
271.93	111.88
272.162	109.88
272.394	113.88
272.626	96.88
272.858	97.88
273.09	91.88
273.322	114.88
273.553	95.88
273.785	122.88
274.017	87.88
274.249	100.88
274.481	100.88
274.713	92.88
274.945	109.88
275.176	106.88
275.408	109.88
275.64	102.88
275.872	100.88
276.104	99.88
276.335	105.88
276.567	89.88
276.799	101.88
277.031	99.88
277.262	108.88
277.494	120.88
277.726	118.88
277.957	109.88
278.189	95.88
278.421	122.88
278.652	101.88
278.884	119.88
279.115	123.88
279.347	107.88
279.579	110.88
279.81	99.88
280.042	91.88
280.273	106.88
280.505	111.88
280.736	102.88
280.968	116.88
281.199	124.88
281.431	116.88
281.662	111.88
281.894	111.88
282.125	108.88
282.356	115.88
282.588	113.88
282.819	107.88
283.051	110.88
283.282	109.88
283.513	123.88
283.745	104.88
283.976	108.88
284.207	114.88
284.439	115.88
284.67	113.88
284.901	112.88
285.132	127.88
285.364	107.88
285.595	111.88
285.826	105.88
286.057	124.88
286.288	118.88
286.52	117.88
286.751	106.88
286.982	111.88
287.213	121.88
287.444	110.88
287.675	117.88
287.906	97.88
288.138	118.88
288.369	103.88
288.6	117.88
288.831	110.88
289.062	127.88
289.293	113.88
289.524	100.88
289.755	107.88
289.986	99.88
290.217	113.88
290.448	127.88
290.679	130.88
290.91	123.88
291.141	124.88
291.371	116.88
291.602	104.88
291.833	124.88
292.064	128.88
292.295	119.88
292.526	117.88
292.757	121.88
292.987	119.88
293.218	118.88
293.449	106.88
293.68	118.88
293.91	119.88
294.141	117.88
294.372	121.88
294.603	126.88
294.833	121.88
295.064	117.88
295.295	100.88
295.525	120.88
295.756	122.88
295.987	122.88
296.217	133.88
296.448	118.88
296.679	117.88
296.909	119.88
297.14	140.88
297.37	137.88
297.601	122.88
297.831	127.88
298.062	118.88
298.292	109.88
298.523	125.88
298.753	105.88
298.984	140.88
299.214	130.88
299.445	111.88
299.675	103.88
299.905	133.88
300.136	118.88
300.366	106.88
300.597	118.88
300.827	117.88
301.057	125.88
301.288	119.88
301.518	120.88
301.748	121.88
301.979	159.88
302.209	124.88
302.439	102.88
302.669	120.88
302.9	117.88
303.13	114.88
303.36	133.88
303.59	127.88
303.82	141.88
304.051	122.88
304.281	138.88
304.511	132.88
304.741	119.88
304.971	125.88
305.201	119.88
305.431	113.88
305.661	127.88
305.891	119.88
306.121	102.88
306.352	126.88
306.582	129.88
306.812	133.88
307.042	110.88
307.272	127.88
307.502	113.88
307.731	130.88
307.961	125.88
308.191	107.88
308.421	122.88
308.651	130.88
308.881	116.88
309.111	119.88
309.341	105.88
309.571	113.88
309.8	141.88
310.03	134.88
310.26	127.88
310.49	128.88
310.72	122.88
310.949	115.88
311.179	133.88
311.409	122.88
311.639	130.88
311.868	126.88
312.098	132.88
312.328	121.88
312.557	127.88
312.787	113.88
313.017	137.88
313.246	119.88
313.476	115.88
313.706	125.88
313.935	124.88
314.165	128.88
314.394	130.88
314.624	124.88
314.853	118.88
315.083	130.88
315.312	126.88
315.542	119.88
315.771	130.88
316.001	136.88
316.23	130.88
316.46	127.88
316.689	120.88
316.919	129.88
317.148	135.88
317.377	139.88
317.607	131.88
317.836	114.88
318.065	138.88
318.295	129.88
318.524	126.88
318.753	120.88
318.983	108.88
319.212	114.88
319.441	130.88
319.67	138.88
319.9	129.88
320.129	127.88
320.358	132.88
320.587	131.88
320.816	114.88
321.046	131.88
321.275	132.88
321.504	128.88
321.733	127.88
321.962	120.88
322.191	115.88
322.42	123.88
322.649	132.88
322.878	134.88
323.108	137.88
323.337	130.88
323.566	133.88
323.795	138.88
324.024	155.88
324.253	117.88
324.482	122.88
324.71	112.88
324.939	122.88
325.168	133.88
325.397	133.88
325.626	123.88
325.855	136.88
326.084	141.88
326.313	137.88
326.542	138.88
326.77	117.88
326.999	130.88
327.228	135.88
327.457	107.88
327.686	119.88
327.914	128.88
328.143	152.88
328.372	125.88
328.6	131.88
328.829	125.88
329.058	130.88
329.287	138.88
329.515	121.88
329.744	135.88
329.972	122.88
330.201	143.88
330.43	132.88
330.658	139.88
330.887	129.88
331.115	137.88
331.344	133.88
331.572	126.88
331.801	139.88
332.03	143.88
332.258	159.88
332.486	154.88
332.715	149.88
332.943	153.88
333.172	153.88
333.4	152.88
333.629	142.88
333.857	137.88
334.085	162.88
334.314	149.88
334.542	149.88
334.771	139.88
334.999	142.88
335.227	150.88
335.455	140.88
335.684	148.88
335.912	155.88
336.14	132.88
336.369	143.88
336.597	133.88
336.825	150.88
337.053	139.88
337.281	141.88
337.51	142.88
337.738	156.88
337.966	131.88
338.194	155.88
338.422	153.88
338.65	149.88
338.878	134.88
339.106	130.88
339.334	139.88
339.562	126.88
339.79	124.88
340.018	139.88
340.246	143.88
340.474	129.88
340.702	126.88
340.93	137.88
341.158	133.88
341.386	151.88
341.614	142.88
341.842	129.88
342.07	126.88
342.298	139.88
342.526	145.88
342.754	134.88
342.981	137.88
343.209	134.88
343.437	175.88
343.665	155.88
343.893	143.88
344.12	141.88
344.348	139.88
344.576	138.88
344.804	140.88
345.031	142.88
345.259	134.88
345.487	128.88
345.714	156.88
345.942	124.88
346.17	143.88
346.397	141.88
346.625	145.88
346.853	138.88
347.08	126.88
347.308	130.88
347.535	150.88
347.763	131.88
347.99	127.88
348.218	130.88
348.445	132.88
348.673	132.88
348.9	130.88
349.128	159.88
349.355	127.88
349.583	127.88
349.81	131.88
350.037	131.88
350.265	132.88
350.492	123.88
350.72	128.88
350.947	128.88
351.174	141.88
351.402	139.88
351.629	134.88
351.856	135.88
352.083	123.88
352.311	132.88
352.538	128.88
352.765	144.88
352.992	150.88
353.22	130.88
353.447	137.88
353.674	133.88
353.901	130.88
354.128	139.88
354.355	137.88
354.583	145.88
354.81	139.88
355.037	138.88
355.264	144.88
355.491	130.88
355.718	138.88
355.945	129.88
356.172	139.88
356.399	130.88
356.626	132.88
356.853	130.88
357.08	131.88
357.307	132.88
357.534	139.88
357.761	141.88
357.988	145.88
358.215	128.88
358.441	140.88
358.668	137.88
358.895	141.88
359.122	131.88
359.349	126.88
359.576	135.88
359.802	122.88
360.029	133.88
360.256	135.88
360.483	134.88
360.709	124.88
360.936	150.88
361.163	141.88
361.39	136.88
361.616	128.88
361.843	127.88
362.07	134.88
362.296	121.88
362.523	127.88
362.749	126.88
362.976	139.88
363.203	142.88
363.429	133.88
363.656	152.88
363.882	125.88
364.109	151.88
364.335	131.88
364.562	132.88
364.788	127.88
365.015	150.88
365.241	132.88
365.468	128.88
365.694	142.88
365.92	142.88
366.147	122.88
366.373	113.88
366.599	121.88
366.826	142.88
367.052	137.88
367.278	139.88
367.505	131.88
367.731	161.88
367.957	137.88
368.184	128.88
368.41	137.88
368.636	138.88
368.862	128.88
369.089	132.88
369.315	131.88
369.541	161.88
369.767	143.88
369.993	143.88
370.219	130.88
370.445	133.88
370.672	133.88
370.898	137.88
371.124	134.88
371.35	149.88
371.576	125.88
371.802	143.88
372.028	124.88
372.254	141.88
372.48	157.88
372.706	154.88
372.932	129.88
373.158	136.88
373.384	157.88
373.61	154.88
373.835	146.88
374.061	131.88
374.287	131.88
374.513	142.88
374.739	147.88
374.965	142.88
375.191	140.88
375.416	142.88
375.642	143.88
375.868	150.88
376.094	160.88
376.319	134.88
376.545	133.88
376.771	129.88
376.997	116.88
377.222	154.88
377.448	146.88
377.674	135.88
377.899	140.88
378.125	143.88
378.35	154.88
378.576	153.88
378.802	138.88
379.027	133.88
379.253	143.88
379.478	152.88
379.704	134.88
379.929	141.88
380.155	139.88
380.38	140.88
380.606	133.88
380.831	167.88
381.057	153.88
381.282	139.88
381.507	130.88
381.733	143.88
381.958	157.88
382.184	145.88
382.409	130.88
382.634	139.88
382.86	138.88
383.085	141.88
383.31	149.88
383.535	159.88
383.761	154.88
383.986	154.88
384.211	146.88
384.436	143.88
384.662	143.88
384.887	173.88
385.112	167.88
385.337	158.88
385.562	155.88
385.787	158.88
386.013	156.88
386.238	159.88
386.463	155.88
386.688	163.88
386.913	146.88
387.138	150.88
387.363	143.88
387.588	174.88
387.813	151.88
388.038	147.88
388.263	173.88
388.488	155.88
388.713	157.88
388.938	146.88
389.163	151.88
389.387	159.88
389.612	157.88
389.837	142.88
390.062	166.88
390.287	151.88
390.512	155.88
390.736	154.88
390.961	161.88
391.186	166.88
391.411	173.88
391.636	171.88
391.86	172.88
392.085	164.88
392.31	171.88
392.534	160.88
392.759	169.88
392.984	151.88
393.208	157.88
393.433	174.88
393.658	163.88
393.882	177.88
394.107	181.88
394.331	171.88
394.556	157.88
394.78	164.88
395.005	155.88
395.229	168.88
395.454	150.88
395.678	166.88
395.903	168.88
396.127	153.88
396.352	175.88
396.576	144.88
396.801	159.88
397.025	164.88
397.249	173.88
397.474	173.88
397.698	178.88
397.922	185.88
398.147	172.88
398.371	164.88
398.595	166.88
398.82	165.88
399.044	179.88
399.268	197.88
399.492	238.88
399.717	244.88
399.941	227.88
400.165	199.88
400.389	191.88
400.613	186.88
400.837	183.88
401.062	173.88
401.286	177.88
401.51	175.88
401.734	174.88
401.958	173.88
402.182	185.88
402.406	176.88
402.63	185.88
402.854	193.88
403.078	190.88
403.302	188.88
403.526	203.88
403.75	205.88
403.974	199.88
404.198	215.88
404.422	217.88
404.645	207.88
404.869	197.88
405.093	198.88
405.317	193.88
405.541	171.88
405.765	173.88
405.988	198.88
406.212	180.88
406.436	189.88
406.66	212.88
406.883	181.88
407.107	193.88
407.331	222.88
407.555	217.88
407.778	211.88
408.002	209.88
408.226	215.88
408.449	191.88
408.673	204.88
408.896	188.88
409.12	212.88
409.344	211.88
409.567	174.88
409.791	189.88
410.014	194.88
410.238	201.88
410.461	193.88
410.685	190.88
410.908	186.88
411.132	185.88
411.355	177.88
411.578	196.88
411.802	173.88
412.025	187.88
412.249	181.88
412.472	175.88
412.695	168.88
412.919	177.88
413.142	173.88
413.365	187.88
413.589	185.88
413.812	169.88
414.035	182.88
414.258	194.88
414.482	205.88
414.705	181.88
414.928	196.88
415.151	147.88
415.374	165.88
415.597	193.88
415.821	181.88
416.044	160.88
416.267	184.88
416.49	170.88
416.713	173.88
416.936	179.88
417.159	184.88
417.382	167.88
417.605	167.88
417.828	182.88
418.051	160.88
418.274	182.88
418.497	182.88
418.72	182.88
418.943	187.88
419.166	191.88
419.389	183.88
419.611	188.88
419.834	193.88
420.057	189.88
420.28	185.88
420.503	185.88
420.726	178.88
420.948	170.88
421.171	159.88
421.394	182.88
421.617	176.88
421.839	169.88
422.062	177.88
422.285	194.88
422.507	190.88
422.73	181.88
422.953	180.88
423.175	179.88
423.398	195.88
423.621	191.88
423.843	202.88
424.066	194.88
424.288	189.88
424.511	171.88
424.733	183.88
424.956	188.88
425.178	177.88
425.401	178.88
425.623	204.88
425.846	186.88
426.068	174.88
426.291	164.88
426.513	175.88
426.735	187.88
426.958	172.88
427.18	175.88
427.402	165.88
427.625	157.88
427.847	164.88
428.069	177.88
428.292	157.88
428.514	168.88
428.736	160.88
428.958	169.88
429.181	147.88
429.403	168.88
429.625	183.88
429.847	162.88
430.069	170.88
430.292	167.88
430.514	160.88
430.736	159.88
430.958	166.88
431.18	152.88
431.402	168.88
431.624	171.88
431.846	165.88
432.068	171.88
432.29	176.88
432.512	173.88
432.734	163.88
432.956	178.88
433.178	185.88
433.4	170.88
433.622	178.88
433.844	153.88
434.066	167.88
434.287	165.88
434.509	159.88
434.731	181.88
434.953	174.88
435.175	157.88
435.397	173.88
435.618	172.88
435.84	166.88
436.062	179.88
436.284	161.88
436.505	174.88
436.727	171.88
436.949	167.88
437.17	175.88
437.392	162.88
437.614	180.88
437.835	156.88
438.057	151.88
438.278	158.88
438.5	164.88
438.721	186.88
438.943	155.88
439.165	160.88
439.386	162.88
439.608	183.88
439.829	163.88
440.05	166.88
440.272	165.88
440.493	180.88
440.715	158.88
440.936	181.88
441.158	180.88
441.379	172.88
441.6	186.88
441.822	201.88
442.043	192.88
442.264	175.88
442.486	171.88
442.707	179.88
442.928	176.88
443.149	170.88
443.371	176.88
443.592	183.88
443.813	178.88
444.034	193.88
444.255	212.88
444.476	189.88
444.698	209.88
444.919	193.88
445.14	465.88
445.361	312.88
445.582	196.88
445.803	171.88
446.024	166.88
446.245	182.88
446.466	164.88
446.687	171.88
446.908	188.88
447.129	173.88
447.35	157.88
447.571	162.88
447.792	172.88
448.013	153.88
448.234	161.88
448.455	159.88
448.675	149.88
448.896	153.88
449.117	165.88
449.338	157.88
449.559	165.88
449.779	162.88
450	164.88
450.221	145.88
450.442	160.88
450.662	162.88
450.883	162.88
451.104	187.88
451.324	158.88
451.545	159.88
451.766	158.88
451.986	171.88
452.207	169.88
452.428	158.88
452.648	149.88
452.869	171.88
453.089	150.88
453.31	175.88
453.53	157.88
453.751	161.88
453.971	163.88
454.192	137.88
454.412	143.88
454.633	146.88
454.853	154.88
455.073	149.88
455.294	153.88
455.514	148.88
455.734	145.88
455.955	153.88
456.175	141.88
456.395	152.88
456.616	164.88
456.836	143.88
457.056	171.88
457.276	155.88
457.497	146.88
457.717	146.88
457.937	146.88
458.157	154.88
458.377	153.88
458.598	155.88
458.818	159.88
459.038	149.88
459.258	163.88
459.478	176.88
459.698	167.88
459.918	180.88
460.138	176.88
460.358	179.88
460.578	184.88
460.798	189.88
461.018	186.88
461.238	192.88
461.458	187.88
461.678	170.88
461.898	188.88
462.118	169.88
462.338	201.88
462.558	187.88
462.777	212.88
462.997	220.88
463.217	217.88
463.437	214.88
463.657	201.88
463.876	203.88
464.096	203.88
464.316	193.88
464.536	206.88
464.755	206.88
464.975	205.88
465.195	188.88
465.414	181.88
465.634	179.88
465.854	159.88
466.073	170.88
466.293	174.88
466.512	168.88
466.732	159.88
466.951	163.88
467.171	167.88
467.391	145.88
467.61	162.88
467.829	167.88
468.049	180.88
468.268	145.88
468.488	156.88
468.707	151.88
468.927	157.88
469.146	172.88
469.365	155.88
469.585	149.88
469.804	166.88
470.023	165.88
470.243	176.88
470.462	165.88
470.681	158.88
470.901	162.88
471.12	158.88
471.339	152.88
471.558	167.88
471.777	158.88
471.997	186.88
472.216	156.88
472.435	157.88
472.654	146.88
472.873	160.88
473.092	167.88
473.311	154.88
473.53	163.88
473.749	156.88
473.968	167.88
474.187	154.88
474.406	164.88
474.625	162.88
474.844	154.88
475.063	161.88
475.282	154.88
475.501	155.88
475.72	168.88
475.939	165.88
476.158	153.88
476.377	153.88
476.596	157.88
476.814	163.88
477.033	161.88
477.252	174.88
477.471	162.88
477.69	168.88
477.908	187.88
478.127	175.88
478.346	178.88
478.564	177.88
478.783	176.88
479.002	177.88
479.22	180.88
479.439	187.88
479.658	173.88
479.876	190.88
480.095	190.88
480.313	199.88
480.532	193.88
480.751	186.88
480.969	182.88
481.188	182.88
481.406	184.88
481.624	161.88
481.843	170.88
482.061	165.88
482.28	170.88
482.498	181.88
482.717	142.88
482.935	173.88
483.153	172.88
483.372	175.88
483.59	173.88
483.808	172.88
484.027	175.88
484.245	181.88
484.463	175.88
484.681	188.88
484.9	174.88
485.118	187.88
485.336	160.88
485.554	193.88
485.772	176.88
485.99	176.88
486.209	168.88
486.427	189.88
486.645	199.88
486.863	188.88
487.081	173.88
487.299	176.88
487.517	196.88
487.735	190.88
487.953	186.88
488.171	170.88
488.389	174.88
488.607	180.88
488.825	184.88
489.043	166.88
489.261	185.88
489.479	167.88
489.696	192.88
489.914	179.88
490.132	178.88
490.35	174.88
490.568	188.88
490.786	199.88
491.003	191.88
491.221	197.88
491.439	187.88
491.657	174.88
491.874	189.88
492.092	181.88
492.31	200.88
492.527	176.88
492.745	186.88
492.963	189.88
493.18	203.88
493.398	198.88
493.615	194.88
493.833	186.88
494.05	175.88
494.268	191.88
494.485	182.88
494.703	206.88
494.92	193.88
495.138	193.88
495.355	192.88
495.573	194.88
495.79	182.88
496.008	192.88
496.225	195.88
496.442	180.88
496.66	202.88
496.877	207.88
497.094	204.88
497.312	185.88
497.529	195.88
497.746	226.88
497.963	210.88
498.181	209.88
498.398	209.88
498.615	217.88
498.832	236.88
499.049	260.88
499.267	273.88
499.484	285.88
499.701	319.88
499.918	347.88
500.135	377.88
500.352	409.88
500.569	434.88
500.786	430.88
501.003	383.88
501.22	346.88
501.437	307.88
501.654	283.88
501.871	262.88
502.088	236.88
502.305	226.88
502.522	221.88
502.739	230.88
502.956	222.88
503.172	203.88
503.389	226.88
503.606	204.88
503.823	207.88
504.04	204.88
504.256	208.88
504.473	204.88
504.69	210.88
504.907	212.88
