Data from SampD_HRD10591_00059.txt Node
Date: Mon Jan 19 11:41:41 EST 2026
User: Yrep
Spectrometer: HR+D1059
Trigger mode: 0
Integration Time (sec): 3.443000E-1
Scans to average: 1
Electric dark correction enabled: true
Nonlinearity correction enabled: false
Boxcar width: 0
XAxis mode: Wavelengths
Number of Pixels in Spectrum: 2048
>>>>>Begin Spectral Data<<<<<
223.165	-25.44
223.4	-25.44
223.635	-25.44
223.869	-27.44
224.104	-23.44
224.338	-24.44
224.573	-7.44
224.808	-9.44
225.042	-11.44
225.277	-1.44
225.511	-13.44
225.746	14.56
225.98	20.56
226.215	22.56
226.449	20.56
226.683	20.56
226.918	24.56
227.152	20.56
227.387	23.56
227.621	39.56
227.856	41.56
228.09	44.56
228.324	43.56
228.559	46.56
228.793	57.56
229.027	75.56
229.262	70.56
229.496	60.56
229.73	62.56
229.964	78.56
230.199	65.56
230.433	74.56
230.667	76.56
230.901	66.56
231.136	65.56
231.37	75.56
231.604	78.56
231.838	78.56
232.072	87.56
232.306	90.56
232.541	79.56
232.775	81.56
233.009	90.56
233.243	78.56
233.477	92.56
233.711	94.56
233.945	78.56
234.179	74.56
234.413	92.56
234.647	88.56
234.881	78.56
235.115	84.56
235.349	78.56
235.583	86.56
235.817	80.56
236.051	67.56
236.285	51.56
236.519	76.56
236.753	89.56
236.987	83.56
237.221	85.56
237.455	72.56
237.689	78.56
237.922	76.56
238.156	59.56
238.39	74.56
238.624	74.56
238.858	88.56
239.091	81.56
239.325	83.56
239.559	81.56
239.793	88.56
240.027	91.56
240.26	85.56
240.494	85.56
240.728	95.56
240.961	80.56
241.195	73.56
241.429	80.56
241.662	66.56
241.896	66.56
242.13	91.56
242.363	86.56
242.597	84.56
242.83	85.56
243.064	86.56
243.298	76.56
243.531	83.56
243.765	80.56
243.998	89.56
244.232	89.56
244.465	92.56
244.699	76.56
244.932	73.56
245.166	74.56
245.399	84.56
245.633	82.56
245.866	69.56
246.099	81.56
246.333	74.56
246.566	72.56
246.8	84.56
247.033	60.56
247.266	87.56
247.5	91.56
247.733	75.56
247.966	80.56
248.2	82.56
248.433	82.56
248.666	83.56
248.899	78.56
249.133	77.56
249.366	93.56
249.599	84.56
249.832	78.56
250.066	89.56
250.299	92.56
250.532	77.56
250.765	80.56
250.998	87.56
251.231	96.56
251.465	81.56
251.698	80.56
251.931	78.56
252.164	81.56
252.397	90.56
252.63	85.56
252.863	78.56
253.096	79.56
253.329	84.56
253.562	93.56
253.795	99.56
254.028	82.56
254.261	88.56
254.494	83.56
254.727	78.56
254.96	85.56
255.193	67.56
255.426	67.56
255.659	79.56
255.892	88.56
256.124	79.56
256.357	88.56
256.59	89.56
256.823	83.56
257.056	98.56
257.289	93.56
257.521	95.56
257.754	83.56
257.987	81.56
258.22	84.56
258.452	75.56
258.685	80.56
258.918	96.56
259.151	102.56
259.383	80.56
259.616	75.56
259.849	88.56
260.081	85.56
260.314	80.56
260.547	84.56
260.779	85.56
261.012	84.56
261.244	85.56
261.477	98.56
261.71	94.56
261.942	87.56
262.175	91.56
262.407	76.56
262.64	100.56
262.872	69.56
263.105	88.56
263.337	93.56
263.57	84.56
263.802	92.56
264.035	89.56
264.267	85.56
264.499	96.56
264.732	100.56
264.964	89.56
265.197	95.56
265.429	92.56
265.661	98.56
265.894	97.56
266.126	85.56
266.358	89.56
266.591	64.56
266.823	88.56
267.055	97.56
267.287	98.56
267.52	84.56
267.752	104.56
267.984	90.56
268.216	85.56
268.448	98.56
268.681	98.56
268.913	94.56
269.145	93.56
269.377	75.56
269.609	85.56
269.841	84.56
270.073	92.56
270.306	94.56
270.538	89.56
270.77	92.56
271.002	91.56
271.234	86.56
271.466	102.56
271.698	101.56
271.93	94.56
272.162	81.56
272.394	88.56
272.626	92.56
272.858	89.56
273.09	85.56
273.322	104.56
273.553	90.56
273.785	104.56
274.017	86.56
274.249	88.56
274.481	101.56
274.713	76.56
274.945	97.56
275.176	85.56
275.408	107.56
275.64	79.56
275.872	80.56
276.104	92.56
276.335	96.56
276.567	88.56
276.799	90.56
277.031	83.56
277.262	104.56
277.494	89.56
277.726	95.56
277.957	90.56
278.189	94.56
278.421	93.56
278.652	73.56
278.884	100.56
279.115	106.56
279.347	96.56
279.579	93.56
279.81	104.56
280.042	109.56
280.273	93.56
280.505	93.56
280.736	120.56
280.968	93.56
281.199	101.56
281.431	94.56
281.662	87.56
281.894	96.56
282.125	90.56
282.356	76.56
282.588	93.56
282.819	92.56
283.051	87.56
283.282	94.56
283.513	92.56
283.745	110.56
283.976	98.56
284.207	98.56
284.439	95.56
284.67	112.56
284.901	76.56
285.132	102.56
285.364	88.56
285.595	89.56
285.826	82.56
286.057	117.56
286.288	99.56
286.52	102.56
286.751	99.56
286.982	103.56
287.213	104.56
287.444	101.56
287.675	114.56
287.906	95.56
288.138	103.56
288.369	99.56
288.6	99.56
288.831	82.56
289.062	92.56
289.293	102.56
289.524	91.56
289.755	122.56
289.986	103.56
290.217	104.56
290.448	88.56
290.679	98.56
290.91	104.56
291.141	103.56
291.371	112.56
291.602	97.56
291.833	108.56
292.064	92.56
292.295	108.56
292.526	116.56
292.757	103.56
292.987	99.56
293.218	88.56
293.449	99.56
293.68	106.56
293.91	86.56
294.141	113.56
294.372	99.56
294.603	88.56
294.833	105.56
295.064	89.56
295.295	96.56
295.525	98.56
295.756	100.56
295.987	102.56
296.217	93.56
296.448	100.56
296.679	110.56
296.909	105.56
297.14	90.56
297.37	106.56
297.601	101.56
297.831	96.56
298.062	111.56
298.292	105.56
298.523	100.56
298.753	98.56
298.984	101.56
299.214	98.56
299.445	107.56
299.675	106.56
299.905	116.56
300.136	98.56
300.366	113.56
300.597	113.56
300.827	112.56
301.057	102.56
301.288	106.56
301.518	93.56
301.748	102.56
301.979	139.56
302.209	108.56
302.439	100.56
302.669	106.56
302.9	106.56
303.13	104.56
303.36	115.56
303.59	89.56
303.82	101.56
304.051	106.56
304.281	79.56
304.511	100.56
304.741	84.56
304.971	101.56
305.201	103.56
305.431	110.56
305.661	104.56
305.891	90.56
306.121	119.56
306.352	108.56
306.582	104.56
306.812	97.56
307.042	95.56
307.272	88.56
307.502	111.56
307.731	92.56
307.961	97.56
308.191	108.56
308.421	107.56
308.651	99.56
308.881	91.56
309.111	99.56
309.341	102.56
309.571	105.56
309.8	112.56
310.03	101.56
310.26	106.56
310.49	110.56
310.72	97.56
310.949	111.56
311.179	101.56
311.409	90.56
311.639	90.56
311.868	101.56
312.098	112.56
312.328	115.56
312.557	107.56
312.787	78.56
313.017	114.56
313.246	113.56
313.476	103.56
313.706	104.56
313.935	101.56
314.165	103.56
314.394	114.56
314.624	101.56
314.853	105.56
315.083	113.56
315.312	111.56
315.542	106.56
315.771	94.56
316.001	112.56
316.23	114.56
316.46	121.56
316.689	104.56
316.919	109.56
317.148	93.56
317.377	101.56
317.607	110.56
317.836	117.56
318.065	93.56
318.295	93.56
318.524	106.56
318.753	96.56
318.983	102.56
319.212	127.56
319.441	106.56
319.67	94.56
319.9	93.56
320.129	91.56
320.358	99.56
320.587	103.56
320.816	105.56
321.046	97.56
321.275	102.56
321.504	106.56
321.733	103.56
321.962	112.56
322.191	107.56
322.42	96.56
322.649	110.56
322.878	112.56
323.108	113.56
323.337	115.56
323.566	116.56
323.795	96.56
324.024	78.56
324.253	97.56
324.482	108.56
324.71	108.56
324.939	120.56
325.168	105.56
325.397	105.56
325.626	104.56
325.855	103.56
326.084	97.56
326.313	108.56
326.542	93.56
326.77	102.56
326.999	113.56
327.228	108.56
327.457	108.56
327.686	110.56
327.914	114.56
328.143	124.56
328.372	101.56
328.6	116.56
328.829	105.56
329.058	120.56
329.287	95.56
329.515	91.56
329.744	113.56
329.972	110.56
330.201	106.56
330.43	112.56
330.658	110.56
330.887	103.56
331.115	112.56
331.344	108.56
331.572	105.56
331.801	102.56
332.03	121.56
332.258	113.56
332.486	105.56
332.715	126.56
332.943	119.56
333.172	108.56
333.4	102.56
333.629	107.56
333.857	122.56
334.085	120.56
334.314	117.56
334.542	117.56
334.771	133.56
334.999	122.56
335.227	127.56
335.455	114.56
335.684	118.56
335.912	113.56
336.14	103.56
336.369	110.56
336.597	120.56
336.825	106.56
337.053	117.56
337.281	112.56
337.51	116.56
337.738	131.56
337.966	111.56
338.194	102.56
338.422	94.56
338.65	104.56
338.878	110.56
339.106	98.56
339.334	118.56
339.562	102.56
339.79	110.56
340.018	123.56
340.246	102.56
340.474	113.56
340.702	101.56
340.93	122.56
341.158	88.56
341.386	110.56
341.614	115.56
341.842	109.56
342.07	93.56
342.298	110.56
342.526	100.56
342.754	113.56
342.981	117.56
343.209	116.56
343.437	151.56
343.665	112.56
343.893	118.56
344.12	112.56
344.348	102.56
344.576	112.56
344.804	112.56
345.031	122.56
345.259	117.56
345.487	126.56
345.714	107.56
345.942	115.56
346.17	114.56
346.397	109.56
346.625	99.56
346.853	101.56
347.08	128.56
347.308	118.56
347.535	99.56
347.763	106.56
347.99	111.56
348.218	106.56
348.445	113.56
348.673	113.56
348.9	123.56
349.128	116.56
349.355	109.56
349.583	112.56
349.81	102.56
350.037	103.56
350.265	102.56
350.492	97.56
350.72	109.56
350.947	110.56
351.174	106.56
351.402	106.56
351.629	92.56
351.856	110.56
352.083	109.56
352.311	115.56
352.538	100.56
352.765	106.56
352.992	125.56
353.22	110.56
353.447	100.56
353.674	109.56
353.901	115.56
354.128	107.56
354.355	99.56
354.583	108.56
354.81	113.56
355.037	106.56
355.264	116.56
355.491	107.56
355.718	105.56
355.945	115.56
356.172	90.56
356.399	98.56
356.626	113.56
356.853	101.56
357.08	105.56
357.307	108.56
357.534	98.56
357.761	112.56
357.988	109.56
358.215	110.56
358.441	98.56
358.668	107.56
358.895	99.56
359.122	120.56
359.349	109.56
359.576	108.56
359.802	93.56
360.029	113.56
360.256	117.56
360.483	100.56
360.709	97.56
360.936	137.56
361.163	105.56
361.39	104.56
361.616	113.56
361.843	88.56
362.07	108.56
362.296	112.56
362.523	88.56
362.749	96.56
362.976	107.56
363.203	126.56
363.429	100.56
363.656	112.56
363.882	102.56
364.109	102.56
364.335	119.56
364.562	96.56
364.788	101.56
365.015	110.56
365.241	115.56
365.468	108.56
365.694	98.56
365.92	113.56
366.147	124.56
366.373	108.56
366.599	101.56
366.826	100.56
367.052	116.56
367.278	122.56
367.505	112.56
367.731	113.56
367.957	100.56
368.184	110.56
368.41	110.56
368.636	121.56
368.862	102.56
369.089	104.56
369.315	83.56
369.541	117.56
369.767	109.56
369.993	91.56
370.219	106.56
370.445	105.56
370.672	100.56
370.898	97.56
371.124	108.56
371.35	95.56
371.576	105.56
371.802	109.56
372.028	106.56
372.254	106.56
372.48	108.56
372.706	121.56
372.932	101.56
373.158	111.56
373.384	122.56
373.61	125.56
373.835	114.56
374.061	114.56
374.287	115.56
374.513	113.56
374.739	113.56
374.965	124.56
375.191	126.56
375.416	129.56
375.642	105.56
375.868	116.56
376.094	118.56
376.319	117.56
376.545	136.56
376.771	100.56
376.997	118.56
377.222	99.56
377.448	117.56
377.674	91.56
377.899	103.56
378.125	106.56
378.35	117.56
378.576	111.56
378.802	102.56
379.027	111.56
379.253	119.56
379.478	107.56
379.704	110.56
379.929	125.56
380.155	112.56
380.38	108.56
380.606	118.56
380.831	128.56
381.057	133.56
381.282	102.56
381.507	126.56
381.733	98.56
381.958	111.56
382.184	108.56
382.409	114.56
382.634	111.56
382.86	110.56
383.085	116.56
383.31	107.56
383.535	127.56
383.761	123.56
383.986	121.56
384.211	113.56
384.436	103.56
384.662	99.56
384.887	114.56
385.112	114.56
385.337	117.56
385.562	116.56
385.787	116.56
386.013	116.56
386.238	118.56
386.463	124.56
386.688	155.56
386.913	107.56
387.138	113.56
387.363	122.56
387.588	116.56
387.813	122.56
388.038	114.56
388.263	117.56
388.488	120.56
388.713	120.56
388.938	122.56
389.163	124.56
389.387	99.56
389.612	114.56
389.837	109.56
390.062	120.56
390.287	122.56
390.512	129.56
390.736	112.56
390.961	117.56
391.186	118.56
391.411	121.56
391.636	118.56
391.86	125.56
392.085	132.56
392.31	135.56
392.534	117.56
392.759	128.56
392.984	132.56
393.208	113.56
393.433	123.56
393.658	116.56
393.882	116.56
394.107	117.56
394.331	117.56
394.556	118.56
394.78	122.56
395.005	130.56
395.229	126.56
395.454	122.56
395.678	127.56
395.903	122.56
396.127	129.56
396.352	115.56
396.576	131.56
396.801	125.56
397.025	124.56
397.249	126.56
397.474	136.56
397.698	123.56
397.922	126.56
398.147	130.56
398.371	140.56
398.595	131.56
398.82	127.56
399.044	140.56
399.268	155.56
399.492	160.56
399.717	156.56
399.941	155.56
400.165	136.56
400.389	129.56
400.613	138.56
400.837	140.56
401.062	138.56
401.286	124.56
401.51	120.56
401.734	129.56
401.958	140.56
402.182	138.56
402.406	123.56
402.63	130.56
402.854	131.56
403.078	132.56
403.302	142.56
403.526	130.56
403.75	130.56
403.974	138.56
404.198	145.56
404.422	142.56
404.645	141.56
404.869	136.56
405.093	136.56
405.317	137.56
405.541	142.56
405.765	128.56
405.988	130.56
406.212	123.56
406.436	140.56
406.66	142.56
406.883	136.56
407.107	124.56
407.331	145.56
407.555	146.56
407.778	138.56
408.002	143.56
408.226	154.56
408.449	141.56
408.673	133.56
408.896	154.56
409.12	133.56
409.344	136.56
409.567	134.56
409.791	156.56
410.014	138.56
410.238	137.56
410.461	137.56
410.685	150.56
410.908	132.56
411.132	142.56
411.355	142.56
411.578	143.56
411.802	149.56
412.025	133.56
412.249	140.56
412.472	121.56
412.695	121.56
412.919	123.56
413.142	144.56
413.365	156.56
413.589	128.56
413.812	130.56
414.035	140.56
414.258	126.56
414.482	133.56
414.705	128.56
414.928	131.56
415.151	115.56
415.374	123.56
415.597	130.56
415.821	133.56
416.044	142.56
416.267	123.56
416.49	137.56
416.713	128.56
416.936	137.56
417.159	137.56
417.382	137.56
417.605	110.56
417.828	136.56
418.051	122.56
418.274	160.56
418.497	128.56
418.72	132.56
418.943	142.56
419.166	145.56
419.389	140.56
419.611	132.56
419.834	130.56
420.057	148.56
420.28	140.56
420.503	136.56
420.726	131.56
420.948	123.56
421.171	129.56
421.394	130.56
421.617	131.56
421.839	123.56
422.062	124.56
422.285	121.56
422.507	130.56
422.73	138.56
422.953	139.56
423.175	130.56
423.398	134.56
423.621	130.56
423.843	127.56
424.066	148.56
424.288	130.56
424.511	138.56
424.733	133.56
424.956	136.56
425.178	135.56
425.401	130.56
425.623	134.56
425.846	122.56
426.068	120.56
426.291	135.56
426.513	122.56
426.735	136.56
426.958	121.56
427.18	115.56
427.402	150.56
427.625	111.56
427.847	121.56
428.069	121.56
428.292	124.56
428.514	120.56
428.736	124.56
428.958	125.56
429.181	126.56
429.403	133.56
429.625	124.56
429.847	124.56
430.069	116.56
430.292	146.56
430.514	138.56
430.736	127.56
430.958	117.56
431.18	125.56
431.402	118.56
431.624	127.56
431.846	130.56
432.068	117.56
432.29	124.56
432.512	114.56
432.734	114.56
432.956	129.56
433.178	133.56
433.4	122.56
433.622	137.56
433.844	138.56
434.066	137.56
434.287	124.56
434.509	117.56
434.731	130.56
434.953	120.56
435.175	123.56
435.397	129.56
435.618	124.56
435.84	137.56
436.062	111.56
436.284	112.56
436.505	115.56
436.727	121.56
436.949	138.56
437.17	118.56
437.392	111.56
437.614	130.56
437.835	117.56
438.057	113.56
438.278	122.56
438.5	113.56
438.721	118.56
438.943	128.56
439.165	122.56
439.386	122.56
439.608	134.56
439.829	115.56
440.05	127.56
440.272	136.56
440.493	138.56
440.715	121.56
440.936	136.56
441.158	124.56
441.379	130.56
441.6	148.56
441.822	132.56
442.043	129.56
442.264	142.56
442.486	129.56
442.707	118.56
442.928	141.56
443.149	138.56
443.371	143.56
443.592	142.56
443.813	148.56
444.034	124.56
444.255	143.56
444.476	146.56
444.698	157.56
444.919	144.56
445.14	418.56
445.361	254.56
445.582	161.56
445.803	137.56
446.024	136.56
446.245	130.56
446.466	138.56
446.687	132.56
446.908	127.56
447.129	129.56
447.35	129.56
447.571	129.56
447.792	117.56
448.013	114.56
448.234	118.56
448.455	116.56
448.675	124.56
448.896	120.56
449.117	120.56
449.338	106.56
449.559	131.56
449.779	125.56
450	125.56
450.221	125.56
450.442	117.56
450.662	127.56
450.883	118.56
451.104	116.56
451.324	136.56
451.545	125.56
451.766	125.56
451.986	114.56
452.207	129.56
452.428	119.56
452.648	146.56
452.869	127.56
453.089	115.56
453.31	123.56
453.53	121.56
453.751	140.56
453.971	127.56
454.192	110.56
454.412	108.56
454.633	119.56
454.853	121.56
455.073	117.56
455.294	112.56
455.514	119.56
455.734	107.56
455.955	115.56
456.175	110.56
456.395	124.56
456.616	117.56
456.836	117.56
457.056	118.56
457.276	128.56
457.497	113.56
457.717	106.56
457.937	129.56
458.157	124.56
458.377	124.56
458.598	127.56
458.818	120.56
459.038	108.56
459.258	110.56
459.478	117.56
459.698	117.56
459.918	143.56
460.138	120.56
460.358	138.56
460.578	135.56
460.798	134.56
461.018	128.56
461.238	141.56
461.458	133.56
461.678	152.56
461.898	140.56
462.118	136.56
462.338	132.56
462.558	139.56
462.777	145.56
462.997	154.56
463.217	157.56
463.437	140.56
463.657	156.56
463.876	134.56
464.096	136.56
464.316	143.56
464.536	156.56
464.755	148.56
464.975	132.56
465.195	156.56
465.414	131.56
465.634	132.56
465.854	145.56
466.073	130.56
466.293	122.56
466.512	119.56
466.732	115.56
466.951	112.56
467.171	126.56
467.391	121.56
467.61	123.56
467.829	121.56
468.049	130.56
468.268	125.56
468.488	127.56
468.707	127.56
468.927	123.56
469.146	123.56
469.365	112.56
469.585	134.56
469.804	124.56
470.023	111.56
470.243	136.56
470.462	113.56
470.681	132.56
470.901	121.56
471.12	120.56
471.339	122.56
471.558	118.56
471.777	136.56
471.997	141.56
472.216	128.56
472.435	120.56
472.654	128.56
472.873	122.56
473.092	113.56
473.311	113.56
473.53	114.56
473.749	140.56
473.968	131.56
474.187	109.56
474.406	121.56
474.625	128.56
474.844	137.56
475.063	125.56
475.282	132.56
475.501	113.56
475.72	137.56
475.939	111.56
476.158	116.56
476.377	127.56
476.596	119.56
476.814	114.56
477.033	125.56
477.252	132.56
477.471	123.56
477.69	131.56
477.908	149.56
478.127	141.56
478.346	132.56
478.564	125.56
478.783	130.56
479.002	137.56
479.22	136.56
479.439	147.56
479.658	136.56
479.876	131.56
480.095	129.56
480.313	136.56
480.532	134.56
480.751	137.56
480.969	118.56
481.188	138.56
481.406	144.56
481.624	142.56
481.843	124.56
482.061	117.56
482.28	132.56
482.498	127.56
482.717	131.56
482.935	144.56
483.153	128.56
483.372	134.56
483.59	125.56
483.808	113.56
484.027	122.56
484.245	128.56
484.463	123.56
484.681	152.56
484.9	132.56
485.118	130.56
485.336	127.56
485.554	113.56
485.772	123.56
485.99	139.56
486.209	136.56
486.427	136.56
486.645	152.56
486.863	145.56
487.081	122.56
487.299	122.56
487.517	121.56
487.735	132.56
487.953	130.56
488.171	127.56
488.389	138.56
488.607	150.56
488.825	129.56
489.043	116.56
489.261	142.56
489.479	138.56
489.696	142.56
489.914	139.56
490.132	137.56
490.35	147.56
490.568	127.56
490.786	147.56
491.003	133.56
491.221	141.56
491.439	145.56
491.657	127.56
491.874	129.56
492.092	156.56
492.31	158.56
492.527	139.56
492.745	153.56
492.963	138.56
493.18	121.56
493.398	136.56
493.615	143.56
493.833	124.56
494.05	123.56
494.268	143.56
494.485	134.56
494.703	138.56
494.92	150.56
495.138	140.56
495.355	137.56
495.573	148.56
495.79	125.56
496.008	125.56
496.225	133.56
496.442	122.56
496.66	154.56
496.877	159.56
497.094	143.56
497.312	134.56
497.529	144.56
497.746	150.56
497.963	132.56
498.181	144.56
498.398	167.56
498.615	161.56
498.832	152.56
499.049	156.56
499.267	186.56
499.484	200.56
499.701	209.56
499.918	217.56
500.135	239.56
500.352	261.56
500.569	250.56
500.786	257.56
501.003	232.56
501.22	202.56
501.437	223.56
501.654	200.56
501.871	170.56
502.088	177.56
502.305	179.56
502.522	157.56
502.739	173.56
502.956	156.56
503.172	142.56
503.389	158.56
503.606	129.56
503.823	138.56
504.04	159.56
504.256	169.56
504.473	145.56
504.69	157.56
504.907	157.56
505.123	140.56
505.34	127.56
505.557	138.56
505.773	130.56
505.99	136.56
506.207	141.56
506.423	126.56
506.64	134.56
506.856	141.56
507.073	131.56
