Data from SampD_HRD10591_00041.txt Node
Date: Mon Jan 19 11:41:35 EST 2026
User: Yrep
Spectrometer: HR+D1059
Trigger mode: 0
Integration Time (sec): 3.443000E-1
Scans to average: 1
Electric dark correction enabled: true
Nonlinearity correction enabled: false
Boxcar width: 0
XAxis mode: Wavelengths
Number of Pixels in Spectrum: 2048
>>>>>Begin Spectral Data<<<<<
223.165	-18.06
223.4	-18.06
223.635	-18.06
223.869	-29.06
224.104	-29.06
224.338	-3.06
224.573	-21.06
224.808	-20.06
225.042	-21.06
225.277	-8.06
225.511	-4.06
225.746	3.94
225.98	3.94
226.215	20.94
226.449	22.94
226.683	21.94
226.918	36.94
227.152	42.94
227.387	33.94
227.621	40.94
227.856	60.94
228.09	53.94
228.324	62.94
228.559	61.94
228.793	72.94
229.027	68.94
229.262	70.94
229.496	73.94
229.73	77.94
229.964	73.94
230.199	77.94
230.433	70.94
230.667	80.94
230.901	83.94
231.136	86.94
231.37	81.94
231.604	92.94
231.838	82.94
232.072	88.94
232.306	85.94
232.541	77.94
232.775	73.94
233.009	84.94
233.243	79.94
233.477	83.94
233.711	91.94
233.945	72.94
234.179	88.94
234.413	91.94
234.647	83.94
234.881	88.94
235.115	83.94
235.349	89.94
235.583	80.94
235.817	87.94
236.051	73.94
236.285	96.94
236.519	78.94
236.753	80.94
236.987	86.94
237.221	56.94
237.455	86.94
237.689	82.94
237.922	76.94
238.156	73.94
238.39	73.94
238.624	81.94
238.858	80.94
239.091	58.94
239.325	86.94
239.559	84.94
239.793	91.94
240.027	89.94
240.26	79.94
240.494	86.94
240.728	78.94
240.961	79.94
241.195	98.94
241.429	78.94
241.662	66.94
241.896	80.94
242.13	80.94
242.363	69.94
242.597	84.94
242.83	72.94
243.064	83.94
243.298	105.94
243.531	71.94
243.765	88.94
243.998	87.94
244.232	98.94
244.465	92.94
244.699	81.94
244.932	78.94
245.166	76.94
245.399	94.94
245.633	88.94
245.866	75.94
246.099	80.94
246.333	85.94
246.566	88.94
246.8	90.94
247.033	86.94
247.266	85.94
247.5	80.94
247.733	78.94
247.966	85.94
248.2	78.94
248.433	84.94
248.666	67.94
248.899	90.94
249.133	101.94
249.366	97.94
249.599	95.94
249.832	80.94
250.066	93.94
250.299	76.94
250.532	105.94
250.765	77.94
250.998	87.94
251.231	81.94
251.465	79.94
251.698	75.94
251.931	82.94
252.164	81.94
252.397	102.94
252.63	84.94
252.863	71.94
253.096	77.94
253.329	92.94
253.562	80.94
253.795	86.94
254.028	94.94
254.261	80.94
254.494	86.94
254.727	92.94
254.96	94.94
255.193	82.94
255.426	100.94
255.659	87.94
255.892	111.94
256.124	93.94
256.357	82.94
256.59	96.94
256.823	97.94
257.056	77.94
257.289	88.94
257.521	84.94
257.754	93.94
257.987	86.94
258.22	99.94
258.452	93.94
258.685	82.94
258.918	90.94
259.151	72.94
259.383	84.94
259.616	85.94
259.849	88.94
260.081	74.94
260.314	97.94
260.547	102.94
260.779	96.94
261.012	98.94
261.244	93.94
261.477	106.94
261.71	80.94
261.942	85.94
262.175	101.94
262.407	94.94
262.64	81.94
262.872	97.94
263.105	86.94
263.337	84.94
263.57	92.94
263.802	103.94
264.035	94.94
264.267	88.94
264.499	95.94
264.732	94.94
264.964	97.94
265.197	84.94
265.429	90.94
265.661	89.94
265.894	84.94
266.126	109.94
266.358	87.94
266.591	104.94
266.823	87.94
267.055	89.94
267.287	96.94
267.52	96.94
267.752	112.94
267.984	98.94
268.216	94.94
268.448	109.94
268.681	88.94
268.913	109.94
269.145	101.94
269.377	93.94
269.609	103.94
269.841	90.94
270.073	108.94
270.306	100.94
270.538	109.94
270.77	86.94
271.002	104.94
271.234	101.94
271.466	94.94
271.698	92.94
271.93	99.94
272.162	100.94
272.394	116.94
272.626	108.94
272.858	94.94
273.09	101.94
273.322	119.94
273.553	91.94
273.785	96.94
274.017	103.94
274.249	98.94
274.481	89.94
274.713	88.94
274.945	97.94
275.176	100.94
275.408	96.94
275.64	103.94
275.872	95.94
276.104	104.94
276.335	106.94
276.567	79.94
276.799	100.94
277.031	104.94
277.262	100.94
277.494	101.94
277.726	111.94
277.957	96.94
278.189	102.94
278.421	95.94
278.652	100.94
278.884	90.94
279.115	112.94
279.347	101.94
279.579	100.94
279.81	94.94
280.042	105.94
280.273	94.94
280.505	94.94
280.736	100.94
280.968	103.94
281.199	105.94
281.431	84.94
281.662	100.94
281.894	95.94
282.125	93.94
282.356	85.94
282.588	108.94
282.819	104.94
283.051	99.94
283.282	96.94
283.513	127.94
283.745	93.94
283.976	88.94
284.207	114.94
284.439	113.94
284.67	99.94
284.901	108.94
285.132	97.94
285.364	105.94
285.595	97.94
285.826	91.94
286.057	105.94
286.288	103.94
286.52	104.94
286.751	96.94
286.982	92.94
287.213	100.94
287.444	102.94
287.675	108.94
287.906	120.94
288.138	102.94
288.369	98.94
288.6	104.94
288.831	90.94
289.062	110.94
289.293	121.94
289.524	89.94
289.755	101.94
289.986	91.94
290.217	95.94
290.448	109.94
290.679	110.94
290.91	98.94
291.141	94.94
291.371	106.94
291.602	96.94
291.833	99.94
292.064	95.94
292.295	97.94
292.526	107.94
292.757	100.94
292.987	103.94
293.218	108.94
293.449	112.94
293.68	97.94
293.91	86.94
294.141	99.94
294.372	110.94
294.603	91.94
294.833	103.94
295.064	95.94
295.295	108.94
295.525	100.94
295.756	94.94
295.987	108.94
296.217	105.94
296.448	106.94
296.679	113.94
296.909	116.94
297.14	108.94
297.37	127.94
297.601	85.94
297.831	97.94
298.062	115.94
298.292	101.94
298.523	103.94
298.753	92.94
298.984	115.94
299.214	99.94
299.445	95.94
299.675	87.94
299.905	114.94
300.136	110.94
300.366	116.94
300.597	105.94
300.827	98.94
301.057	104.94
301.288	95.94
301.518	105.94
301.748	98.94
301.979	129.94
302.209	121.94
302.439	110.94
302.669	113.94
302.9	119.94
303.13	102.94
303.36	101.94
303.59	106.94
303.82	124.94
304.051	93.94
304.281	107.94
304.511	114.94
304.741	104.94
304.971	103.94
305.201	116.94
305.431	105.94
305.661	98.94
305.891	116.94
306.121	112.94
306.352	104.94
306.582	102.94
306.812	120.94
307.042	117.94
307.272	96.94
307.502	92.94
307.731	95.94
307.961	111.94
308.191	100.94
308.421	125.94
308.651	108.94
308.881	113.94
309.111	98.94
309.341	96.94
309.571	100.94
309.8	98.94
310.03	112.94
310.26	96.94
310.49	100.94
310.72	106.94
310.949	115.94
311.179	119.94
311.409	109.94
311.639	105.94
311.868	107.94
312.098	102.94
312.328	106.94
312.557	102.94
312.787	116.94
313.017	108.94
313.246	114.94
313.476	109.94
313.706	108.94
313.935	105.94
314.165	113.94
314.394	106.94
314.624	102.94
314.853	124.94
315.083	120.94
315.312	116.94
315.542	95.94
315.771	113.94
316.001	97.94
316.23	109.94
316.46	99.94
316.689	109.94
316.919	115.94
317.148	106.94
317.377	121.94
317.607	118.94
317.836	119.94
318.065	105.94
318.295	105.94
318.524	111.94
318.753	108.94
318.983	109.94
319.212	99.94
319.441	110.94
319.67	99.94
319.9	123.94
320.129	106.94
320.358	108.94
320.587	114.94
320.816	106.94
321.046	111.94
321.275	119.94
321.504	116.94
321.733	116.94
321.962	114.94
322.191	108.94
322.42	94.94
322.649	112.94
322.878	113.94
323.108	104.94
323.337	126.94
323.566	117.94
323.795	108.94
324.024	111.94
324.253	120.94
324.482	117.94
324.71	108.94
324.939	101.94
325.168	110.94
325.397	106.94
325.626	108.94
325.855	93.94
326.084	117.94
326.313	119.94
326.542	114.94
326.77	132.94
326.999	118.94
327.228	110.94
327.457	115.94
327.686	114.94
327.914	109.94
328.143	112.94
328.372	99.94
328.6	109.94
328.829	110.94
329.058	104.94
329.287	106.94
329.515	98.94
329.744	108.94
329.972	109.94
330.201	132.94
330.43	125.94
330.658	107.94
330.887	114.94
331.115	113.94
331.344	109.94
331.572	116.94
331.801	97.94
332.03	121.94
332.258	122.94
332.486	128.94
332.715	114.94
332.943	128.94
333.172	112.94
333.4	121.94
333.629	142.94
333.857	139.94
334.085	127.94
334.314	113.94
334.542	117.94
334.771	109.94
334.999	118.94
335.227	126.94
335.455	125.94
335.684	120.94
335.912	125.94
336.14	118.94
336.369	100.94
336.597	112.94
336.825	119.94
337.053	117.94
337.281	104.94
337.51	110.94
337.738	117.94
337.966	100.94
338.194	120.94
338.422	115.94
338.65	117.94
338.878	128.94
339.106	119.94
339.334	132.94
339.562	113.94
339.79	120.94
340.018	113.94
340.246	100.94
340.474	108.94
340.702	118.94
340.93	127.94
341.158	111.94
341.386	130.94
341.614	104.94
341.842	106.94
342.07	103.94
342.298	107.94
342.526	98.94
342.754	100.94
342.981	97.94
343.209	112.94
343.437	152.94
343.665	123.94
343.893	124.94
344.12	126.94
344.348	122.94
344.576	104.94
344.804	105.94
345.031	115.94
345.259	113.94
345.487	133.94
345.714	103.94
345.942	110.94
346.17	127.94
346.397	115.94
346.625	114.94
346.853	99.94
347.08	100.94
347.308	109.94
347.535	103.94
347.763	109.94
347.99	120.94
348.218	119.94
348.445	115.94
348.673	104.94
348.9	124.94
349.128	116.94
349.355	103.94
349.583	115.94
349.81	113.94
350.037	106.94
350.265	116.94
350.492	107.94
350.72	113.94
350.947	94.94
351.174	122.94
351.402	107.94
351.629	104.94
351.856	116.94
352.083	106.94
352.311	113.94
352.538	104.94
352.765	105.94
352.992	124.94
353.22	109.94
353.447	130.94
353.674	118.94
353.901	112.94
354.128	113.94
354.355	109.94
354.583	95.94
354.81	106.94
355.037	109.94
355.264	121.94
355.491	102.94
355.718	119.94
355.945	111.94
356.172	114.94
356.399	108.94
356.626	106.94
356.853	109.94
357.08	120.94
357.307	93.94
357.534	111.94
357.761	109.94
357.988	128.94
358.215	133.94
358.441	112.94
358.668	111.94
358.895	106.94
359.122	111.94
359.349	109.94
359.576	125.94
359.802	110.94
360.029	110.94
360.256	109.94
360.483	116.94
360.709	110.94
360.936	115.94
361.163	109.94
361.39	112.94
361.616	109.94
361.843	116.94
362.07	107.94
362.296	130.94
362.523	115.94
362.749	125.94
362.976	106.94
363.203	109.94
363.429	115.94
363.656	125.94
363.882	116.94
364.109	120.94
364.335	118.94
364.562	110.94
364.788	112.94
365.015	116.94
365.241	124.94
365.468	117.94
365.694	110.94
365.92	113.94
366.147	96.94
366.373	111.94
366.599	106.94
366.826	117.94
367.052	122.94
367.278	121.94
367.505	101.94
367.731	127.94
367.957	108.94
368.184	108.94
368.41	119.94
368.636	123.94
368.862	103.94
369.089	105.94
369.315	101.94
369.541	103.94
369.767	119.94
369.993	125.94
370.219	105.94
370.445	113.94
370.672	110.94
370.898	108.94
371.124	117.94
371.35	113.94
371.576	112.94
371.802	117.94
372.028	100.94
372.254	114.94
372.48	108.94
372.706	117.94
372.932	102.94
373.158	117.94
373.384	124.94
373.61	128.94
373.835	112.94
374.061	116.94
374.287	112.94
374.513	121.94
374.739	121.94
374.965	117.94
375.191	125.94
375.416	118.94
375.642	108.94
375.868	113.94
376.094	127.94
376.319	112.94
376.545	98.94
376.771	115.94
376.997	127.94
377.222	114.94
377.448	101.94
377.674	118.94
377.899	104.94
378.125	113.94
378.35	118.94
378.576	119.94
378.802	110.94
379.027	121.94
379.253	124.94
379.478	94.94
379.704	113.94
379.929	127.94
380.155	125.94
380.38	112.94
380.606	105.94
380.831	106.94
381.057	103.94
381.282	112.94
381.507	113.94
381.733	127.94
381.958	117.94
382.184	130.94
382.409	126.94
382.634	128.94
382.86	101.94
383.085	127.94
383.31	117.94
383.535	143.94
383.761	105.94
383.986	117.94
384.211	116.94
384.436	122.94
384.662	114.94
384.887	133.94
385.112	138.94
385.337	136.94
385.562	118.94
385.787	130.94
386.013	123.94
386.238	126.94
386.463	128.94
386.688	165.94
386.913	125.94
387.138	129.94
387.363	123.94
387.588	126.94
387.813	138.94
388.038	121.94
388.263	128.94
388.488	120.94
388.713	120.94
388.938	125.94
389.163	120.94
389.387	123.94
389.612	115.94
389.837	106.94
390.062	121.94
390.287	116.94
390.512	109.94
390.736	116.94
390.961	140.94
391.186	110.94
391.411	127.94
391.636	117.94
391.86	126.94
392.085	132.94
392.31	121.94
392.534	118.94
392.759	125.94
392.984	122.94
393.208	129.94
393.433	135.94
393.658	144.94
393.882	129.94
394.107	128.94
394.331	114.94
394.556	113.94
394.78	109.94
395.005	108.94
395.229	117.94
395.454	132.94
395.678	120.94
395.903	142.94
396.127	125.94
396.352	104.94
396.576	113.94
396.801	122.94
397.025	125.94
397.249	119.94
397.474	145.94
397.698	134.94
397.922	132.94
398.147	125.94
398.371	100.94
398.595	123.94
398.82	130.94
399.044	140.94
399.268	143.94
399.492	171.94
399.717	147.94
399.941	163.94
400.165	153.94
400.389	145.94
400.613	135.94
400.837	140.94
401.062	140.94
401.286	121.94
401.51	126.94
401.734	125.94
401.958	122.94
402.182	122.94
402.406	142.94
402.63	126.94
402.854	129.94
403.078	131.94
403.302	128.94
403.526	138.94
403.75	138.94
403.974	131.94
404.198	142.94
404.422	162.94
404.645	147.94
404.869	134.94
405.093	142.94
405.317	140.94
405.541	139.94
405.765	143.94
405.988	158.94
406.212	134.94
406.436	124.94
406.66	124.94
406.883	160.94
407.107	154.94
407.331	154.94
407.555	157.94
407.778	149.94
408.002	142.94
408.226	147.94
408.449	140.94
408.673	120.94
408.896	147.94
409.12	124.94
409.344	137.94
409.567	131.94
409.791	146.94
410.014	125.94
410.238	156.94
410.461	132.94
410.685	148.94
410.908	141.94
411.132	134.94
411.355	126.94
411.578	138.94
411.802	135.94
412.025	132.94
412.249	135.94
412.472	147.94
412.695	120.94
412.919	114.94
413.142	135.94
413.365	144.94
413.589	129.94
413.812	128.94
414.035	123.94
414.258	136.94
414.482	124.94
414.705	116.94
414.928	163.94
415.151	125.94
415.374	134.94
415.597	126.94
415.821	133.94
416.044	124.94
416.267	134.94
416.49	120.94
416.713	128.94
416.936	126.94
417.159	130.94
417.382	122.94
417.605	134.94
417.828	132.94
418.051	141.94
418.274	122.94
418.497	140.94
418.72	137.94
418.943	141.94
419.166	128.94
419.389	127.94
419.611	116.94
419.834	142.94
420.057	118.94
420.28	130.94
420.503	131.94
420.726	134.94
420.948	136.94
421.171	132.94
421.394	127.94
421.617	132.94
421.839	118.94
422.062	129.94
422.285	132.94
422.507	150.94
422.73	129.94
422.953	138.94
423.175	120.94
423.398	132.94
423.621	143.94
423.843	143.94
424.066	145.94
424.288	121.94
424.511	130.94
424.733	144.94
424.956	130.94
425.178	129.94
425.401	117.94
425.623	142.94
425.846	135.94
426.068	127.94
426.291	128.94
426.513	131.94
426.735	139.94
426.958	146.94
427.18	134.94
427.402	122.94
427.625	119.94
427.847	121.94
428.069	143.94
428.292	128.94
428.514	120.94
428.736	129.94
428.958	138.94
429.181	130.94
429.403	122.94
429.625	115.94
429.847	128.94
430.069	131.94
430.292	134.94
430.514	131.94
430.736	124.94
430.958	121.94
431.18	144.94
431.402	126.94
431.624	119.94
431.846	137.94
432.068	132.94
432.29	129.94
432.512	124.94
432.734	115.94
432.956	133.94
433.178	132.94
433.4	140.94
433.622	141.94
433.844	136.94
434.066	128.94
434.287	152.94
434.509	132.94
434.731	134.94
434.953	140.94
435.175	123.94
435.397	123.94
435.618	121.94
435.84	122.94
436.062	122.94
436.284	145.94
436.505	141.94
436.727	142.94
436.949	132.94
437.17	134.94
437.392	132.94
437.614	108.94
437.835	127.94
438.057	124.94
438.278	130.94
438.5	118.94
438.721	126.94
438.943	121.94
439.165	123.94
439.386	120.94
439.608	147.94
439.829	120.94
440.05	126.94
440.272	121.94
440.493	122.94
440.715	125.94
440.936	125.94
441.158	146.94
441.379	124.94
441.6	136.94
441.822	141.94
442.043	122.94
442.264	133.94
442.486	140.94
442.707	123.94
442.928	133.94
443.149	119.94
443.371	137.94
443.592	133.94
443.813	132.94
444.034	136.94
444.255	162.94
444.476	143.94
444.698	161.94
444.919	159.94
445.14	390.94
445.361	251.94
445.582	131.94
445.803	141.94
446.024	131.94
446.245	133.94
446.466	141.94
446.687	112.94
446.908	119.94
447.129	133.94
447.35	146.94
447.571	114.94
447.792	134.94
448.013	114.94
448.234	127.94
448.455	114.94
448.675	122.94
448.896	114.94
449.117	135.94
449.338	124.94
449.559	135.94
449.779	106.94
450	113.94
450.221	120.94
450.442	118.94
450.662	114.94
450.883	120.94
451.104	124.94
451.324	127.94
451.545	124.94
451.766	130.94
451.986	127.94
452.207	115.94
452.428	126.94
452.648	138.94
452.869	124.94
453.089	109.94
453.31	121.94
453.53	119.94
453.751	118.94
453.971	126.94
454.192	117.94
454.412	131.94
454.633	137.94
454.853	120.94
455.073	111.94
455.294	118.94
455.514	122.94
455.734	128.94
455.955	120.94
456.175	114.94
456.395	132.94
456.616	129.94
456.836	133.94
457.056	116.94
457.276	120.94
457.497	121.94
457.717	100.94
457.937	136.94
458.157	116.94
458.377	116.94
458.598	127.94
458.818	126.94
459.038	116.94
459.258	115.94
459.478	121.94
459.698	120.94
459.918	135.94
460.138	133.94
460.358	142.94
460.578	148.94
460.798	154.94
461.018	136.94
461.238	142.94
461.458	128.94
461.678	124.94
461.898	135.94
462.118	142.94
462.338	144.94
462.558	157.94
462.777	133.94
462.997	152.94
463.217	175.94
463.437	138.94
463.657	146.94
463.876	134.94
464.096	148.94
464.316	157.94
464.536	149.94
464.755	140.94
464.975	125.94
465.195	137.94
465.414	148.94
465.634	132.94
465.854	134.94
466.073	140.94
466.293	143.94
466.512	151.94
466.732	128.94
466.951	117.94
467.171	124.94
467.391	131.94
467.61	125.94
467.829	130.94
468.049	119.94
468.268	128.94
468.488	126.94
468.707	105.94
468.927	113.94
469.146	121.94
469.365	115.94
469.585	114.94
469.804	122.94
470.023	142.94
470.243	132.94
470.462	133.94
470.681	123.94
470.901	120.94
471.12	117.94
471.339	139.94
471.558	120.94
471.777	135.94
471.997	133.94
472.216	127.94
472.435	125.94
472.654	132.94
472.873	130.94
473.092	118.94
473.311	121.94
473.53	114.94
473.749	117.94
473.968	137.94
474.187	122.94
474.406	106.94
474.625	128.94
474.844	134.94
475.063	127.94
475.282	131.94
475.501	114.94
475.72	127.94
475.939	121.94
476.158	118.94
476.377	132.94
476.596	119.94
476.814	128.94
477.033	132.94
477.252	123.94
477.471	113.94
477.69	109.94
477.908	124.94
478.127	135.94
478.346	134.94
478.564	136.94
478.783	124.94
479.002	135.94
479.22	132.94
479.439	135.94
479.658	137.94
479.876	133.94
480.095	125.94
480.313	135.94
480.532	138.94
480.751	152.94
480.969	130.94
481.188	134.94
481.406	122.94
481.624	144.94
481.843	120.94
482.061	127.94
482.28	121.94
482.498	137.94
482.717	124.94
482.935	135.94
483.153	140.94
483.372	132.94
483.59	138.94
483.808	125.94
484.027	121.94
484.245	128.94
484.463	132.94
484.681	142.94
484.9	134.94
485.118	137.94
485.336	135.94
485.554	136.94
485.772	133.94
485.99	132.94
486.209	134.94
486.427	153.94
486.645	129.94
486.863	121.94
487.081	140.94
487.299	143.94
487.517	145.94
487.735	137.94
487.953	141.94
488.171	131.94
488.389	144.94
488.607	148.94
488.825	137.94
489.043	128.94
489.261	149.94
489.479	119.94
489.696	148.94
489.914	130.94
490.132	133.94
490.35	142.94
490.568	149.94
490.786	140.94
491.003	130.94
491.221	144.94
491.439	148.94
491.657	127.94
491.874	136.94
492.092	138.94
492.31	140.94
492.527	137.94
492.745	126.94
492.963	130.94
493.18	139.94
493.398	124.94
493.615	121.94
493.833	130.94
494.05	126.94
494.268	130.94
494.485	153.94
494.703	134.94
494.92	135.94
495.138	135.94
495.355	134.94
495.573	151.94
495.79	156.94
496.008	153.94
496.225	161.94
496.442	140.94
496.66	155.94
496.877	141.94
497.094	162.94
497.312	164.94
497.529	146.94
497.746	157.94
497.963	158.94
498.181	160.94
498.398	160.94
498.615	170.94
498.832	154.94
499.049	175.94
499.267	196.94
499.484	185.94
499.701	195.94
499.918	228.94
500.135	236.94
500.352	265.94
500.569	251.94
500.786	268.94
501.003	238.94
501.22	228.94
501.437	192.94
501.654	212.94
501.871	190.94
502.088	154.94
502.305	177.94
502.522	162.94
502.739	152.94
502.956	169.94
503.172	147.94
503.389	150.94
503.606	146.94
503.823	139.94
504.04	158.94
504.256	157.94
504.473	151.94
504.69	142.94
504.907	163.94
505.123	141.94
505.34	129.94
505.557	134.94
505.773	136.94
505.99	136.94
506.207	125.94
