Data from SampD_HRD10591_00008.txt Node
Date: Mon Jan 19 11:41:23 EST 2026
User: Yrep
Spectrometer: HR+D1059
Trigger mode: 0
Integration Time (sec): 3.443000E-1
Scans to average: 1
Electric dark correction enabled: true
Nonlinearity correction enabled: false
Boxcar width: 0
XAxis mode: Wavelengths
Number of Pixels in Spectrum: 2048
>>>>>Begin Spectral Data<<<<<
223.165	-11.56
223.4	-11.56
223.635	-11.56
223.869	-7.56
224.104	-28.56
224.338	-5.56
224.573	-13.56
224.808	-8.56
225.042	-1.56
225.277	-11.56
225.511	-12.56
225.746	8.44
225.98	4.44
226.215	23.44
226.449	9.44
226.683	10.44
226.918	16.44
227.152	28.44
227.387	15.44
227.621	34.44
227.856	50.44
228.09	34.44
228.324	63.44
228.559	54.44
228.793	47.44
229.027	66.44
229.262	64.44
229.496	80.44
229.73	82.44
229.964	64.44
230.199	69.44
230.433	84.44
230.667	93.44
230.901	84.44
231.136	85.44
231.37	76.44
231.604	85.44
231.838	90.44
232.072	83.44
232.306	88.44
232.541	92.44
232.775	80.44
233.009	85.44
233.243	84.44
233.477	87.44
233.711	84.44
233.945	75.44
234.179	84.44
234.413	91.44
234.647	89.44
234.881	81.44
235.115	98.44
235.349	78.44
235.583	95.44
235.817	80.44
236.051	78.44
236.285	92.44
236.519	109.44
236.753	86.44
236.987	82.44
237.221	79.44
237.455	82.44
237.689	93.44
237.922	75.44
238.156	90.44
238.39	75.44
238.624	82.44
238.858	93.44
239.091	63.44
239.325	95.44
239.559	87.44
239.793	86.44
240.027	96.44
240.26	88.44
240.494	94.44
240.728	84.44
240.961	77.44
241.195	82.44
241.429	90.44
241.662	76.44
241.896	70.44
242.13	86.44
242.363	98.44
242.597	73.44
242.83	90.44
243.064	87.44
243.298	78.44
243.531	83.44
243.765	71.44
243.998	87.44
244.232	99.44
244.465	84.44
244.699	85.44
244.932	87.44
245.166	93.44
245.399	89.44
245.633	96.44
245.866	90.44
246.099	78.44
246.333	82.44
246.566	90.44
246.8	83.44
247.033	98.44
247.266	101.44
247.5	91.44
247.733	82.44
247.966	87.44
248.2	84.44
248.433	79.44
248.666	93.44
248.899	90.44
249.133	95.44
249.366	103.44
249.599	95.44
249.832	83.44
250.066	107.44
250.299	83.44
250.532	87.44
250.765	90.44
250.998	88.44
251.231	102.44
251.465	80.44
251.698	95.44
251.931	79.44
252.164	95.44
252.397	99.44
252.63	97.44
252.863	89.44
253.096	95.44
253.329	92.44
253.562	86.44
253.795	89.44
254.028	87.44
254.261	97.44
254.494	88.44
254.727	95.44
254.96	96.44
255.193	95.44
255.426	89.44
255.659	103.44
255.892	94.44
256.124	102.44
256.357	111.44
256.59	101.44
256.823	95.44
257.056	92.44
257.289	86.44
257.521	89.44
257.754	96.44
257.987	84.44
258.22	104.44
258.452	119.44
258.685	95.44
258.918	79.44
259.151	92.44
259.383	88.44
259.616	97.44
259.849	104.44
260.081	112.44
260.314	95.44
260.547	81.44
260.779	105.44
261.012	107.44
261.244	90.44
261.477	103.44
261.71	93.44
261.942	116.44
262.175	108.44
262.407	96.44
262.64	108.44
262.872	90.44
263.105	79.44
263.337	106.44
263.57	98.44
263.802	114.44
264.035	108.44
264.267	97.44
264.499	104.44
264.732	106.44
264.964	117.44
265.197	107.44
265.429	100.44
265.661	106.44
265.894	111.44
266.126	100.44
266.358	102.44
266.591	95.44
266.823	96.44
267.055	99.44
267.287	117.44
267.52	90.44
267.752	110.44
267.984	116.44
268.216	105.44
268.448	114.44
268.681	109.44
268.913	108.44
269.145	103.44
269.377	114.44
269.609	114.44
269.841	112.44
270.073	104.44
270.306	103.44
270.538	107.44
270.77	103.44
271.002	108.44
271.234	116.44
271.466	106.44
271.698	107.44
271.93	107.44
272.162	110.44
272.394	106.44
272.626	103.44
272.858	116.44
273.09	98.44
273.322	113.44
273.553	104.44
273.785	94.44
274.017	103.44
274.249	106.44
274.481	113.44
274.713	111.44
274.945	119.44
275.176	107.44
275.408	115.44
275.64	123.44
275.872	113.44
276.104	108.44
276.335	119.44
276.567	130.44
276.799	107.44
277.031	116.44
277.262	112.44
277.494	124.44
277.726	108.44
277.957	108.44
278.189	115.44
278.421	116.44
278.652	108.44
278.884	120.44
279.115	102.44
279.347	116.44
279.579	107.44
279.81	101.44
280.042	120.44
280.273	114.44
280.505	125.44
280.736	104.44
280.968	128.44
281.199	111.44
281.431	125.44
281.662	110.44
281.894	118.44
282.125	117.44
282.356	113.44
282.588	113.44
282.819	117.44
283.051	112.44
283.282	103.44
283.513	117.44
283.745	110.44
283.976	117.44
284.207	116.44
284.439	115.44
284.67	128.44
284.901	108.44
285.132	115.44
285.364	110.44
285.595	118.44
285.826	122.44
286.057	116.44
286.288	114.44
286.52	126.44
286.751	116.44
286.982	127.44
287.213	125.44
287.444	123.44
287.675	125.44
287.906	128.44
288.138	141.44
288.369	126.44
288.6	118.44
288.831	114.44
289.062	120.44
289.293	126.44
289.524	127.44
289.755	124.44
289.986	121.44
290.217	108.44
290.448	131.44
290.679	122.44
290.91	117.44
291.141	132.44
291.371	130.44
291.602	114.44
291.833	118.44
292.064	126.44
292.295	138.44
292.526	120.44
292.757	115.44
292.987	119.44
293.218	106.44
293.449	131.44
293.68	121.44
293.91	112.44
294.141	129.44
294.372	119.44
294.603	134.44
294.833	127.44
295.064	119.44
295.295	128.44
295.525	115.44
295.756	123.44
295.987	130.44
296.217	118.44
296.448	126.44
296.679	129.44
296.909	138.44
297.14	130.44
297.37	132.44
297.601	128.44
297.831	119.44
298.062	133.44
298.292	123.44
298.523	130.44
298.753	146.44
298.984	127.44
299.214	123.44
299.445	113.44
299.675	124.44
299.905	138.44
300.136	119.44
300.366	126.44
300.597	131.44
300.827	110.44
301.057	128.44
301.288	118.44
301.518	127.44
301.748	129.44
301.979	165.44
302.209	129.44
302.439	129.44
302.669	139.44
302.9	124.44
303.13	126.44
303.36	122.44
303.59	120.44
303.82	140.44
304.051	134.44
304.281	139.44
304.511	158.44
304.741	133.44
304.971	139.44
305.201	127.44
305.431	138.44
305.661	118.44
305.891	133.44
306.121	141.44
306.352	127.44
306.582	119.44
306.812	142.44
307.042	116.44
307.272	138.44
307.502	125.44
307.731	138.44
307.961	132.44
308.191	120.44
308.421	133.44
308.651	137.44
308.881	131.44
309.111	142.44
309.341	142.44
309.571	124.44
309.8	130.44
310.03	127.44
310.26	114.44
310.49	133.44
310.72	139.44
310.949	135.44
311.179	142.44
311.409	110.44
311.639	133.44
311.868	126.44
312.098	122.44
312.328	130.44
312.557	139.44
312.787	141.44
313.017	140.44
313.246	134.44
313.476	141.44
313.706	126.44
313.935	138.44
314.165	131.44
314.394	160.44
314.624	133.44
314.853	146.44
315.083	144.44
315.312	148.44
315.542	132.44
315.771	128.44
316.001	136.44
316.23	129.44
316.46	138.44
316.689	124.44
316.919	128.44
317.148	133.44
317.377	138.44
317.607	131.44
317.836	139.44
318.065	136.44
318.295	137.44
318.524	130.44
318.753	131.44
318.983	139.44
319.212	133.44
319.441	142.44
319.67	140.44
319.9	147.44
320.129	133.44
320.358	149.44
320.587	128.44
320.816	138.44
321.046	125.44
321.275	140.44
321.504	144.44
321.733	120.44
321.962	135.44
322.191	121.44
322.42	123.44
322.649	129.44
322.878	130.44
323.108	127.44
323.337	138.44
323.566	142.44
323.795	146.44
324.024	116.44
324.253	131.44
324.482	130.44
324.71	141.44
324.939	163.44
325.168	142.44
325.397	130.44
325.626	142.44
325.855	141.44
326.084	133.44
326.313	140.44
326.542	158.44
326.77	125.44
326.999	141.44
327.228	139.44
327.457	151.44
327.686	149.44
327.914	162.44
328.143	127.44
328.372	136.44
328.6	142.44
328.829	148.44
329.058	128.44
329.287	138.44
329.515	145.44
329.744	134.44
329.972	141.44
330.201	142.44
330.43	133.44
330.658	145.44
330.887	161.44
331.115	138.44
331.344	130.44
331.572	148.44
331.801	159.44
332.03	148.44
332.258	146.44
332.486	165.44
332.715	154.44
332.943	151.44
333.172	168.44
333.4	158.44
333.629	162.44
333.857	165.44
334.085	164.44
334.314	160.44
334.542	168.44
334.771	154.44
334.999	155.44
335.227	153.44
335.455	147.44
335.684	176.44
335.912	155.44
336.14	161.44
336.369	146.44
336.597	150.44
336.825	156.44
337.053	162.44
337.281	143.44
337.51	147.44
337.738	141.44
337.966	160.44
338.194	156.44
338.422	155.44
338.65	134.44
338.878	162.44
339.106	145.44
339.334	158.44
339.562	155.44
339.79	157.44
340.018	143.44
340.246	143.44
340.474	137.44
340.702	152.44
340.93	152.44
341.158	143.44
341.386	119.44
341.614	140.44
341.842	138.44
342.07	128.44
342.298	140.44
342.526	142.44
342.754	139.44
342.981	150.44
343.209	146.44
343.437	186.44
343.665	156.44
343.893	172.44
344.12	185.44
344.348	155.44
344.576	143.44
344.804	145.44
345.031	142.44
345.259	147.44
345.487	142.44
345.714	143.44
345.942	125.44
346.17	151.44
346.397	126.44
346.625	139.44
346.853	143.44
347.08	148.44
347.308	133.44
347.535	148.44
347.763	135.44
347.99	149.44
348.218	152.44
348.445	120.44
348.673	141.44
348.9	132.44
349.128	143.44
349.355	142.44
349.583	141.44
349.81	149.44
350.037	145.44
350.265	143.44
350.492	137.44
350.72	139.44
350.947	138.44
351.174	134.44
351.402	128.44
351.629	143.44
351.856	142.44
352.083	137.44
352.311	133.44
352.538	139.44
352.765	148.44
352.992	158.44
353.22	149.44
353.447	137.44
353.674	141.44
353.901	138.44
354.128	131.44
354.355	138.44
354.583	144.44
354.81	148.44
355.037	130.44
355.264	142.44
355.491	127.44
355.718	133.44
355.945	163.44
356.172	148.44
356.399	147.44
356.626	139.44
356.853	146.44
357.08	163.44
357.307	147.44
357.534	130.44
357.761	136.44
357.988	140.44
358.215	130.44
358.441	138.44
358.668	149.44
358.895	142.44
359.122	117.44
359.349	138.44
359.576	138.44
359.802	123.44
360.029	146.44
360.256	135.44
360.483	132.44
360.709	133.44
360.936	162.44
361.163	153.44
361.39	146.44
361.616	138.44
361.843	132.44
362.07	139.44
362.296	156.44
362.523	141.44
362.749	116.44
362.976	141.44
363.203	159.44
363.429	126.44
363.656	148.44
363.882	141.44
364.109	143.44
364.335	140.44
364.562	133.44
364.788	145.44
365.015	150.44
365.241	145.44
365.468	127.44
365.694	127.44
365.92	146.44
366.147	143.44
366.373	134.44
366.599	145.44
366.826	138.44
367.052	131.44
367.278	146.44
367.505	137.44
367.731	153.44
367.957	141.44
368.184	128.44
368.41	138.44
368.636	161.44
368.862	142.44
369.089	152.44
369.315	140.44
369.541	142.44
369.767	139.44
369.993	136.44
370.219	148.44
370.445	143.44
370.672	161.44
370.898	148.44
371.124	160.44
371.35	139.44
371.576	155.44
371.802	146.44
372.028	150.44
372.254	146.44
372.48	147.44
372.706	134.44
372.932	158.44
373.158	149.44
373.384	158.44
373.61	145.44
373.835	168.44
374.061	129.44
374.287	160.44
374.513	151.44
374.739	141.44
374.965	159.44
375.191	163.44
375.416	157.44
375.642	157.44
375.868	158.44
376.094	167.44
376.319	144.44
376.545	148.44
376.771	133.44
376.997	143.44
377.222	139.44
377.448	157.44
377.674	144.44
377.899	139.44
378.125	139.44
378.35	139.44
378.576	145.44
378.802	158.44
379.027	143.44
379.253	145.44
379.478	139.44
379.704	134.44
379.929	136.44
380.155	154.44
380.38	152.44
380.606	164.44
380.831	160.44
381.057	167.44
381.282	148.44
381.507	156.44
381.733	148.44
381.958	146.44
382.184	151.44
382.409	153.44
382.634	154.44
382.86	144.44
383.085	142.44
383.31	169.44
383.535	165.44
383.761	151.44
383.986	153.44
384.211	155.44
384.436	166.44
384.662	182.44
384.887	165.44
385.112	162.44
385.337	163.44
385.562	145.44
385.787	159.44
386.013	178.44
386.238	156.44
386.463	165.44
386.688	210.44
386.913	168.44
387.138	150.44
387.363	178.44
387.588	178.44
387.813	161.44
388.038	177.44
388.263	171.44
388.488	167.44
388.713	157.44
388.938	175.44
389.163	164.44
389.387	163.44
389.612	175.44
389.837	168.44
390.062	167.44
390.287	175.44
390.512	169.44
390.736	172.44
390.961	177.44
391.186	175.44
391.411	177.44
391.636	167.44
391.86	172.44
392.085	166.44
392.31	179.44
392.534	178.44
392.759	186.44
392.984	183.44
393.208	188.44
393.433	174.44
393.658	181.44
393.882	172.44
394.107	173.44
394.331	170.44
394.556	167.44
394.78	167.44
395.005	179.44
395.229	189.44
395.454	168.44
395.678	178.44
395.903	176.44
396.127	190.44
396.352	176.44
396.576	168.44
396.801	166.44
397.025	186.44
397.249	177.44
397.474	179.44
397.698	182.44
397.922	180.44
398.147	164.44
398.371	197.44
398.595	174.44
398.82	185.44
399.044	194.44
399.268	220.44
399.492	247.44
399.717	250.44
399.941	241.44
400.165	222.44
400.389	195.44
400.613	194.44
400.837	187.44
401.062	188.44
401.286	191.44
401.51	186.44
401.734	182.44
401.958	195.44
402.182	186.44
402.406	192.44
402.63	198.44
402.854	207.44
403.078	195.44
403.302	191.44
403.526	205.44
403.75	198.44
403.974	218.44
404.198	204.44
404.422	208.44
404.645	221.44
404.869	218.44
405.093	217.44
405.317	210.44
405.541	209.44
405.765	202.44
405.988	192.44
406.212	209.44
406.436	187.44
406.66	211.44
406.883	225.44
407.107	227.44
407.331	223.44
407.555	217.44
407.778	213.44
408.002	221.44
408.226	207.44
408.449	211.44
408.673	203.44
408.896	203.44
409.12	192.44
409.344	215.44
409.567	214.44
409.791	204.44
410.014	219.44
410.238	203.44
410.461	209.44
410.685	213.44
410.908	190.44
411.132	206.44
411.355	192.44
411.578	203.44
411.802	186.44
412.025	188.44
412.249	182.44
412.472	202.44
412.695	176.44
412.919	176.44
413.142	181.44
413.365	195.44
413.589	187.44
413.812	179.44
414.035	208.44
414.258	184.44
414.482	164.44
414.705	194.44
414.928	205.44
415.151	196.44
415.374	188.44
415.597	188.44
415.821	191.44
416.044	186.44
416.267	183.44
416.49	197.44
416.713	201.44
416.936	203.44
417.159	192.44
417.382	185.44
417.605	178.44
417.828	179.44
418.051	193.44
418.274	192.44
418.497	191.44
418.72	206.44
418.943	177.44
419.166	208.44
419.389	216.44
419.611	221.44
419.834	189.44
420.057	193.44
420.28	198.44
420.503	180.44
420.726	183.44
420.948	188.44
421.171	178.44
421.394	171.44
421.617	200.44
421.839	199.44
422.062	182.44
422.285	196.44
422.507	200.44
422.73	205.44
422.953	195.44
423.175	186.44
423.398	209.44
423.621	210.44
423.843	215.44
424.066	220.44
424.288	188.44
424.511	190.44
424.733	212.44
424.956	203.44
425.178	195.44
425.401	178.44
425.623	190.44
425.846	184.44
426.068	188.44
426.291	191.44
426.513	188.44
426.735	184.44
426.958	174.44
427.18	177.44
427.402	203.44
427.625	196.44
427.847	176.44
428.069	167.44
428.292	181.44
428.514	189.44
428.736	183.44
428.958	192.44
429.181	170.44
429.403	189.44
429.625	186.44
429.847	188.44
430.069	175.44
430.292	182.44
430.514	162.44
430.736	168.44
430.958	180.44
431.18	160.44
431.402	194.44
431.624	191.44
431.846	175.44
432.068	184.44
432.29	188.44
432.512	173.44
432.734	188.44
432.956	187.44
433.178	194.44
433.4	172.44
433.622	189.44
433.844	196.44
434.066	194.44
434.287	192.44
434.509	191.44
434.731	179.44
434.953	186.44
435.175	192.44
435.397	200.44
435.618	195.44
435.84	186.44
436.062	172.44
436.284	187.44
436.505	172.44
436.727	190.44
436.949	173.44
437.17	166.44
437.392	176.44
437.614	177.44
437.835	180.44
438.057	162.44
438.278	189.44
438.5	183.44
438.721	182.44
438.943	166.44
439.165	166.44
439.386	175.44
439.608	192.44
439.829	186.44
440.05	199.44
440.272	185.44
440.493	188.44
440.715	195.44
440.936	195.44
441.158	188.44
441.379	192.44
441.6	202.44
441.822	200.44
442.043	202.44
442.264	197.44
442.486	193.44
442.707	191.44
442.928	196.44
443.149	188.44
443.371	195.44
443.592	196.44
443.813	207.44
444.034	190.44
444.255	204.44
444.476	215.44
444.698	224.44
444.919	218.44
445.14	473.44
445.361	330.44
445.582	201.44
445.803	190.44
446.024	192.44
446.245	192.44
446.466	181.44
446.687	174.44
446.908	186.44
447.129	174.44
447.35	179.44
447.571	177.44
447.792	185.44
448.013	161.44
448.234	174.44
448.455	159.44
448.675	172.44
448.896	197.44
449.117	161.44
449.338	183.44
449.559	167.44
449.779	164.44
450	157.44
450.221	168.44
450.442	181.44
450.662	175.44
450.883	180.44
451.104	176.44
451.324	162.44
451.545	173.44
451.766	178.44
451.986	176.44
452.207	174.44
452.428	162.44
452.648	174.44
452.869	166.44
453.089	166.44
453.31	155.44
453.53	159.44
453.751	178.44
453.971	182.44
454.192	156.44
454.412	168.44
454.633	171.44
454.853	166.44
455.073	150.44
455.294	169.44
455.514	170.44
455.734	167.44
455.955	148.44
456.175	156.44
456.395	165.44
456.616	171.44
456.836	182.44
457.056	169.44
457.276	174.44
457.497	150.44
457.717	162.44
457.937	154.44
458.157	167.44
458.377	165.44
458.598	164.44
458.818	164.44
459.038	171.44
459.258	176.44
459.478	176.44
459.698	182.44
459.918	197.44
460.138	194.44
460.358	183.44
460.578	207.44
460.798	209.44
461.018	196.44
461.238	191.44
461.458	191.44
461.678	197.44
461.898	198.44
462.118	214.44
462.338	215.44
462.558	208.44
462.777	228.44
462.997	247.44
463.217	244.44
463.437	232.44
463.657	202.44
463.876	206.44
464.096	218.44
464.316	235.44
464.536	218.44
464.755	232.44
464.975	202.44
465.195	202.44
465.414	192.44
465.634	166.44
465.854	186.44
466.073	180.44
466.293	183.44
466.512	175.44
466.732	188.44
466.951	186.44
467.171	176.44
467.391	188.44
467.61	177.44
467.829	168.44
468.049	176.44
468.268	166.44
468.488	163.44
468.707	156.44
468.927	162.44
469.146	171.44
469.365	189.44
469.585	171.44
469.804	191.44
470.023	194.44
470.243	185.44
470.462	200.44
470.681	171.44
470.901	174.44
471.12	188.44
471.339	187.44
471.558	166.44
471.777	172.44
471.997	160.44
472.216	174.44
472.435	168.44
472.654	169.44
472.873	165.44
473.092	175.44
473.311	172.44
473.53	168.44
473.749	169.44
473.968	185.44
474.187	186.44
474.406	172.44
474.625	160.44
474.844	180.44
475.063	172.44
475.282	169.44
475.501	177.44
475.72	187.44
475.939	175.44
476.158	168.44
476.377	177.44
476.596	174.44
476.814	190.44
477.033	182.44
477.252	181.44
477.471	185.44
477.69	187.44
477.908	188.44
478.127	191.44
478.346	188.44
478.564	192.44
478.783	179.44
479.002	196.44
479.22	186.44
479.439	204.44
479.658	218.44
479.876	194.44
480.095	183.44
480.313	212.44
480.532	207.44
480.751	199.44
480.969	186.44
481.188	177.44
481.406	187.44
481.624	195.44
481.843	179.44
482.061	179.44
482.28	188.44
482.498	179.44
482.717	166.44
482.935	170.44
483.153	182.44
483.372	182.44
483.59	182.44
483.808	183.44
484.027	178.44
484.245	174.44
484.463	167.44
484.681	207.44
484.9	186.44
485.118	190.44
485.336	175.44
485.554	172.44
485.772	188.44
485.99	177.44
486.209	189.44
486.427	199.44
486.645	202.44
486.863	184.44
487.081	190.44
487.299	204.44
487.517	186.44
487.735	192.44
487.953	189.44
488.171	197.44
488.389	187.44
488.607	188.44
488.825	194.44
489.043	187.44
489.261	194.44
489.479	207.44
489.696	178.44
489.914	186.44
490.132	186.44
490.35	214.44
490.568	190.44
490.786	190.44
491.003	180.44
491.221	166.44
491.439	210.44
491.657	211.44
491.874	199.44
492.092	202.44
492.31	210.44
492.527	196.44
492.745	195.44
492.963	206.44
493.18	212.44
493.398	203.44
493.615	203.44
493.833	206.44
494.05	203.44
494.268	202.44
494.485	217.44
494.703	215.44
494.92	186.44
495.138	202.44
495.355	218.44
495.573	207.44
495.79	198.44
496.008	203.44
496.225	202.44
496.442	194.44
496.66	227.44
496.877	199.44
497.094	210.44
497.312	220.44
497.529	220.44
497.746	223.44
497.963	216.44
498.181	227.44
498.398	240.44
498.615	238.44
498.832	260.44
499.049	266.44
499.267	291.44
499.484	324.44
499.701	347.44
499.918	373.44
500.135	402.44
500.352	456.44
500.569	452.44
500.786	452.44
501.003	423.44
501.22	360.44
501.437	348.44
501.654	307.44
501.871	295.44
502.088	264.44
502.305	261.44
502.522	257.44
502.739	246.44
502.956	234.44
503.172	234.44
503.389	223.44
503.606	203.44
503.823	217.44
504.04	222.44
504.256	227.44
504.473	219.44
504.69	239.44
