Data from SampD_HRD10591_00016.txt Node
Date: Mon Jan 19 11:41:26 EST 2026
User: Yrep
Spectrometer: HR+D1059
Trigger mode: 0
Integration Time (sec): 3.443000E-1
Scans to average: 1
Electric dark correction enabled: true
Nonlinearity correction enabled: false
Boxcar width: 0
XAxis mode: Wavelengths
Number of Pixels in Spectrum: 2048
>>>>>Begin Spectral Data<<<<<
223.165	-12.81
223.4	-12.81
223.635	-12.81
223.869	-34.81
224.104	-34.81
224.338	4.19
224.573	-18.81
224.808	-8.81
225.042	1.19
225.277	-6.81
225.511	-3.81
225.746	5.19
225.98	-3.81
226.215	29.19
226.449	24.19
226.683	16.19
226.918	20.19
227.152	24.19
227.387	42.19
227.621	49.19
227.856	45.19
228.09	49.19
228.324	50.19
228.559	80.19
228.793	55.19
229.027	83.19
229.262	76.19
229.496	83.19
229.73	84.19
229.964	79.19
230.199	73.19
230.433	67.19
230.667	79.19
230.901	84.19
231.136	79.19
231.37	80.19
231.604	83.19
231.838	95.19
232.072	86.19
232.306	87.19
232.541	71.19
232.775	99.19
233.009	89.19
233.243	92.19
233.477	86.19
233.711	82.19
233.945	76.19
234.179	91.19
234.413	108.19
234.647	88.19
234.881	92.19
235.115	80.19
235.349	87.19
235.583	81.19
235.817	76.19
236.051	81.19
236.285	85.19
236.519	82.19
236.753	81.19
236.987	83.19
237.221	73.19
237.455	87.19
237.689	91.19
237.922	100.19
238.156	92.19
238.39	84.19
238.624	95.19
238.858	89.19
239.091	85.19
239.325	86.19
239.559	83.19
239.793	85.19
240.027	104.19
240.26	79.19
240.494	104.19
240.728	78.19
240.961	84.19
241.195	93.19
241.429	77.19
241.662	82.19
241.896	84.19
242.13	88.19
242.363	93.19
242.597	84.19
242.83	91.19
243.064	77.19
243.298	71.19
243.531	75.19
243.765	87.19
243.998	67.19
244.232	80.19
244.465	93.19
244.699	90.19
244.932	81.19
245.166	81.19
245.399	87.19
245.633	93.19
245.866	89.19
246.099	84.19
246.333	101.19
246.566	95.19
246.8	87.19
247.033	69.19
247.266	88.19
247.5	85.19
247.733	74.19
247.966	100.19
248.2	89.19
248.433	91.19
248.666	95.19
248.899	97.19
249.133	90.19
249.366	90.19
249.599	89.19
249.832	88.19
250.066	106.19
250.299	80.19
250.532	88.19
250.765	82.19
250.998	102.19
251.231	98.19
251.465	96.19
251.698	75.19
251.931	89.19
252.164	108.19
252.397	92.19
252.63	92.19
252.863	101.19
253.096	94.19
253.329	100.19
253.562	89.19
253.795	81.19
254.028	93.19
254.261	90.19
254.494	89.19
254.727	104.19
254.96	109.19
255.193	86.19
255.426	105.19
255.659	87.19
255.892	110.19
256.124	85.19
256.357	99.19
256.59	103.19
256.823	85.19
257.056	93.19
257.289	84.19
257.521	89.19
257.754	92.19
257.987	88.19
258.22	102.19
258.452	105.19
258.685	102.19
258.918	100.19
259.151	106.19
259.383	95.19
259.616	80.19
259.849	98.19
260.081	84.19
260.314	83.19
260.547	100.19
260.779	103.19
261.012	97.19
261.244	101.19
261.477	101.19
261.71	96.19
261.942	86.19
262.175	79.19
262.407	89.19
262.64	80.19
262.872	94.19
263.105	82.19
263.337	105.19
263.57	108.19
263.802	83.19
264.035	102.19
264.267	85.19
264.499	89.19
264.732	90.19
264.964	95.19
265.197	93.19
265.429	106.19
265.661	125.19
265.894	101.19
266.126	112.19
266.358	94.19
266.591	103.19
266.823	105.19
267.055	84.19
267.287	99.19
267.52	99.19
267.752	100.19
267.984	95.19
268.216	102.19
268.448	105.19
268.681	107.19
268.913	92.19
269.145	107.19
269.377	96.19
269.609	83.19
269.841	98.19
270.073	97.19
270.306	83.19
270.538	95.19
270.77	79.19
271.002	100.19
271.234	106.19
271.466	89.19
271.698	99.19
271.93	97.19
272.162	89.19
272.394	112.19
272.626	105.19
272.858	99.19
273.09	95.19
273.322	106.19
273.553	98.19
273.785	96.19
274.017	99.19
274.249	92.19
274.481	100.19
274.713	103.19
274.945	108.19
275.176	95.19
275.408	87.19
275.64	104.19
275.872	95.19
276.104	121.19
276.335	86.19
276.567	106.19
276.799	91.19
277.031	92.19
277.262	107.19
277.494	111.19
277.726	108.19
277.957	108.19
278.189	97.19
278.421	86.19
278.652	105.19
278.884	111.19
279.115	88.19
279.347	108.19
279.579	93.19
279.81	105.19
280.042	93.19
280.273	93.19
280.505	94.19
280.736	99.19
280.968	100.19
281.199	114.19
281.431	102.19
281.662	116.19
281.894	101.19
282.125	108.19
282.356	104.19
282.588	109.19
282.819	107.19
283.051	96.19
283.282	97.19
283.513	103.19
283.745	107.19
283.976	92.19
284.207	110.19
284.439	116.19
284.67	95.19
284.901	96.19
285.132	116.19
285.364	106.19
285.595	107.19
285.826	112.19
286.057	108.19
286.288	76.19
286.52	110.19
286.751	106.19
286.982	101.19
287.213	105.19
287.444	99.19
287.675	105.19
287.906	105.19
288.138	101.19
288.369	107.19
288.6	101.19
288.831	96.19
289.062	118.19
289.293	124.19
289.524	98.19
289.755	99.19
289.986	103.19
290.217	106.19
290.448	88.19
290.679	102.19
290.91	105.19
291.141	104.19
291.371	96.19
291.602	103.19
291.833	90.19
292.064	101.19
292.295	100.19
292.526	103.19
292.757	121.19
292.987	115.19
293.218	98.19
293.449	106.19
293.68	113.19
293.91	112.19
294.141	111.19
294.372	108.19
294.603	92.19
294.833	109.19
295.064	100.19
295.295	90.19
295.525	106.19
295.756	109.19
295.987	111.19
296.217	104.19
296.448	106.19
296.679	99.19
296.909	116.19
297.14	110.19
297.37	105.19
297.601	127.19
297.831	116.19
298.062	115.19
298.292	114.19
298.523	106.19
298.753	103.19
298.984	113.19
299.214	105.19
299.445	109.19
299.675	100.19
299.905	107.19
300.136	113.19
300.366	101.19
300.597	108.19
300.827	120.19
301.057	98.19
301.288	115.19
301.518	107.19
301.748	99.19
301.979	131.19
302.209	122.19
302.439	104.19
302.669	109.19
302.9	95.19
303.13	103.19
303.36	110.19
303.59	112.19
303.82	110.19
304.051	113.19
304.281	113.19
304.511	107.19
304.741	104.19
304.971	105.19
305.201	122.19
305.431	106.19
305.661	105.19
305.891	113.19
306.121	116.19
306.352	109.19
306.582	106.19
306.812	90.19
307.042	114.19
307.272	129.19
307.502	99.19
307.731	105.19
307.961	106.19
308.191	102.19
308.421	102.19
308.651	109.19
308.881	100.19
309.111	113.19
309.341	109.19
309.571	100.19
309.8	105.19
310.03	119.19
310.26	110.19
310.49	113.19
310.72	106.19
310.949	108.19
311.179	121.19
311.409	103.19
311.639	114.19
311.868	118.19
312.098	101.19
312.328	112.19
312.557	120.19
312.787	112.19
313.017	108.19
313.246	115.19
313.476	116.19
313.706	119.19
313.935	111.19
314.165	100.19
314.394	108.19
314.624	107.19
314.853	96.19
315.083	111.19
315.312	103.19
315.542	120.19
315.771	102.19
316.001	115.19
316.23	107.19
316.46	109.19
316.689	111.19
316.919	103.19
317.148	104.19
317.377	114.19
317.607	119.19
317.836	120.19
318.065	112.19
318.295	94.19
318.524	108.19
318.753	109.19
318.983	113.19
319.212	108.19
319.441	112.19
319.67	99.19
319.9	113.19
320.129	103.19
320.358	113.19
320.587	105.19
320.816	100.19
321.046	106.19
321.275	123.19
321.504	107.19
321.733	123.19
321.962	117.19
322.191	114.19
322.42	113.19
322.649	128.19
322.878	119.19
323.108	129.19
323.337	115.19
323.566	108.19
323.795	108.19
324.024	114.19
324.253	116.19
324.482	109.19
324.71	114.19
324.939	105.19
325.168	116.19
325.397	121.19
325.626	104.19
325.855	113.19
326.084	110.19
326.313	116.19
326.542	103.19
326.77	127.19
326.999	122.19
327.228	115.19
327.457	119.19
327.686	114.19
327.914	121.19
328.143	116.19
328.372	111.19
328.6	116.19
328.829	118.19
329.058	107.19
329.287	111.19
329.515	109.19
329.744	108.19
329.972	106.19
330.201	107.19
330.43	111.19
330.658	85.19
330.887	117.19
331.115	117.19
331.344	120.19
331.572	117.19
331.801	112.19
332.03	119.19
332.258	122.19
332.486	107.19
332.715	117.19
332.943	115.19
333.172	124.19
333.4	111.19
333.629	123.19
333.857	128.19
334.085	145.19
334.314	119.19
334.542	114.19
334.771	116.19
334.999	117.19
335.227	103.19
335.455	114.19
335.684	141.19
335.912	132.19
336.14	123.19
336.369	114.19
336.597	121.19
336.825	104.19
337.053	134.19
337.281	116.19
337.51	112.19
337.738	121.19
337.966	103.19
338.194	111.19
338.422	113.19
338.65	113.19
338.878	119.19
339.106	122.19
339.334	119.19
339.562	104.19
339.79	107.19
340.018	108.19
340.246	114.19
340.474	111.19
340.702	111.19
340.93	121.19
341.158	103.19
341.386	123.19
341.614	111.19
341.842	107.19
342.07	105.19
342.298	107.19
342.526	114.19
342.754	107.19
342.981	117.19
343.209	103.19
343.437	143.19
343.665	114.19
343.893	117.19
344.12	119.19
344.348	109.19
344.576	99.19
344.804	112.19
345.031	109.19
345.259	120.19
345.487	110.19
345.714	117.19
345.942	97.19
346.17	115.19
346.397	109.19
346.625	107.19
346.853	107.19
347.08	97.19
347.308	104.19
347.535	131.19
347.763	94.19
347.99	127.19
348.218	118.19
348.445	109.19
348.673	112.19
348.9	123.19
349.128	133.19
349.355	127.19
349.583	111.19
349.81	112.19
350.037	107.19
350.265	117.19
350.492	116.19
350.72	116.19
350.947	128.19
351.174	119.19
351.402	108.19
351.629	105.19
351.856	113.19
352.083	107.19
352.311	94.19
352.538	108.19
352.765	108.19
352.992	132.19
353.22	119.19
353.447	115.19
353.674	116.19
353.901	126.19
354.128	91.19
354.355	101.19
354.583	97.19
354.81	101.19
355.037	127.19
355.264	111.19
355.491	99.19
355.718	125.19
355.945	107.19
356.172	107.19
356.399	104.19
356.626	118.19
356.853	118.19
357.08	100.19
357.307	121.19
357.534	114.19
357.761	113.19
357.988	138.19
358.215	103.19
358.441	100.19
358.668	108.19
358.895	114.19
359.122	100.19
359.349	105.19
359.576	115.19
359.802	111.19
360.029	109.19
360.256	111.19
360.483	115.19
360.709	109.19
360.936	113.19
361.163	103.19
361.39	98.19
361.616	113.19
361.843	104.19
362.07	121.19
362.296	117.19
362.523	104.19
362.749	109.19
362.976	113.19
363.203	115.19
363.429	104.19
363.656	109.19
363.882	109.19
364.109	124.19
364.335	116.19
364.562	103.19
364.788	115.19
365.015	116.19
365.241	111.19
365.468	120.19
365.694	95.19
365.92	112.19
366.147	112.19
366.373	103.19
366.599	110.19
366.826	102.19
367.052	116.19
367.278	108.19
367.505	89.19
367.731	131.19
367.957	109.19
368.184	115.19
368.41	113.19
368.636	120.19
368.862	114.19
369.089	118.19
369.315	104.19
369.541	124.19
369.767	107.19
369.993	111.19
370.219	119.19
370.445	108.19
370.672	105.19
370.898	116.19
371.124	112.19
371.35	124.19
371.576	112.19
371.802	117.19
372.028	103.19
372.254	101.19
372.48	109.19
372.706	127.19
372.932	115.19
373.158	117.19
373.384	109.19
373.61	124.19
373.835	119.19
374.061	108.19
374.287	121.19
374.513	119.19
374.739	119.19
374.965	116.19
375.191	116.19
375.416	124.19
375.642	127.19
375.868	126.19
376.094	117.19
376.319	117.19
376.545	113.19
376.771	101.19
376.997	109.19
377.222	112.19
377.448	112.19
377.674	113.19
377.899	115.19
378.125	104.19
378.35	122.19
378.576	111.19
378.802	117.19
379.027	115.19
379.253	117.19
379.478	119.19
379.704	122.19
379.929	113.19
380.155	104.19
380.38	131.19
380.606	106.19
380.831	99.19
381.057	124.19
381.282	107.19
381.507	106.19
381.733	113.19
381.958	120.19
382.184	109.19
382.409	113.19
382.634	128.19
382.86	107.19
383.085	124.19
383.31	117.19
383.535	128.19
383.761	123.19
383.986	120.19
384.211	123.19
384.436	129.19
384.662	119.19
384.887	108.19
385.112	107.19
385.337	122.19
385.562	107.19
385.787	122.19
386.013	120.19
386.238	135.19
386.463	127.19
386.688	157.19
386.913	118.19
387.138	113.19
387.363	125.19
387.588	123.19
387.813	124.19
388.038	127.19
388.263	125.19
388.488	127.19
388.713	119.19
388.938	120.19
389.163	109.19
389.387	115.19
389.612	101.19
389.837	125.19
390.062	144.19
390.287	125.19
390.512	116.19
390.736	108.19
390.961	117.19
391.186	130.19
391.411	124.19
391.636	111.19
391.86	137.19
392.085	123.19
392.31	120.19
392.534	135.19
392.759	131.19
392.984	125.19
393.208	125.19
393.433	136.19
393.658	96.19
393.882	115.19
394.107	128.19
394.331	121.19
394.556	117.19
394.78	132.19
395.005	127.19
395.229	126.19
395.454	144.19
395.678	137.19
395.903	120.19
396.127	124.19
396.352	120.19
396.576	133.19
396.801	117.19
397.025	131.19
397.249	132.19
397.474	138.19
397.698	123.19
397.922	120.19
398.147	110.19
398.371	131.19
398.595	129.19
398.82	123.19
399.044	130.19
399.268	145.19
399.492	159.19
399.717	174.19
399.941	164.19
400.165	147.19
400.389	134.19
400.613	127.19
400.837	140.19
401.062	122.19
401.286	122.19
401.51	133.19
401.734	124.19
401.958	142.19
402.182	130.19
402.406	140.19
402.63	128.19
402.854	140.19
403.078	138.19
403.302	136.19
403.526	129.19
403.75	129.19
403.974	146.19
404.198	154.19
404.422	132.19
404.645	138.19
404.869	130.19
405.093	132.19
405.317	128.19
405.541	137.19
405.765	135.19
405.988	138.19
406.212	121.19
406.436	132.19
406.66	147.19
406.883	139.19
407.107	160.19
407.331	146.19
407.555	139.19
407.778	143.19
408.002	152.19
408.226	128.19
408.449	145.19
408.673	133.19
408.896	126.19
409.12	136.19
409.344	159.19
409.567	132.19
409.791	146.19
410.014	137.19
410.238	140.19
410.461	140.19
410.685	153.19
410.908	127.19
411.132	166.19
411.355	141.19
411.578	141.19
411.802	129.19
412.025	123.19
412.249	136.19
412.472	129.19
412.695	152.19
412.919	139.19
413.142	112.19
413.365	133.19
413.589	127.19
413.812	120.19
414.035	162.19
414.258	133.19
414.482	135.19
414.705	126.19
414.928	122.19
415.151	148.19
415.374	134.19
415.597	141.19
415.821	131.19
416.044	130.19
416.267	128.19
416.49	129.19
416.713	138.19
416.936	134.19
417.159	145.19
417.382	116.19
417.605	129.19
417.828	133.19
418.051	131.19
418.274	142.19
418.497	136.19
418.72	145.19
418.943	135.19
419.166	148.19
419.389	145.19
419.611	146.19
419.834	134.19
420.057	145.19
420.28	134.19
420.503	134.19
420.726	123.19
420.948	128.19
421.171	127.19
421.394	127.19
421.617	122.19
421.839	143.19
422.062	136.19
422.285	141.19
422.507	149.19
422.73	134.19
422.953	127.19
423.175	131.19
423.398	148.19
423.621	129.19
423.843	130.19
424.066	148.19
424.288	132.19
424.511	117.19
424.733	132.19
424.956	134.19
425.178	133.19
425.401	128.19
425.623	124.19
425.846	127.19
426.068	133.19
426.291	127.19
426.513	130.19
426.735	128.19
426.958	117.19
427.18	122.19
427.402	125.19
427.625	120.19
427.847	133.19
428.069	126.19
428.292	129.19
428.514	129.19
428.736	127.19
428.958	115.19
429.181	128.19
429.403	125.19
429.625	131.19
429.847	132.19
430.069	127.19
430.292	124.19
430.514	124.19
430.736	120.19
430.958	134.19
431.18	114.19
431.402	138.19
431.624	126.19
431.846	113.19
432.068	124.19
432.29	135.19
432.512	136.19
432.734	131.19
432.956	126.19
433.178	136.19
433.4	135.19
433.622	123.19
433.844	127.19
434.066	140.19
434.287	134.19
434.509	117.19
434.731	134.19
434.953	132.19
435.175	131.19
435.397	142.19
435.618	137.19
435.84	145.19
436.062	140.19
436.284	119.19
436.505	112.19
436.727	123.19
436.949	118.19
437.17	127.19
437.392	129.19
437.614	113.19
437.835	124.19
438.057	122.19
438.278	121.19
438.5	112.19
438.721	134.19
438.943	152.19
439.165	129.19
439.386	123.19
439.608	129.19
439.829	123.19
440.05	146.19
440.272	117.19
440.493	143.19
440.715	131.19
440.936	133.19
441.158	139.19
441.379	133.19
441.6	146.19
441.822	135.19
442.043	147.19
442.264	131.19
442.486	136.19
442.707	132.19
442.928	134.19
443.149	139.19
443.371	128.19
443.592	134.19
443.813	133.19
444.034	131.19
444.255	134.19
444.476	129.19
444.698	144.19
444.919	140.19
445.14	399.19
445.361	240.19
445.582	151.19
445.803	145.19
446.024	128.19
446.245	134.19
446.466	139.19
446.687	117.19
446.908	133.19
447.129	131.19
447.35	132.19
447.571	116.19
447.792	146.19
448.013	123.19
448.234	131.19
448.455	121.19
448.675	111.19
448.896	132.19
449.117	123.19
449.338	127.19
449.559	129.19
449.779	139.19
450	120.19
450.221	118.19
450.442	122.19
450.662	121.19
450.883	119.19
451.104	119.19
451.324	127.19
451.545	126.19
451.766	109.19
451.986	121.19
452.207	126.19
452.428	117.19
452.648	109.19
452.869	115.19
453.089	121.19
453.31	123.19
453.53	131.19
453.751	142.19
453.971	136.19
454.192	117.19
454.412	133.19
454.633	125.19
454.853	113.19
455.073	116.19
455.294	113.19
455.514	133.19
455.734	124.19
455.955	127.19
456.175	116.19
456.395	118.19
456.616	123.19
456.836	108.19
457.056	113.19
457.276	115.19
457.497	124.19
457.717	104.19
457.937	106.19
458.157	113.19
458.377	110.19
458.598	120.19
458.818	133.19
459.038	124.19
459.258	126.19
459.478	133.19
459.698	135.19
459.918	129.19
460.138	134.19
460.358	132.19
460.578	128.19
460.798	135.19
461.018	135.19
461.238	144.19
461.458	124.19
461.678	126.19
461.898	139.19
462.118	143.19
462.338	143.19
462.558	147.19
462.777	152.19
462.997	148.19
463.217	170.19
463.437	157.19
463.657	130.19
463.876	145.19
464.096	135.19
464.316	131.19
464.536	149.19
464.755	162.19
464.975	151.19
465.195	149.19
465.414	144.19
465.634	136.19
465.854	121.19
466.073	137.19
466.293	128.19
466.512	109.19
466.732	122.19
466.951	121.19
467.171	123.19
467.391	127.19
467.61	118.19
467.829	125.19
468.049	114.19
468.268	127.19
468.488	118.19
468.707	121.19
468.927	130.19
469.146	108.19
469.365	114.19
469.585	126.19
469.804	128.19
470.023	118.19
470.243	136.19
470.462	129.19
470.681	116.19
470.901	120.19
471.12	115.19
471.339	128.19
471.558	136.19
471.777	138.19
471.997	139.19
472.216	134.19
472.435	115.19
472.654	129.19
472.873	127.19
473.092	123.19
473.311	135.19
473.53	132.19
473.749	119.19
473.968	129.19
474.187	124.19
474.406	116.19
474.625	114.19
474.844	114.19
475.063	140.19
475.282	125.19
475.501	127.19
475.72	130.19
475.939	123.19
476.158	127.19
476.377	121.19
476.596	123.19
476.814	131.19
477.033	124.19
477.252	123.19
477.471	119.19
477.69	115.19
477.908	137.19
478.127	131.19
478.346	136.19
478.564	143.19
478.783	128.19
479.002	135.19
479.22	134.19
479.439	120.19
479.658	143.19
479.876	129.19
480.095	138.19
480.313	148.19
480.532	151.19
480.751	145.19
480.969	132.19
481.188	123.19
481.406	137.19
481.624	144.19
481.843	131.19
482.061	139.19
482.28	129.19
482.498	121.19
482.717	130.19
482.935	133.19
483.153	126.19
483.372	117.19
483.59	133.19
483.808	127.19
484.027	135.19
484.245	134.19
484.463	141.19
484.681	149.19
484.9	129.19
485.118	135.19
485.336	139.19
485.554	133.19
485.772	140.19
485.99	131.19
486.209	151.19
486.427	135.19
486.645	139.19
486.863	130.19
487.081	146.19
487.299	147.19
487.517	129.19
487.735	120.19
487.953	137.19
488.171	141.19
488.389	139.19
488.607	130.19
488.825	131.19
489.043	133.19
489.261	136.19
489.479	140.19
489.696	140.19
489.914	127.19
490.132	135.19
490.35	126.19
490.568	121.19
490.786	114.19
491.003	141.19
491.221	124.19
491.439	129.19
491.657	123.19
491.874	162.19
492.092	137.19
492.31	152.19
492.527	148.19
492.745	147.19
492.963	122.19
493.18	157.19
493.398	131.19
493.615	140.19
493.833	133.19
494.05	139.19
494.268	126.19
494.485	154.19
494.703	149.19
494.92	121.19
495.138	128.19
495.355	146.19
495.573	143.19
495.79	157.19
496.008	137.19
496.225	133.19
496.442	158.19
496.66	149.19
496.877	132.19
497.094	149.19
497.312	143.19
497.529	151.19
497.746	153.19
497.963	130.19
498.181	137.19
498.398	171.19
498.615	159.19
498.832	162.19
499.049	170.19
499.267	196.19
499.484	189.19
499.701	205.19
499.918	211.19
500.135	217.19
500.352	237.19
500.569	242.19
500.786	244.19
501.003	258.19
501.22	213.19
501.437	209.19
501.654	199.19
501.871	181.19
502.088	175.19
502.305	159.19
502.522	149.19
502.739	156.19
502.956	159.19
503.172	147.19
503.389	155.19
503.606	131.19
503.823	137.19
504.04	159.19
504.256	167.19
504.473	160.19
504.69	147.19
504.907	157.19
505.123	149.19
505.34	146.19
505.557	150.19
