Data from SampD_HRD10591_00055.txt Node
Date: Mon Jan 19 11:41:40 EST 2026
User: Yrep
Spectrometer: HR+D1059
Trigger mode: 0
Integration Time (sec): 3.443000E-1
Scans to average: 1
Electric dark correction enabled: true
Nonlinearity correction enabled: false
Boxcar width: 0
XAxis mode: Wavelengths
Number of Pixels in Spectrum: 2048
>>>>>Begin Spectral Data<<<<<
223.165	-28.69
223.4	-28.69
223.635	-28.69
223.869	-13.69
224.104	-14.69
224.338	-20.69
224.573	-20.69
224.808	-7.69
225.042	3.31
225.277	-0.69
225.511	-0.69
225.746	-1.69
225.98	10.31
226.215	2.31
226.449	24.31
226.683	20.31
226.918	17.31
227.152	31.31
227.387	30.31
227.621	37.31
227.856	51.31
228.09	34.31
228.324	40.31
228.559	56.31
228.793	58.31
229.027	63.31
229.262	70.31
229.496	60.31
229.73	78.31
229.964	66.31
230.199	79.31
230.433	58.31
230.667	74.31
230.901	62.31
231.136	82.31
231.37	72.31
231.604	73.31
231.838	85.31
232.072	85.31
232.306	94.31
232.541	80.31
232.775	69.31
233.009	86.31
233.243	87.31
233.477	82.31
233.711	80.31
233.945	90.31
234.179	92.31
234.413	84.31
234.647	94.31
234.881	81.31
235.115	77.31
235.349	89.31
235.583	90.31
235.817	80.31
236.051	78.31
236.285	88.31
236.519	77.31
236.753	82.31
236.987	92.31
237.221	91.31
237.455	80.31
237.689	75.31
237.922	77.31
238.156	62.31
238.39	83.31
238.624	76.31
238.858	82.31
239.091	82.31
239.325	82.31
239.559	88.31
239.793	88.31
240.027	93.31
240.26	85.31
240.494	78.31
240.728	70.31
240.961	72.31
241.195	77.31
241.429	82.31
241.662	79.31
241.896	93.31
242.13	76.31
242.363	82.31
242.597	92.31
242.83	94.31
243.064	84.31
243.298	77.31
243.531	74.31
243.765	73.31
243.998	82.31
244.232	107.31
244.465	82.31
244.699	89.31
244.932	95.31
245.166	80.31
245.399	93.31
245.633	92.31
245.866	98.31
246.099	87.31
246.333	106.31
246.566	90.31
246.8	90.31
247.033	90.31
247.266	89.31
247.5	97.31
247.733	72.31
247.966	88.31
248.2	82.31
248.433	97.31
248.666	94.31
248.899	100.31
249.133	101.31
249.366	100.31
249.599	84.31
249.832	82.31
250.066	108.31
250.299	84.31
250.532	86.31
250.765	94.31
250.998	85.31
251.231	89.31
251.465	83.31
251.698	82.31
251.931	96.31
252.164	115.31
252.397	112.31
252.63	84.31
252.863	94.31
253.096	92.31
253.329	84.31
253.562	91.31
253.795	99.31
254.028	100.31
254.261	84.31
254.494	94.31
254.727	97.31
254.96	84.31
255.193	89.31
255.426	108.31
255.659	91.31
255.892	92.31
256.124	104.31
256.357	79.31
256.59	100.31
256.823	88.31
257.056	90.31
257.289	97.31
257.521	95.31
257.754	110.31
257.987	80.31
258.22	114.31
258.452	97.31
258.685	93.31
258.918	97.31
259.151	87.31
259.383	111.31
259.616	98.31
259.849	89.31
260.081	94.31
260.314	89.31
260.547	94.31
260.779	92.31
261.012	89.31
261.244	94.31
261.477	105.31
261.71	104.31
261.942	90.31
262.175	96.31
262.407	97.31
262.64	93.31
262.872	93.31
263.105	100.31
263.337	112.31
263.57	87.31
263.802	92.31
264.035	117.31
264.267	94.31
264.499	101.31
264.732	105.31
264.964	101.31
265.197	93.31
265.429	112.31
265.661	103.31
265.894	94.31
266.126	91.31
266.358	92.31
266.591	113.31
266.823	108.31
267.055	92.31
267.287	112.31
267.52	96.31
267.752	104.31
267.984	94.31
268.216	114.31
268.448	103.31
268.681	107.31
268.913	113.31
269.145	112.31
269.377	102.31
269.609	105.31
269.841	102.31
270.073	103.31
270.306	117.31
270.538	108.31
270.77	107.31
271.002	103.31
271.234	105.31
271.466	103.31
271.698	94.31
271.93	109.31
272.162	121.31
272.394	101.31
272.626	116.31
272.858	112.31
273.09	107.31
273.322	123.31
273.553	91.31
273.785	108.31
274.017	99.31
274.249	109.31
274.481	90.31
274.713	106.31
274.945	112.31
275.176	108.31
275.408	123.31
275.64	103.31
275.872	106.31
276.104	101.31
276.335	124.31
276.567	117.31
276.799	86.31
277.031	104.31
277.262	96.31
277.494	120.31
277.726	107.31
277.957	98.31
278.189	91.31
278.421	108.31
278.652	104.31
278.884	115.31
279.115	112.31
279.347	102.31
279.579	121.31
279.81	105.31
280.042	110.31
280.273	100.31
280.505	121.31
280.736	128.31
280.968	126.31
281.199	120.31
281.431	112.31
281.662	110.31
281.894	117.31
282.125	116.31
282.356	108.31
282.588	106.31
282.819	121.31
283.051	107.31
283.282	105.31
283.513	128.31
283.745	114.31
283.976	102.31
284.207	113.31
284.439	109.31
284.67	117.31
284.901	120.31
285.132	115.31
285.364	123.31
285.595	126.31
285.826	118.31
286.057	117.31
286.288	107.31
286.52	111.31
286.751	131.31
286.982	107.31
287.213	114.31
287.444	103.31
287.675	124.31
287.906	130.31
288.138	120.31
288.369	131.31
288.6	118.31
288.831	121.31
289.062	139.31
289.293	122.31
289.524	117.31
289.755	121.31
289.986	126.31
290.217	123.31
290.448	120.31
290.679	125.31
290.91	144.31
291.141	125.31
291.371	124.31
291.602	118.31
291.833	115.31
292.064	143.31
292.295	111.31
292.526	132.31
292.757	116.31
292.987	113.31
293.218	128.31
293.449	123.31
293.68	122.31
293.91	126.31
294.141	121.31
294.372	122.31
294.603	116.31
294.833	120.31
295.064	130.31
295.295	121.31
295.525	119.31
295.756	121.31
295.987	127.31
296.217	124.31
296.448	113.31
296.679	130.31
296.909	123.31
297.14	124.31
297.37	129.31
297.601	124.31
297.831	118.31
298.062	122.31
298.292	137.31
298.523	134.31
298.753	140.31
298.984	118.31
299.214	127.31
299.445	121.31
299.675	116.31
299.905	123.31
300.136	130.31
300.366	130.31
300.597	145.31
300.827	150.31
301.057	125.31
301.288	117.31
301.518	116.31
301.748	126.31
301.979	165.31
302.209	136.31
302.439	120.31
302.669	131.31
302.9	131.31
303.13	143.31
303.36	148.31
303.59	137.31
303.82	133.31
304.051	116.31
304.281	119.31
304.511	144.31
304.741	123.31
304.971	125.31
305.201	126.31
305.431	136.31
305.661	125.31
305.891	121.31
306.121	132.31
306.352	130.31
306.582	136.31
306.812	124.31
307.042	113.31
307.272	111.31
307.502	120.31
307.731	119.31
307.961	127.31
308.191	135.31
308.421	128.31
308.651	142.31
308.881	119.31
309.111	114.31
309.341	137.31
309.571	133.31
309.8	117.31
310.03	115.31
310.26	123.31
310.49	140.31
310.72	127.31
310.949	123.31
311.179	132.31
311.409	124.31
311.639	131.31
311.868	145.31
312.098	132.31
312.328	118.31
312.557	128.31
312.787	140.31
313.017	159.31
313.246	130.31
313.476	133.31
313.706	130.31
313.935	137.31
314.165	122.31
314.394	126.31
314.624	127.31
314.853	141.31
315.083	113.31
315.312	140.31
315.542	143.31
315.771	136.31
316.001	141.31
316.23	130.31
316.46	127.31
316.689	133.31
316.919	123.31
317.148	131.31
317.377	151.31
317.607	130.31
317.836	119.31
318.065	130.31
318.295	124.31
318.524	142.31
318.753	129.31
318.983	121.31
319.212	124.31
319.441	138.31
319.67	121.31
319.9	131.31
320.129	124.31
320.358	138.31
320.587	138.31
320.816	138.31
321.046	139.31
321.275	135.31
321.504	130.31
321.733	138.31
321.962	133.31
322.191	139.31
322.42	141.31
322.649	136.31
322.878	138.31
323.108	154.31
323.337	142.31
323.566	130.31
323.795	130.31
324.024	125.31
324.253	123.31
324.482	137.31
324.71	140.31
324.939	140.31
325.168	134.31
325.397	136.31
325.626	140.31
325.855	131.31
326.084	134.31
326.313	133.31
326.542	114.31
326.77	144.31
326.999	115.31
327.228	113.31
327.457	121.31
327.686	151.31
327.914	139.31
328.143	138.31
328.372	157.31
328.6	137.31
328.829	145.31
329.058	138.31
329.287	142.31
329.515	136.31
329.744	153.31
329.972	141.31
330.201	139.31
330.43	132.31
330.658	124.31
330.887	146.31
331.115	165.31
331.344	152.31
331.572	154.31
331.801	139.31
332.03	141.31
332.258	154.31
332.486	152.31
332.715	142.31
332.943	145.31
333.172	174.31
333.4	164.31
333.629	157.31
333.857	170.31
334.085	161.31
334.314	159.31
334.542	141.31
334.771	155.31
334.999	154.31
335.227	158.31
335.455	142.31
335.684	176.31
335.912	159.31
336.14	144.31
336.369	154.31
336.597	157.31
336.825	140.31
337.053	140.31
337.281	129.31
337.51	138.31
337.738	147.31
337.966	138.31
338.194	145.31
338.422	136.31
338.65	130.31
338.878	156.31
339.106	136.31
339.334	162.31
339.562	149.31
339.79	141.31
340.018	146.31
340.246	154.31
340.474	131.31
340.702	163.31
340.93	149.31
341.158	129.31
341.386	157.31
341.614	140.31
341.842	140.31
342.07	111.31
342.298	136.31
342.526	131.31
342.754	131.31
342.981	143.31
343.209	158.31
343.437	182.31
343.665	164.31
343.893	173.31
344.12	158.31
344.348	154.31
344.576	143.31
344.804	137.31
345.031	134.31
345.259	138.31
345.487	160.31
345.714	139.31
345.942	140.31
346.17	139.31
346.397	139.31
346.625	134.31
346.853	128.31
347.08	133.31
347.308	142.31
347.535	126.31
347.763	133.31
347.99	159.31
348.218	144.31
348.445	125.31
348.673	154.31
348.9	156.31
349.128	137.31
349.355	143.31
349.583	142.31
349.81	140.31
350.037	148.31
350.265	144.31
350.492	146.31
350.72	136.31
350.947	137.31
351.174	143.31
351.402	150.31
351.629	138.31
351.856	137.31
352.083	147.31
352.311	133.31
352.538	129.31
352.765	145.31
352.992	157.31
353.22	153.31
353.447	152.31
353.674	155.31
353.901	134.31
354.128	132.31
354.355	129.31
354.583	122.31
354.81	129.31
355.037	145.31
355.264	146.31
355.491	128.31
355.718	111.31
355.945	132.31
356.172	136.31
356.399	139.31
356.626	130.31
356.853	146.31
357.08	132.31
357.307	147.31
357.534	150.31
357.761	143.31
357.988	130.31
358.215	128.31
358.441	120.31
358.668	139.31
358.895	135.31
359.122	157.31
359.349	137.31
359.576	149.31
359.802	137.31
360.029	137.31
360.256	139.31
360.483	120.31
360.709	127.31
360.936	166.31
361.163	160.31
361.39	142.31
361.616	148.31
361.843	138.31
362.07	132.31
362.296	133.31
362.523	143.31
362.749	129.31
362.976	147.31
363.203	154.31
363.429	140.31
363.656	121.31
363.882	136.31
364.109	147.31
364.335	148.31
364.562	141.31
364.788	140.31
365.015	132.31
365.241	144.31
365.468	151.31
365.694	129.31
365.92	125.31
366.147	142.31
366.373	126.31
366.599	132.31
366.826	128.31
367.052	155.31
367.278	145.31
367.505	133.31
367.731	162.31
367.957	129.31
368.184	145.31
368.41	138.31
368.636	135.31
368.862	133.31
369.089	149.31
369.315	154.31
369.541	148.31
369.767	141.31
369.993	142.31
370.219	134.31
370.445	146.31
370.672	145.31
370.898	159.31
371.124	156.31
371.35	130.31
371.576	135.31
371.802	144.31
372.028	137.31
372.254	140.31
372.48	153.31
372.706	156.31
372.932	150.31
373.158	132.31
373.384	142.31
373.61	145.31
373.835	138.31
374.061	125.31
374.287	133.31
374.513	140.31
374.739	139.31
374.965	152.31
375.191	150.31
375.416	141.31
375.642	148.31
375.868	154.31
376.094	147.31
376.319	137.31
376.545	153.31
376.771	127.31
376.997	142.31
377.222	150.31
377.448	159.31
377.674	144.31
377.899	144.31
378.125	125.31
378.35	143.31
378.576	144.31
378.802	150.31
379.027	154.31
379.253	163.31
379.478	149.31
379.704	140.31
379.929	136.31
380.155	136.31
380.38	145.31
380.606	136.31
380.831	144.31
381.057	155.31
381.282	144.31
381.507	164.31
381.733	138.31
381.958	161.31
382.184	160.31
382.409	153.31
382.634	159.31
382.86	150.31
383.085	164.31
383.31	145.31
383.535	167.31
383.761	165.31
383.986	179.31
384.211	149.31
384.436	160.31
384.662	158.31
384.887	163.31
385.112	161.31
385.337	143.31
385.562	167.31
385.787	158.31
386.013	155.31
386.238	158.31
386.463	175.31
386.688	190.31
386.913	167.31
387.138	155.31
387.363	154.31
387.588	169.31
387.813	154.31
388.038	165.31
388.263	178.31
388.488	174.31
388.713	147.31
388.938	154.31
389.163	156.31
389.387	154.31
389.612	160.31
389.837	164.31
390.062	156.31
390.287	150.31
390.512	144.31
390.736	142.31
390.961	153.31
391.186	168.31
391.411	156.31
391.636	173.31
391.86	181.31
392.085	175.31
392.31	179.31
392.534	157.31
392.759	173.31
392.984	170.31
393.208	173.31
393.433	166.31
393.658	193.31
393.882	175.31
394.107	163.31
394.331	191.31
394.556	154.31
394.78	179.31
395.005	170.31
395.229	163.31
395.454	172.31
395.678	181.31
395.903	170.31
396.127	167.31
396.352	173.31
396.576	164.31
396.801	172.31
397.025	191.31
397.249	183.31
397.474	190.31
397.698	192.31
397.922	180.31
398.147	174.31
398.371	178.31
398.595	166.31
398.82	183.31
399.044	207.31
399.268	222.31
399.492	255.31
399.717	241.31
399.941	227.31
400.165	224.31
400.389	190.31
400.613	196.31
400.837	190.31
401.062	186.31
401.286	200.31
401.51	178.31
401.734	172.31
401.958	197.31
402.182	174.31
402.406	187.31
402.63	202.31
402.854	197.31
403.078	225.31
403.302	215.31
403.526	200.31
403.75	209.31
403.974	212.31
404.198	222.31
404.422	220.31
404.645	201.31
404.869	181.31
405.093	190.31
405.317	198.31
405.541	209.31
405.765	199.31
405.988	204.31
406.212	187.31
406.436	184.31
406.66	211.31
406.883	229.31
407.107	209.31
407.331	224.31
407.555	234.31
407.778	212.31
408.002	211.31
408.226	207.31
408.449	189.31
408.673	200.31
408.896	194.31
409.12	192.31
409.344	198.31
409.567	201.31
409.791	202.31
410.014	199.31
410.238	188.31
410.461	206.31
410.685	202.31
410.908	197.31
411.132	188.31
411.355	194.31
411.578	200.31
411.802	189.31
412.025	181.31
412.249	195.31
412.472	207.31
412.695	196.31
412.919	190.31
413.142	186.31
413.365	181.31
413.589	181.31
413.812	162.31
414.035	187.31
414.258	167.31
414.482	178.31
414.705	184.31
414.928	196.31
415.151	182.31
415.374	202.31
415.597	198.31
415.821	179.31
416.044	168.31
416.267	174.31
416.49	192.31
416.713	189.31
416.936	195.31
417.159	182.31
417.382	185.31
417.605	197.31
417.828	186.31
418.051	193.31
418.274	181.31
418.497	189.31
418.72	176.31
418.943	193.31
419.166	207.31
419.389	212.31
419.611	192.31
419.834	191.31
420.057	214.31
420.28	191.31
420.503	180.31
420.726	180.31
420.948	188.31
421.171	192.31
421.394	178.31
421.617	191.31
421.839	189.31
422.062	189.31
422.285	187.31
422.507	198.31
422.73	196.31
422.953	187.31
423.175	184.31
423.398	195.31
423.621	196.31
423.843	201.31
424.066	208.31
424.288	195.31
424.511	200.31
424.733	199.31
424.956	187.31
425.178	197.31
425.401	197.31
425.623	181.31
425.846	166.31
426.068	174.31
426.291	177.31
426.513	164.31
426.735	187.31
426.958	184.31
427.18	173.31
427.402	177.31
427.625	177.31
427.847	162.31
428.069	182.31
428.292	185.31
428.514	166.31
428.736	178.31
428.958	167.31
429.181	182.31
429.403	166.31
429.625	174.31
429.847	165.31
430.069	177.31
430.292	182.31
430.514	173.31
430.736	168.31
430.958	189.31
431.18	177.31
431.402	181.31
431.624	161.31
431.846	174.31
432.068	169.31
432.29	184.31
432.512	195.31
432.734	196.31
432.956	182.31
433.178	197.31
433.4	183.31
433.622	205.31
433.844	171.31
434.066	186.31
434.287	190.31
434.509	176.31
434.731	178.31
434.953	202.31
435.175	188.31
435.397	181.31
435.618	172.31
435.84	179.31
436.062	161.31
436.284	178.31
436.505	176.31
436.727	178.31
436.949	177.31
437.17	183.31
437.392	164.31
437.614	185.31
437.835	153.31
438.057	168.31
438.278	162.31
438.5	167.31
438.721	179.31
438.943	186.31
439.165	180.31
439.386	158.31
439.608	171.31
439.829	169.31
440.05	181.31
440.272	173.31
440.493	184.31
440.715	174.31
440.936	177.31
441.158	194.31
441.379	181.31
441.6	180.31
441.822	209.31
442.043	188.31
442.264	172.31
442.486	196.31
442.707	205.31
442.928	188.31
443.149	208.31
443.371	213.31
443.592	196.31
443.813	208.31
444.034	176.31
444.255	201.31
444.476	202.31
444.698	213.31
444.919	213.31
445.14	450.31
445.361	308.31
445.582	200.31
445.803	190.31
446.024	179.31
446.245	185.31
446.466	181.31
446.687	184.31
446.908	169.31
447.129	185.31
447.35	169.31
447.571	167.31
447.792	171.31
448.013	165.31
448.234	177.31
448.455	174.31
448.675	150.31
448.896	184.31
449.117	175.31
449.338	163.31
449.559	186.31
449.779	158.31
450	167.31
450.221	160.31
450.442	157.31
450.662	170.31
450.883	172.31
451.104	175.31
451.324	184.31
451.545	156.31
451.766	157.31
451.986	173.31
452.207	167.31
452.428	152.31
452.648	176.31
452.869	156.31
453.089	159.31
453.31	166.31
453.53	176.31
453.751	179.31
453.971	161.31
454.192	164.31
454.412	148.31
454.633	155.31
454.853	173.31
455.073	176.31
455.294	148.31
455.514	158.31
455.734	167.31
455.955	157.31
456.175	160.31
456.395	175.31
456.616	172.31
456.836	144.31
457.056	150.31
457.276	142.31
457.497	176.31
457.717	146.31
457.937	147.31
458.157	165.31
458.377	161.31
458.598	170.31
458.818	172.31
459.038	161.31
459.258	166.31
459.478	180.31
459.698	210.31
459.918	164.31
460.138	193.31
460.358	194.31
460.578	196.31
460.798	192.31
461.018	194.31
461.238	199.31
461.458	202.31
461.678	187.31
461.898	204.31
462.118	195.31
462.338	216.31
462.558	205.31
462.777	224.31
462.997	240.31
463.217	236.31
463.437	244.31
463.657	244.31
463.876	218.31
464.096	225.31
464.316	203.31
464.536	224.31
464.755	210.31
464.975	217.31
465.195	204.31
465.414	192.31
465.634	188.31
465.854	185.31
466.073	185.31
466.293	179.31
466.512	173.31
466.732	175.31
466.951	177.31
467.171	157.31
467.391	157.31
467.61	163.31
467.829	175.31
468.049	180.31
468.268	161.31
468.488	157.31
468.707	162.31
468.927	166.31
469.146	155.31
469.365	157.31
469.585	173.31
469.804	173.31
470.023	180.31
470.243	169.31
470.462	169.31
470.681	188.31
470.901	181.31
471.12	178.31
471.339	174.31
471.558	178.31
471.777	165.31
471.997	166.31
472.216	158.31
472.435	156.31
472.654	178.31
472.873	184.31
473.092	177.31
473.311	155.31
473.53	150.31
473.749	174.31
473.968	191.31
474.187	160.31
474.406	163.31
474.625	153.31
474.844	156.31
475.063	158.31
475.282	171.31
475.501	167.31
475.72	188.31
475.939	159.31
476.158	162.31
476.377	163.31
476.596	157.31
476.814	163.31
477.033	164.31
477.252	165.31
477.471	166.31
477.69	174.31
477.908	206.31
478.127	216.31
478.346	201.31
478.564	183.31
478.783	178.31
479.002	197.31
479.22	189.31
479.439	180.31
479.658	192.31
479.876	192.31
480.095	186.31
480.313	209.31
480.532	204.31
480.751	204.31
480.969	179.31
481.188	205.31
481.406	196.31
481.624	181.31
481.843	177.31
482.061	179.31
482.28	177.31
482.498	162.31
482.717	188.31
482.935	186.31
483.153	177.31
483.372	186.31
483.59	176.31
483.808	194.31
484.027	182.31
484.245	174.31
484.463	184.31
484.681	196.31
484.9	183.31
485.118	182.31
485.336	189.31
485.554	176.31
485.772	184.31
485.99	185.31
486.209	190.31
486.427	183.31
486.645	189.31
486.863	181.31
487.081	186.31
487.299	185.31
487.517	199.31
487.735	191.31
487.953	187.31
488.171	188.31
488.389	192.31
488.607	195.31
488.825	188.31
489.043	182.31
489.261	189.31
489.479	188.31
489.696	178.31
489.914	186.31
490.132	186.31
490.35	193.31
490.568	195.31
490.786	190.31
491.003	181.31
491.221	202.31
491.439	206.31
491.657	189.31
491.874	184.31
492.092	191.31
492.31	203.31
492.527	184.31
492.745	206.31
492.963	202.31
493.18	193.31
493.398	192.31
493.615	209.31
493.833	196.31
494.05	186.31
494.268	198.31
494.485	206.31
494.703	211.31
494.92	200.31
495.138	203.31
495.355	194.31
495.573	185.31
495.79	186.31
496.008	201.31
496.225	210.31
496.442	203.31
496.66	212.31
496.877	203.31
497.094	204.31
497.312	197.31
497.529	200.31
497.746	218.31
497.963	203.31
498.181	215.31
498.398	227.31
498.615	232.31
498.832	255.31
499.049	272.31
499.267	280.31
499.484	301.31
499.701	331.31
499.918	368.31
500.135	412.31
500.352	446.31
500.569	446.31
500.786	431.31
501.003	396.31
501.22	358.31
501.437	342.31
501.654	285.31
501.871	286.31
502.088	268.31
502.305	251.31
502.522	248.31
502.739	248.31
502.956	217.31
503.172	210.31
503.389	210.31
503.606	212.31
503.823	217.31
504.04	210.31
504.256	207.31
504.473	225.31
504.69	224.31
