Data from SampD_HRD10591_00096.txt Node
Date: Mon Jan 19 11:41:54 EST 2026
User: Yrep
Spectrometer: HR+D1059
Trigger mode: 0
Integration Time (sec): 3.443000E-1
Scans to average: 1
Electric dark correction enabled: true
Nonlinearity correction enabled: false
Boxcar width: 0
XAxis mode: Wavelengths
Number of Pixels in Spectrum: 2048
>>>>>Begin Spectral Data<<<<<
223.165	-35.12
223.4	-35.12
223.635	-35.12
223.869	-19.12
224.104	-23.12
224.338	-10.12
224.573	-15.12
224.808	-9.12
225.042	-1.12
225.277	-18.12
225.511	1.88
225.746	11.88
225.98	16.88
226.215	0.88
226.449	13.88
226.683	12.88
226.918	32.88
227.152	39.88
227.387	45.88
227.621	36.88
227.856	42.88
228.09	56.88
228.324	49.88
228.559	48.88
228.793	50.88
229.027	80.88
229.262	53.88
229.496	85.88
229.73	70.88
229.964	79.88
230.199	62.88
230.433	74.88
230.667	77.88
230.901	74.88
231.136	84.88
231.37	88.88
231.604	90.88
231.838	96.88
232.072	84.88
232.306	93.88
232.541	89.88
232.775	90.88
233.009	98.88
233.243	97.88
233.477	74.88
233.711	73.88
233.945	84.88
234.179	76.88
234.413	89.88
234.647	93.88
234.881	88.88
235.115	90.88
235.349	91.88
235.583	92.88
235.817	79.88
236.051	80.88
236.285	90.88
236.519	91.88
236.753	89.88
236.987	89.88
237.221	88.88
237.455	86.88
237.689	86.88
237.922	88.88
238.156	84.88
238.39	74.88
238.624	92.88
238.858	89.88
239.091	94.88
239.325	82.88
239.559	77.88
239.793	76.88
240.027	92.88
240.26	83.88
240.494	82.88
240.728	78.88
240.961	76.88
241.195	82.88
241.429	93.88
241.662	86.88
241.896	88.88
242.13	88.88
242.363	77.88
242.597	79.88
242.83	85.88
243.064	99.88
243.298	82.88
243.531	92.88
243.765	74.88
243.998	86.88
244.232	102.88
244.465	89.88
244.699	93.88
244.932	84.88
245.166	84.88
245.399	101.88
245.633	105.88
245.866	92.88
246.099	87.88
246.333	82.88
246.566	85.88
246.8	78.88
247.033	93.88
247.266	93.88
247.5	96.88
247.733	76.88
247.966	88.88
248.2	89.88
248.433	101.88
248.666	87.88
248.899	95.88
249.133	96.88
249.366	109.88
249.599	95.88
249.832	84.88
250.066	102.88
250.299	96.88
250.532	95.88
250.765	86.88
250.998	96.88
251.231	110.88
251.465	96.88
251.698	89.88
251.931	98.88
252.164	87.88
252.397	92.88
252.63	85.88
252.863	100.88
253.096	96.88
253.329	100.88
253.562	92.88
253.795	97.88
254.028	89.88
254.261	111.88
254.494	99.88
254.727	94.88
254.96	112.88
255.193	89.88
255.426	82.88
255.659	109.88
255.892	113.88
256.124	107.88
256.357	106.88
256.59	90.88
256.823	97.88
257.056	104.88
257.289	90.88
257.521	88.88
257.754	94.88
257.987	95.88
258.22	93.88
258.452	103.88
258.685	95.88
258.918	105.88
259.151	99.88
259.383	102.88
259.616	102.88
259.849	99.88
260.081	113.88
260.314	96.88
260.547	100.88
260.779	97.88
261.012	97.88
261.244	116.88
261.477	106.88
261.71	105.88
261.942	102.88
262.175	112.88
262.407	90.88
262.64	91.88
262.872	103.88
263.105	115.88
263.337	104.88
263.57	114.88
263.802	109.88
264.035	110.88
264.267	100.88
264.499	99.88
264.732	118.88
264.964	107.88
265.197	102.88
265.429	102.88
265.661	113.88
265.894	109.88
266.126	113.88
266.358	110.88
266.591	99.88
266.823	98.88
267.055	96.88
267.287	109.88
267.52	117.88
267.752	112.88
267.984	116.88
268.216	105.88
268.448	119.88
268.681	114.88
268.913	117.88
269.145	98.88
269.377	114.88
269.609	101.88
269.841	92.88
270.073	112.88
270.306	96.88
270.538	108.88
270.77	101.88
271.002	112.88
271.234	118.88
271.466	118.88
271.698	101.88
271.93	113.88
272.162	113.88
272.394	121.88
272.626	106.88
272.858	121.88
273.09	114.88
273.322	100.88
273.553	97.88
273.785	104.88
274.017	108.88
274.249	119.88
274.481	115.88
274.713	111.88
274.945	102.88
275.176	110.88
275.408	117.88
275.64	97.88
275.872	108.88
276.104	98.88
276.335	116.88
276.567	106.88
276.799	111.88
277.031	114.88
277.262	116.88
277.494	111.88
277.726	126.88
277.957	106.88
278.189	102.88
278.421	125.88
278.652	109.88
278.884	126.88
279.115	104.88
279.347	112.88
279.579	100.88
279.81	102.88
280.042	110.88
280.273	116.88
280.505	109.88
280.736	117.88
280.968	119.88
281.199	123.88
281.431	115.88
281.662	122.88
281.894	104.88
282.125	117.88
282.356	114.88
282.588	133.88
282.819	113.88
283.051	126.88
283.282	101.88
283.513	103.88
283.745	125.88
283.976	116.88
284.207	110.88
284.439	113.88
284.67	128.88
284.901	116.88
285.132	116.88
285.364	107.88
285.595	125.88
285.826	128.88
286.057	137.88
286.288	116.88
286.52	113.88
286.751	102.88
286.982	126.88
287.213	114.88
287.444	126.88
287.675	120.88
287.906	138.88
288.138	136.88
288.369	133.88
288.6	100.88
288.831	112.88
289.062	124.88
289.293	117.88
289.524	127.88
289.755	121.88
289.986	112.88
290.217	127.88
290.448	121.88
290.679	116.88
290.91	125.88
291.141	113.88
291.371	117.88
291.602	153.88
291.833	119.88
292.064	126.88
292.295	137.88
292.526	131.88
292.757	116.88
292.987	113.88
293.218	132.88
293.449	138.88
293.68	129.88
293.91	133.88
294.141	134.88
294.372	116.88
294.603	135.88
294.833	142.88
295.064	133.88
295.295	129.88
295.525	101.88
295.756	132.88
295.987	116.88
296.217	127.88
296.448	131.88
296.679	137.88
296.909	126.88
297.14	133.88
297.37	132.88
297.601	114.88
297.831	107.88
298.062	124.88
298.292	127.88
298.523	130.88
298.753	134.88
298.984	137.88
299.214	124.88
299.445	119.88
299.675	112.88
299.905	125.88
300.136	122.88
300.366	129.88
300.597	118.88
300.827	142.88
301.057	127.88
301.288	124.88
301.518	128.88
301.748	118.88
301.979	154.88
302.209	135.88
302.439	132.88
302.669	135.88
302.9	126.88
303.13	136.88
303.36	136.88
303.59	130.88
303.82	107.88
304.051	145.88
304.281	140.88
304.511	140.88
304.741	122.88
304.971	133.88
305.201	133.88
305.431	127.88
305.661	127.88
305.891	135.88
306.121	136.88
306.352	125.88
306.582	135.88
306.812	126.88
307.042	141.88
307.272	124.88
307.502	142.88
307.731	128.88
307.961	132.88
308.191	133.88
308.421	146.88
308.651	133.88
308.881	130.88
309.111	138.88
309.341	120.88
309.571	124.88
309.8	124.88
310.03	123.88
310.26	138.88
310.49	117.88
310.72	120.88
310.949	121.88
311.179	133.88
311.409	124.88
311.639	127.88
311.868	133.88
312.098	141.88
312.328	152.88
312.557	140.88
312.787	140.88
313.017	133.88
313.246	136.88
313.476	129.88
313.706	133.88
313.935	134.88
314.165	132.88
314.394	125.88
314.624	124.88
314.853	142.88
315.083	131.88
315.312	152.88
315.542	124.88
315.771	122.88
316.001	125.88
316.23	118.88
316.46	117.88
316.689	133.88
316.919	130.88
317.148	129.88
317.377	146.88
317.607	126.88
317.836	128.88
318.065	132.88
318.295	117.88
318.524	129.88
318.753	126.88
318.983	149.88
319.212	133.88
319.441	132.88
319.67	144.88
319.9	152.88
320.129	134.88
320.358	140.88
320.587	120.88
320.816	120.88
321.046	125.88
321.275	142.88
321.504	130.88
321.733	132.88
321.962	134.88
322.191	135.88
322.42	144.88
322.649	128.88
322.878	142.88
323.108	136.88
323.337	150.88
323.566	118.88
323.795	126.88
324.024	137.88
324.253	125.88
324.482	146.88
324.71	137.88
324.939	154.88
325.168	133.88
325.397	154.88
325.626	152.88
325.855	142.88
326.084	131.88
326.313	146.88
326.542	125.88
326.77	148.88
326.999	146.88
327.228	121.88
327.457	140.88
327.686	132.88
327.914	156.88
328.143	158.88
328.372	159.88
328.6	149.88
328.829	126.88
329.058	148.88
329.287	154.88
329.515	138.88
329.744	154.88
329.972	128.88
330.201	134.88
330.43	146.88
330.658	136.88
330.887	137.88
331.115	151.88
331.344	134.88
331.572	137.88
331.801	141.88
332.03	143.88
332.258	141.88
332.486	149.88
332.715	146.88
332.943	152.88
333.172	167.88
333.4	167.88
333.629	178.88
333.857	170.88
334.085	170.88
334.314	164.88
334.542	160.88
334.771	158.88
334.999	165.88
335.227	157.88
335.455	149.88
335.684	159.88
335.912	170.88
336.14	165.88
336.369	166.88
336.597	152.88
336.825	170.88
337.053	162.88
337.281	144.88
337.51	148.88
337.738	149.88
337.966	140.88
338.194	146.88
338.422	145.88
338.65	137.88
338.878	132.88
339.106	134.88
339.334	165.88
339.562	126.88
339.79	150.88
340.018	137.88
340.246	142.88
340.474	140.88
340.702	133.88
340.93	137.88
341.158	143.88
341.386	142.88
341.614	152.88
341.842	149.88
342.07	152.88
342.298	161.88
342.526	127.88
342.754	151.88
342.981	136.88
343.209	149.88
343.437	188.88
343.665	156.88
343.893	167.88
344.12	147.88
344.348	143.88
344.576	155.88
344.804	150.88
345.031	144.88
345.259	132.88
345.487	142.88
345.714	138.88
345.942	156.88
346.17	142.88
346.397	133.88
346.625	141.88
346.853	143.88
347.08	150.88
347.308	137.88
347.535	144.88
347.763	143.88
347.99	136.88
348.218	149.88
348.445	131.88
348.673	144.88
348.9	129.88
349.128	144.88
349.355	140.88
349.583	132.88
349.81	132.88
350.037	149.88
350.265	142.88
350.492	133.88
350.72	140.88
350.947	131.88
351.174	137.88
351.402	136.88
351.629	145.88
351.856	146.88
352.083	128.88
352.311	148.88
352.538	119.88
352.765	132.88
352.992	150.88
353.22	136.88
353.447	137.88
353.674	141.88
353.901	127.88
354.128	133.88
354.355	124.88
354.583	130.88
354.81	145.88
355.037	154.88
355.264	134.88
355.491	134.88
355.718	130.88
355.945	139.88
356.172	145.88
356.399	131.88
356.626	136.88
356.853	129.88
357.08	154.88
357.307	156.88
357.534	133.88
357.761	146.88
357.988	148.88
358.215	151.88
358.441	137.88
358.668	136.88
358.895	143.88
359.122	132.88
359.349	153.88
359.576	131.88
359.802	138.88
360.029	137.88
360.256	144.88
360.483	137.88
360.709	127.88
360.936	173.88
361.163	148.88
361.39	131.88
361.616	140.88
361.843	128.88
362.07	118.88
362.296	131.88
362.523	132.88
362.749	146.88
362.976	125.88
363.203	140.88
363.429	148.88
363.656	155.88
363.882	142.88
364.109	138.88
364.335	148.88
364.562	148.88
364.788	133.88
365.015	133.88
365.241	131.88
365.468	162.88
365.694	151.88
365.92	138.88
366.147	133.88
366.373	135.88
366.599	143.88
366.826	148.88
367.052	145.88
367.278	135.88
367.505	140.88
367.731	165.88
367.957	141.88
368.184	134.88
368.41	156.88
368.636	143.88
368.862	134.88
369.089	135.88
369.315	137.88
369.541	136.88
369.767	131.88
369.993	159.88
370.219	162.88
370.445	149.88
370.672	126.88
370.898	140.88
371.124	147.88
371.35	143.88
371.576	158.88
371.802	135.88
372.028	140.88
372.254	144.88
372.48	146.88
372.706	152.88
372.932	149.88
373.158	134.88
373.384	158.88
373.61	160.88
373.835	151.88
374.061	142.88
374.287	141.88
374.513	145.88
374.739	126.88
374.965	156.88
375.191	163.88
375.416	174.88
375.642	164.88
375.868	187.88
376.094	143.88
376.319	142.88
376.545	131.88
376.771	154.88
376.997	158.88
377.222	149.88
377.448	152.88
377.674	148.88
377.899	141.88
378.125	141.88
378.35	155.88
378.576	130.88
378.802	161.88
379.027	142.88
379.253	146.88
379.478	165.88
379.704	156.88
379.929	156.88
380.155	138.88
380.38	136.88
380.606	153.88
380.831	146.88
381.057	146.88
381.282	144.88
381.507	143.88
381.733	143.88
381.958	141.88
382.184	129.88
382.409	155.88
382.634	164.88
382.86	164.88
383.085	162.88
383.31	152.88
383.535	165.88
383.761	164.88
383.986	152.88
384.211	146.88
384.436	144.88
384.662	155.88
384.887	166.88
385.112	147.88
385.337	158.88
385.562	164.88
385.787	164.88
386.013	182.88
386.238	166.88
386.463	148.88
386.688	205.88
386.913	172.88
387.138	151.88
387.363	156.88
387.588	160.88
387.813	175.88
388.038	149.88
388.263	163.88
388.488	179.88
388.713	159.88
388.938	170.88
389.163	162.88
389.387	177.88
389.612	152.88
389.837	168.88
390.062	145.88
390.287	156.88
390.512	178.88
390.736	165.88
390.961	170.88
391.186	193.88
391.411	172.88
391.636	165.88
391.86	180.88
392.085	176.88
392.31	155.88
392.534	176.88
392.759	172.88
392.984	164.88
393.208	170.88
393.433	181.88
393.658	202.88
393.882	170.88
394.107	169.88
394.331	168.88
394.556	177.88
394.78	177.88
395.005	167.88
395.229	174.88
395.454	162.88
395.678	177.88
395.903	156.88
396.127	160.88
396.352	159.88
396.576	176.88
396.801	159.88
397.025	157.88
397.249	179.88
397.474	169.88
397.698	163.88
397.922	174.88
398.147	168.88
398.371	183.88
398.595	179.88
398.82	182.88
399.044	202.88
399.268	218.88
399.492	237.88
399.717	265.88
399.941	237.88
400.165	222.88
400.389	188.88
400.613	193.88
400.837	200.88
401.062	178.88
401.286	177.88
401.51	187.88
401.734	173.88
401.958	186.88
402.182	178.88
402.406	202.88
402.63	189.88
402.854	198.88
403.078	217.88
403.302	206.88
403.526	217.88
403.75	201.88
403.974	231.88
404.198	222.88
404.422	209.88
404.645	196.88
404.869	221.88
405.093	214.88
405.317	197.88
405.541	205.88
405.765	197.88
405.988	184.88
406.212	198.88
406.436	210.88
406.66	208.88
406.883	211.88
407.107	209.88
407.331	209.88
407.555	207.88
407.778	228.88
408.002	218.88
408.226	211.88
408.449	201.88
408.673	199.88
408.896	202.88
409.12	198.88
409.344	199.88
409.567	207.88
409.791	201.88
410.014	204.88
410.238	188.88
410.461	213.88
410.685	198.88
410.908	182.88
411.132	209.88
411.355	196.88
411.578	189.88
411.802	180.88
412.025	189.88
412.249	195.88
412.472	192.88
412.695	190.88
412.919	184.88
413.142	200.88
413.365	196.88
413.589	184.88
413.812	178.88
414.035	213.88
414.258	185.88
414.482	193.88
414.705	188.88
414.928	175.88
415.151	194.88
415.374	186.88
415.597	201.88
415.821	182.88
416.044	176.88
416.267	197.88
416.49	185.88
416.713	193.88
416.936	191.88
417.159	184.88
417.382	180.88
417.605	186.88
417.828	176.88
418.051	180.88
418.274	207.88
418.497	188.88
418.72	190.88
418.943	192.88
419.166	196.88
419.389	196.88
419.611	193.88
419.834	198.88
420.057	208.88
420.28	202.88
420.503	193.88
420.726	193.88
420.948	179.88
421.171	191.88
421.394	190.88
421.617	191.88
421.839	179.88
422.062	179.88
422.285	198.88
422.507	180.88
422.73	207.88
422.953	205.88
423.175	199.88
423.398	216.88
423.621	190.88
423.843	192.88
424.066	194.88
424.288	188.88
424.511	199.88
424.733	194.88
424.956	188.88
425.178	191.88
425.401	193.88
425.623	189.88
425.846	185.88
426.068	194.88
426.291	183.88
426.513	184.88
426.735	180.88
426.958	179.88
427.18	184.88
427.402	183.88
427.625	166.88
427.847	185.88
428.069	168.88
428.292	164.88
428.514	169.88
428.736	175.88
428.958	180.88
429.181	177.88
429.403	181.88
429.625	187.88
429.847	178.88
430.069	187.88
430.292	198.88
430.514	172.88
430.736	170.88
430.958	190.88
431.18	166.88
431.402	151.88
431.624	178.88
431.846	168.88
432.068	181.88
432.29	180.88
432.512	186.88
432.734	184.88
432.956	200.88
433.178	185.88
433.4	175.88
433.622	181.88
433.844	191.88
434.066	185.88
434.287	176.88
434.509	190.88
434.731	199.88
434.953	199.88
435.175	197.88
435.397	189.88
435.618	165.88
435.84	163.88
436.062	179.88
436.284	169.88
436.505	175.88
436.727	160.88
436.949	174.88
437.17	184.88
437.392	164.88
437.614	169.88
437.835	177.88
438.057	167.88
438.278	168.88
438.5	175.88
438.721	177.88
438.943	173.88
439.165	172.88
439.386	173.88
439.608	184.88
439.829	182.88
440.05	176.88
440.272	183.88
440.493	192.88
440.715	174.88
440.936	195.88
441.158	188.88
441.379	183.88
441.6	182.88
441.822	198.88
442.043	185.88
442.264	196.88
442.486	192.88
442.707	194.88
442.928	190.88
443.149	189.88
443.371	185.88
443.592	184.88
443.813	199.88
444.034	182.88
444.255	209.88
444.476	199.88
444.698	212.88
444.919	220.88
445.14	491.88
445.361	334.88
445.582	206.88
445.803	182.88
446.024	196.88
446.245	188.88
446.466	194.88
446.687	193.88
446.908	188.88
447.129	167.88
447.35	171.88
447.571	158.88
447.792	167.88
448.013	156.88
448.234	173.88
448.455	177.88
448.675	172.88
448.896	166.88
449.117	178.88
449.338	156.88
449.559	178.88
449.779	165.88
450	184.88
450.221	163.88
450.442	156.88
450.662	168.88
450.883	176.88
451.104	177.88
451.324	174.88
451.545	158.88
451.766	164.88
451.986	158.88
452.207	181.88
452.428	176.88
452.648	175.88
452.869	168.88
453.089	176.88
453.31	164.88
453.53	160.88
453.751	170.88
453.971	169.88
454.192	164.88
454.412	161.88
454.633	167.88
454.853	151.88
455.073	144.88
455.294	156.88
455.514	172.88
455.734	174.88
455.955	171.88
456.175	177.88
456.395	164.88
456.616	156.88
456.836	175.88
457.056	155.88
457.276	148.88
457.497	154.88
457.717	170.88
457.937	170.88
458.157	149.88
458.377	169.88
458.598	156.88
458.818	164.88
459.038	149.88
459.258	166.88
459.478	189.88
459.698	180.88
459.918	193.88
460.138	186.88
460.358	202.88
460.578	213.88
460.798	194.88
461.018	189.88
461.238	189.88
461.458	185.88
461.678	213.88
461.898	209.88
462.118	192.88
462.338	216.88
462.558	210.88
462.777	223.88
462.997	233.88
463.217	221.88
463.437	241.88
463.657	221.88
463.876	221.88
464.096	226.88
464.316	228.88
464.536	213.88
464.755	207.88
464.975	198.88
465.195	202.88
465.414	180.88
465.634	194.88
465.854	180.88
466.073	180.88
466.293	196.88
466.512	184.88
466.732	169.88
466.951	178.88
467.171	165.88
467.391	166.88
467.61	176.88
467.829	167.88
468.049	172.88
468.268	163.88
468.488	158.88
468.707	175.88
468.927	173.88
469.146	176.88
469.365	165.88
469.585	197.88
469.804	175.88
470.023	170.88
470.243	190.88
470.462	191.88
470.681	185.88
470.901	182.88
471.12	176.88
471.339	184.88
471.558	176.88
471.777	174.88
471.997	177.88
472.216	172.88
472.435	162.88
472.654	164.88
472.873	167.88
473.092	158.88
473.311	173.88
473.53	160.88
473.749	171.88
473.968	184.88
474.187	160.88
474.406	182.88
474.625	152.88
474.844	173.88
475.063	170.88
475.282	168.88
475.501	173.88
475.72	181.88
475.939	176.88
476.158	177.88
476.377	181.88
476.596	183.88
476.814	188.88
477.033	171.88
477.252	179.88
477.471	186.88
477.69	186.88
477.908	192.88
478.127	193.88
478.346	168.88
478.564	198.88
478.783	204.88
479.002	192.88
479.22	194.88
479.439	179.88
479.658	188.88
479.876	183.88
480.095	191.88
480.313	188.88
480.532	202.88
480.751	204.88
480.969	185.88
481.188	180.88
481.406	195.88
481.624	165.88
481.843	168.88
482.061	160.88
482.28	180.88
482.498	176.88
482.717	188.88
482.935	193.88
483.153	181.88
483.372	178.88
483.59	187.88
483.808	179.88
484.027	188.88
484.245	179.88
484.463	185.88
484.681	193.88
484.9	203.88
485.118	216.88
485.336	182.88
485.554	182.88
485.772	195.88
485.99	171.88
486.209	196.88
486.427	192.88
486.645	191.88
486.863	186.88
487.081	185.88
487.299	179.88
487.517	196.88
487.735	191.88
487.953	204.88
488.171	199.88
488.389	212.88
488.607	200.88
488.825	200.88
489.043	190.88
489.261	192.88
489.479	196.88
489.696	185.88
489.914	187.88
490.132	198.88
490.35	198.88
490.568	179.88
490.786	182.88
491.003	190.88
491.221	192.88
491.439	197.88
491.657	205.88
491.874	182.88
492.092	197.88
492.31	201.88
492.527	210.88
492.745	206.88
492.963	206.88
493.18	205.88
493.398	209.88
493.615	203.88
493.833	178.88
494.05	189.88
494.268	207.88
494.485	214.88
494.703	213.88
494.92	197.88
495.138	187.88
495.355	194.88
495.573	208.88
495.79	193.88
496.008	199.88
496.225	201.88
496.442	208.88
496.66	206.88
496.877	214.88
497.094	226.88
497.312	207.88
497.529	229.88
497.746	212.88
497.963	215.88
498.181	226.88
498.398	240.88
498.615	234.88
498.832	243.88
499.049	248.88
499.267	283.88
499.484	319.88
499.701	334.88
499.918	363.88
500.135	418.88
500.352	443.88
500.569	450.88
500.786	445.88
501.003	415.88
501.22	354.88
501.437	328.88
501.654	306.88
501.871	272.88
502.088	252.88
502.305	244.88
502.522	269.88
502.739	256.88
502.956	241.88
503.172	207.88
503.389	219.88
503.606	220.88
503.823	210.88
504.04	218.88
504.256	232.88
504.473	225.88
