Data from SampD_HRD10591_00089.txt Node
Date: Mon Jan 19 11:41:51 EST 2026
User: Yrep
Spectrometer: HR+D1059
Trigger mode: 0
Integration Time (sec): 3.443000E-1
Scans to average: 1
Electric dark correction enabled: true
Nonlinearity correction enabled: false
Boxcar width: 0
XAxis mode: Wavelengths
Number of Pixels in Spectrum: 2048
>>>>>Begin Spectral Data<<<<<
223.165	-31.94
223.4	-31.94
223.635	-31.94
223.869	-14.94
224.104	-22.94
224.338	-13.94
224.573	1.06
224.808	-17.94
225.042	-1.94
225.277	-15.94
225.511	2.06
225.746	0.06
225.98	-2.94
226.215	14.06
226.449	15.06
226.683	13.06
226.918	38.06
227.152	39.06
227.387	46.06
227.621	37.06
227.856	53.06
228.09	35.06
228.324	55.06
228.559	54.06
228.793	56.06
229.027	73.06
229.262	81.06
229.496	63.06
229.73	74.06
229.964	72.06
230.199	86.06
230.433	64.06
230.667	90.06
230.901	86.06
231.136	79.06
231.37	84.06
231.604	81.06
231.838	93.06
232.072	89.06
232.306	83.06
232.541	69.06
232.775	85.06
233.009	89.06
233.243	87.06
233.477	85.06
233.711	100.06
233.945	92.06
234.179	84.06
234.413	95.06
234.647	74.06
234.881	78.06
235.115	92.06
235.349	100.06
235.583	83.06
235.817	89.06
236.051	91.06
236.285	72.06
236.519	85.06
236.753	89.06
236.987	84.06
237.221	71.06
237.455	93.06
237.689	75.06
237.922	86.06
238.156	81.06
238.39	100.06
238.624	85.06
238.858	82.06
239.091	93.06
239.325	85.06
239.559	86.06
239.793	94.06
240.027	84.06
240.26	82.06
240.494	79.06
240.728	78.06
240.961	94.06
241.195	100.06
241.429	83.06
241.662	85.06
241.896	80.06
242.13	91.06
242.363	83.06
242.597	82.06
242.83	90.06
243.064	84.06
243.298	81.06
243.531	82.06
243.765	69.06
243.998	94.06
244.232	102.06
244.465	81.06
244.699	85.06
244.932	73.06
245.166	83.06
245.399	89.06
245.633	79.06
245.866	87.06
246.099	96.06
246.333	100.06
246.566	79.06
246.8	73.06
247.033	81.06
247.266	89.06
247.5	92.06
247.733	82.06
247.966	95.06
248.2	96.06
248.433	98.06
248.666	95.06
248.899	89.06
249.133	94.06
249.366	96.06
249.599	87.06
249.832	97.06
250.066	108.06
250.299	107.06
250.532	95.06
250.765	100.06
250.998	91.06
251.231	102.06
251.465	95.06
251.698	85.06
251.931	93.06
252.164	82.06
252.397	91.06
252.63	104.06
252.863	79.06
253.096	99.06
253.329	95.06
253.562	93.06
253.795	86.06
254.028	114.06
254.261	98.06
254.494	94.06
254.727	100.06
254.96	102.06
255.193	92.06
255.426	97.06
255.659	100.06
255.892	93.06
256.124	87.06
256.357	95.06
256.59	110.06
256.823	91.06
257.056	101.06
257.289	96.06
257.521	89.06
257.754	104.06
257.987	93.06
258.22	105.06
258.452	109.06
258.685	96.06
258.918	112.06
259.151	113.06
259.383	105.06
259.616	96.06
259.849	112.06
260.081	110.06
260.314	91.06
260.547	98.06
260.779	107.06
261.012	92.06
261.244	92.06
261.477	126.06
261.71	100.06
261.942	110.06
262.175	91.06
262.407	101.06
262.64	91.06
262.872	93.06
263.105	92.06
263.337	103.06
263.57	105.06
263.802	115.06
264.035	106.06
264.267	97.06
264.499	88.06
264.732	116.06
264.964	109.06
265.197	105.06
265.429	99.06
265.661	96.06
265.894	93.06
266.126	112.06
266.358	110.06
266.591	92.06
266.823	99.06
267.055	92.06
267.287	108.06
267.52	114.06
267.752	103.06
267.984	110.06
268.216	108.06
268.448	115.06
268.681	101.06
268.913	113.06
269.145	112.06
269.377	119.06
269.609	123.06
269.841	111.06
270.073	98.06
270.306	96.06
270.538	105.06
270.77	96.06
271.002	105.06
271.234	103.06
271.466	104.06
271.698	95.06
271.93	95.06
272.162	119.06
272.394	120.06
272.626	118.06
272.858	100.06
273.09	110.06
273.322	103.06
273.553	104.06
273.785	113.06
274.017	98.06
274.249	131.06
274.481	108.06
274.713	119.06
274.945	118.06
275.176	121.06
275.408	108.06
275.64	113.06
275.872	112.06
276.104	132.06
276.335	115.06
276.567	104.06
276.799	95.06
277.031	124.06
277.262	114.06
277.494	93.06
277.726	115.06
277.957	124.06
278.189	110.06
278.421	97.06
278.652	104.06
278.884	109.06
279.115	129.06
279.347	106.06
279.579	106.06
279.81	118.06
280.042	101.06
280.273	120.06
280.505	117.06
280.736	107.06
280.968	131.06
281.199	123.06
281.431	117.06
281.662	108.06
281.894	110.06
282.125	111.06
282.356	115.06
282.588	110.06
282.819	109.06
283.051	119.06
283.282	115.06
283.513	106.06
283.745	104.06
283.976	109.06
284.207	111.06
284.439	133.06
284.67	128.06
284.901	118.06
285.132	119.06
285.364	119.06
285.595	133.06
285.826	114.06
286.057	116.06
286.288	111.06
286.52	121.06
286.751	121.06
286.982	115.06
287.213	120.06
287.444	131.06
287.675	115.06
287.906	112.06
288.138	133.06
288.369	124.06
288.6	120.06
288.831	124.06
289.062	133.06
289.293	127.06
289.524	123.06
289.755	123.06
289.986	124.06
290.217	120.06
290.448	133.06
290.679	121.06
290.91	125.06
291.141	126.06
291.371	123.06
291.602	106.06
291.833	124.06
292.064	127.06
292.295	132.06
292.526	122.06
292.757	120.06
292.987	134.06
293.218	132.06
293.449	118.06
293.68	130.06
293.91	120.06
294.141	124.06
294.372	109.06
294.603	126.06
294.833	121.06
295.064	130.06
295.295	136.06
295.525	128.06
295.756	135.06
295.987	130.06
296.217	124.06
296.448	127.06
296.679	132.06
296.909	133.06
297.14	115.06
297.37	142.06
297.601	130.06
297.831	124.06
298.062	128.06
298.292	143.06
298.523	131.06
298.753	118.06
298.984	124.06
299.214	118.06
299.445	126.06
299.675	127.06
299.905	132.06
300.136	128.06
300.366	133.06
300.597	129.06
300.827	128.06
301.057	129.06
301.288	137.06
301.518	132.06
301.748	116.06
301.979	163.06
302.209	128.06
302.439	134.06
302.669	139.06
302.9	139.06
303.13	126.06
303.36	128.06
303.59	134.06
303.82	130.06
304.051	140.06
304.281	133.06
304.511	143.06
304.741	133.06
304.971	137.06
305.201	131.06
305.431	132.06
305.661	126.06
305.891	133.06
306.121	146.06
306.352	135.06
306.582	128.06
306.812	142.06
307.042	136.06
307.272	145.06
307.502	125.06
307.731	133.06
307.961	129.06
308.191	116.06
308.421	129.06
308.651	129.06
308.881	139.06
309.111	130.06
309.341	130.06
309.571	137.06
309.8	127.06
310.03	126.06
310.26	133.06
310.49	132.06
310.72	122.06
310.949	127.06
311.179	129.06
311.409	144.06
311.639	122.06
311.868	134.06
312.098	138.06
312.328	134.06
312.557	144.06
312.787	133.06
313.017	137.06
313.246	127.06
313.476	139.06
313.706	145.06
313.935	137.06
314.165	139.06
314.394	146.06
314.624	121.06
314.853	155.06
315.083	134.06
315.312	141.06
315.542	127.06
315.771	119.06
316.001	128.06
316.23	140.06
316.46	136.06
316.689	134.06
316.919	133.06
317.148	132.06
317.377	159.06
317.607	133.06
317.836	116.06
318.065	129.06
318.295	114.06
318.524	132.06
318.753	128.06
318.983	135.06
319.212	132.06
319.441	136.06
319.67	130.06
319.9	117.06
320.129	133.06
320.358	125.06
320.587	128.06
320.816	132.06
321.046	141.06
321.275	155.06
321.504	135.06
321.733	136.06
321.962	134.06
322.191	134.06
322.42	129.06
322.649	140.06
322.878	131.06
323.108	125.06
323.337	136.06
323.566	147.06
323.795	148.06
324.024	154.06
324.253	139.06
324.482	135.06
324.71	132.06
324.939	141.06
325.168	137.06
325.397	128.06
325.626	152.06
325.855	130.06
326.084	135.06
326.313	136.06
326.542	141.06
326.77	143.06
326.999	147.06
327.228	128.06
327.457	150.06
327.686	141.06
327.914	147.06
328.143	142.06
328.372	143.06
328.6	161.06
328.829	137.06
329.058	139.06
329.287	147.06
329.515	139.06
329.744	145.06
329.972	139.06
330.201	128.06
330.43	125.06
330.658	138.06
330.887	148.06
331.115	155.06
331.344	146.06
331.572	149.06
331.801	151.06
332.03	153.06
332.258	147.06
332.486	166.06
332.715	169.06
332.943	156.06
333.172	159.06
333.4	159.06
333.629	159.06
333.857	156.06
334.085	173.06
334.314	165.06
334.542	152.06
334.771	156.06
334.999	152.06
335.227	143.06
335.455	143.06
335.684	157.06
335.912	152.06
336.14	158.06
336.369	161.06
336.597	147.06
336.825	154.06
337.053	160.06
337.281	152.06
337.51	132.06
337.738	151.06
337.966	152.06
338.194	133.06
338.422	148.06
338.65	148.06
338.878	156.06
339.106	129.06
339.334	151.06
339.562	148.06
339.79	141.06
340.018	142.06
340.246	149.06
340.474	151.06
340.702	147.06
340.93	132.06
341.158	139.06
341.386	141.06
341.614	153.06
341.842	158.06
342.07	132.06
342.298	137.06
342.526	145.06
342.754	149.06
342.981	133.06
343.209	145.06
343.437	186.06
343.665	159.06
343.893	171.06
344.12	162.06
344.348	156.06
344.576	155.06
344.804	153.06
345.031	150.06
345.259	153.06
345.487	144.06
345.714	134.06
345.942	137.06
346.17	147.06
346.397	130.06
346.625	145.06
346.853	142.06
347.08	151.06
347.308	153.06
347.535	146.06
347.763	145.06
347.99	152.06
348.218	147.06
348.445	135.06
348.673	117.06
348.9	146.06
349.128	146.06
349.355	139.06
349.583	137.06
349.81	155.06
350.037	141.06
350.265	155.06
350.492	132.06
350.72	144.06
350.947	136.06
351.174	164.06
351.402	146.06
351.629	127.06
351.856	130.06
352.083	138.06
352.311	124.06
352.538	124.06
352.765	134.06
352.992	169.06
353.22	139.06
353.447	133.06
353.674	155.06
353.901	136.06
354.128	158.06
354.355	138.06
354.583	141.06
354.81	149.06
355.037	137.06
355.264	141.06
355.491	130.06
355.718	139.06
355.945	149.06
356.172	135.06
356.399	116.06
356.626	144.06
356.853	135.06
357.08	144.06
357.307	137.06
357.534	142.06
357.761	147.06
357.988	148.06
358.215	147.06
358.441	149.06
358.668	140.06
358.895	132.06
359.122	135.06
359.349	146.06
359.576	134.06
359.802	133.06
360.029	126.06
360.256	144.06
360.483	141.06
360.709	153.06
360.936	138.06
361.163	145.06
361.39	144.06
361.616	137.06
361.843	147.06
362.07	150.06
362.296	146.06
362.523	133.06
362.749	151.06
362.976	140.06
363.203	160.06
363.429	147.06
363.656	136.06
363.882	133.06
364.109	135.06
364.335	134.06
364.562	146.06
364.788	151.06
365.015	140.06
365.241	136.06
365.468	141.06
365.694	136.06
365.92	119.06
366.147	128.06
366.373	152.06
366.599	135.06
366.826	142.06
367.052	131.06
367.278	141.06
367.505	154.06
367.731	162.06
367.957	143.06
368.184	152.06
368.41	141.06
368.636	139.06
368.862	137.06
369.089	130.06
369.315	144.06
369.541	166.06
369.767	150.06
369.993	133.06
370.219	134.06
370.445	140.06
370.672	150.06
370.898	155.06
371.124	146.06
371.35	145.06
371.576	135.06
371.802	141.06
372.028	153.06
372.254	131.06
372.48	141.06
372.706	156.06
372.932	164.06
373.158	152.06
373.384	148.06
373.61	153.06
373.835	147.06
374.061	142.06
374.287	130.06
374.513	145.06
374.739	157.06
374.965	172.06
375.191	172.06
375.416	175.06
375.642	156.06
375.868	160.06
376.094	168.06
376.319	145.06
376.545	145.06
376.771	152.06
376.997	157.06
377.222	147.06
377.448	148.06
377.674	143.06
377.899	144.06
378.125	153.06
378.35	143.06
378.576	162.06
378.802	149.06
379.027	137.06
379.253	167.06
379.478	132.06
379.704	134.06
379.929	138.06
380.155	143.06
380.38	136.06
380.606	143.06
380.831	155.06
381.057	165.06
381.282	144.06
381.507	161.06
381.733	162.06
381.958	167.06
382.184	138.06
382.409	137.06
382.634	152.06
382.86	157.06
383.085	151.06
383.31	155.06
383.535	166.06
383.761	166.06
383.986	173.06
384.211	166.06
384.436	167.06
384.662	172.06
384.887	173.06
385.112	165.06
385.337	151.06
385.562	173.06
385.787	183.06
386.013	170.06
386.238	166.06
386.463	168.06
386.688	198.06
386.913	162.06
387.138	171.06
387.363	171.06
387.588	173.06
387.813	167.06
388.038	175.06
388.263	182.06
388.488	176.06
388.713	164.06
388.938	166.06
389.163	168.06
389.387	158.06
389.612	163.06
389.837	152.06
390.062	172.06
390.287	170.06
390.512	161.06
390.736	172.06
390.961	164.06
391.186	180.06
391.411	175.06
391.636	189.06
391.86	179.06
392.085	167.06
392.31	180.06
392.534	176.06
392.759	164.06
392.984	175.06
393.208	178.06
393.433	181.06
393.658	165.06
393.882	160.06
394.107	169.06
394.331	145.06
394.556	167.06
394.78	182.06
395.005	171.06
395.229	166.06
395.454	173.06
395.678	191.06
395.903	182.06
396.127	157.06
396.352	160.06
396.576	169.06
396.801	174.06
397.025	167.06
397.249	160.06
397.474	172.06
397.698	172.06
397.922	180.06
398.147	189.06
398.371	177.06
398.595	184.06
398.82	205.06
399.044	212.06
399.268	213.06
399.492	242.06
399.717	248.06
399.941	246.06
400.165	207.06
400.389	197.06
400.613	186.06
400.837	200.06
401.062	202.06
401.286	201.06
401.51	169.06
401.734	170.06
401.958	175.06
402.182	198.06
402.406	193.06
402.63	205.06
402.854	208.06
403.078	208.06
403.302	224.06
403.526	215.06
403.75	211.06
403.974	208.06
404.198	199.06
404.422	207.06
404.645	195.06
404.869	206.06
405.093	197.06
405.317	202.06
405.541	205.06
405.765	205.06
405.988	203.06
406.212	191.06
406.436	201.06
406.66	217.06
406.883	209.06
407.107	218.06
407.331	209.06
407.555	229.06
407.778	217.06
408.002	215.06
408.226	205.06
408.449	213.06
408.673	207.06
408.896	198.06
409.12	209.06
409.344	200.06
409.567	206.06
409.791	204.06
410.014	219.06
410.238	215.06
410.461	199.06
410.685	219.06
410.908	203.06
411.132	201.06
411.355	200.06
411.578	192.06
411.802	198.06
412.025	202.06
412.249	199.06
412.472	179.06
412.695	200.06
412.919	198.06
413.142	174.06
413.365	200.06
413.589	199.06
413.812	198.06
414.035	190.06
414.258	200.06
414.482	199.06
414.705	204.06
414.928	209.06
415.151	200.06
415.374	195.06
415.597	207.06
415.821	192.06
416.044	182.06
416.267	177.06
416.49	190.06
416.713	198.06
416.936	177.06
417.159	175.06
417.382	177.06
417.605	179.06
417.828	201.06
418.051	184.06
418.274	198.06
418.497	197.06
418.72	209.06
418.943	207.06
419.166	199.06
419.389	197.06
419.611	195.06
419.834	190.06
420.057	193.06
420.28	203.06
420.503	188.06
420.726	187.06
420.948	188.06
421.171	191.06
421.394	208.06
421.617	194.06
421.839	186.06
422.062	174.06
422.285	200.06
422.507	185.06
422.73	193.06
422.953	182.06
423.175	196.06
423.398	212.06
423.621	206.06
423.843	190.06
424.066	201.06
424.288	180.06
424.511	196.06
424.733	191.06
424.956	205.06
425.178	201.06
425.401	190.06
425.623	193.06
425.846	176.06
426.068	164.06
426.291	194.06
426.513	179.06
426.735	194.06
426.958	176.06
427.18	167.06
427.402	181.06
427.625	176.06
427.847	188.06
428.069	180.06
428.292	158.06
428.514	171.06
428.736	171.06
428.958	172.06
429.181	177.06
429.403	170.06
429.625	179.06
429.847	168.06
430.069	178.06
430.292	189.06
430.514	171.06
430.736	189.06
430.958	181.06
431.18	160.06
431.402	180.06
431.624	184.06
431.846	181.06
432.068	189.06
432.29	179.06
432.512	185.06
432.734	168.06
432.956	184.06
433.178	195.06
433.4	174.06
433.622	202.06
433.844	189.06
434.066	170.06
434.287	190.06
434.509	191.06
434.731	192.06
434.953	184.06
435.175	187.06
435.397	200.06
435.618	188.06
435.84	187.06
436.062	186.06
436.284	179.06
436.505	184.06
436.727	195.06
436.949	187.06
437.17	172.06
437.392	176.06
437.614	180.06
437.835	176.06
438.057	173.06
438.278	170.06
438.5	169.06
438.721	191.06
438.943	183.06
439.165	167.06
439.386	176.06
439.608	193.06
439.829	173.06
440.05	182.06
440.272	177.06
440.493	179.06
440.715	180.06
440.936	199.06
441.158	191.06
441.379	207.06
441.6	192.06
441.822	206.06
442.043	193.06
442.264	182.06
442.486	202.06
442.707	181.06
442.928	181.06
443.149	206.06
443.371	203.06
443.592	203.06
443.813	192.06
444.034	193.06
444.255	213.06
444.476	197.06
444.698	209.06
444.919	214.06
445.14	462.06
445.361	324.06
445.582	196.06
445.803	175.06
446.024	175.06
446.245	197.06
446.466	191.06
446.687	179.06
446.908	181.06
447.129	179.06
447.35	143.06
447.571	178.06
447.792	181.06
448.013	181.06
448.234	168.06
448.455	177.06
448.675	168.06
448.896	182.06
449.117	173.06
449.338	165.06
449.559	168.06
449.779	166.06
450	170.06
450.221	173.06
450.442	169.06
450.662	178.06
450.883	168.06
451.104	185.06
451.324	161.06
451.545	175.06
451.766	172.06
451.986	173.06
452.207	171.06
452.428	157.06
452.648	171.06
452.869	168.06
453.089	177.06
453.31	161.06
453.53	157.06
453.751	180.06
453.971	170.06
454.192	181.06
454.412	177.06
454.633	179.06
454.853	160.06
455.073	159.06
455.294	144.06
455.514	170.06
455.734	171.06
455.955	165.06
456.175	161.06
456.395	158.06
456.616	161.06
456.836	160.06
457.056	167.06
457.276	160.06
457.497	155.06
457.717	166.06
457.937	166.06
458.157	159.06
458.377	150.06
458.598	156.06
458.818	167.06
459.038	168.06
459.258	177.06
459.478	166.06
459.698	175.06
459.918	182.06
460.138	189.06
460.358	206.06
460.578	187.06
460.798	189.06
461.018	195.06
461.238	221.06
461.458	215.06
461.678	187.06
461.898	198.06
462.118	195.06
462.338	204.06
462.558	218.06
462.777	221.06
462.997	260.06
463.217	244.06
463.437	243.06
463.657	224.06
463.876	226.06
464.096	237.06
464.316	234.06
464.536	224.06
464.755	217.06
464.975	216.06
465.195	209.06
465.414	176.06
465.634	191.06
465.854	191.06
466.073	174.06
466.293	177.06
466.512	178.06
466.732	175.06
466.951	185.06
467.171	178.06
467.391	179.06
467.61	180.06
467.829	175.06
468.049	189.06
468.268	164.06
468.488	169.06
468.707	159.06
468.927	179.06
469.146	179.06
469.365	196.06
469.585	177.06
469.804	173.06
470.023	184.06
470.243	185.06
470.462	196.06
470.681	164.06
470.901	181.06
471.12	173.06
471.339	173.06
471.558	163.06
471.777	176.06
471.997	180.06
472.216	177.06
472.435	168.06
472.654	166.06
472.873	187.06
473.092	164.06
473.311	177.06
473.53	168.06
473.749	185.06
473.968	181.06
474.187	179.06
474.406	159.06
474.625	190.06
474.844	163.06
475.063	177.06
475.282	166.06
475.501	161.06
475.72	183.06
475.939	163.06
476.158	168.06
476.377	163.06
476.596	167.06
476.814	167.06
477.033	169.06
477.252	172.06
477.471	178.06
477.69	197.06
477.908	172.06
478.127	196.06
478.346	183.06
478.564	200.06
478.783	208.06
479.002	191.06
479.22	200.06
479.439	217.06
479.658	195.06
479.876	208.06
480.095	211.06
480.313	194.06
480.532	207.06
480.751	185.06
480.969	193.06
481.188	186.06
481.406	184.06
481.624	167.06
481.843	179.06
482.061	174.06
482.28	182.06
482.498	175.06
482.717	160.06
482.935	174.06
483.153	201.06
483.372	181.06
483.59	197.06
483.808	182.06
484.027	175.06
484.245	195.06
484.463	188.06
484.681	209.06
484.9	189.06
485.118	178.06
485.336	173.06
485.554	196.06
485.772	197.06
485.99	199.06
486.209	194.06
486.427	190.06
486.645	186.06
486.863	193.06
487.081	186.06
487.299	209.06
487.517	207.06
487.735	191.06
487.953	198.06
488.171	196.06
488.389	184.06
488.607	182.06
488.825	189.06
489.043	191.06
489.261	193.06
489.479	200.06
489.696	179.06
489.914	190.06
490.132	190.06
490.35	190.06
490.568	181.06
490.786	197.06
491.003	200.06
491.221	189.06
491.439	196.06
491.657	205.06
491.874	209.06
492.092	215.06
492.31	207.06
492.527	196.06
492.745	203.06
492.963	210.06
493.18	217.06
493.398	199.06
493.615	203.06
493.833	187.06
494.05	199.06
494.268	205.06
494.485	203.06
494.703	200.06
494.92	196.06
495.138	214.06
495.355	197.06
495.573	210.06
495.79	222.06
496.008	197.06
496.225	214.06
496.442	200.06
496.66	221.06
496.877	212.06
497.094	204.06
497.312	207.06
497.529	199.06
497.746	217.06
497.963	231.06
498.181	211.06
498.398	243.06
498.615	247.06
498.832	261.06
499.049	283.06
499.267	294.06
499.484	304.06
499.701	339.06
499.918	381.06
500.135	423.06
500.352	455.06
500.569	456.06
500.786	459.06
501.003	435.06
501.22	371.06
501.437	352.06
501.654	293.06
501.871	269.06
502.088	275.06
502.305	255.06
502.522	273.06
502.739	262.06
502.956	237.06
503.172	247.06
503.389	220.06
503.606	214.06
503.823	229.06
504.04	224.06
504.256	239.06
504.473	224.06
