Data from SampD_HRD10591_00001.txt Node
Date: Mon Jan 19 11:41:21 EST 2026
User: Yrep
Spectrometer: HR+D1059
Trigger mode: 0
Integration Time (sec): 3.443000E-1
Scans to average: 1
Electric dark correction enabled: true
Nonlinearity correction enabled: false
Boxcar width: 0
XAxis mode: Wavelengths
Number of Pixels in Spectrum: 2048
>>>>>Begin Spectral Data<<<<<
223.165	-20.88
223.4	-20.88
223.635	-20.88
223.869	-20.88
224.104	-24.88
224.338	2.12
224.573	-13.88
224.808	-14.88
225.042	-10.88
225.277	1.12
225.511	0.12
225.746	5.12
225.98	19.12
226.215	4.12
226.449	0.12
226.683	21.12
226.918	18.12
227.152	35.12
227.387	42.12
227.621	33.12
227.856	52.12
228.09	48.12
228.324	65.12
228.559	59.12
228.793	49.12
229.027	69.12
229.262	66.12
229.496	80.12
229.73	74.12
229.964	73.12
230.199	76.12
230.433	82.12
230.667	89.12
230.901	72.12
231.136	74.12
231.37	70.12
231.604	78.12
231.838	86.12
232.072	90.12
232.306	80.12
232.541	69.12
232.775	93.12
233.009	88.12
233.243	85.12
233.477	85.12
233.711	70.12
233.945	78.12
234.179	88.12
234.413	82.12
234.647	87.12
234.881	83.12
235.115	59.12
235.349	75.12
235.583	94.12
235.817	77.12
236.051	92.12
236.285	72.12
236.519	80.12
236.753	72.12
236.987	68.12
237.221	76.12
237.455	73.12
237.689	88.12
237.922	91.12
238.156	85.12
238.39	86.12
238.624	92.12
238.858	80.12
239.091	94.12
239.325	88.12
239.559	77.12
239.793	77.12
240.027	83.12
240.26	92.12
240.494	88.12
240.728	89.12
240.961	94.12
241.195	90.12
241.429	81.12
241.662	91.12
241.896	85.12
242.13	66.12
242.363	95.12
242.597	88.12
242.83	83.12
243.064	88.12
243.298	81.12
243.531	80.12
243.765	87.12
243.998	75.12
244.232	93.12
244.465	84.12
244.699	77.12
244.932	90.12
245.166	82.12
245.399	88.12
245.633	98.12
245.866	86.12
246.099	95.12
246.333	93.12
246.566	88.12
246.8	97.12
247.033	89.12
247.266	89.12
247.5	93.12
247.733	89.12
247.966	88.12
248.2	80.12
248.433	104.12
248.666	99.12
248.899	85.12
249.133	95.12
249.366	96.12
249.599	93.12
249.832	88.12
250.066	85.12
250.299	85.12
250.532	91.12
250.765	89.12
250.998	63.12
251.231	86.12
251.465	96.12
251.698	73.12
251.931	109.12
252.164	93.12
252.397	105.12
252.63	101.12
252.863	89.12
253.096	86.12
253.329	101.12
253.562	85.12
253.795	90.12
254.028	117.12
254.261	98.12
254.494	108.12
254.727	116.12
254.96	69.12
255.193	68.12
255.426	84.12
255.659	106.12
255.892	99.12
256.124	98.12
256.357	89.12
256.59	97.12
256.823	101.12
257.056	99.12
257.289	87.12
257.521	104.12
257.754	96.12
257.987	98.12
258.22	118.12
258.452	109.12
258.685	81.12
258.918	91.12
259.151	102.12
259.383	103.12
259.616	112.12
259.849	100.12
260.081	83.12
260.314	109.12
260.547	117.12
260.779	94.12
261.012	97.12
261.244	99.12
261.477	100.12
261.71	102.12
261.942	105.12
262.175	112.12
262.407	98.12
262.64	96.12
262.872	94.12
263.105	122.12
263.337	95.12
263.57	100.12
263.802	108.12
264.035	108.12
264.267	109.12
264.499	112.12
264.732	118.12
264.964	108.12
265.197	94.12
265.429	114.12
265.661	98.12
265.894	104.12
266.126	102.12
266.358	95.12
266.591	114.12
266.823	105.12
267.055	97.12
267.287	106.12
267.52	92.12
267.752	100.12
267.984	108.12
268.216	109.12
268.448	108.12
268.681	106.12
268.913	112.12
269.145	102.12
269.377	94.12
269.609	89.12
269.841	108.12
270.073	91.12
270.306	99.12
270.538	110.12
270.77	106.12
271.002	105.12
271.234	121.12
271.466	110.12
271.698	105.12
271.93	108.12
272.162	116.12
272.394	115.12
272.626	95.12
272.858	104.12
273.09	101.12
273.322	101.12
273.553	104.12
273.785	98.12
274.017	98.12
274.249	102.12
274.481	113.12
274.713	99.12
274.945	122.12
275.176	113.12
275.408	114.12
275.64	112.12
275.872	112.12
276.104	117.12
276.335	111.12
276.567	114.12
276.799	110.12
277.031	129.12
277.262	113.12
277.494	116.12
277.726	99.12
277.957	100.12
278.189	116.12
278.421	105.12
278.652	113.12
278.884	101.12
279.115	99.12
279.347	124.12
279.579	110.12
279.81	108.12
280.042	111.12
280.273	109.12
280.505	119.12
280.736	118.12
280.968	120.12
281.199	111.12
281.431	100.12
281.662	106.12
281.894	103.12
282.125	116.12
282.356	112.12
282.588	130.12
282.819	95.12
283.051	111.12
283.282	101.12
283.513	123.12
283.745	103.12
283.976	115.12
284.207	123.12
284.439	120.12
284.67	117.12
284.901	123.12
285.132	121.12
285.364	112.12
285.595	121.12
285.826	111.12
286.057	121.12
286.288	117.12
286.52	126.12
286.751	113.12
286.982	121.12
287.213	113.12
287.444	118.12
287.675	124.12
287.906	138.12
288.138	107.12
288.369	121.12
288.6	121.12
288.831	125.12
289.062	125.12
289.293	122.12
289.524	132.12
289.755	137.12
289.986	128.12
290.217	123.12
290.448	108.12
290.679	132.12
290.91	122.12
291.141	128.12
291.371	128.12
291.602	124.12
291.833	116.12
292.064	118.12
292.295	102.12
292.526	122.12
292.757	123.12
292.987	109.12
293.218	133.12
293.449	129.12
293.68	138.12
293.91	130.12
294.141	128.12
294.372	126.12
294.603	127.12
294.833	119.12
295.064	126.12
295.295	130.12
295.525	121.12
295.756	140.12
295.987	123.12
296.217	134.12
296.448	138.12
296.679	125.12
296.909	121.12
297.14	123.12
297.37	129.12
297.601	116.12
297.831	115.12
298.062	118.12
298.292	138.12
298.523	128.12
298.753	124.12
298.984	140.12
299.214	126.12
299.445	136.12
299.675	128.12
299.905	132.12
300.136	120.12
300.366	126.12
300.597	128.12
300.827	117.12
301.057	124.12
301.288	127.12
301.518	125.12
301.748	136.12
301.979	172.12
302.209	131.12
302.439	130.12
302.669	132.12
302.9	130.12
303.13	140.12
303.36	142.12
303.59	124.12
303.82	132.12
304.051	137.12
304.281	128.12
304.511	129.12
304.741	116.12
304.971	134.12
305.201	131.12
305.431	130.12
305.661	133.12
305.891	125.12
306.121	126.12
306.352	120.12
306.582	130.12
306.812	121.12
307.042	126.12
307.272	120.12
307.502	143.12
307.731	131.12
307.961	131.12
308.191	122.12
308.421	120.12
308.651	117.12
308.881	137.12
309.111	131.12
309.341	121.12
309.571	131.12
309.8	132.12
310.03	141.12
310.26	131.12
310.49	120.12
310.72	153.12
310.949	132.12
311.179	133.12
311.409	115.12
311.639	126.12
311.868	129.12
312.098	133.12
312.328	134.12
312.557	129.12
312.787	150.12
313.017	132.12
313.246	142.12
313.476	134.12
313.706	148.12
313.935	129.12
314.165	126.12
314.394	133.12
314.624	128.12
314.853	136.12
315.083	139.12
315.312	133.12
315.542	114.12
315.771	125.12
316.001	131.12
316.23	147.12
316.46	134.12
316.689	132.12
316.919	125.12
317.148	147.12
317.377	144.12
317.607	152.12
317.836	130.12
318.065	118.12
318.295	120.12
318.524	124.12
318.753	122.12
318.983	130.12
319.212	141.12
319.441	138.12
319.67	133.12
319.9	133.12
320.129	121.12
320.358	140.12
320.587	139.12
320.816	127.12
321.046	132.12
321.275	142.12
321.504	120.12
321.733	142.12
321.962	137.12
322.191	139.12
322.42	139.12
322.649	130.12
322.878	143.12
323.108	138.12
323.337	135.12
323.566	126.12
323.795	138.12
324.024	136.12
324.253	131.12
324.482	127.12
324.71	133.12
324.939	157.12
325.168	145.12
325.397	140.12
325.626	131.12
325.855	147.12
326.084	134.12
326.313	136.12
326.542	128.12
326.77	138.12
326.999	125.12
327.228	140.12
327.457	129.12
327.686	146.12
327.914	151.12
328.143	159.12
328.372	131.12
328.6	143.12
328.829	123.12
329.058	136.12
329.287	147.12
329.515	158.12
329.744	155.12
329.972	131.12
330.201	128.12
330.43	133.12
330.658	127.12
330.887	148.12
331.115	137.12
331.344	141.12
331.572	149.12
331.801	151.12
332.03	166.12
332.258	152.12
332.486	166.12
332.715	141.12
332.943	155.12
333.172	159.12
333.4	177.12
333.629	167.12
333.857	156.12
334.085	167.12
334.314	163.12
334.542	164.12
334.771	154.12
334.999	148.12
335.227	151.12
335.455	170.12
335.684	157.12
335.912	164.12
336.14	165.12
336.369	155.12
336.597	154.12
336.825	154.12
337.053	159.12
337.281	150.12
337.51	149.12
337.738	136.12
337.966	146.12
338.194	139.12
338.422	169.12
338.65	153.12
338.878	143.12
339.106	148.12
339.334	157.12
339.562	148.12
339.79	155.12
340.018	125.12
340.246	127.12
340.474	140.12
340.702	145.12
340.93	157.12
341.158	154.12
341.386	143.12
341.614	147.12
341.842	131.12
342.07	122.12
342.298	160.12
342.526	136.12
342.754	137.12
342.981	146.12
343.209	156.12
343.437	186.12
343.665	158.12
343.893	165.12
344.12	192.12
344.348	143.12
344.576	152.12
344.804	169.12
345.031	156.12
345.259	139.12
345.487	151.12
345.714	156.12
345.942	141.12
346.17	146.12
346.397	129.12
346.625	144.12
346.853	126.12
347.08	144.12
347.308	143.12
347.535	153.12
347.763	141.12
347.99	154.12
348.218	137.12
348.445	141.12
348.673	127.12
348.9	143.12
349.128	132.12
349.355	144.12
349.583	135.12
349.81	140.12
350.037	130.12
350.265	166.12
350.492	134.12
350.72	139.12
350.947	129.12
351.174	131.12
351.402	145.12
351.629	126.12
351.856	148.12
352.083	143.12
352.311	149.12
352.538	125.12
352.765	118.12
352.992	143.12
353.22	141.12
353.447	141.12
353.674	142.12
353.901	146.12
354.128	141.12
354.355	141.12
354.583	140.12
354.81	122.12
355.037	142.12
355.264	139.12
355.491	143.12
355.718	135.12
355.945	140.12
356.172	149.12
356.399	135.12
356.626	134.12
356.853	125.12
357.08	133.12
357.307	131.12
357.534	132.12
357.761	138.12
357.988	131.12
358.215	129.12
358.441	142.12
358.668	120.12
358.895	137.12
359.122	126.12
359.349	144.12
359.576	152.12
359.802	140.12
360.029	141.12
360.256	132.12
360.483	118.12
360.709	137.12
360.936	148.12
361.163	142.12
361.39	130.12
361.616	138.12
361.843	135.12
362.07	144.12
362.296	140.12
362.523	133.12
362.749	142.12
362.976	132.12
363.203	148.12
363.429	133.12
363.656	139.12
363.882	136.12
364.109	129.12
364.335	128.12
364.562	140.12
364.788	121.12
365.015	143.12
365.241	126.12
365.468	156.12
365.694	132.12
365.92	137.12
366.147	132.12
366.373	125.12
366.599	145.12
366.826	149.12
367.052	121.12
367.278	128.12
367.505	137.12
367.731	152.12
367.957	144.12
368.184	138.12
368.41	150.12
368.636	144.12
368.862	138.12
369.089	137.12
369.315	144.12
369.541	131.12
369.767	148.12
369.993	146.12
370.219	141.12
370.445	137.12
370.672	141.12
370.898	142.12
371.124	161.12
371.35	136.12
371.576	128.12
371.802	145.12
372.028	147.12
372.254	160.12
372.48	159.12
372.706	140.12
372.932	138.12
373.158	159.12
373.384	176.12
373.61	162.12
373.835	165.12
374.061	149.12
374.287	166.12
374.513	147.12
374.739	140.12
374.965	155.12
375.191	147.12
375.416	162.12
375.642	162.12
375.868	167.12
376.094	151.12
376.319	156.12
376.545	159.12
376.771	148.12
376.997	154.12
377.222	148.12
377.448	146.12
377.674	150.12
377.899	157.12
378.125	146.12
378.35	144.12
378.576	156.12
378.802	145.12
379.027	128.12
379.253	139.12
379.478	140.12
379.704	156.12
379.929	149.12
380.155	141.12
380.38	156.12
380.606	159.12
380.831	143.12
381.057	151.12
381.282	142.12
381.507	154.12
381.733	137.12
381.958	131.12
382.184	136.12
382.409	146.12
382.634	152.12
382.86	152.12
383.085	157.12
383.31	153.12
383.535	154.12
383.761	160.12
383.986	165.12
384.211	167.12
384.436	173.12
384.662	155.12
384.887	150.12
385.112	152.12
385.337	158.12
385.562	154.12
385.787	165.12
386.013	170.12
386.238	180.12
386.463	167.12
386.688	206.12
386.913	164.12
387.138	171.12
387.363	166.12
387.588	170.12
387.813	179.12
388.038	175.12
388.263	177.12
388.488	162.12
388.713	148.12
388.938	152.12
389.163	162.12
389.387	162.12
389.612	161.12
389.837	155.12
390.062	171.12
390.287	174.12
390.512	185.12
390.736	149.12
390.961	164.12
391.186	164.12
391.411	169.12
391.636	168.12
391.86	179.12
392.085	187.12
392.31	167.12
392.534	162.12
392.759	172.12
392.984	160.12
393.208	154.12
393.433	167.12
393.658	166.12
393.882	172.12
394.107	173.12
394.331	174.12
394.556	161.12
394.78	170.12
395.005	177.12
395.229	171.12
395.454	184.12
395.678	174.12
395.903	172.12
396.127	189.12
396.352	164.12
396.576	163.12
396.801	182.12
397.025	168.12
397.249	193.12
397.474	204.12
397.698	179.12
397.922	169.12
398.147	192.12
398.371	180.12
398.595	194.12
398.82	184.12
399.044	195.12
399.268	218.12
399.492	255.12
399.717	253.12
399.941	235.12
400.165	234.12
400.389	224.12
400.613	186.12
400.837	200.12
401.062	207.12
401.286	188.12
401.51	190.12
401.734	179.12
401.958	193.12
402.182	193.12
402.406	203.12
402.63	198.12
402.854	191.12
403.078	203.12
403.302	193.12
403.526	217.12
403.75	209.12
403.974	227.12
404.198	205.12
404.422	214.12
404.645	184.12
404.869	213.12
405.093	216.12
405.317	204.12
405.541	208.12
405.765	198.12
405.988	209.12
406.212	206.12
406.436	206.12
406.66	231.12
406.883	217.12
407.107	208.12
407.331	229.12
407.555	224.12
407.778	217.12
408.002	230.12
408.226	227.12
408.449	190.12
408.673	208.12
408.896	197.12
409.12	211.12
409.344	213.12
409.567	218.12
409.791	217.12
410.014	217.12
410.238	222.12
410.461	219.12
410.685	202.12
410.908	198.12
411.132	210.12
411.355	175.12
411.578	194.12
411.802	185.12
412.025	203.12
412.249	186.12
412.472	182.12
412.695	187.12
412.919	203.12
413.142	189.12
413.365	181.12
413.589	185.12
413.812	179.12
414.035	187.12
414.258	194.12
414.482	205.12
414.705	192.12
414.928	206.12
415.151	197.12
415.374	191.12
415.597	184.12
415.821	196.12
416.044	192.12
416.267	188.12
416.49	177.12
416.713	184.12
416.936	199.12
417.159	200.12
417.382	184.12
417.605	198.12
417.828	205.12
418.051	195.12
418.274	213.12
418.497	181.12
418.72	194.12
418.943	206.12
419.166	217.12
419.389	229.12
419.611	205.12
419.834	206.12
420.057	188.12
420.28	189.12
420.503	180.12
420.726	186.12
420.948	201.12
421.171	191.12
421.394	204.12
421.617	186.12
421.839	188.12
422.062	189.12
422.285	185.12
422.507	210.12
422.73	191.12
422.953	201.12
423.175	204.12
423.398	196.12
423.621	196.12
423.843	207.12
424.066	201.12
424.288	204.12
424.511	190.12
424.733	203.12
424.956	196.12
425.178	205.12
425.401	183.12
425.623	198.12
425.846	182.12
426.068	176.12
426.291	188.12
426.513	198.12
426.735	171.12
426.958	172.12
427.18	189.12
427.402	189.12
427.625	183.12
427.847	184.12
428.069	181.12
428.292	165.12
428.514	205.12
428.736	174.12
428.958	184.12
429.181	182.12
429.403	171.12
429.625	177.12
429.847	169.12
430.069	173.12
430.292	187.12
430.514	173.12
430.736	163.12
430.958	173.12
431.18	180.12
431.402	183.12
431.624	188.12
431.846	181.12
432.068	185.12
432.29	186.12
432.512	187.12
432.734	182.12
432.956	182.12
433.178	187.12
433.4	208.12
433.622	208.12
433.844	179.12
434.066	208.12
434.287	195.12
434.509	179.12
434.731	213.12
434.953	189.12
435.175	173.12
435.397	216.12
435.618	190.12
435.84	181.12
436.062	174.12
436.284	177.12
436.505	187.12
436.727	167.12
436.949	182.12
437.17	174.12
437.392	172.12
437.614	196.12
437.835	171.12
438.057	185.12
438.278	152.12
438.5	158.12
438.721	163.12
438.943	172.12
439.165	182.12
439.386	170.12
439.608	189.12
439.829	174.12
440.05	172.12
440.272	183.12
440.493	182.12
440.715	190.12
440.936	201.12
441.158	174.12
441.379	192.12
441.6	205.12
441.822	189.12
442.043	200.12
442.264	186.12
442.486	192.12
442.707	204.12
442.928	197.12
443.149	191.12
443.371	205.12
443.592	190.12
443.813	193.12
444.034	200.12
444.255	203.12
444.476	206.12
444.698	226.12
444.919	213.12
445.14	471.12
445.361	320.12
445.582	227.12
445.803	194.12
446.024	182.12
446.245	197.12
446.466	191.12
446.687	185.12
446.908	204.12
447.129	180.12
447.35	194.12
447.571	181.12
447.792	177.12
448.013	178.12
448.234	180.12
448.455	185.12
448.675	189.12
448.896	170.12
449.117	179.12
449.338	172.12
449.559	174.12
449.779	164.12
450	163.12
450.221	158.12
450.442	179.12
450.662	164.12
450.883	167.12
451.104	201.12
451.324	175.12
451.545	186.12
451.766	154.12
451.986	175.12
452.207	189.12
452.428	163.12
452.648	177.12
452.869	178.12
453.089	180.12
453.31	180.12
453.53	162.12
453.751	176.12
453.971	170.12
454.192	176.12
454.412	158.12
454.633	175.12
454.853	172.12
455.073	173.12
455.294	160.12
455.514	164.12
455.734	157.12
455.955	163.12
456.175	166.12
456.395	167.12
456.616	158.12
456.836	179.12
457.056	163.12
457.276	149.12
457.497	165.12
457.717	167.12
457.937	152.12
458.157	157.12
458.377	164.12
458.598	174.12
458.818	181.12
459.038	155.12
459.258	175.12
459.478	173.12
459.698	168.12
459.918	193.12
460.138	173.12
460.358	199.12
460.578	211.12
460.798	187.12
461.018	186.12
461.238	195.12
461.458	212.12
461.678	210.12
461.898	196.12
462.118	205.12
462.338	204.12
462.558	225.12
462.777	209.12
462.997	230.12
463.217	250.12
463.437	224.12
463.657	234.12
463.876	230.12
464.096	211.12
464.316	220.12
464.536	214.12
464.755	224.12
464.975	213.12
465.195	192.12
465.414	193.12
465.634	168.12
465.854	186.12
466.073	194.12
466.293	181.12
466.512	178.12
466.732	171.12
466.951	183.12
467.171	172.12
467.391	179.12
467.61	177.12
467.829	175.12
468.049	180.12
468.268	190.12
468.488	159.12
468.707	173.12
468.927	172.12
469.146	181.12
469.365	173.12
469.585	188.12
469.804	184.12
470.023	175.12
470.243	184.12
470.462	176.12
470.681	172.12
470.901	168.12
471.12	164.12
471.339	193.12
471.558	167.12
471.777	169.12
471.997	175.12
472.216	184.12
472.435	176.12
472.654	166.12
472.873	172.12
473.092	158.12
473.311	162.12
473.53	170.12
473.749	169.12
473.968	177.12
474.187	158.12
474.406	152.12
474.625	169.12
474.844	164.12
475.063	173.12
475.282	160.12
475.501	181.12
475.72	181.12
475.939	171.12
476.158	180.12
476.377	167.12
476.596	176.12
476.814	179.12
477.033	176.12
477.252	200.12
477.471	170.12
477.69	172.12
477.908	194.12
478.127	210.12
478.346	204.12
478.564	180.12
478.783	175.12
479.002	190.12
479.22	196.12
479.439	192.12
479.658	203.12
479.876	207.12
480.095	198.12
480.313	208.12
480.532	211.12
480.751	209.12
480.969	192.12
481.188	190.12
481.406	190.12
481.624	164.12
481.843	164.12
482.061	176.12
482.28	174.12
482.498	176.12
482.717	170.12
482.935	183.12
483.153	179.12
483.372	200.12
483.59	184.12
483.808	165.12
484.027	186.12
484.245	189.12
484.463	202.12
484.681	210.12
484.9	188.12
485.118	186.12
485.336	182.12
485.554	185.12
485.772	182.12
485.99	195.12
486.209	173.12
486.427	192.12
486.645	195.12
486.863	189.12
487.081	180.12
487.299	196.12
487.517	204.12
487.735	200.12
487.953	213.12
488.171	200.12
488.389	195.12
488.607	195.12
488.825	185.12
489.043	198.12
489.261	188.12
489.479	173.12
489.696	190.12
489.914	199.12
490.132	168.12
490.35	192.12
490.568	183.12
490.786	203.12
491.003	188.12
491.221	204.12
491.439	183.12
491.657	190.12
491.874	216.12
492.092	219.12
492.31	206.12
492.527	196.12
492.745	187.12
492.963	208.12
493.18	198.12
493.398	204.12
493.615	214.12
493.833	192.12
494.05	211.12
494.268	197.12
494.485	201.12
494.703	210.12
494.92	212.12
495.138	205.12
495.355	210.12
495.573	201.12
495.79	192.12
496.008	225.12
496.225	206.12
496.442	204.12
496.66	213.12
496.877	213.12
497.094	221.12
497.312	211.12
497.529	236.12
497.746	220.12
497.963	221.12
498.181	207.12
498.398	236.12
498.615	225.12
498.832	249.12
499.049	274.12
499.267	296.12
499.484	309.12
499.701	339.12
499.918	367.12
500.135	418.12
500.352	451.12
500.569	488.12
500.786	473.12
501.003	422.12
501.22	387.12
501.437	336.12
501.654	316.12
501.871	294.12
502.088	284.12
502.305	280.12
502.522	259.12
502.739	260.12
502.956	234.12
503.172	236.12
503.389	226.12
503.606	206.12
503.823	206.12
504.04	229.12
504.256	226.12
504.473	221.12
504.69	228.12
