Data from SampD_HRD10591_00072.txt Node
Date: Mon Jan 19 11:41:45 EST 2026
User: Yrep
Spectrometer: HR+D1059
Trigger mode: 0
Integration Time (sec): 3.443000E-1
Scans to average: 1
Electric dark correction enabled: true
Nonlinearity correction enabled: false
Boxcar width: 0
XAxis mode: Wavelengths
Number of Pixels in Spectrum: 2048
>>>>>Begin Spectral Data<<<<<
223.165	-12.38
223.4	-12.38
223.635	-12.38
223.869	-29.38
224.104	-25.38
224.338	-18.38
224.573	-12.38
224.808	-8.38
225.042	-12.38
225.277	-16.38
225.511	-10.38
225.746	4.62
225.98	23.62
226.215	6.62
226.449	18.62
226.683	33.62
226.918	25.62
227.152	32.62
227.387	49.62
227.621	52.62
227.856	57.62
228.09	34.62
228.324	46.62
228.559	64.62
228.793	69.62
229.027	65.62
229.262	72.62
229.496	73.62
229.73	70.62
229.964	83.62
230.199	65.62
230.433	67.62
230.667	73.62
230.901	75.62
231.136	78.62
231.37	88.62
231.604	85.62
231.838	93.62
232.072	68.62
232.306	91.62
232.541	99.62
232.775	88.62
233.009	102.62
233.243	101.62
233.477	85.62
233.711	86.62
233.945	92.62
234.179	83.62
234.413	90.62
234.647	96.62
234.881	101.62
235.115	88.62
235.349	68.62
235.583	87.62
235.817	98.62
236.051	92.62
236.285	76.62
236.519	76.62
236.753	74.62
236.987	84.62
237.221	92.62
237.455	91.62
237.689	86.62
237.922	85.62
238.156	89.62
238.39	83.62
238.624	92.62
238.858	93.62
239.091	88.62
239.325	88.62
239.559	88.62
239.793	99.62
240.027	79.62
240.26	93.62
240.494	83.62
240.728	85.62
240.961	85.62
241.195	93.62
241.429	81.62
241.662	76.62
241.896	83.62
242.13	91.62
242.363	71.62
242.597	91.62
242.83	84.62
243.064	82.62
243.298	81.62
243.531	85.62
243.765	82.62
243.998	85.62
244.232	94.62
244.465	101.62
244.699	80.62
244.932	96.62
245.166	83.62
245.399	83.62
245.633	90.62
245.866	84.62
246.099	87.62
246.333	97.62
246.566	83.62
246.8	82.62
247.033	99.62
247.266	82.62
247.5	93.62
247.733	79.62
247.966	94.62
248.2	94.62
248.433	82.62
248.666	88.62
248.899	100.62
249.133	96.62
249.366	95.62
249.599	82.62
249.832	85.62
250.066	85.62
250.299	80.62
250.532	100.62
250.765	77.62
250.998	83.62
251.231	87.62
251.465	97.62
251.698	98.62
251.931	86.62
252.164	94.62
252.397	96.62
252.63	92.62
252.863	82.62
253.096	85.62
253.329	108.62
253.562	92.62
253.795	109.62
254.028	101.62
254.261	94.62
254.494	88.62
254.727	95.62
254.96	109.62
255.193	77.62
255.426	71.62
255.659	94.62
255.892	98.62
256.124	99.62
256.357	104.62
256.59	104.62
256.823	91.62
257.056	98.62
257.289	113.62
257.521	97.62
257.754	85.62
257.987	96.62
258.22	104.62
258.452	102.62
258.685	100.62
258.918	92.62
259.151	96.62
259.383	97.62
259.616	81.62
259.849	110.62
260.081	112.62
260.314	92.62
260.547	95.62
260.779	99.62
261.012	101.62
261.244	101.62
261.477	104.62
261.71	86.62
261.942	96.62
262.175	106.62
262.407	91.62
262.64	102.62
262.872	83.62
263.105	102.62
263.337	95.62
263.57	95.62
263.802	106.62
264.035	91.62
264.267	88.62
264.499	94.62
264.732	103.62
264.964	96.62
265.197	93.62
265.429	94.62
265.661	113.62
265.894	106.62
266.126	113.62
266.358	102.62
266.591	117.62
266.823	94.62
267.055	89.62
267.287	97.62
267.52	103.62
267.752	123.62
267.984	106.62
268.216	99.62
268.448	111.62
268.681	111.62
268.913	117.62
269.145	101.62
269.377	98.62
269.609	99.62
269.841	103.62
270.073	102.62
270.306	120.62
270.538	103.62
270.77	101.62
271.002	112.62
271.234	105.62
271.466	100.62
271.698	115.62
271.93	95.62
272.162	102.62
272.394	101.62
272.626	113.62
272.858	102.62
273.09	102.62
273.322	107.62
273.553	105.62
273.785	118.62
274.017	110.62
274.249	98.62
274.481	100.62
274.713	104.62
274.945	97.62
275.176	103.62
275.408	123.62
275.64	110.62
275.872	103.62
276.104	89.62
276.335	113.62
276.567	113.62
276.799	101.62
277.031	104.62
277.262	101.62
277.494	116.62
277.726	101.62
277.957	112.62
278.189	110.62
278.421	93.62
278.652	97.62
278.884	104.62
279.115	113.62
279.347	117.62
279.579	118.62
279.81	97.62
280.042	120.62
280.273	114.62
280.505	104.62
280.736	105.62
280.968	111.62
281.199	107.62
281.431	112.62
281.662	115.62
281.894	108.62
282.125	113.62
282.356	103.62
282.588	114.62
282.819	117.62
283.051	109.62
283.282	120.62
283.513	111.62
283.745	121.62
283.976	123.62
284.207	104.62
284.439	100.62
284.67	111.62
284.901	102.62
285.132	111.62
285.364	105.62
285.595	112.62
285.826	109.62
286.057	126.62
286.288	115.62
286.52	122.62
286.751	119.62
286.982	108.62
287.213	94.62
287.444	116.62
287.675	131.62
287.906	118.62
288.138	112.62
288.369	129.62
288.6	119.62
288.831	126.62
289.062	108.62
289.293	128.62
289.524	123.62
289.755	113.62
289.986	115.62
290.217	128.62
290.448	111.62
290.679	122.62
290.91	136.62
291.141	134.62
291.371	130.62
291.602	111.62
291.833	112.62
292.064	117.62
292.295	127.62
292.526	119.62
292.757	114.62
292.987	130.62
293.218	126.62
293.449	127.62
293.68	123.62
293.91	105.62
294.141	128.62
294.372	112.62
294.603	130.62
294.833	129.62
295.064	123.62
295.295	121.62
295.525	130.62
295.756	130.62
295.987	123.62
296.217	124.62
296.448	121.62
296.679	110.62
296.909	104.62
297.14	135.62
297.37	131.62
297.601	126.62
297.831	120.62
298.062	129.62
298.292	125.62
298.523	136.62
298.753	117.62
298.984	121.62
299.214	120.62
299.445	129.62
299.675	126.62
299.905	140.62
300.136	117.62
300.366	133.62
300.597	133.62
300.827	119.62
301.057	132.62
301.288	118.62
301.518	139.62
301.748	122.62
301.979	157.62
302.209	111.62
302.439	129.62
302.669	119.62
302.9	125.62
303.13	132.62
303.36	141.62
303.59	122.62
303.82	129.62
304.051	135.62
304.281	133.62
304.511	130.62
304.741	129.62
304.971	133.62
305.201	129.62
305.431	123.62
305.661	118.62
305.891	116.62
306.121	121.62
306.352	125.62
306.582	115.62
306.812	117.62
307.042	125.62
307.272	119.62
307.502	112.62
307.731	109.62
307.961	129.62
308.191	112.62
308.421	105.62
308.651	117.62
308.881	116.62
309.111	131.62
309.341	117.62
309.571	134.62
309.8	120.62
310.03	132.62
310.26	129.62
310.49	129.62
310.72	120.62
310.949	132.62
311.179	120.62
311.409	124.62
311.639	120.62
311.868	141.62
312.098	123.62
312.328	122.62
312.557	125.62
312.787	125.62
313.017	127.62
313.246	122.62
313.476	118.62
313.706	123.62
313.935	119.62
314.165	120.62
314.394	129.62
314.624	128.62
314.853	126.62
315.083	118.62
315.312	118.62
315.542	129.62
315.771	125.62
316.001	130.62
316.23	118.62
316.46	124.62
316.689	134.62
316.919	123.62
317.148	136.62
317.377	128.62
317.607	135.62
317.836	126.62
318.065	120.62
318.295	112.62
318.524	120.62
318.753	128.62
318.983	124.62
319.212	126.62
319.441	137.62
319.67	134.62
319.9	128.62
320.129	125.62
320.358	109.62
320.587	113.62
320.816	119.62
321.046	129.62
321.275	141.62
321.504	122.62
321.733	115.62
321.962	128.62
322.191	118.62
322.42	135.62
322.649	125.62
322.878	133.62
323.108	117.62
323.337	116.62
323.566	130.62
323.795	137.62
324.024	125.62
324.253	130.62
324.482	117.62
324.71	118.62
324.939	127.62
325.168	128.62
325.397	130.62
325.626	116.62
325.855	124.62
326.084	122.62
326.313	120.62
326.542	120.62
326.77	141.62
326.999	128.62
327.228	139.62
327.457	140.62
327.686	137.62
327.914	131.62
328.143	132.62
328.372	139.62
328.6	125.62
328.829	126.62
329.058	154.62
329.287	135.62
329.515	131.62
329.744	135.62
329.972	147.62
330.201	126.62
330.43	112.62
330.658	126.62
330.887	130.62
331.115	133.62
331.344	139.62
331.572	143.62
331.801	122.62
332.03	153.62
332.258	138.62
332.486	136.62
332.715	158.62
332.943	145.62
333.172	132.62
333.4	139.62
333.629	168.62
333.857	150.62
334.085	154.62
334.314	146.62
334.542	155.62
334.771	147.62
334.999	150.62
335.227	139.62
335.455	144.62
335.684	154.62
335.912	148.62
336.14	131.62
336.369	157.62
336.597	141.62
336.825	126.62
337.053	141.62
337.281	135.62
337.51	147.62
337.738	155.62
337.966	141.62
338.194	125.62
338.422	125.62
338.65	147.62
338.878	128.62
339.106	145.62
339.334	139.62
339.562	129.62
339.79	140.62
340.018	130.62
340.246	120.62
340.474	121.62
340.702	125.62
340.93	130.62
341.158	128.62
341.386	128.62
341.614	141.62
341.842	142.62
342.07	122.62
342.298	135.62
342.526	126.62
342.754	133.62
342.981	161.62
343.209	136.62
343.437	166.62
343.665	146.62
343.893	136.62
344.12	158.62
344.348	131.62
344.576	131.62
344.804	131.62
345.031	133.62
345.259	127.62
345.487	143.62
345.714	134.62
345.942	133.62
346.17	142.62
346.397	134.62
346.625	135.62
346.853	136.62
347.08	129.62
347.308	144.62
347.535	151.62
347.763	126.62
347.99	133.62
348.218	121.62
348.445	136.62
348.673	133.62
348.9	146.62
349.128	149.62
349.355	123.62
349.583	129.62
349.81	137.62
350.037	131.62
350.265	139.62
350.492	131.62
350.72	117.62
350.947	118.62
351.174	123.62
351.402	130.62
351.629	129.62
351.856	127.62
352.083	130.62
352.311	128.62
352.538	118.62
352.765	150.62
352.992	143.62
353.22	150.62
353.447	128.62
353.674	133.62
353.901	153.62
354.128	133.62
354.355	133.62
354.583	124.62
354.81	132.62
355.037	146.62
355.264	136.62
355.491	141.62
355.718	125.62
355.945	123.62
356.172	134.62
356.399	131.62
356.626	125.62
356.853	125.62
357.08	149.62
357.307	131.62
357.534	125.62
357.761	134.62
357.988	145.62
358.215	140.62
358.441	137.62
358.668	126.62
358.895	125.62
359.122	126.62
359.349	123.62
359.576	126.62
359.802	124.62
360.029	130.62
360.256	133.62
360.483	124.62
360.709	132.62
360.936	161.62
361.163	148.62
361.39	133.62
361.616	120.62
361.843	131.62
362.07	126.62
362.296	129.62
362.523	134.62
362.749	140.62
362.976	124.62
363.203	129.62
363.429	128.62
363.656	141.62
363.882	137.62
364.109	143.62
364.335	133.62
364.562	123.62
364.788	116.62
365.015	126.62
365.241	125.62
365.468	129.62
365.694	132.62
365.92	132.62
366.147	124.62
366.373	128.62
366.599	143.62
366.826	127.62
367.052	132.62
367.278	123.62
367.505	130.62
367.731	167.62
367.957	131.62
368.184	128.62
368.41	127.62
368.636	126.62
368.862	125.62
369.089	133.62
369.315	133.62
369.541	143.62
369.767	141.62
369.993	128.62
370.219	137.62
370.445	128.62
370.672	120.62
370.898	147.62
371.124	121.62
371.35	129.62
371.576	137.62
371.802	136.62
372.028	132.62
372.254	133.62
372.48	147.62
372.706	143.62
372.932	136.62
373.158	127.62
373.384	153.62
373.61	138.62
373.835	143.62
374.061	114.62
374.287	139.62
374.513	124.62
374.739	163.62
374.965	140.62
375.191	141.62
375.416	140.62
375.642	139.62
375.868	142.62
376.094	139.62
376.319	130.62
376.545	131.62
376.771	116.62
376.997	135.62
377.222	147.62
377.448	150.62
377.674	145.62
377.899	143.62
378.125	144.62
378.35	120.62
378.576	148.62
378.802	120.62
379.027	135.62
379.253	155.62
379.478	142.62
379.704	129.62
379.929	137.62
380.155	127.62
380.38	127.62
380.606	147.62
380.831	125.62
381.057	143.62
381.282	148.62
381.507	154.62
381.733	143.62
381.958	131.62
382.184	127.62
382.409	128.62
382.634	139.62
382.86	155.62
383.085	151.62
383.31	135.62
383.535	137.62
383.761	146.62
383.986	161.62
384.211	154.62
384.436	149.62
384.662	147.62
384.887	161.62
385.112	143.62
385.337	150.62
385.562	142.62
385.787	156.62
386.013	167.62
386.238	158.62
386.463	134.62
386.688	186.62
386.913	157.62
387.138	145.62
387.363	169.62
387.588	144.62
387.813	155.62
388.038	160.62
388.263	167.62
388.488	158.62
388.713	158.62
388.938	144.62
389.163	132.62
389.387	151.62
389.612	155.62
389.837	163.62
390.062	163.62
390.287	142.62
390.512	139.62
390.736	161.62
390.961	145.62
391.186	165.62
391.411	149.62
391.636	158.62
391.86	169.62
392.085	160.62
392.31	163.62
392.534	145.62
392.759	162.62
392.984	143.62
393.208	149.62
393.433	144.62
393.658	155.62
393.882	158.62
394.107	156.62
394.331	144.62
394.556	154.62
394.78	174.62
395.005	155.62
395.229	160.62
395.454	179.62
395.678	173.62
395.903	149.62
396.127	167.62
396.352	169.62
396.576	153.62
396.801	136.62
397.025	157.62
397.249	151.62
397.474	160.62
397.698	171.62
397.922	157.62
398.147	154.62
398.371	164.62
398.595	179.62
398.82	176.62
399.044	191.62
399.268	197.62
399.492	208.62
399.717	230.62
399.941	220.62
400.165	192.62
400.389	175.62
400.613	190.62
400.837	187.62
401.062	171.62
401.286	180.62
401.51	173.62
401.734	179.62
401.958	180.62
402.182	165.62
402.406	182.62
402.63	177.62
402.854	182.62
403.078	185.62
403.302	168.62
403.526	171.62
403.75	199.62
403.974	176.62
404.198	195.62
404.422	205.62
404.645	175.62
404.869	191.62
405.093	195.62
405.317	186.62
405.541	183.62
405.765	175.62
405.988	173.62
406.212	161.62
406.436	180.62
406.66	185.62
406.883	194.62
407.107	191.62
407.331	196.62
407.555	226.62
407.778	188.62
408.002	183.62
408.226	184.62
408.449	181.62
408.673	176.62
408.896	187.62
409.12	173.62
409.344	186.62
409.567	187.62
409.791	180.62
410.014	177.62
410.238	192.62
410.461	188.62
410.685	188.62
410.908	179.62
411.132	188.62
411.355	184.62
411.578	190.62
411.802	168.62
412.025	173.62
412.249	163.62
412.472	169.62
412.695	164.62
412.919	180.62
413.142	202.62
413.365	161.62
413.589	163.62
413.812	170.62
414.035	187.62
414.258	183.62
414.482	180.62
414.705	174.62
414.928	173.62
415.151	187.62
415.374	179.62
415.597	184.62
415.821	176.62
416.044	179.62
416.267	168.62
416.49	174.62
416.713	171.62
416.936	163.62
417.159	167.62
417.382	178.62
417.605	160.62
417.828	159.62
418.051	185.62
418.274	173.62
418.497	164.62
418.72	188.62
418.943	180.62
419.166	191.62
419.389	185.62
419.611	180.62
419.834	163.62
420.057	197.62
420.28	187.62
420.503	177.62
420.726	167.62
420.948	170.62
421.171	173.62
421.394	178.62
421.617	161.62
421.839	168.62
422.062	191.62
422.285	184.62
422.507	175.62
422.73	171.62
422.953	167.62
423.175	173.62
423.398	183.62
423.621	190.62
423.843	183.62
424.066	172.62
424.288	171.62
424.511	189.62
424.733	180.62
424.956	184.62
425.178	163.62
425.401	173.62
425.623	177.62
425.846	158.62
426.068	177.62
426.291	165.62
426.513	169.62
426.735	175.62
426.958	182.62
427.18	165.62
427.402	188.62
427.625	165.62
427.847	145.62
428.069	169.62
428.292	173.62
428.514	167.62
428.736	162.62
428.958	153.62
429.181	165.62
429.403	159.62
429.625	174.62
429.847	163.62
430.069	177.62
430.292	158.62
430.514	159.62
430.736	158.62
430.958	168.62
431.18	156.62
431.402	175.62
431.624	144.62
431.846	157.62
432.068	169.62
432.29	171.62
432.512	166.62
432.734	171.62
432.956	165.62
433.178	194.62
433.4	154.62
433.622	168.62
433.844	145.62
434.066	164.62
434.287	160.62
434.509	158.62
434.731	175.62
434.953	167.62
435.175	159.62
435.397	180.62
435.618	157.62
435.84	162.62
436.062	154.62
436.284	165.62
436.505	173.62
436.727	165.62
436.949	156.62
437.17	153.62
437.392	143.62
437.614	152.62
437.835	144.62
438.057	165.62
438.278	147.62
438.5	151.62
438.721	174.62
438.943	165.62
439.165	160.62
439.386	167.62
439.608	168.62
439.829	157.62
440.05	165.62
440.272	161.62
440.493	143.62
440.715	161.62
440.936	162.62
441.158	176.62
441.379	143.62
441.6	166.62
441.822	178.62
442.043	182.62
442.264	172.62
442.486	157.62
442.707	180.62
442.928	186.62
443.149	164.62
443.371	177.62
443.592	169.62
443.813	176.62
444.034	176.62
444.255	172.62
444.476	190.62
444.698	199.62
444.919	182.62
445.14	384.62
445.361	269.62
445.582	191.62
445.803	166.62
446.024	173.62
446.245	178.62
446.466	168.62
446.687	173.62
446.908	175.62
447.129	166.62
447.35	165.62
447.571	165.62
447.792	159.62
448.013	160.62
448.234	154.62
448.455	158.62
448.675	141.62
448.896	172.62
449.117	165.62
449.338	156.62
449.559	163.62
449.779	157.62
450	155.62
450.221	144.62
450.442	142.62
450.662	143.62
450.883	161.62
451.104	174.62
451.324	164.62
451.545	153.62
451.766	147.62
451.986	166.62
452.207	176.62
452.428	142.62
452.648	146.62
452.869	162.62
453.089	164.62
453.31	151.62
453.53	140.62
453.751	145.62
453.971	153.62
454.192	136.62
454.412	148.62
454.633	139.62
454.853	135.62
455.073	148.62
455.294	145.62
455.514	153.62
455.734	145.62
455.955	153.62
456.175	142.62
456.395	133.62
456.616	142.62
456.836	150.62
457.056	133.62
457.276	128.62
457.497	140.62
457.717	158.62
457.937	153.62
458.157	148.62
458.377	157.62
458.598	150.62
458.818	140.62
459.038	156.62
459.258	151.62
459.478	161.62
459.698	151.62
459.918	160.62
460.138	182.62
460.358	178.62
460.578	195.62
460.798	189.62
461.018	161.62
461.238	185.62
461.458	171.62
461.678	174.62
461.898	192.62
462.118	182.62
462.338	196.62
462.558	187.62
462.777	197.62
462.997	217.62
463.217	204.62
463.437	211.62
463.657	199.62
463.876	195.62
464.096	205.62
464.316	181.62
464.536	189.62
464.755	178.62
464.975	186.62
465.195	186.62
465.414	184.62
465.634	162.62
465.854	161.62
466.073	159.62
466.293	164.62
466.512	175.62
466.732	153.62
466.951	165.62
467.171	167.62
467.391	155.62
467.61	160.62
467.829	139.62
468.049	159.62
468.268	157.62
468.488	154.62
468.707	155.62
468.927	158.62
469.146	145.62
469.365	155.62
469.585	155.62
469.804	150.62
470.023	162.62
470.243	170.62
470.462	166.62
470.681	162.62
470.901	173.62
471.12	165.62
471.339	166.62
471.558	164.62
471.777	157.62
471.997	158.62
472.216	140.62
472.435	144.62
472.654	158.62
472.873	163.62
473.092	143.62
473.311	154.62
473.53	154.62
473.749	158.62
473.968	168.62
474.187	155.62
474.406	162.62
474.625	161.62
474.844	155.62
475.063	144.62
475.282	148.62
475.501	160.62
475.72	165.62
475.939	147.62
476.158	152.62
476.377	163.62
476.596	136.62
476.814	146.62
477.033	136.62
477.252	153.62
477.471	157.62
477.69	161.62
477.908	164.62
478.127	172.62
478.346	168.62
478.564	183.62
478.783	198.62
479.002	182.62
479.22	177.62
479.439	198.62
479.658	175.62
479.876	173.62
480.095	183.62
480.313	176.62
480.532	180.62
480.751	180.62
480.969	175.62
481.188	163.62
481.406	167.62
481.624	176.62
481.843	164.62
482.061	169.62
482.28	171.62
482.498	169.62
482.717	167.62
482.935	178.62
483.153	167.62
483.372	161.62
483.59	168.62
483.808	177.62
484.027	178.62
484.245	163.62
484.463	147.62
484.681	176.62
484.9	175.62
485.118	179.62
485.336	161.62
485.554	167.62
485.772	159.62
485.99	164.62
486.209	176.62
486.427	186.62
486.645	170.62
486.863	169.62
487.081	173.62
487.299	173.62
487.517	174.62
487.735	190.62
487.953	179.62
488.171	180.62
488.389	168.62
488.607	166.62
488.825	162.62
489.043	164.62
489.261	173.62
489.479	175.62
489.696	175.62
489.914	164.62
490.132	179.62
490.35	188.62
490.568	175.62
490.786	183.62
491.003	167.62
491.221	177.62
491.439	189.62
491.657	163.62
491.874	195.62
492.092	179.62
492.31	193.62
492.527	189.62
492.745	183.62
492.963	189.62
493.18	180.62
493.398	187.62
493.615	169.62
493.833	177.62
494.05	181.62
494.268	196.62
494.485	178.62
494.703	178.62
494.92	190.62
495.138	176.62
495.355	183.62
495.573	197.62
495.79	181.62
496.008	176.62
496.225	190.62
496.442	185.62
496.66	207.62
496.877	192.62
497.094	206.62
497.312	200.62
497.529	213.62
497.746	207.62
497.963	190.62
498.181	197.62
498.398	208.62
498.615	229.62
498.832	214.62
499.049	228.62
499.267	251.62
499.484	247.62
499.701	283.62
499.918	321.62
500.135	366.62
500.352	398.62
500.569	398.62
500.786	403.62
501.003	365.62
501.22	329.62
501.437	273.62
501.654	264.62
501.871	243.62
502.088	231.62
502.305	238.62
502.522	231.62
502.739	223.62
502.956	220.62
503.172	217.62
503.389	200.62
503.606	187.62
503.823	194.62
504.04	214.62
504.256	218.62
504.473	216.62
504.69	206.62
