Data from SampD_HRD10591_00027.txt Node
Date: Mon Jan 19 11:41:30 EST 2026
User: Yrep
Spectrometer: HR+D1059
Trigger mode: 0
Integration Time (sec): 3.443000E-1
Scans to average: 1
Electric dark correction enabled: true
Nonlinearity correction enabled: false
Boxcar width: 0
XAxis mode: Wavelengths
Number of Pixels in Spectrum: 2048
>>>>>Begin Spectral Data<<<<<
223.165	-10.56
223.4	-10.56
223.635	-10.56
223.869	-17.56
224.104	-27.56
224.338	0.44
224.573	-0.56
224.808	-18.56
225.042	-1.56
225.277	-4.56
225.511	-12.56
225.746	-1.56
225.98	-1.56
226.215	-0.56
226.449	11.44
226.683	25.44
226.918	36.44
227.152	23.44
227.387	40.44
227.621	31.44
227.856	54.44
228.09	51.44
228.324	43.44
228.559	46.44
228.793	63.44
229.027	53.44
229.262	58.44
229.496	70.44
229.73	70.44
229.964	73.44
230.199	71.44
230.433	89.44
230.667	84.44
230.901	90.44
231.136	85.44
231.37	70.44
231.604	90.44
231.838	95.44
232.072	72.44
232.306	77.44
232.541	96.44
232.775	70.44
233.009	75.44
233.243	79.44
233.477	77.44
233.711	76.44
233.945	84.44
234.179	76.44
234.413	90.44
234.647	83.44
234.881	77.44
235.115	90.44
235.349	88.44
235.583	92.44
235.817	79.44
236.051	64.44
236.285	92.44
236.519	89.44
236.753	74.44
236.987	75.44
237.221	70.44
237.455	86.44
237.689	81.44
237.922	86.44
238.156	78.44
238.39	80.44
238.624	84.44
238.858	81.44
239.091	74.44
239.325	81.44
239.559	67.44
239.793	71.44
240.027	81.44
240.26	81.44
240.494	84.44
240.728	71.44
240.961	75.44
241.195	92.44
241.429	94.44
241.662	70.44
241.896	78.44
242.13	79.44
242.363	60.44
242.597	91.44
242.83	83.44
243.064	70.44
243.298	69.44
243.531	84.44
243.765	74.44
243.998	83.44
244.232	91.44
244.465	88.44
244.699	78.44
244.932	84.44
245.166	70.44
245.399	77.44
245.633	94.44
245.866	80.44
246.099	90.44
246.333	73.44
246.566	71.44
246.8	83.44
247.033	85.44
247.266	91.44
247.5	70.44
247.733	73.44
247.966	79.44
248.2	73.44
248.433	73.44
248.666	83.44
248.899	89.44
249.133	69.44
249.366	82.44
249.599	79.44
249.832	97.44
250.066	94.44
250.299	68.44
250.532	87.44
250.765	86.44
250.998	94.44
251.231	97.44
251.465	80.44
251.698	81.44
251.931	81.44
252.164	85.44
252.397	81.44
252.63	86.44
252.863	86.44
253.096	79.44
253.329	77.44
253.562	82.44
253.795	83.44
254.028	88.44
254.261	87.44
254.494	86.44
254.727	106.44
254.96	93.44
255.193	79.44
255.426	79.44
255.659	81.44
255.892	93.44
256.124	91.44
256.357	82.44
256.59	98.44
256.823	83.44
257.056	103.44
257.289	65.44
257.521	89.44
257.754	97.44
257.987	85.44
258.22	100.44
258.452	88.44
258.685	92.44
258.918	87.44
259.151	79.44
259.383	92.44
259.616	86.44
259.849	88.44
260.081	87.44
260.314	110.44
260.547	84.44
260.779	93.44
261.012	88.44
261.244	85.44
261.477	98.44
261.71	100.44
261.942	89.44
262.175	100.44
262.407	91.44
262.64	109.44
262.872	87.44
263.105	101.44
263.337	94.44
263.57	88.44
263.802	101.44
264.035	93.44
264.267	92.44
264.499	88.44
264.732	94.44
264.964	91.44
265.197	89.44
265.429	99.44
265.661	84.44
265.894	95.44
266.126	108.44
266.358	85.44
266.591	114.44
266.823	71.44
267.055	77.44
267.287	109.44
267.52	67.44
267.752	97.44
267.984	86.44
268.216	80.44
268.448	74.44
268.681	104.44
268.913	105.44
269.145	91.44
269.377	82.44
269.609	74.44
269.841	90.44
270.073	87.44
270.306	94.44
270.538	86.44
270.77	85.44
271.002	103.44
271.234	110.44
271.466	99.44
271.698	89.44
271.93	76.44
272.162	98.44
272.394	85.44
272.626	93.44
272.858	104.44
273.09	100.44
273.322	96.44
273.553	72.44
273.785	94.44
274.017	79.44
274.249	94.44
274.481	91.44
274.713	85.44
274.945	89.44
275.176	84.44
275.408	84.44
275.64	89.44
275.872	97.44
276.104	103.44
276.335	94.44
276.567	93.44
276.799	99.44
277.031	100.44
277.262	99.44
277.494	107.44
277.726	107.44
277.957	95.44
278.189	100.44
278.421	90.44
278.652	83.44
278.884	89.44
279.115	94.44
279.347	94.44
279.579	85.44
279.81	100.44
280.042	86.44
280.273	107.44
280.505	83.44
280.736	93.44
280.968	102.44
281.199	100.44
281.431	96.44
281.662	89.44
281.894	98.44
282.125	99.44
282.356	94.44
282.588	98.44
282.819	113.44
283.051	106.44
283.282	86.44
283.513	113.44
283.745	105.44
283.976	90.44
284.207	94.44
284.439	104.44
284.67	124.44
284.901	101.44
285.132	100.44
285.364	98.44
285.595	103.44
285.826	94.44
286.057	87.44
286.288	90.44
286.52	103.44
286.751	96.44
286.982	94.44
287.213	84.44
287.444	98.44
287.675	94.44
287.906	107.44
288.138	92.44
288.369	93.44
288.6	104.44
288.831	101.44
289.062	105.44
289.293	116.44
289.524	103.44
289.755	121.44
289.986	99.44
290.217	97.44
290.448	93.44
290.679	95.44
290.91	103.44
291.141	101.44
291.371	105.44
291.602	94.44
291.833	93.44
292.064	112.44
292.295	112.44
292.526	108.44
292.757	107.44
292.987	102.44
293.218	98.44
293.449	95.44
293.68	99.44
293.91	100.44
294.141	119.44
294.372	94.44
294.603	91.44
294.833	98.44
295.064	112.44
295.295	95.44
295.525	103.44
295.756	104.44
295.987	103.44
296.217	94.44
296.448	113.44
296.679	113.44
296.909	108.44
297.14	98.44
297.37	106.44
297.601	98.44
297.831	97.44
298.062	107.44
298.292	100.44
298.523	99.44
298.753	109.44
298.984	97.44
299.214	113.44
299.445	116.44
299.675	102.44
299.905	96.44
300.136	102.44
300.366	114.44
300.597	95.44
300.827	125.44
301.057	109.44
301.288	105.44
301.518	93.44
301.748	101.44
301.979	139.44
302.209	113.44
302.439	113.44
302.669	100.44
302.9	91.44
303.13	106.44
303.36	93.44
303.59	104.44
303.82	121.44
304.051	131.44
304.281	98.44
304.511	102.44
304.741	102.44
304.971	118.44
305.201	120.44
305.431	108.44
305.661	115.44
305.891	103.44
306.121	115.44
306.352	86.44
306.582	103.44
306.812	100.44
307.042	108.44
307.272	99.44
307.502	93.44
307.731	106.44
307.961	111.44
308.191	108.44
308.421	100.44
308.651	102.44
308.881	104.44
309.111	94.44
309.341	108.44
309.571	107.44
309.8	113.44
310.03	102.44
310.26	107.44
310.49	114.44
310.72	104.44
310.949	98.44
311.179	103.44
311.409	103.44
311.639	100.44
311.868	118.44
312.098	108.44
312.328	106.44
312.557	101.44
312.787	102.44
313.017	104.44
313.246	108.44
313.476	116.44
313.706	113.44
313.935	105.44
314.165	103.44
314.394	97.44
314.624	108.44
314.853	121.44
315.083	101.44
315.312	97.44
315.542	107.44
315.771	117.44
316.001	110.44
316.23	95.44
316.46	105.44
316.689	112.44
316.919	112.44
317.148	111.44
317.377	110.44
317.607	102.44
317.836	102.44
318.065	102.44
318.295	103.44
318.524	99.44
318.753	101.44
318.983	102.44
319.212	109.44
319.441	100.44
319.67	100.44
319.9	122.44
320.129	102.44
320.358	117.44
320.587	109.44
320.816	109.44
321.046	114.44
321.275	117.44
321.504	116.44
321.733	103.44
321.962	109.44
322.191	109.44
322.42	104.44
322.649	102.44
322.878	114.44
323.108	115.44
323.337	88.44
323.566	105.44
323.795	91.44
324.024	112.44
324.253	115.44
324.482	95.44
324.71	106.44
324.939	111.44
325.168	110.44
325.397	118.44
325.626	109.44
325.855	81.44
326.084	125.44
326.313	105.44
326.542	117.44
326.77	106.44
326.999	93.44
327.228	102.44
327.457	107.44
327.686	98.44
327.914	113.44
328.143	118.44
328.372	108.44
328.6	115.44
328.829	111.44
329.058	98.44
329.287	96.44
329.515	102.44
329.744	121.44
329.972	106.44
330.201	118.44
330.43	115.44
330.658	114.44
330.887	108.44
331.115	104.44
331.344	106.44
331.572	132.44
331.801	130.44
332.03	111.44
332.258	112.44
332.486	118.44
332.715	109.44
332.943	123.44
333.172	123.44
333.4	127.44
333.629	130.44
333.857	117.44
334.085	128.44
334.314	132.44
334.542	103.44
334.771	109.44
334.999	107.44
335.227	111.44
335.455	107.44
335.684	120.44
335.912	116.44
336.14	113.44
336.369	134.44
336.597	109.44
336.825	123.44
337.053	109.44
337.281	117.44
337.51	105.44
337.738	110.44
337.966	109.44
338.194	95.44
338.422	102.44
338.65	115.44
338.878	120.44
339.106	98.44
339.334	111.44
339.562	113.44
339.79	117.44
340.018	118.44
340.246	113.44
340.474	112.44
340.702	113.44
340.93	109.44
341.158	111.44
341.386	105.44
341.614	117.44
341.842	117.44
342.07	120.44
342.298	121.44
342.526	103.44
342.754	101.44
342.981	110.44
343.209	121.44
343.437	151.44
343.665	112.44
343.893	107.44
344.12	117.44
344.348	109.44
344.576	106.44
344.804	105.44
345.031	106.44
345.259	117.44
345.487	108.44
345.714	122.44
345.942	99.44
346.17	107.44
346.397	107.44
346.625	121.44
346.853	105.44
347.08	110.44
347.308	101.44
347.535	107.44
347.763	114.44
347.99	113.44
348.218	102.44
348.445	109.44
348.673	115.44
348.9	104.44
349.128	124.44
349.355	115.44
349.583	111.44
349.81	102.44
350.037	97.44
350.265	120.44
350.492	109.44
350.72	105.44
350.947	118.44
351.174	111.44
351.402	113.44
351.629	101.44
351.856	118.44
352.083	110.44
352.311	102.44
352.538	108.44
352.765	110.44
352.992	110.44
353.22	120.44
353.447	113.44
353.674	115.44
353.901	111.44
354.128	115.44
354.355	103.44
354.583	120.44
354.81	110.44
355.037	114.44
355.264	113.44
355.491	114.44
355.718	103.44
355.945	122.44
356.172	105.44
356.399	108.44
356.626	97.44
356.853	108.44
357.08	115.44
357.307	102.44
357.534	108.44
357.761	123.44
357.988	113.44
358.215	110.44
358.441	118.44
358.668	112.44
358.895	122.44
359.122	114.44
359.349	120.44
359.576	108.44
359.802	114.44
360.029	112.44
360.256	106.44
360.483	114.44
360.709	102.44
360.936	111.44
361.163	120.44
361.39	108.44
361.616	100.44
361.843	110.44
362.07	97.44
362.296	101.44
362.523	111.44
362.749	117.44
362.976	110.44
363.203	122.44
363.429	114.44
363.656	124.44
363.882	119.44
364.109	102.44
364.335	120.44
364.562	118.44
364.788	98.44
365.015	97.44
365.241	120.44
365.468	111.44
365.694	113.44
365.92	116.44
366.147	114.44
366.373	97.44
366.599	101.44
366.826	113.44
367.052	114.44
367.278	118.44
367.505	101.44
367.731	126.44
367.957	101.44
368.184	96.44
368.41	108.44
368.636	107.44
368.862	123.44
369.089	93.44
369.315	89.44
369.541	117.44
369.767	99.44
369.993	115.44
370.219	109.44
370.445	109.44
370.672	114.44
370.898	102.44
371.124	119.44
371.35	117.44
371.576	122.44
371.802	104.44
372.028	92.44
372.254	108.44
372.48	111.44
372.706	105.44
372.932	116.44
373.158	123.44
373.384	119.44
373.61	102.44
373.835	107.44
374.061	105.44
374.287	111.44
374.513	111.44
374.739	134.44
374.965	120.44
375.191	122.44
375.416	115.44
375.642	137.44
375.868	137.44
376.094	125.44
376.319	115.44
376.545	107.44
376.771	103.44
376.997	111.44
377.222	104.44
377.448	107.44
377.674	113.44
377.899	106.44
378.125	107.44
378.35	112.44
378.576	112.44
378.802	122.44
379.027	118.44
379.253	123.44
379.478	106.44
379.704	127.44
379.929	127.44
380.155	115.44
380.38	114.44
380.606	103.44
380.831	120.44
381.057	124.44
381.282	110.44
381.507	108.44
381.733	115.44
381.958	116.44
382.184	114.44
382.409	127.44
382.634	119.44
382.86	107.44
383.085	111.44
383.31	102.44
383.535	129.44
383.761	126.44
383.986	119.44
384.211	114.44
384.436	119.44
384.662	120.44
384.887	117.44
385.112	114.44
385.337	110.44
385.562	113.44
385.787	135.44
386.013	131.44
386.238	119.44
386.463	119.44
386.688	147.44
386.913	119.44
387.138	114.44
387.363	127.44
387.588	123.44
387.813	135.44
388.038	126.44
388.263	119.44
388.488	115.44
388.713	108.44
388.938	121.44
389.163	103.44
389.387	122.44
389.612	117.44
389.837	119.44
390.062	106.44
390.287	117.44
390.512	126.44
390.736	102.44
390.961	114.44
391.186	116.44
391.411	113.44
391.636	128.44
391.86	122.44
392.085	138.44
392.31	125.44
392.534	117.44
392.759	126.44
392.984	117.44
393.208	127.44
393.433	119.44
393.658	118.44
393.882	121.44
394.107	129.44
394.331	123.44
394.556	118.44
394.78	127.44
395.005	117.44
395.229	125.44
395.454	131.44
395.678	135.44
395.903	135.44
396.127	134.44
396.352	115.44
396.576	129.44
396.801	119.44
397.025	111.44
397.249	132.44
397.474	132.44
397.698	134.44
397.922	141.44
398.147	120.44
398.371	121.44
398.595	110.44
398.82	130.44
399.044	155.44
399.268	134.44
399.492	163.44
399.717	165.44
399.941	139.44
400.165	155.44
400.389	138.44
400.613	140.44
400.837	125.44
401.062	127.44
401.286	127.44
401.51	118.44
401.734	128.44
401.958	135.44
402.182	142.44
402.406	133.44
402.63	134.44
402.854	143.44
403.078	141.44
403.302	129.44
403.526	149.44
403.75	149.44
403.974	133.44
404.198	141.44
404.422	142.44
404.645	137.44
404.869	131.44
405.093	144.44
405.317	141.44
405.541	155.44
405.765	130.44
405.988	134.44
406.212	141.44
406.436	132.44
406.66	135.44
406.883	153.44
407.107	150.44
407.331	146.44
407.555	146.44
407.778	147.44
408.002	141.44
408.226	148.44
408.449	130.44
408.673	132.44
408.896	126.44
409.12	128.44
409.344	150.44
409.567	140.44
409.791	150.44
410.014	149.44
410.238	130.44
410.461	138.44
410.685	139.44
410.908	132.44
411.132	149.44
411.355	130.44
411.578	138.44
411.802	134.44
412.025	128.44
412.249	132.44
412.472	143.44
412.695	145.44
412.919	123.44
413.142	124.44
413.365	137.44
413.589	122.44
413.812	137.44
414.035	134.44
414.258	142.44
414.482	117.44
414.705	134.44
414.928	138.44
415.151	140.44
415.374	139.44
415.597	133.44
415.821	126.44
416.044	123.44
416.267	130.44
416.49	124.44
416.713	114.44
416.936	145.44
417.159	127.44
417.382	111.44
417.605	127.44
417.828	149.44
418.051	116.44
418.274	139.44
418.497	140.44
418.72	125.44
418.943	129.44
419.166	133.44
419.389	122.44
419.611	124.44
419.834	133.44
420.057	132.44
420.28	135.44
420.503	140.44
420.726	122.44
420.948	132.44
421.171	137.44
421.394	128.44
421.617	149.44
421.839	129.44
422.062	133.44
422.285	131.44
422.507	129.44
422.73	134.44
422.953	118.44
423.175	132.44
423.398	143.44
423.621	141.44
423.843	124.44
424.066	135.44
424.288	129.44
424.511	138.44
424.733	123.44
424.956	127.44
425.178	130.44
425.401	132.44
425.623	128.44
425.846	136.44
426.068	134.44
426.291	116.44
426.513	137.44
426.735	120.44
426.958	127.44
427.18	129.44
427.402	115.44
427.625	117.44
427.847	122.44
428.069	130.44
428.292	124.44
428.514	128.44
428.736	117.44
428.958	116.44
429.181	124.44
429.403	115.44
429.625	117.44
429.847	122.44
430.069	104.44
430.292	117.44
430.514	110.44
430.736	125.44
430.958	115.44
431.18	130.44
431.402	120.44
431.624	116.44
431.846	112.44
432.068	132.44
432.29	121.44
432.512	127.44
432.734	114.44
432.956	122.44
433.178	130.44
433.4	123.44
433.622	131.44
433.844	127.44
434.066	132.44
434.287	132.44
434.509	123.44
434.731	144.44
434.953	145.44
435.175	137.44
435.397	127.44
435.618	126.44
435.84	129.44
436.062	127.44
436.284	129.44
436.505	108.44
436.727	116.44
436.949	126.44
437.17	125.44
437.392	130.44
437.614	121.44
437.835	125.44
438.057	118.44
438.278	113.44
438.5	130.44
438.721	129.44
438.943	125.44
439.165	145.44
439.386	121.44
439.608	122.44
439.829	132.44
440.05	128.44
440.272	138.44
440.493	125.44
440.715	114.44
440.936	115.44
441.158	127.44
441.379	137.44
441.6	127.44
441.822	138.44
442.043	132.44
442.264	128.44
442.486	125.44
442.707	122.44
442.928	140.44
443.149	138.44
443.371	146.44
443.592	121.44
443.813	127.44
444.034	133.44
444.255	153.44
444.476	138.44
444.698	135.44
444.919	134.44
445.14	372.44
445.361	259.44
445.582	132.44
445.803	116.44
446.024	120.44
446.245	138.44
446.466	118.44
446.687	119.44
446.908	118.44
447.129	126.44
447.35	134.44
447.571	137.44
447.792	114.44
448.013	92.44
448.234	124.44
448.455	123.44
448.675	104.44
448.896	117.44
449.117	130.44
449.338	119.44
449.559	137.44
449.779	120.44
450	114.44
450.221	113.44
450.442	126.44
450.662	132.44
450.883	107.44
451.104	129.44
451.324	137.44
451.545	119.44
451.766	123.44
451.986	129.44
452.207	128.44
452.428	117.44
452.648	118.44
452.869	140.44
453.089	123.44
453.31	116.44
453.53	117.44
453.751	117.44
453.971	110.44
454.192	125.44
454.412	117.44
454.633	117.44
454.853	122.44
455.073	112.44
455.294	102.44
455.514	128.44
455.734	117.44
455.955	125.44
456.175	116.44
456.395	119.44
456.616	96.44
456.836	110.44
457.056	113.44
457.276	109.44
457.497	130.44
457.717	123.44
457.937	124.44
458.157	119.44
458.377	117.44
458.598	120.44
458.818	118.44
459.038	123.44
459.258	132.44
459.478	115.44
459.698	116.44
459.918	123.44
460.138	133.44
460.358	128.44
460.578	143.44
460.798	153.44
461.018	128.44
461.238	129.44
461.458	139.44
461.678	131.44
461.898	139.44
462.118	132.44
462.338	147.44
462.558	137.44
462.777	146.44
462.997	143.44
463.217	167.44
463.437	159.44
463.657	153.44
463.876	118.44
464.096	141.44
464.316	130.44
464.536	133.44
464.755	147.44
464.975	130.44
465.195	150.44
465.414	138.44
465.634	131.44
465.854	132.44
466.073	127.44
466.293	135.44
466.512	111.44
466.732	127.44
466.951	135.44
467.171	129.44
467.391	128.44
467.61	118.44
467.829	116.44
468.049	125.44
468.268	128.44
468.488	127.44
468.707	122.44
468.927	117.44
469.146	103.44
469.365	129.44
469.585	123.44
469.804	156.44
470.023	121.44
470.243	138.44
470.462	111.44
470.681	130.44
470.901	121.44
471.12	124.44
471.339	136.44
471.558	118.44
471.777	121.44
471.997	129.44
472.216	113.44
472.435	120.44
472.654	116.44
472.873	126.44
473.092	97.44
473.311	124.44
473.53	123.44
473.749	124.44
473.968	124.44
474.187	131.44
474.406	110.44
474.625	126.44
474.844	127.44
475.063	125.44
475.282	125.44
475.501	126.44
475.72	132.44
475.939	127.44
476.158	113.44
476.377	114.44
476.596	121.44
476.814	120.44
477.033	116.44
477.252	113.44
477.471	131.44
477.69	123.44
477.908	130.44
478.127	139.44
478.346	138.44
478.564	132.44
478.783	125.44
479.002	159.44
479.22	117.44
479.439	133.44
479.658	131.44
479.876	151.44
480.095	135.44
480.313	139.44
480.532	126.44
480.751	151.44
480.969	118.44
481.188	130.44
481.406	129.44
481.624	132.44
481.843	124.44
482.061	118.44
482.28	122.44
482.498	129.44
482.717	137.44
482.935	113.44
483.153	142.44
483.372	134.44
483.59	123.44
483.808	118.44
484.027	118.44
484.245	159.44
484.463	125.44
484.681	142.44
484.9	121.44
485.118	129.44
485.336	128.44
485.554	139.44
485.772	134.44
485.99	140.44
486.209	125.44
486.427	123.44
486.645	134.44
486.863	142.44
487.081	126.44
487.299	133.44
487.517	129.44
487.735	132.44
487.953	134.44
488.171	141.44
488.389	145.44
488.607	136.44
488.825	116.44
489.043	126.44
489.261	117.44
489.479	135.44
489.696	138.44
489.914	129.44
490.132	130.44
490.35	133.44
490.568	133.44
490.786	122.44
491.003	137.44
491.221	124.44
491.439	138.44
491.657	141.44
491.874	149.44
492.092	132.44
492.31	138.44
492.527	135.44
492.745	141.44
492.963	140.44
493.18	135.44
493.398	140.44
493.615	153.44
493.833	132.44
494.05	123.44
494.268	131.44
494.485	144.44
494.703	124.44
494.92	145.44
495.138	141.44
495.355	148.44
495.573	144.44
495.79	126.44
496.008	130.44
496.225	144.44
496.442	142.44
496.66	152.44
496.877	151.44
497.094	155.44
497.312	129.44
497.529	145.44
497.746	158.44
497.963	137.44
498.181	148.44
498.398	161.44
498.615	166.44
498.832	170.44
499.049	180.44
499.267	187.44
499.484	191.44
499.701	232.44
499.918	228.44
500.135	229.44
500.352	283.44
500.569	269.44
500.786	267.44
501.003	231.44
501.22	235.44
501.437	209.44
501.654	179.44
501.871	167.44
502.088	189.44
502.305	176.44
502.522	164.44
502.739	175.44
502.956	151.44
503.172	157.44
503.389	140.44
503.606	149.44
503.823	144.44
504.04	152.44
504.256	153.44
504.473	136.44
504.69	152.44
504.907	161.44
505.123	159.44
505.34	153.44
505.557	133.44
505.773	143.44
505.99	115.44
506.207	128.44
506.423	143.44
506.64	136.44
