Data from SampD_HRD10591_00004.txt Node
Date: Mon Jan 19 11:41:22 EST 2026
User: Yrep
Spectrometer: HR+D1059
Trigger mode: 0
Integration Time (sec): 3.443000E-1
Scans to average: 1
Electric dark correction enabled: true
Nonlinearity correction enabled: false
Boxcar width: 0
XAxis mode: Wavelengths
Number of Pixels in Spectrum: 2048
>>>>>Begin Spectral Data<<<<<
223.165	-15.5
223.4	-15.5
223.635	-15.5
223.869	-9.5
224.104	-19.5
224.338	-15.5
224.573	-18.5
224.808	-14.5
225.042	5.5
225.277	-6.5
225.511	5.5
225.746	3.5
225.98	-3.5
226.215	-6.5
226.449	9.5
226.683	14.5
226.918	33.5
227.152	37.5
227.387	38.5
227.621	35.5
227.856	46.5
228.09	49.5
228.324	47.5
228.559	76.5
228.793	66.5
229.027	69.5
229.262	73.5
229.496	83.5
229.73	73.5
229.964	73.5
230.199	74.5
230.433	85.5
230.667	86.5
230.901	77.5
231.136	99.5
231.37	96.5
231.604	87.5
231.838	97.5
232.072	79.5
232.306	86.5
232.541	89.5
232.775	92.5
233.009	82.5
233.243	91.5
233.477	90.5
233.711	93.5
233.945	79.5
234.179	86.5
234.413	98.5
234.647	84.5
234.881	94.5
235.115	92.5
235.349	90.5
235.583	78.5
235.817	82.5
236.051	79.5
236.285	80.5
236.519	96.5
236.753	94.5
236.987	88.5
237.221	90.5
237.455	79.5
237.689	88.5
237.922	87.5
238.156	73.5
238.39	85.5
238.624	91.5
238.858	97.5
239.091	80.5
239.325	79.5
239.559	78.5
239.793	78.5
240.027	97.5
240.26	83.5
240.494	92.5
240.728	86.5
240.961	86.5
241.195	109.5
241.429	90.5
241.662	79.5
241.896	80.5
242.13	85.5
242.363	78.5
242.597	61.5
242.83	81.5
243.064	84.5
243.298	94.5
243.531	94.5
243.765	79.5
243.998	85.5
244.232	90.5
244.465	93.5
244.699	82.5
244.932	79.5
245.166	95.5
245.399	81.5
245.633	93.5
245.866	90.5
246.099	88.5
246.333	91.5
246.566	92.5
246.8	95.5
247.033	103.5
247.266	85.5
247.5	90.5
247.733	92.5
247.966	91.5
248.2	83.5
248.433	90.5
248.666	92.5
248.899	99.5
249.133	92.5
249.366	89.5
249.599	85.5
249.832	100.5
250.066	94.5
250.299	100.5
250.532	94.5
250.765	86.5
250.998	88.5
251.231	96.5
251.465	98.5
251.698	88.5
251.931	98.5
252.164	76.5
252.397	89.5
252.63	89.5
252.863	90.5
253.096	88.5
253.329	100.5
253.562	106.5
253.795	89.5
254.028	99.5
254.261	99.5
254.494	95.5
254.727	97.5
254.96	103.5
255.193	101.5
255.426	95.5
255.659	93.5
255.892	104.5
256.124	100.5
256.357	80.5
256.59	87.5
256.823	92.5
257.056	97.5
257.289	86.5
257.521	108.5
257.754	108.5
257.987	97.5
258.22	106.5
258.452	74.5
258.685	97.5
258.918	85.5
259.151	99.5
259.383	94.5
259.616	98.5
259.849	108.5
260.081	95.5
260.314	84.5
260.547	95.5
260.779	95.5
261.012	93.5
261.244	98.5
261.477	112.5
261.71	102.5
261.942	103.5
262.175	114.5
262.407	92.5
262.64	113.5
262.872	111.5
263.105	106.5
263.337	112.5
263.57	104.5
263.802	111.5
264.035	101.5
264.267	108.5
264.499	96.5
264.732	105.5
264.964	101.5
265.197	97.5
265.429	98.5
265.661	93.5
265.894	100.5
266.126	104.5
266.358	92.5
266.591	101.5
266.823	118.5
267.055	102.5
267.287	98.5
267.52	93.5
267.752	97.5
267.984	101.5
268.216	97.5
268.448	107.5
268.681	108.5
268.913	118.5
269.145	112.5
269.377	102.5
269.609	110.5
269.841	118.5
270.073	112.5
270.306	108.5
270.538	108.5
270.77	103.5
271.002	103.5
271.234	99.5
271.466	100.5
271.698	91.5
271.93	104.5
272.162	109.5
272.394	120.5
272.626	98.5
272.858	112.5
273.09	101.5
273.322	108.5
273.553	106.5
273.785	110.5
274.017	106.5
274.249	114.5
274.481	109.5
274.713	106.5
274.945	112.5
275.176	116.5
275.408	111.5
275.64	116.5
275.872	109.5
276.104	106.5
276.335	104.5
276.567	109.5
276.799	110.5
277.031	126.5
277.262	102.5
277.494	111.5
277.726	111.5
277.957	110.5
278.189	109.5
278.421	120.5
278.652	109.5
278.884	104.5
279.115	115.5
279.347	109.5
279.579	118.5
279.81	96.5
280.042	112.5
280.273	94.5
280.505	113.5
280.736	108.5
280.968	117.5
281.199	114.5
281.431	101.5
281.662	119.5
281.894	108.5
282.125	109.5
282.356	128.5
282.588	113.5
282.819	101.5
283.051	105.5
283.282	120.5
283.513	120.5
283.745	124.5
283.976	126.5
284.207	104.5
284.439	107.5
284.67	107.5
284.901	113.5
285.132	121.5
285.364	106.5
285.595	124.5
285.826	118.5
286.057	115.5
286.288	109.5
286.52	115.5
286.751	124.5
286.982	132.5
287.213	130.5
287.444	129.5
287.675	121.5
287.906	129.5
288.138	124.5
288.369	121.5
288.6	121.5
288.831	110.5
289.062	141.5
289.293	108.5
289.524	122.5
289.755	123.5
289.986	120.5
290.217	121.5
290.448	109.5
290.679	133.5
290.91	131.5
291.141	121.5
291.371	118.5
291.602	129.5
291.833	117.5
292.064	119.5
292.295	114.5
292.526	132.5
292.757	115.5
292.987	118.5
293.218	121.5
293.449	124.5
293.68	115.5
293.91	114.5
294.141	130.5
294.372	95.5
294.603	124.5
294.833	130.5
295.064	117.5
295.295	125.5
295.525	110.5
295.756	131.5
295.987	116.5
296.217	137.5
296.448	131.5
296.679	122.5
296.909	118.5
297.14	134.5
297.37	104.5
297.601	129.5
297.831	128.5
298.062	125.5
298.292	104.5
298.523	127.5
298.753	126.5
298.984	142.5
299.214	118.5
299.445	132.5
299.675	129.5
299.905	131.5
300.136	115.5
300.366	113.5
300.597	119.5
300.827	125.5
301.057	119.5
301.288	132.5
301.518	120.5
301.748	120.5
301.979	164.5
302.209	133.5
302.439	128.5
302.669	119.5
302.9	124.5
303.13	133.5
303.36	131.5
303.59	134.5
303.82	127.5
304.051	142.5
304.281	124.5
304.511	121.5
304.741	135.5
304.971	128.5
305.201	134.5
305.431	133.5
305.661	115.5
305.891	127.5
306.121	113.5
306.352	119.5
306.582	117.5
306.812	132.5
307.042	118.5
307.272	125.5
307.502	131.5
307.731	141.5
307.961	128.5
308.191	137.5
308.421	132.5
308.651	115.5
308.881	137.5
309.111	130.5
309.341	134.5
309.571	135.5
309.8	117.5
310.03	143.5
310.26	126.5
310.49	121.5
310.72	119.5
310.949	121.5
311.179	116.5
311.409	118.5
311.639	122.5
311.868	128.5
312.098	134.5
312.328	132.5
312.557	143.5
312.787	125.5
313.017	131.5
313.246	134.5
313.476	117.5
313.706	141.5
313.935	140.5
314.165	126.5
314.394	130.5
314.624	131.5
314.853	115.5
315.083	131.5
315.312	133.5
315.542	114.5
315.771	125.5
316.001	140.5
316.23	132.5
316.46	130.5
316.689	132.5
316.919	128.5
317.148	141.5
317.377	130.5
317.607	136.5
317.836	115.5
318.065	135.5
318.295	114.5
318.524	129.5
318.753	119.5
318.983	124.5
319.212	129.5
319.441	127.5
319.67	135.5
319.9	130.5
320.129	137.5
320.358	132.5
320.587	143.5
320.816	118.5
321.046	131.5
321.275	130.5
321.504	140.5
321.733	138.5
321.962	119.5
322.191	131.5
322.42	126.5
322.649	149.5
322.878	127.5
323.108	132.5
323.337	131.5
323.566	126.5
323.795	112.5
324.024	133.5
324.253	114.5
324.482	137.5
324.71	125.5
324.939	138.5
325.168	130.5
325.397	137.5
325.626	137.5
325.855	129.5
326.084	127.5
326.313	130.5
326.542	128.5
326.77	144.5
326.999	128.5
327.228	126.5
327.457	122.5
327.686	140.5
327.914	119.5
328.143	145.5
328.372	143.5
328.6	135.5
328.829	126.5
329.058	136.5
329.287	129.5
329.515	127.5
329.744	130.5
329.972	130.5
330.201	144.5
330.43	133.5
330.658	137.5
330.887	133.5
331.115	149.5
331.344	156.5
331.572	142.5
331.801	124.5
332.03	132.5
332.258	152.5
332.486	146.5
332.715	153.5
332.943	151.5
333.172	159.5
333.4	157.5
333.629	152.5
333.857	145.5
334.085	158.5
334.314	163.5
334.542	154.5
334.771	146.5
334.999	134.5
335.227	142.5
335.455	142.5
335.684	153.5
335.912	159.5
336.14	140.5
336.369	129.5
336.597	149.5
336.825	136.5
337.053	152.5
337.281	156.5
337.51	146.5
337.738	147.5
337.966	145.5
338.194	149.5
338.422	147.5
338.65	145.5
338.878	136.5
339.106	132.5
339.334	149.5
339.562	142.5
339.79	132.5
340.018	122.5
340.246	136.5
340.474	135.5
340.702	140.5
340.93	144.5
341.158	141.5
341.386	149.5
341.614	135.5
341.842	148.5
342.07	137.5
342.298	124.5
342.526	121.5
342.754	156.5
342.981	131.5
343.209	146.5
343.437	164.5
343.665	145.5
343.893	154.5
344.12	156.5
344.348	141.5
344.576	125.5
344.804	146.5
345.031	154.5
345.259	149.5
345.487	145.5
345.714	129.5
345.942	133.5
346.17	130.5
346.397	136.5
346.625	116.5
346.853	142.5
347.08	143.5
347.308	147.5
347.535	146.5
347.763	136.5
347.99	134.5
348.218	124.5
348.445	126.5
348.673	128.5
348.9	146.5
349.128	144.5
349.355	143.5
349.583	129.5
349.81	135.5
350.037	114.5
350.265	124.5
350.492	118.5
350.72	119.5
350.947	135.5
351.174	129.5
351.402	113.5
351.629	132.5
351.856	139.5
352.083	121.5
352.311	128.5
352.538	127.5
352.765	130.5
352.992	154.5
353.22	126.5
353.447	138.5
353.674	150.5
353.901	150.5
354.128	123.5
354.355	126.5
354.583	133.5
354.81	146.5
355.037	126.5
355.264	159.5
355.491	144.5
355.718	138.5
355.945	136.5
356.172	123.5
356.399	141.5
356.626	122.5
356.853	135.5
357.08	134.5
357.307	140.5
357.534	125.5
357.761	122.5
357.988	133.5
358.215	139.5
358.441	124.5
358.668	120.5
358.895	129.5
359.122	114.5
359.349	139.5
359.576	124.5
359.802	122.5
360.029	130.5
360.256	131.5
360.483	128.5
360.709	118.5
360.936	147.5
361.163	133.5
361.39	127.5
361.616	126.5
361.843	127.5
362.07	129.5
362.296	121.5
362.523	140.5
362.749	146.5
362.976	147.5
363.203	156.5
363.429	142.5
363.656	132.5
363.882	130.5
364.109	144.5
364.335	143.5
364.562	141.5
364.788	144.5
365.015	130.5
365.241	122.5
365.468	149.5
365.694	138.5
365.92	134.5
366.147	142.5
366.373	133.5
366.599	136.5
366.826	142.5
367.052	125.5
367.278	134.5
367.505	151.5
367.731	140.5
367.957	126.5
368.184	140.5
368.41	127.5
368.636	144.5
368.862	132.5
369.089	136.5
369.315	126.5
369.541	135.5
369.767	141.5
369.993	134.5
370.219	132.5
370.445	144.5
370.672	133.5
370.898	137.5
371.124	140.5
371.35	148.5
371.576	144.5
371.802	157.5
372.028	140.5
372.254	132.5
372.48	136.5
372.706	126.5
372.932	145.5
373.158	134.5
373.384	141.5
373.61	141.5
373.835	157.5
374.061	140.5
374.287	137.5
374.513	145.5
374.739	133.5
374.965	140.5
375.191	147.5
375.416	166.5
375.642	131.5
375.868	150.5
376.094	142.5
376.319	121.5
376.545	135.5
376.771	133.5
376.997	134.5
377.222	134.5
377.448	156.5
377.674	140.5
377.899	159.5
378.125	129.5
378.35	136.5
378.576	145.5
378.802	128.5
379.027	137.5
379.253	135.5
379.478	154.5
379.704	139.5
379.929	147.5
380.155	144.5
380.38	146.5
380.606	139.5
380.831	146.5
381.057	162.5
381.282	141.5
381.507	143.5
381.733	156.5
381.958	133.5
382.184	136.5
382.409	130.5
382.634	146.5
382.86	146.5
383.085	153.5
383.31	174.5
383.535	155.5
383.761	156.5
383.986	168.5
384.211	146.5
384.436	151.5
384.662	156.5
384.887	156.5
385.112	156.5
385.337	164.5
385.562	152.5
385.787	134.5
386.013	163.5
386.238	152.5
386.463	152.5
386.688	187.5
386.913	145.5
387.138	152.5
387.363	158.5
387.588	150.5
387.813	157.5
388.038	161.5
388.263	157.5
388.488	166.5
388.713	147.5
388.938	140.5
389.163	162.5
389.387	174.5
389.612	175.5
389.837	158.5
390.062	160.5
390.287	153.5
390.512	155.5
390.736	160.5
390.961	148.5
391.186	172.5
391.411	158.5
391.636	173.5
391.86	176.5
392.085	167.5
392.31	149.5
392.534	163.5
392.759	159.5
392.984	177.5
393.208	178.5
393.433	181.5
393.658	181.5
393.882	162.5
394.107	166.5
394.331	156.5
394.556	174.5
394.78	177.5
395.005	168.5
395.229	167.5
395.454	163.5
395.678	166.5
395.903	160.5
396.127	163.5
396.352	177.5
396.576	159.5
396.801	168.5
397.025	181.5
397.249	173.5
397.474	180.5
397.698	162.5
397.922	169.5
398.147	174.5
398.371	168.5
398.595	182.5
398.82	183.5
399.044	192.5
399.268	220.5
399.492	239.5
399.717	247.5
399.941	236.5
400.165	228.5
400.389	179.5
400.613	172.5
400.837	170.5
401.062	183.5
401.286	171.5
401.51	181.5
401.734	173.5
401.958	176.5
402.182	176.5
402.406	192.5
402.63	188.5
402.854	191.5
403.078	185.5
403.302	180.5
403.526	216.5
403.75	218.5
403.974	182.5
404.198	199.5
404.422	191.5
404.645	188.5
404.869	181.5
405.093	189.5
405.317	191.5
405.541	189.5
405.765	180.5
405.988	177.5
406.212	171.5
406.436	205.5
406.66	204.5
406.883	196.5
407.107	212.5
407.331	208.5
407.555	200.5
407.778	194.5
408.002	198.5
408.226	195.5
408.449	186.5
408.673	192.5
408.896	194.5
409.12	188.5
409.344	213.5
409.567	196.5
409.791	190.5
410.014	199.5
410.238	182.5
410.461	191.5
410.685	197.5
410.908	207.5
411.132	198.5
411.355	172.5
411.578	193.5
411.802	193.5
412.025	181.5
412.249	187.5
412.472	176.5
412.695	177.5
412.919	167.5
413.142	180.5
413.365	190.5
413.589	170.5
413.812	184.5
414.035	172.5
414.258	180.5
414.482	182.5
414.705	191.5
414.928	175.5
415.151	192.5
415.374	177.5
415.597	190.5
415.821	175.5
416.044	165.5
416.267	160.5
416.49	174.5
416.713	171.5
416.936	172.5
417.159	182.5
417.382	167.5
417.605	165.5
417.828	184.5
418.051	169.5
418.274	192.5
418.497	199.5
418.72	174.5
418.943	178.5
419.166	206.5
419.389	189.5
419.611	182.5
419.834	185.5
420.057	182.5
420.28	190.5
420.503	180.5
420.726	178.5
420.948	199.5
421.171	168.5
421.394	180.5
421.617	163.5
421.839	180.5
422.062	176.5
422.285	193.5
422.507	185.5
422.73	198.5
422.953	168.5
423.175	177.5
423.398	178.5
423.621	169.5
423.843	186.5
424.066	184.5
424.288	173.5
424.511	185.5
424.733	199.5
424.956	183.5
425.178	189.5
425.401	176.5
425.623	179.5
425.846	176.5
426.068	169.5
426.291	184.5
426.513	167.5
426.735	183.5
426.958	170.5
427.18	172.5
427.402	184.5
427.625	179.5
427.847	187.5
428.069	172.5
428.292	164.5
428.514	176.5
428.736	166.5
428.958	156.5
429.181	166.5
429.403	166.5
429.625	181.5
429.847	165.5
430.069	174.5
430.292	173.5
430.514	172.5
430.736	171.5
430.958	170.5
431.18	156.5
431.402	169.5
431.624	168.5
431.846	166.5
432.068	169.5
432.29	161.5
432.512	176.5
432.734	162.5
432.956	161.5
433.178	181.5
433.4	174.5
433.622	170.5
433.844	170.5
434.066	158.5
434.287	176.5
434.509	180.5
434.731	173.5
434.953	176.5
435.175	188.5
435.397	182.5
435.618	174.5
435.84	160.5
436.062	166.5
436.284	176.5
436.505	170.5
436.727	184.5
436.949	172.5
437.17	162.5
437.392	153.5
437.614	152.5
437.835	171.5
438.057	142.5
438.278	169.5
438.5	170.5
438.721	166.5
438.943	166.5
439.165	146.5
439.386	178.5
439.608	159.5
439.829	174.5
440.05	186.5
440.272	172.5
440.493	169.5
440.715	164.5
440.936	175.5
441.158	195.5
441.379	170.5
441.6	172.5
441.822	174.5
442.043	191.5
442.264	190.5
442.486	195.5
442.707	176.5
442.928	173.5
443.149	175.5
443.371	204.5
443.592	178.5
443.813	198.5
444.034	194.5
444.255	188.5
444.476	175.5
444.698	202.5
444.919	204.5
445.14	434.5
445.361	308.5
445.582	178.5
445.803	178.5
446.024	170.5
446.245	191.5
446.466	159.5
446.687	180.5
446.908	168.5
447.129	188.5
447.35	167.5
447.571	169.5
447.792	160.5
448.013	167.5
448.234	177.5
448.455	164.5
448.675	169.5
448.896	156.5
449.117	142.5
449.338	177.5
449.559	160.5
449.779	157.5
450	163.5
450.221	170.5
450.442	165.5
450.662	162.5
450.883	168.5
451.104	173.5
451.324	165.5
451.545	176.5
451.766	147.5
451.986	168.5
452.207	172.5
452.428	175.5
452.648	162.5
452.869	177.5
453.089	158.5
453.31	158.5
453.53	147.5
453.751	158.5
453.971	161.5
454.192	167.5
454.412	156.5
454.633	164.5
454.853	147.5
455.073	155.5
455.294	148.5
455.514	157.5
455.734	146.5
455.955	157.5
456.175	146.5
456.395	153.5
456.616	154.5
456.836	152.5
457.056	168.5
457.276	146.5
457.497	147.5
457.717	158.5
457.937	149.5
458.157	146.5
458.377	153.5
458.598	157.5
458.818	149.5
459.038	171.5
459.258	160.5
459.478	180.5
459.698	162.5
459.918	174.5
460.138	159.5
460.358	178.5
460.578	189.5
460.798	181.5
461.018	201.5
461.238	174.5
461.458	192.5
461.678	185.5
461.898	198.5
462.118	185.5
462.338	193.5
462.558	206.5
462.777	198.5
462.997	224.5
463.217	223.5
463.437	235.5
463.657	200.5
463.876	204.5
464.096	204.5
464.316	213.5
464.536	197.5
464.755	209.5
464.975	200.5
465.195	194.5
465.414	193.5
465.634	171.5
465.854	188.5
466.073	174.5
466.293	178.5
466.512	159.5
466.732	169.5
466.951	169.5
467.171	158.5
467.391	170.5
467.61	169.5
467.829	164.5
468.049	171.5
468.268	152.5
468.488	156.5
468.707	157.5
468.927	168.5
469.146	174.5
469.365	174.5
469.585	169.5
469.804	172.5
470.023	169.5
470.243	176.5
470.462	164.5
470.681	184.5
470.901	164.5
471.12	158.5
471.339	170.5
471.558	169.5
471.777	169.5
471.997	162.5
472.216	160.5
472.435	165.5
472.654	155.5
472.873	173.5
473.092	149.5
473.311	144.5
473.53	162.5
473.749	166.5
473.968	181.5
474.187	155.5
474.406	169.5
474.625	154.5
474.844	168.5
475.063	147.5
475.282	170.5
475.501	174.5
475.72	173.5
475.939	169.5
476.158	159.5
476.377	160.5
476.596	173.5
476.814	171.5
477.033	158.5
477.252	178.5
477.471	180.5
477.69	172.5
477.908	175.5
478.127	183.5
478.346	164.5
478.564	164.5
478.783	166.5
479.002	194.5
479.22	180.5
479.439	189.5
479.658	180.5
479.876	182.5
480.095	187.5
480.313	190.5
480.532	184.5
480.751	192.5
480.969	190.5
481.188	174.5
481.406	166.5
481.624	180.5
481.843	176.5
482.061	191.5
482.28	179.5
482.498	179.5
482.717	184.5
482.935	180.5
483.153	176.5
483.372	168.5
483.59	174.5
483.808	168.5
484.027	175.5
484.245	175.5
484.463	181.5
484.681	187.5
484.9	184.5
485.118	166.5
485.336	167.5
485.554	184.5
485.772	179.5
485.99	173.5
486.209	184.5
486.427	194.5
486.645	168.5
486.863	188.5
487.081	183.5
487.299	183.5
487.517	187.5
487.735	174.5
487.953	202.5
488.171	173.5
488.389	186.5
488.607	175.5
488.825	168.5
489.043	169.5
489.261	171.5
489.479	171.5
489.696	184.5
489.914	174.5
490.132	174.5
490.35	189.5
490.568	181.5
490.786	184.5
491.003	182.5
491.221	167.5
491.439	181.5
491.657	180.5
491.874	175.5
492.092	190.5
492.31	200.5
492.527	175.5
492.745	178.5
492.963	198.5
493.18	184.5
493.398	187.5
493.615	188.5
493.833	179.5
494.05	175.5
494.268	180.5
494.485	186.5
494.703	195.5
494.92	189.5
495.138	189.5
495.355	193.5
495.573	191.5
495.79	173.5
496.008	202.5
496.225	202.5
496.442	206.5
496.66	201.5
496.877	193.5
497.094	205.5
497.312	189.5
497.529	211.5
497.746	196.5
497.963	202.5
498.181	223.5
498.398	232.5
498.615	244.5
498.832	237.5
499.049	257.5
499.267	278.5
499.484	268.5
499.701	302.5
499.918	345.5
500.135	382.5
500.352	426.5
500.569	424.5
500.786	426.5
501.003	400.5
501.22	313.5
501.437	317.5
501.654	274.5
501.871	250.5
502.088	238.5
502.305	241.5
502.522	224.5
502.739	231.5
502.956	225.5
503.172	209.5
503.389	213.5
503.606	197.5
503.823	204.5
504.04	204.5
504.256	208.5
504.473	210.5
504.69	215.5
504.907	228.5
505.123	195.5
505.34	186.5
505.557	180.5
505.773	178.5
505.99	185.5
506.207	185.5
506.423	186.5
506.64	183.5
506.856	180.5
507.073	184.5
507.289	179.5
507.506	188.5
507.722	190.5
507.939	183.5
508.155	169.5
508.372	162.5
508.588	154.5
508.805	173.5
509.021	163.5
509.238	173.5
509.454	165.5
509.67	153.5
509.887	161.5
510.103	147.5
510.319	176.5
510.536	164.5
510.752	169.5
510.968	163.5
511.184	153.5
511.401	148.5
511.617	156.5
511.833	160.5
512.049	164.5
512.265	159.5
512.481	182.5
512.698	160.5
512.914	144.5
513.13	154.5
513.346	161.5
513.562	180.5
513.778	176.5
513.994	156.5
514.21	173.5
514.426	161.5
514.642	169.5
514.858	185.5
515.074	182.5
515.29	166.5
515.506	173.5
515.721	166.5
515.937	180.5
516.153	166.5
516.369	164.5
516.585	184.5
516.801	175.5
517.016	185.5
517.232	195.5
517.448	198.5
517.664	223.5
517.879	218.5
518.095	209.5
518.311	213.5
518.527	183.5
518.742	182.5
518.958	201.5
519.173	201.5
519.389	185.5
519.605	167.5
519.82	159.5
520.036	174.5
520.251	154.5
520.467	173.5
520.682	169.5
520.898	160.5
521.113	164.5
521.329	161.5
521.544	154.5
521.76	157.5
521.975	157.5
522.19	159.5
522.406	159.5
522.621	162.5
522.836	169.5
