Data from SampD_HRD10591_00040.txt Node
Date: Mon Jan 19 11:41:34 EST 2026
User: Yrep
Spectrometer: HR+D1059
Trigger mode: 0
Integration Time (sec): 3.443000E-1
Scans to average: 1
Electric dark correction enabled: true
Nonlinearity correction enabled: false
Boxcar width: 0
XAxis mode: Wavelengths
Number of Pixels in Spectrum: 2048
>>>>>Begin Spectral Data<<<<<
223.165	-10.12
223.4	-10.12
223.635	-10.12
223.869	-9.12
224.104	-16.12
224.338	-11.12
224.573	-24.12
224.808	-7.12
225.042	-2.12
225.277	-11.12
225.511	-22.12
225.746	-2.12
225.98	14.88
226.215	16.88
226.449	14.88
226.683	7.88
226.918	24.88
227.152	35.88
227.387	24.88
227.621	54.88
227.856	54.88
228.09	43.88
228.324	48.88
228.559	63.88
228.793	79.88
229.027	83.88
229.262	84.88
229.496	70.88
229.73	72.88
229.964	78.88
230.199	92.88
230.433	82.88
230.667	83.88
230.901	86.88
231.136	75.88
231.37	84.88
231.604	76.88
231.838	91.88
232.072	92.88
232.306	75.88
232.541	96.88
232.775	74.88
233.009	92.88
233.243	87.88
233.477	91.88
233.711	89.88
233.945	82.88
234.179	89.88
234.413	110.88
234.647	99.88
234.881	79.88
235.115	79.88
235.349	79.88
235.583	83.88
235.817	88.88
236.051	84.88
236.285	83.88
236.519	85.88
236.753	84.88
236.987	88.88
237.221	84.88
237.455	73.88
237.689	86.88
237.922	91.88
238.156	80.88
238.39	81.88
238.624	87.88
238.858	78.88
239.091	72.88
239.325	90.88
239.559	91.88
239.793	91.88
240.027	96.88
240.26	80.88
240.494	77.88
240.728	87.88
240.961	88.88
241.195	83.88
241.429	87.88
241.662	88.88
241.896	87.88
242.13	77.88
242.363	85.88
242.597	87.88
242.83	80.88
243.064	77.88
243.298	89.88
243.531	87.88
243.765	83.88
243.998	87.88
244.232	79.88
244.465	86.88
244.699	84.88
244.932	95.88
245.166	97.88
245.399	75.88
245.633	102.88
245.866	74.88
246.099	85.88
246.333	89.88
246.566	83.88
246.8	82.88
247.033	85.88
247.266	92.88
247.5	81.88
247.733	102.88
247.966	79.88
248.2	77.88
248.433	99.88
248.666	75.88
248.899	80.88
249.133	85.88
249.366	103.88
249.599	93.88
249.832	95.88
250.066	109.88
250.299	82.88
250.532	89.88
250.765	84.88
250.998	79.88
251.231	95.88
251.465	92.88
251.698	80.88
251.931	88.88
252.164	101.88
252.397	89.88
252.63	82.88
252.863	98.88
253.096	94.88
253.329	92.88
253.562	85.88
253.795	89.88
254.028	101.88
254.261	94.88
254.494	72.88
254.727	104.88
254.96	85.88
255.193	95.88
255.426	83.88
255.659	106.88
255.892	92.88
256.124	94.88
256.357	92.88
256.59	92.88
256.823	87.88
257.056	99.88
257.289	92.88
257.521	106.88
257.754	85.88
257.987	95.88
258.22	97.88
258.452	107.88
258.685	88.88
258.918	96.88
259.151	85.88
259.383	88.88
259.616	94.88
259.849	95.88
260.081	106.88
260.314	95.88
260.547	99.88
260.779	94.88
261.012	90.88
261.244	99.88
261.477	120.88
261.71	91.88
261.942	109.88
262.175	107.88
262.407	101.88
262.64	90.88
262.872	91.88
263.105	101.88
263.337	107.88
263.57	99.88
263.802	99.88
264.035	93.88
264.267	99.88
264.499	96.88
264.732	96.88
264.964	92.88
265.197	120.88
265.429	107.88
265.661	95.88
265.894	100.88
266.126	110.88
266.358	106.88
266.591	117.88
266.823	103.88
267.055	91.88
267.287	108.88
267.52	109.88
267.752	91.88
267.984	103.88
268.216	100.88
268.448	110.88
268.681	105.88
268.913	114.88
269.145	114.88
269.377	106.88
269.609	94.88
269.841	109.88
270.073	99.88
270.306	87.88
270.538	89.88
270.77	89.88
271.002	108.88
271.234	112.88
271.466	112.88
271.698	120.88
271.93	100.88
272.162	118.88
272.394	97.88
272.626	103.88
272.858	103.88
273.09	117.88
273.322	99.88
273.553	107.88
273.785	126.88
274.017	102.88
274.249	109.88
274.481	108.88
274.713	96.88
274.945	108.88
275.176	94.88
275.408	105.88
275.64	118.88
275.872	114.88
276.104	89.88
276.335	116.88
276.567	96.88
276.799	101.88
277.031	99.88
277.262	101.88
277.494	111.88
277.726	107.88
277.957	107.88
278.189	108.88
278.421	106.88
278.652	105.88
278.884	104.88
279.115	107.88
279.347	103.88
279.579	117.88
279.81	112.88
280.042	118.88
280.273	115.88
280.505	134.88
280.736	128.88
280.968	125.88
281.199	116.88
281.431	109.88
281.662	121.88
281.894	120.88
282.125	124.88
282.356	111.88
282.588	113.88
282.819	111.88
283.051	115.88
283.282	98.88
283.513	120.88
283.745	118.88
283.976	119.88
284.207	117.88
284.439	120.88
284.67	118.88
284.901	112.88
285.132	116.88
285.364	101.88
285.595	118.88
285.826	118.88
286.057	125.88
286.288	120.88
286.52	121.88
286.751	115.88
286.982	120.88
287.213	105.88
287.444	115.88
287.675	111.88
287.906	112.88
288.138	124.88
288.369	121.88
288.6	110.88
288.831	104.88
289.062	112.88
289.293	118.88
289.524	111.88
289.755	118.88
289.986	115.88
290.217	118.88
290.448	113.88
290.679	115.88
290.91	116.88
291.141	112.88
291.371	119.88
291.602	111.88
291.833	125.88
292.064	139.88
292.295	122.88
292.526	132.88
292.757	121.88
292.987	115.88
293.218	110.88
293.449	123.88
293.68	125.88
293.91	111.88
294.141	139.88
294.372	124.88
294.603	111.88
294.833	126.88
295.064	114.88
295.295	104.88
295.525	112.88
295.756	126.88
295.987	123.88
296.217	133.88
296.448	115.88
296.679	114.88
296.909	126.88
297.14	123.88
297.37	120.88
297.601	126.88
297.831	109.88
298.062	129.88
298.292	131.88
298.523	126.88
298.753	114.88
298.984	129.88
299.214	120.88
299.445	126.88
299.675	123.88
299.905	120.88
300.136	115.88
300.366	115.88
300.597	133.88
300.827	129.88
301.057	122.88
301.288	134.88
301.518	109.88
301.748	120.88
301.979	165.88
302.209	118.88
302.439	115.88
302.669	124.88
302.9	128.88
303.13	124.88
303.36	133.88
303.59	130.88
303.82	125.88
304.051	145.88
304.281	129.88
304.511	130.88
304.741	132.88
304.971	127.88
305.201	135.88
305.431	135.88
305.661	129.88
305.891	148.88
306.121	141.88
306.352	143.88
306.582	125.88
306.812	141.88
307.042	124.88
307.272	135.88
307.502	131.88
307.731	121.88
307.961	114.88
308.191	119.88
308.421	125.88
308.651	117.88
308.881	131.88
309.111	117.88
309.341	129.88
309.571	131.88
309.8	124.88
310.03	123.88
310.26	116.88
310.49	139.88
310.72	132.88
310.949	136.88
311.179	114.88
311.409	128.88
311.639	120.88
311.868	127.88
312.098	139.88
312.328	148.88
312.557	145.88
312.787	123.88
313.017	123.88
313.246	134.88
313.476	128.88
313.706	117.88
313.935	137.88
314.165	118.88
314.394	121.88
314.624	131.88
314.853	135.88
315.083	128.88
315.312	132.88
315.542	125.88
315.771	143.88
316.001	119.88
316.23	137.88
316.46	126.88
316.689	151.88
316.919	124.88
317.148	127.88
317.377	142.88
317.607	116.88
317.836	117.88
318.065	141.88
318.295	111.88
318.524	130.88
318.753	119.88
318.983	114.88
319.212	133.88
319.441	112.88
319.67	109.88
319.9	120.88
320.129	119.88
320.358	136.88
320.587	127.88
320.816	128.88
321.046	116.88
321.275	147.88
321.504	126.88
321.733	128.88
321.962	119.88
322.191	131.88
322.42	127.88
322.649	123.88
322.878	127.88
323.108	119.88
323.337	125.88
323.566	127.88
323.795	132.88
324.024	143.88
324.253	134.88
324.482	117.88
324.71	137.88
324.939	139.88
325.168	118.88
325.397	124.88
325.626	130.88
325.855	125.88
326.084	141.88
326.313	141.88
326.542	129.88
326.77	125.88
326.999	140.88
327.228	131.88
327.457	136.88
327.686	131.88
327.914	136.88
328.143	132.88
328.372	121.88
328.6	132.88
328.829	136.88
329.058	126.88
329.287	146.88
329.515	127.88
329.744	155.88
329.972	140.88
330.201	145.88
330.43	127.88
330.658	128.88
330.887	139.88
331.115	137.88
331.344	133.88
331.572	149.88
331.801	157.88
332.03	143.88
332.258	135.88
332.486	155.88
332.715	149.88
332.943	141.88
333.172	158.88
333.4	159.88
333.629	165.88
333.857	155.88
334.085	156.88
334.314	155.88
334.542	143.88
334.771	150.88
334.999	126.88
335.227	148.88
335.455	148.88
335.684	159.88
335.912	156.88
336.14	158.88
336.369	139.88
336.597	167.88
336.825	132.88
337.053	141.88
337.281	143.88
337.51	129.88
337.738	138.88
337.966	126.88
338.194	132.88
338.422	136.88
338.65	141.88
338.878	142.88
339.106	144.88
339.334	143.88
339.562	136.88
339.79	150.88
340.018	137.88
340.246	133.88
340.474	142.88
340.702	138.88
340.93	131.88
341.158	154.88
341.386	146.88
341.614	148.88
341.842	137.88
342.07	151.88
342.298	152.88
342.526	144.88
342.754	150.88
342.981	128.88
343.209	111.88
343.437	163.88
343.665	151.88
343.893	155.88
344.12	176.88
344.348	142.88
344.576	132.88
344.804	155.88
345.031	143.88
345.259	141.88
345.487	157.88
345.714	137.88
345.942	135.88
346.17	129.88
346.397	141.88
346.625	130.88
346.853	125.88
347.08	133.88
347.308	136.88
347.535	125.88
347.763	136.88
347.99	153.88
348.218	138.88
348.445	141.88
348.673	119.88
348.9	129.88
349.128	142.88
349.355	132.88
349.583	142.88
349.81	151.88
350.037	137.88
350.265	124.88
350.492	142.88
350.72	131.88
350.947	127.88
351.174	144.88
351.402	143.88
351.629	126.88
351.856	133.88
352.083	123.88
352.311	131.88
352.538	131.88
352.765	125.88
352.992	140.88
353.22	129.88
353.447	129.88
353.674	127.88
353.901	143.88
354.128	134.88
354.355	127.88
354.583	128.88
354.81	142.88
355.037	141.88
355.264	141.88
355.491	130.88
355.718	126.88
355.945	149.88
356.172	141.88
356.399	131.88
356.626	128.88
356.853	134.88
357.08	136.88
357.307	159.88
357.534	128.88
357.761	141.88
357.988	125.88
358.215	147.88
358.441	132.88
358.668	119.88
358.895	127.88
359.122	139.88
359.349	152.88
359.576	139.88
359.802	123.88
360.029	124.88
360.256	130.88
360.483	132.88
360.709	116.88
360.936	154.88
361.163	133.88
361.39	127.88
361.616	142.88
361.843	131.88
362.07	133.88
362.296	128.88
362.523	139.88
362.749	132.88
362.976	117.88
363.203	132.88
363.429	142.88
363.656	137.88
363.882	131.88
364.109	135.88
364.335	130.88
364.562	132.88
364.788	139.88
365.015	133.88
365.241	131.88
365.468	132.88
365.694	135.88
365.92	136.88
366.147	137.88
366.373	129.88
366.599	145.88
366.826	155.88
367.052	148.88
367.278	160.88
367.505	135.88
367.731	155.88
367.957	137.88
368.184	131.88
368.41	136.88
368.636	141.88
368.862	136.88
369.089	138.88
369.315	134.88
369.541	155.88
369.767	169.88
369.993	137.88
370.219	132.88
370.445	132.88
370.672	127.88
370.898	134.88
371.124	149.88
371.35	135.88
371.576	126.88
371.802	153.88
372.028	132.88
372.254	116.88
372.48	145.88
372.706	132.88
372.932	134.88
373.158	156.88
373.384	165.88
373.61	154.88
373.835	144.88
374.061	134.88
374.287	130.88
374.513	156.88
374.739	134.88
374.965	152.88
375.191	142.88
375.416	157.88
375.642	130.88
375.868	127.88
376.094	126.88
376.319	142.88
376.545	142.88
376.771	128.88
376.997	159.88
377.222	145.88
377.448	127.88
377.674	141.88
377.899	134.88
378.125	151.88
378.35	151.88
378.576	132.88
378.802	127.88
379.027	146.88
379.253	155.88
379.478	129.88
379.704	149.88
379.929	145.88
380.155	139.88
380.38	148.88
380.606	135.88
380.831	143.88
381.057	163.88
381.282	141.88
381.507	139.88
381.733	152.88
381.958	151.88
382.184	128.88
382.409	154.88
382.634	162.88
382.86	135.88
383.085	164.88
383.31	141.88
383.535	166.88
383.761	155.88
383.986	142.88
384.211	129.88
384.436	134.88
384.662	140.88
384.887	163.88
385.112	163.88
385.337	162.88
385.562	163.88
385.787	155.88
386.013	156.88
386.238	174.88
386.463	143.88
386.688	168.88
386.913	165.88
387.138	143.88
387.363	164.88
387.588	155.88
387.813	161.88
388.038	157.88
388.263	164.88
388.488	142.88
388.713	156.88
388.938	157.88
389.163	155.88
389.387	159.88
389.612	164.88
389.837	162.88
390.062	158.88
390.287	165.88
390.512	157.88
390.736	140.88
390.961	156.88
391.186	155.88
391.411	154.88
391.636	161.88
391.86	158.88
392.085	184.88
392.31	157.88
392.534	167.88
392.759	159.88
392.984	176.88
393.208	179.88
393.433	162.88
393.658	174.88
393.882	175.88
394.107	155.88
394.331	172.88
394.556	155.88
394.78	169.88
395.005	173.88
395.229	175.88
395.454	178.88
395.678	169.88
395.903	196.88
396.127	161.88
396.352	160.88
396.576	152.88
396.801	170.88
397.025	168.88
397.249	168.88
397.474	181.88
397.698	183.88
397.922	165.88
398.147	177.88
398.371	168.88
398.595	172.88
398.82	173.88
399.044	177.88
399.268	206.88
399.492	224.88
399.717	243.88
399.941	226.88
400.165	209.88
400.389	191.88
400.613	179.88
400.837	161.88
401.062	179.88
401.286	184.88
401.51	172.88
401.734	163.88
401.958	169.88
402.182	179.88
402.406	183.88
402.63	184.88
402.854	185.88
403.078	199.88
403.302	195.88
403.526	213.88
403.75	205.88
403.974	207.88
404.198	206.88
404.422	180.88
404.645	175.88
404.869	188.88
405.093	198.88
405.317	187.88
405.541	195.88
405.765	187.88
405.988	178.88
406.212	204.88
406.436	183.88
406.66	187.88
406.883	187.88
407.107	212.88
407.331	207.88
407.555	208.88
407.778	204.88
408.002	200.88
408.226	210.88
408.449	207.88
408.673	192.88
408.896	201.88
409.12	176.88
409.344	189.88
409.567	189.88
409.791	198.88
410.014	195.88
410.238	195.88
410.461	182.88
410.685	205.88
410.908	185.88
411.132	197.88
411.355	181.88
411.578	188.88
411.802	182.88
412.025	182.88
412.249	175.88
412.472	169.88
412.695	167.88
412.919	182.88
413.142	188.88
413.365	177.88
413.589	179.88
413.812	197.88
414.035	174.88
414.258	172.88
414.482	175.88
414.705	187.88
414.928	192.88
415.151	185.88
415.374	165.88
415.597	163.88
415.821	179.88
416.044	180.88
416.267	165.88
416.49	173.88
416.713	185.88
416.936	177.88
417.159	163.88
417.382	187.88
417.605	184.88
417.828	183.88
418.051	185.88
418.274	189.88
418.497	187.88
418.72	186.88
418.943	192.88
419.166	177.88
419.389	197.88
419.611	193.88
419.834	182.88
420.057	195.88
420.28	174.88
420.503	177.88
420.726	184.88
420.948	172.88
421.171	182.88
421.394	177.88
421.617	187.88
421.839	173.88
422.062	172.88
422.285	180.88
422.507	184.88
422.73	199.88
422.953	185.88
423.175	183.88
423.398	171.88
423.621	171.88
423.843	195.88
424.066	184.88
424.288	199.88
424.511	190.88
424.733	192.88
424.956	193.88
425.178	181.88
425.401	170.88
425.623	186.88
425.846	195.88
426.068	181.88
426.291	179.88
426.513	172.88
426.735	166.88
426.958	183.88
427.18	166.88
427.402	162.88
427.625	172.88
427.847	176.88
428.069	178.88
428.292	165.88
428.514	184.88
428.736	157.88
428.958	173.88
429.181	162.88
429.403	159.88
429.625	172.88
429.847	150.88
430.069	165.88
430.292	163.88
430.514	165.88
430.736	174.88
430.958	164.88
431.18	171.88
431.402	156.88
431.624	176.88
431.846	163.88
432.068	163.88
432.29	166.88
432.512	180.88
432.734	163.88
432.956	179.88
433.178	181.88
433.4	186.88
433.622	182.88
433.844	173.88
434.066	179.88
434.287	167.88
434.509	179.88
434.731	179.88
434.953	188.88
435.175	167.88
435.397	175.88
435.618	176.88
435.84	156.88
436.062	172.88
436.284	168.88
436.505	180.88
436.727	163.88
436.949	167.88
437.17	174.88
437.392	160.88
437.614	165.88
437.835	168.88
438.057	161.88
438.278	153.88
438.5	181.88
438.721	165.88
438.943	173.88
439.165	169.88
439.386	184.88
439.608	164.88
439.829	165.88
440.05	187.88
440.272	168.88
440.493	168.88
440.715	196.88
440.936	182.88
441.158	185.88
441.379	183.88
441.6	198.88
441.822	175.88
442.043	191.88
442.264	174.88
442.486	180.88
442.707	174.88
442.928	165.88
443.149	190.88
443.371	195.88
443.592	189.88
443.813	186.88
444.034	197.88
444.255	187.88
444.476	190.88
444.698	207.88
444.919	199.88
445.14	440.88
445.361	297.88
445.582	195.88
445.803	171.88
446.024	155.88
446.245	181.88
446.466	188.88
446.687	155.88
446.908	169.88
447.129	172.88
447.35	168.88
447.571	173.88
447.792	176.88
448.013	158.88
448.234	148.88
448.455	162.88
448.675	147.88
448.896	163.88
449.117	161.88
449.338	160.88
449.559	173.88
449.779	167.88
450	164.88
450.221	159.88
450.442	154.88
450.662	160.88
450.883	178.88
451.104	181.88
451.324	160.88
451.545	164.88
451.766	153.88
451.986	148.88
452.207	164.88
452.428	158.88
452.648	165.88
452.869	160.88
453.089	146.88
453.31	182.88
453.53	163.88
453.751	155.88
453.971	151.88
454.192	163.88
454.412	141.88
454.633	166.88
454.853	163.88
455.073	158.88
455.294	146.88
455.514	156.88
455.734	151.88
455.955	137.88
456.175	157.88
456.395	161.88
456.616	161.88
456.836	167.88
457.056	155.88
457.276	157.88
457.497	145.88
457.717	163.88
457.937	160.88
458.157	144.88
458.377	144.88
458.598	156.88
458.818	156.88
459.038	156.88
459.258	158.88
459.478	178.88
459.698	167.88
459.918	175.88
460.138	185.88
460.358	206.88
460.578	204.88
460.798	182.88
461.018	179.88
461.238	188.88
461.458	196.88
461.678	208.88
461.898	188.88
462.118	186.88
462.338	195.88
462.558	193.88
462.777	191.88
462.997	227.88
463.217	214.88
463.437	222.88
463.657	212.88
463.876	192.88
464.096	188.88
464.316	206.88
464.536	211.88
464.755	189.88
464.975	188.88
465.195	183.88
465.414	193.88
465.634	193.88
465.854	180.88
466.073	173.88
466.293	171.88
466.512	189.88
466.732	176.88
466.951	169.88
467.171	157.88
467.391	178.88
467.61	155.88
467.829	167.88
468.049	153.88
468.268	167.88
468.488	165.88
468.707	159.88
468.927	166.88
469.146	158.88
469.365	168.88
469.585	178.88
469.804	175.88
470.023	165.88
470.243	163.88
470.462	165.88
470.681	167.88
470.901	181.88
471.12	151.88
471.339	161.88
471.558	174.88
471.777	163.88
471.997	151.88
472.216	155.88
472.435	148.88
472.654	157.88
472.873	183.88
473.092	176.88
473.311	175.88
473.53	164.88
473.749	159.88
473.968	165.88
474.187	150.88
474.406	134.88
474.625	167.88
474.844	152.88
475.063	167.88
475.282	158.88
475.501	156.88
475.72	165.88
475.939	182.88
476.158	155.88
476.377	160.88
476.596	167.88
476.814	150.88
477.033	151.88
477.252	162.88
477.471	165.88
477.69	158.88
477.908	179.88
478.127	198.88
478.346	170.88
478.564	180.88
478.783	176.88
479.002	176.88
479.22	184.88
479.439	190.88
479.658	194.88
479.876	187.88
480.095	180.88
480.313	205.88
480.532	195.88
480.751	207.88
480.969	180.88
481.188	170.88
481.406	171.88
481.624	187.88
481.843	183.88
482.061	174.88
482.28	161.88
482.498	166.88
482.717	161.88
482.935	184.88
483.153	179.88
483.372	166.88
483.59	175.88
483.808	174.88
484.027	176.88
484.245	186.88
484.463	179.88
484.681	204.88
484.9	179.88
485.118	178.88
485.336	179.88
485.554	181.88
485.772	176.88
485.99	169.88
486.209	167.88
486.427	155.88
486.645	197.88
486.863	177.88
487.081	173.88
487.299	181.88
487.517	192.88
487.735	180.88
487.953	186.88
488.171	193.88
488.389	181.88
488.607	172.88
488.825	177.88
489.043	183.88
489.261	176.88
489.479	177.88
489.696	169.88
489.914	180.88
490.132	178.88
490.35	176.88
490.568	187.88
490.786	184.88
491.003	182.88
491.221	183.88
491.439	185.88
491.657	169.88
491.874	197.88
492.092	180.88
492.31	203.88
492.527	183.88
492.745	196.88
492.963	203.88
493.18	189.88
493.398	190.88
493.615	197.88
493.833	200.88
494.05	195.88
494.268	189.88
494.485	179.88
494.703	191.88
494.92	200.88
495.138	175.88
495.355	195.88
495.573	159.88
495.79	166.88
496.008	214.88
496.225	191.88
496.442	198.88
496.66	214.88
496.877	195.88
497.094	211.88
497.312	196.88
497.529	191.88
497.746	187.88
497.963	195.88
498.181	206.88
498.398	225.88
498.615	245.88
498.832	236.88
499.049	238.88
499.267	266.88
499.484	275.88
499.701	307.88
499.918	343.88
500.135	379.88
500.352	401.88
500.569	407.88
500.786	388.88
501.003	353.88
501.22	332.88
501.437	317.88
501.654	275.88
501.871	265.88
502.088	238.88
502.305	238.88
502.522	245.88
502.739	236.88
502.956	216.88
503.172	217.88
503.389	189.88
503.606	207.88
503.823	191.88
504.04	204.88
504.256	198.88
504.473	201.88
504.69	204.88
504.907	213.88
