Data from SampD_HRD10591_00009.txt Node
Date: Mon Jan 19 11:41:24 EST 2026
User: Yrep
Spectrometer: HR+D1059
Trigger mode: 0
Integration Time (sec): 3.443000E-1
Scans to average: 1
Electric dark correction enabled: true
Nonlinearity correction enabled: false
Boxcar width: 0
XAxis mode: Wavelengths
Number of Pixels in Spectrum: 2048
>>>>>Begin Spectral Data<<<<<
223.165	-34.38
223.4	-34.38
223.635	-34.38
223.869	-20.38
224.104	-34.38
224.338	-13.38
224.573	-6.38
224.808	-13.38
225.042	14.62
225.277	-11.38
225.511	-0.38
225.746	4.62
225.98	18.62
226.215	9.62
226.449	25.62
226.683	21.62
226.918	9.62
227.152	29.62
227.387	37.62
227.621	39.62
227.856	52.62
228.09	49.62
228.324	61.62
228.559	45.62
228.793	68.62
229.027	64.62
229.262	74.62
229.496	54.62
229.73	61.62
229.964	75.62
230.199	85.62
230.433	71.62
230.667	70.62
230.901	83.62
231.136	99.62
231.37	102.62
231.604	75.62
231.838	80.62
232.072	86.62
232.306	86.62
232.541	68.62
232.775	79.62
233.009	99.62
233.243	83.62
233.477	92.62
233.711	93.62
233.945	86.62
234.179	81.62
234.413	87.62
234.647	82.62
234.881	83.62
235.115	77.62
235.349	79.62
235.583	75.62
235.817	76.62
236.051	81.62
236.285	73.62
236.519	81.62
236.753	84.62
236.987	78.62
237.221	66.62
237.455	70.62
237.689	69.62
237.922	77.62
238.156	78.62
238.39	67.62
238.624	77.62
238.858	87.62
239.091	65.62
239.325	77.62
239.559	81.62
239.793	81.62
240.027	86.62
240.26	89.62
240.494	81.62
240.728	71.62
240.961	83.62
241.195	78.62
241.429	86.62
241.662	62.62
241.896	77.62
242.13	71.62
242.363	89.62
242.597	77.62
242.83	80.62
243.064	79.62
243.298	91.62
243.531	82.62
243.765	68.62
243.998	86.62
244.232	86.62
244.465	94.62
244.699	75.62
244.932	86.62
245.166	79.62
245.399	90.62
245.633	73.62
245.866	89.62
246.099	90.62
246.333	79.62
246.566	83.62
246.8	82.62
247.033	85.62
247.266	69.62
247.5	73.62
247.733	75.62
247.966	97.62
248.2	82.62
248.433	73.62
248.666	85.62
248.899	79.62
249.133	90.62
249.366	100.62
249.599	81.62
249.832	86.62
250.066	99.62
250.299	84.62
250.532	81.62
250.765	91.62
250.998	86.62
251.231	87.62
251.465	80.62
251.698	86.62
251.931	75.62
252.164	80.62
252.397	86.62
252.63	66.62
252.863	87.62
253.096	92.62
253.329	96.62
253.562	97.62
253.795	86.62
254.028	85.62
254.261	82.62
254.494	91.62
254.727	95.62
254.96	74.62
255.193	85.62
255.426	74.62
255.659	86.62
255.892	82.62
256.124	82.62
256.357	78.62
256.59	87.62
256.823	75.62
257.056	78.62
257.289	91.62
257.521	81.62
257.754	77.62
257.987	92.62
258.22	89.62
258.452	80.62
258.685	79.62
258.918	92.62
259.151	82.62
259.383	91.62
259.616	92.62
259.849	95.62
260.081	86.62
260.314	84.62
260.547	77.62
260.779	82.62
261.012	79.62
261.244	79.62
261.477	103.62
261.71	95.62
261.942	82.62
262.175	91.62
262.407	98.62
262.64	107.62
262.872	97.62
263.105	97.62
263.337	94.62
263.57	74.62
263.802	105.62
264.035	97.62
264.267	86.62
264.499	101.62
264.732	103.62
264.964	92.62
265.197	96.62
265.429	81.62
265.661	86.62
265.894	87.62
266.126	106.62
266.358	88.62
266.591	91.62
266.823	94.62
267.055	105.62
267.287	103.62
267.52	88.62
267.752	102.62
267.984	80.62
268.216	87.62
268.448	101.62
268.681	119.62
268.913	95.62
269.145	93.62
269.377	83.62
269.609	83.62
269.841	91.62
270.073	88.62
270.306	101.62
270.538	103.62
270.77	94.62
271.002	85.62
271.234	92.62
271.466	101.62
271.698	82.62
271.93	99.62
272.162	89.62
272.394	87.62
272.626	102.62
272.858	95.62
273.09	105.62
273.322	90.62
273.553	99.62
273.785	101.62
274.017	105.62
274.249	100.62
274.481	91.62
274.713	94.62
274.945	102.62
275.176	98.62
275.408	112.62
275.64	100.62
275.872	99.62
276.104	89.62
276.335	98.62
276.567	97.62
276.799	82.62
277.031	90.62
277.262	98.62
277.494	100.62
277.726	97.62
277.957	87.62
278.189	99.62
278.421	79.62
278.652	92.62
278.884	100.62
279.115	103.62
279.347	101.62
279.579	102.62
279.81	107.62
280.042	98.62
280.273	98.62
280.505	99.62
280.736	90.62
280.968	102.62
281.199	92.62
281.431	98.62
281.662	89.62
281.894	106.62
282.125	83.62
282.356	82.62
282.588	94.62
282.819	89.62
283.051	100.62
283.282	100.62
283.513	85.62
283.745	113.62
283.976	104.62
284.207	101.62
284.439	95.62
284.67	107.62
284.901	101.62
285.132	102.62
285.364	96.62
285.595	104.62
285.826	106.62
286.057	110.62
286.288	99.62
286.52	97.62
286.751	99.62
286.982	94.62
287.213	94.62
287.444	93.62
287.675	102.62
287.906	108.62
288.138	94.62
288.369	84.62
288.6	95.62
288.831	95.62
289.062	88.62
289.293	104.62
289.524	96.62
289.755	101.62
289.986	105.62
290.217	107.62
290.448	94.62
290.679	91.62
290.91	116.62
291.141	106.62
291.371	101.62
291.602	109.62
291.833	99.62
292.064	100.62
292.295	98.62
292.526	105.62
292.757	90.62
292.987	106.62
293.218	109.62
293.449	108.62
293.68	95.62
293.91	106.62
294.141	112.62
294.372	101.62
294.603	89.62
294.833	92.62
295.064	87.62
295.295	107.62
295.525	97.62
295.756	107.62
295.987	111.62
296.217	98.62
296.448	101.62
296.679	101.62
296.909	111.62
297.14	115.62
297.37	111.62
297.601	107.62
297.831	103.62
298.062	100.62
298.292	110.62
298.523	121.62
298.753	94.62
298.984	117.62
299.214	112.62
299.445	113.62
299.675	110.62
299.905	105.62
300.136	100.62
300.366	101.62
300.597	106.62
300.827	112.62
301.057	123.62
301.288	107.62
301.518	106.62
301.748	108.62
301.979	134.62
302.209	115.62
302.439	99.62
302.669	124.62
302.9	101.62
303.13	114.62
303.36	101.62
303.59	103.62
303.82	97.62
304.051	115.62
304.281	118.62
304.511	107.62
304.741	109.62
304.971	100.62
305.201	99.62
305.431	109.62
305.661	113.62
305.891	99.62
306.121	117.62
306.352	97.62
306.582	103.62
306.812	99.62
307.042	98.62
307.272	96.62
307.502	116.62
307.731	113.62
307.961	120.62
308.191	117.62
308.421	95.62
308.651	112.62
308.881	102.62
309.111	111.62
309.341	99.62
309.571	118.62
309.8	101.62
310.03	100.62
310.26	113.62
310.49	111.62
310.72	99.62
310.949	94.62
311.179	107.62
311.409	92.62
311.639	95.62
311.868	106.62
312.098	103.62
312.328	109.62
312.557	100.62
312.787	103.62
313.017	113.62
313.246	107.62
313.476	101.62
313.706	101.62
313.935	102.62
314.165	95.62
314.394	106.62
314.624	119.62
314.853	108.62
315.083	100.62
315.312	110.62
315.542	109.62
315.771	108.62
316.001	98.62
316.23	106.62
316.46	106.62
316.689	102.62
316.919	102.62
317.148	105.62
317.377	111.62
317.607	105.62
317.836	113.62
318.065	99.62
318.295	103.62
318.524	92.62
318.753	95.62
318.983	108.62
319.212	126.62
319.441	112.62
319.67	103.62
319.9	94.62
320.129	108.62
320.358	110.62
320.587	99.62
320.816	94.62
321.046	116.62
321.275	109.62
321.504	105.62
321.733	112.62
321.962	100.62
322.191	111.62
322.42	99.62
322.649	113.62
322.878	100.62
323.108	98.62
323.337	118.62
323.566	101.62
323.795	104.62
324.024	111.62
324.253	102.62
324.482	105.62
324.71	99.62
324.939	116.62
325.168	114.62
325.397	100.62
325.626	117.62
325.855	103.62
326.084	115.62
326.313	116.62
326.542	100.62
326.77	100.62
326.999	102.62
327.228	107.62
327.457	96.62
327.686	113.62
327.914	111.62
328.143	110.62
328.372	109.62
328.6	132.62
328.829	104.62
329.058	105.62
329.287	92.62
329.515	108.62
329.744	126.62
329.972	114.62
330.201	101.62
330.43	119.62
330.658	109.62
330.887	109.62
331.115	104.62
331.344	99.62
331.572	123.62
331.801	122.62
332.03	111.62
332.258	119.62
332.486	93.62
332.715	124.62
332.943	122.62
333.172	138.62
333.4	103.62
333.629	110.62
333.857	124.62
334.085	140.62
334.314	116.62
334.542	126.62
334.771	128.62
334.999	107.62
335.227	113.62
335.455	120.62
335.684	122.62
335.912	107.62
336.14	115.62
336.369	113.62
336.597	117.62
336.825	130.62
337.053	110.62
337.281	115.62
337.51	98.62
337.738	120.62
337.966	113.62
338.194	113.62
338.422	114.62
338.65	116.62
338.878	125.62
339.106	113.62
339.334	126.62
339.562	108.62
339.79	106.62
340.018	111.62
340.246	112.62
340.474	112.62
340.702	92.62
340.93	90.62
341.158	109.62
341.386	115.62
341.614	104.62
341.842	110.62
342.07	107.62
342.298	113.62
342.526	121.62
342.754	111.62
342.981	106.62
343.209	102.62
343.437	138.62
343.665	115.62
343.893	112.62
344.12	122.62
344.348	117.62
344.576	115.62
344.804	117.62
345.031	113.62
345.259	111.62
345.487	129.62
345.714	93.62
345.942	92.62
346.17	131.62
346.397	107.62
346.625	111.62
346.853	103.62
347.08	98.62
347.308	100.62
347.535	110.62
347.763	98.62
347.99	106.62
348.218	107.62
348.445	111.62
348.673	116.62
348.9	121.62
349.128	112.62
349.355	122.62
349.583	103.62
349.81	117.62
350.037	108.62
350.265	108.62
350.492	115.62
350.72	106.62
350.947	96.62
351.174	115.62
351.402	99.62
351.629	111.62
351.856	109.62
352.083	104.62
352.311	114.62
352.538	95.62
352.765	106.62
352.992	111.62
353.22	108.62
353.447	110.62
353.674	112.62
353.901	118.62
354.128	107.62
354.355	94.62
354.583	113.62
354.81	105.62
355.037	112.62
355.264	117.62
355.491	127.62
355.718	122.62
355.945	107.62
356.172	115.62
356.399	112.62
356.626	119.62
356.853	112.62
357.08	121.62
357.307	117.62
357.534	110.62
357.761	108.62
357.988	110.62
358.215	124.62
358.441	111.62
358.668	107.62
358.895	115.62
359.122	104.62
359.349	91.62
359.576	109.62
359.802	127.62
360.029	106.62
360.256	110.62
360.483	101.62
360.709	96.62
360.936	118.62
361.163	118.62
361.39	107.62
361.616	114.62
361.843	103.62
362.07	114.62
362.296	113.62
362.523	104.62
362.749	110.62
362.976	110.62
363.203	119.62
363.429	102.62
363.656	119.62
363.882	99.62
364.109	118.62
364.335	102.62
364.562	109.62
364.788	108.62
365.015	101.62
365.241	100.62
365.468	117.62
365.694	108.62
365.92	96.62
366.147	112.62
366.373	112.62
366.599	113.62
366.826	110.62
367.052	103.62
367.278	98.62
367.505	103.62
367.731	124.62
367.957	118.62
368.184	99.62
368.41	107.62
368.636	108.62
368.862	110.62
369.089	107.62
369.315	95.62
369.541	118.62
369.767	111.62
369.993	115.62
370.219	115.62
370.445	105.62
370.672	99.62
370.898	118.62
371.124	118.62
371.35	98.62
371.576	113.62
371.802	106.62
372.028	113.62
372.254	117.62
372.48	122.62
372.706	101.62
372.932	105.62
373.158	113.62
373.384	106.62
373.61	122.62
373.835	119.62
374.061	101.62
374.287	113.62
374.513	115.62
374.739	105.62
374.965	110.62
375.191	110.62
375.416	106.62
375.642	111.62
375.868	119.62
376.094	98.62
376.319	101.62
376.545	108.62
376.771	125.62
376.997	120.62
377.222	106.62
377.448	104.62
377.674	117.62
377.899	111.62
378.125	115.62
378.35	118.62
378.576	101.62
378.802	110.62
379.027	119.62
379.253	108.62
379.478	114.62
379.704	119.62
379.929	113.62
380.155	107.62
380.38	117.62
380.606	111.62
380.831	107.62
381.057	118.62
381.282	126.62
381.507	102.62
381.733	107.62
381.958	105.62
382.184	116.62
382.409	106.62
382.634	129.62
382.86	119.62
383.085	109.62
383.31	118.62
383.535	124.62
383.761	111.62
383.986	127.62
384.211	105.62
384.436	123.62
384.662	125.62
384.887	118.62
385.112	120.62
385.337	112.62
385.562	126.62
385.787	126.62
386.013	134.62
386.238	122.62
386.463	119.62
386.688	150.62
386.913	125.62
387.138	126.62
387.363	126.62
387.588	143.62
387.813	129.62
388.038	122.62
388.263	132.62
388.488	118.62
388.713	108.62
388.938	116.62
389.163	113.62
389.387	110.62
389.612	102.62
389.837	118.62
390.062	122.62
390.287	116.62
390.512	115.62
390.736	114.62
390.961	112.62
391.186	102.62
391.411	114.62
391.636	110.62
391.86	116.62
392.085	118.62
392.31	113.62
392.534	108.62
392.759	127.62
392.984	109.62
393.208	129.62
393.433	133.62
393.658	130.62
393.882	120.62
394.107	130.62
394.331	109.62
394.556	118.62
394.78	133.62
395.005	132.62
395.229	123.62
395.454	123.62
395.678	97.62
395.903	120.62
396.127	131.62
396.352	129.62
396.576	106.62
396.801	116.62
397.025	129.62
397.249	127.62
397.474	123.62
397.698	125.62
397.922	126.62
398.147	131.62
398.371	131.62
398.595	143.62
398.82	129.62
399.044	132.62
399.268	142.62
399.492	166.62
399.717	157.62
399.941	163.62
400.165	157.62
400.389	146.62
400.613	132.62
400.837	110.62
401.062	126.62
401.286	124.62
401.51	114.62
401.734	118.62
401.958	127.62
402.182	142.62
402.406	129.62
402.63	130.62
402.854	134.62
403.078	138.62
403.302	128.62
403.526	153.62
403.75	139.62
403.974	141.62
404.198	146.62
404.422	140.62
404.645	123.62
404.869	127.62
405.093	149.62
405.317	123.62
405.541	151.62
405.765	149.62
405.988	133.62
406.212	123.62
406.436	146.62
406.66	134.62
406.883	148.62
407.107	134.62
407.331	140.62
407.555	144.62
407.778	152.62
408.002	149.62
408.226	135.62
408.449	145.62
408.673	130.62
408.896	122.62
409.12	143.62
409.344	121.62
409.567	143.62
409.791	130.62
410.014	145.62
410.238	135.62
410.461	126.62
410.685	148.62
410.908	146.62
411.132	131.62
411.355	143.62
411.578	133.62
411.802	128.62
412.025	131.62
412.249	142.62
412.472	134.62
412.695	127.62
412.919	133.62
413.142	126.62
413.365	128.62
413.589	120.62
413.812	124.62
414.035	159.62
414.258	130.62
414.482	127.62
414.705	131.62
414.928	120.62
415.151	132.62
415.374	131.62
415.597	136.62
415.821	131.62
416.044	135.62
416.267	137.62
416.49	135.62
416.713	139.62
416.936	114.62
417.159	112.62
417.382	131.62
417.605	133.62
417.828	122.62
418.051	138.62
418.274	133.62
418.497	135.62
418.72	133.62
418.943	122.62
419.166	140.62
419.389	152.62
419.611	127.62
419.834	121.62
420.057	129.62
420.28	131.62
420.503	121.62
420.726	121.62
420.948	135.62
421.171	121.62
421.394	121.62
421.617	116.62
421.839	126.62
422.062	127.62
422.285	139.62
422.507	121.62
422.73	127.62
422.953	135.62
423.175	131.62
423.398	146.62
423.621	137.62
423.843	131.62
424.066	134.62
424.288	121.62
424.511	132.62
424.733	139.62
424.956	122.62
425.178	127.62
425.401	132.62
425.623	138.62
425.846	124.62
426.068	129.62
426.291	130.62
426.513	138.62
426.735	130.62
426.958	138.62
427.18	139.62
427.402	128.62
427.625	121.62
427.847	120.62
428.069	128.62
428.292	132.62
428.514	131.62
428.736	116.62
428.958	142.62
429.181	128.62
429.403	127.62
429.625	125.62
429.847	117.62
430.069	139.62
430.292	125.62
430.514	113.62
430.736	134.62
430.958	139.62
431.18	115.62
431.402	118.62
431.624	119.62
431.846	121.62
432.068	123.62
432.29	129.62
432.512	134.62
432.734	113.62
432.956	116.62
433.178	140.62
433.4	132.62
433.622	125.62
433.844	118.62
434.066	137.62
434.287	134.62
434.509	125.62
434.731	121.62
434.953	122.62
435.175	146.62
435.397	127.62
435.618	126.62
435.84	122.62
436.062	116.62
436.284	143.62
436.505	126.62
436.727	123.62
436.949	136.62
437.17	109.62
437.392	114.62
437.614	132.62
437.835	127.62
438.057	129.62
438.278	123.62
438.5	108.62
438.721	131.62
438.943	119.62
439.165	106.62
439.386	114.62
439.608	133.62
439.829	121.62
440.05	139.62
440.272	132.62
440.493	119.62
440.715	107.62
440.936	133.62
441.158	139.62
441.379	123.62
441.6	130.62
441.822	119.62
442.043	146.62
442.264	115.62
442.486	131.62
442.707	118.62
442.928	140.62
443.149	126.62
443.371	138.62
443.592	141.62
443.813	139.62
444.034	125.62
444.255	139.62
444.476	131.62
444.698	152.62
444.919	145.62
445.14	379.62
445.361	235.62
445.582	147.62
445.803	118.62
446.024	123.62
446.245	117.62
446.466	127.62
446.687	127.62
446.908	131.62
447.129	126.62
447.35	132.62
447.571	126.62
447.792	124.62
448.013	128.62
448.234	115.62
448.455	112.62
448.675	119.62
448.896	119.62
449.117	125.62
449.338	114.62
449.559	118.62
449.779	119.62
450	109.62
450.221	102.62
450.442	100.62
450.662	116.62
450.883	103.62
451.104	140.62
451.324	119.62
451.545	113.62
451.766	129.62
451.986	119.62
452.207	121.62
452.428	115.62
452.648	124.62
452.869	107.62
453.089	118.62
453.31	119.62
453.53	124.62
453.751	120.62
453.971	114.62
454.192	116.62
454.412	108.62
454.633	117.62
454.853	129.62
455.073	120.62
455.294	107.62
455.514	123.62
455.734	129.62
455.955	137.62
456.175	131.62
456.395	109.62
456.616	106.62
456.836	115.62
457.056	112.62
457.276	111.62
457.497	101.62
457.717	118.62
457.937	115.62
458.157	111.62
458.377	113.62
458.598	111.62
458.818	110.62
459.038	136.62
459.258	125.62
459.478	129.62
459.698	121.62
459.918	123.62
460.138	132.62
460.358	132.62
460.578	137.62
460.798	131.62
461.018	141.62
461.238	133.62
461.458	126.62
461.678	135.62
461.898	139.62
462.118	129.62
462.338	121.62
462.558	137.62
462.777	138.62
462.997	150.62
463.217	157.62
463.437	162.62
463.657	147.62
463.876	148.62
464.096	140.62
464.316	137.62
464.536	141.62
464.755	143.62
464.975	143.62
465.195	124.62
465.414	124.62
465.634	138.62
465.854	121.62
466.073	121.62
466.293	141.62
466.512	121.62
466.732	114.62
466.951	113.62
467.171	127.62
467.391	125.62
467.61	125.62
467.829	126.62
468.049	119.62
468.268	125.62
468.488	115.62
468.707	111.62
468.927	115.62
469.146	126.62
469.365	102.62
469.585	126.62
469.804	113.62
470.023	114.62
470.243	122.62
470.462	124.62
470.681	119.62
470.901	119.62
471.12	126.62
471.339	117.62
471.558	110.62
471.777	126.62
471.997	114.62
472.216	120.62
472.435	116.62
472.654	128.62
472.873	154.62
473.092	123.62
473.311	124.62
473.53	118.62
473.749	124.62
473.968	141.62
474.187	124.62
474.406	110.62
474.625	139.62
474.844	128.62
475.063	134.62
475.282	126.62
475.501	122.62
475.72	134.62
475.939	111.62
476.158	118.62
476.377	119.62
476.596	122.62
476.814	125.62
477.033	122.62
477.252	141.62
477.471	117.62
477.69	132.62
477.908	118.62
478.127	134.62
478.346	130.62
478.564	140.62
478.783	132.62
479.002	123.62
479.22	129.62
479.439	143.62
479.658	137.62
479.876	132.62
480.095	138.62
480.313	127.62
480.532	136.62
480.751	140.62
480.969	124.62
481.188	119.62
481.406	123.62
481.624	134.62
481.843	133.62
482.061	127.62
482.28	133.62
482.498	122.62
482.717	135.62
482.935	124.62
483.153	125.62
483.372	131.62
483.59	129.62
483.808	141.62
484.027	129.62
484.245	125.62
484.463	114.62
484.681	139.62
484.9	135.62
485.118	139.62
485.336	125.62
485.554	125.62
485.772	126.62
485.99	126.62
486.209	139.62
486.427	122.62
486.645	124.62
486.863	137.62
487.081	123.62
487.299	118.62
487.517	132.62
487.735	114.62
487.953	138.62
488.171	142.62
488.389	124.62
488.607	137.62
488.825	138.62
489.043	118.62
489.261	131.62
489.479	141.62
489.696	116.62
489.914	142.62
490.132	139.62
490.35	139.62
490.568	114.62
490.786	126.62
491.003	124.62
491.221	125.62
491.439	130.62
491.657	128.62
491.874	123.62
492.092	151.62
492.31	134.62
492.527	143.62
492.745	138.62
492.963	140.62
493.18	146.62
493.398	122.62
493.615	133.62
493.833	139.62
494.05	125.62
494.268	126.62
494.485	135.62
494.703	138.62
494.92	129.62
495.138	144.62
495.355	140.62
495.573	142.62
495.79	133.62
496.008	141.62
496.225	139.62
496.442	140.62
496.66	146.62
496.877	139.62
497.094	152.62
497.312	144.62
497.529	157.62
497.746	149.62
497.963	126.62
498.181	151.62
498.398	159.62
498.615	163.62
498.832	150.62
499.049	165.62
499.267	186.62
499.484	197.62
499.701	197.62
499.918	203.62
500.135	231.62
500.352	242.62
500.569	260.62
500.786	263.62
501.003	230.62
501.22	214.62
501.437	204.62
501.654	174.62
501.871	185.62
502.088	171.62
502.305	166.62
502.522	159.62
502.739	154.62
502.956	133.62
503.172	151.62
503.389	138.62
503.606	154.62
503.823	142.62
504.04	150.62
504.256	142.62
504.473	148.62
504.69	146.62
504.907	150.62
505.123	133.62
505.34	147.62
505.557	139.62
505.773	151.62
505.99	142.62
506.207	134.62
506.423	123.62
506.64	133.62
