Data from SampD_HRD10591_00017.txt Node
Date: Mon Jan 19 11:41:26 EST 2026
User: Yrep
Spectrometer: HR+D1059
Trigger mode: 0
Integration Time (sec): 3.443000E-1
Scans to average: 1
Electric dark correction enabled: true
Nonlinearity correction enabled: false
Boxcar width: 0
XAxis mode: Wavelengths
Number of Pixels in Spectrum: 2048
>>>>>Begin Spectral Data<<<<<
223.165	-23.06
223.4	-23.06
223.635	-23.06
223.869	-8.06
224.104	-17.06
224.338	-15.06
224.573	-21.06
224.808	-20.06
225.042	-2.06
225.277	-8.06
225.511	-11.06
225.746	5.94
225.98	16.94
226.215	24.94
226.449	3.94
226.683	13.94
226.918	33.94
227.152	25.94
227.387	40.94
227.621	48.94
227.856	47.94
228.09	35.94
228.324	57.94
228.559	56.94
228.793	69.94
229.027	53.94
229.262	74.94
229.496	75.94
229.73	63.94
229.964	70.94
230.199	76.94
230.433	69.94
230.667	79.94
230.901	101.94
231.136	72.94
231.37	80.94
231.604	77.94
231.838	87.94
232.072	70.94
232.306	91.94
232.541	86.94
232.775	91.94
233.009	72.94
233.243	86.94
233.477	79.94
233.711	95.94
233.945	80.94
234.179	71.94
234.413	94.94
234.647	86.94
234.881	85.94
235.115	86.94
235.349	75.94
235.583	100.94
235.817	72.94
236.051	86.94
236.285	81.94
236.519	77.94
236.753	88.94
236.987	84.94
237.221	81.94
237.455	95.94
237.689	84.94
237.922	72.94
238.156	86.94
238.39	100.94
238.624	87.94
238.858	81.94
239.091	87.94
239.325	84.94
239.559	81.94
239.793	89.94
240.027	88.94
240.26	84.94
240.494	89.94
240.728	72.94
240.961	86.94
241.195	93.94
241.429	79.94
241.662	93.94
241.896	88.94
242.13	84.94
242.363	77.94
242.597	84.94
242.83	94.94
243.064	83.94
243.298	90.94
243.531	83.94
243.765	91.94
243.998	95.94
244.232	93.94
244.465	91.94
244.699	83.94
244.932	84.94
245.166	93.94
245.399	77.94
245.633	92.94
245.866	92.94
246.099	97.94
246.333	87.94
246.566	68.94
246.8	84.94
247.033	91.94
247.266	81.94
247.5	86.94
247.733	91.94
247.966	96.94
248.2	92.94
248.433	84.94
248.666	102.94
248.899	91.94
249.133	82.94
249.366	107.94
249.599	86.94
249.832	95.94
250.066	111.94
250.299	104.94
250.532	98.94
250.765	87.94
250.998	92.94
251.231	101.94
251.465	116.94
251.698	93.94
251.931	94.94
252.164	81.94
252.397	79.94
252.63	110.94
252.863	92.94
253.096	95.94
253.329	77.94
253.562	104.94
253.795	102.94
254.028	107.94
254.261	95.94
254.494	81.94
254.727	92.94
254.96	89.94
255.193	97.94
255.426	106.94
255.659	91.94
255.892	105.94
256.124	94.94
256.357	89.94
256.59	117.94
256.823	89.94
257.056	95.94
257.289	101.94
257.521	84.94
257.754	94.94
257.987	93.94
258.22	115.94
258.452	100.94
258.685	95.94
258.918	93.94
259.151	83.94
259.383	103.94
259.616	96.94
259.849	93.94
260.081	113.94
260.314	97.94
260.547	95.94
260.779	115.94
261.012	89.94
261.244	109.94
261.477	102.94
261.71	113.94
261.942	88.94
262.175	99.94
262.407	87.94
262.64	95.94
262.872	111.94
263.105	102.94
263.337	98.94
263.57	104.94
263.802	99.94
264.035	88.94
264.267	95.94
264.499	107.94
264.732	111.94
264.964	112.94
265.197	112.94
265.429	91.94
265.661	111.94
265.894	100.94
266.126	113.94
266.358	103.94
266.591	97.94
266.823	117.94
267.055	104.94
267.287	104.94
267.52	115.94
267.752	105.94
267.984	107.94
268.216	112.94
268.448	119.94
268.681	119.94
268.913	95.94
269.145	104.94
269.377	98.94
269.609	99.94
269.841	111.94
270.073	91.94
270.306	93.94
270.538	97.94
270.77	109.94
271.002	117.94
271.234	98.94
271.466	101.94
271.698	115.94
271.93	99.94
272.162	127.94
272.394	112.94
272.626	98.94
272.858	97.94
273.09	122.94
273.322	100.94
273.553	92.94
273.785	108.94
274.017	114.94
274.249	105.94
274.481	105.94
274.713	96.94
274.945	108.94
275.176	109.94
275.408	99.94
275.64	110.94
275.872	99.94
276.104	114.94
276.335	102.94
276.567	108.94
276.799	115.94
277.031	115.94
277.262	96.94
277.494	124.94
277.726	118.94
277.957	95.94
278.189	116.94
278.421	104.94
278.652	127.94
278.884	119.94
279.115	116.94
279.347	103.94
279.579	113.94
279.81	116.94
280.042	102.94
280.273	112.94
280.505	106.94
280.736	101.94
280.968	119.94
281.199	111.94
281.431	110.94
281.662	120.94
281.894	108.94
282.125	113.94
282.356	128.94
282.588	129.94
282.819	122.94
283.051	109.94
283.282	124.94
283.513	128.94
283.745	115.94
283.976	116.94
284.207	131.94
284.439	115.94
284.67	133.94
284.901	118.94
285.132	124.94
285.364	117.94
285.595	119.94
285.826	104.94
286.057	111.94
286.288	124.94
286.52	123.94
286.751	102.94
286.982	118.94
287.213	110.94
287.444	134.94
287.675	123.94
287.906	113.94
288.138	118.94
288.369	111.94
288.6	114.94
288.831	111.94
289.062	132.94
289.293	129.94
289.524	111.94
289.755	124.94
289.986	110.94
290.217	117.94
290.448	110.94
290.679	120.94
290.91	134.94
291.141	139.94
291.371	129.94
291.602	127.94
291.833	129.94
292.064	122.94
292.295	116.94
292.526	110.94
292.757	119.94
292.987	128.94
293.218	119.94
293.449	131.94
293.68	128.94
293.91	117.94
294.141	120.94
294.372	119.94
294.603	126.94
294.833	123.94
295.064	118.94
295.295	119.94
295.525	115.94
295.756	123.94
295.987	120.94
296.217	131.94
296.448	127.94
296.679	122.94
296.909	120.94
297.14	128.94
297.37	130.94
297.601	124.94
297.831	124.94
298.062	125.94
298.292	121.94
298.523	131.94
298.753	124.94
298.984	128.94
299.214	126.94
299.445	125.94
299.675	120.94
299.905	127.94
300.136	120.94
300.366	117.94
300.597	121.94
300.827	118.94
301.057	111.94
301.288	126.94
301.518	135.94
301.748	139.94
301.979	173.94
302.209	125.94
302.439	117.94
302.669	107.94
302.9	121.94
303.13	128.94
303.36	117.94
303.59	111.94
303.82	133.94
304.051	123.94
304.281	132.94
304.511	123.94
304.741	117.94
304.971	125.94
305.201	125.94
305.431	124.94
305.661	118.94
305.891	120.94
306.121	135.94
306.352	121.94
306.582	118.94
306.812	128.94
307.042	121.94
307.272	114.94
307.502	109.94
307.731	140.94
307.961	123.94
308.191	136.94
308.421	121.94
308.651	121.94
308.881	133.94
309.111	139.94
309.341	120.94
309.571	117.94
309.8	121.94
310.03	137.94
310.26	130.94
310.49	134.94
310.72	121.94
310.949	125.94
311.179	125.94
311.409	129.94
311.639	133.94
311.868	124.94
312.098	134.94
312.328	121.94
312.557	132.94
312.787	120.94
313.017	136.94
313.246	142.94
313.476	117.94
313.706	123.94
313.935	125.94
314.165	128.94
314.394	142.94
314.624	134.94
314.853	159.94
315.083	132.94
315.312	134.94
315.542	128.94
315.771	125.94
316.001	136.94
316.23	142.94
316.46	122.94
316.689	118.94
316.919	134.94
317.148	139.94
317.377	129.94
317.607	134.94
317.836	123.94
318.065	149.94
318.295	119.94
318.524	126.94
318.753	125.94
318.983	129.94
319.212	127.94
319.441	133.94
319.67	119.94
319.9	129.94
320.129	119.94
320.358	116.94
320.587	139.94
320.816	126.94
321.046	128.94
321.275	127.94
321.504	117.94
321.733	143.94
321.962	116.94
322.191	109.94
322.42	129.94
322.649	121.94
322.878	120.94
323.108	130.94
323.337	128.94
323.566	145.94
323.795	129.94
324.024	128.94
324.253	135.94
324.482	124.94
324.71	126.94
324.939	135.94
325.168	140.94
325.397	135.94
325.626	147.94
325.855	135.94
326.084	136.94
326.313	132.94
326.542	123.94
326.77	133.94
326.999	117.94
327.228	120.94
327.457	147.94
327.686	135.94
327.914	143.94
328.143	129.94
328.372	136.94
328.6	135.94
328.829	136.94
329.058	125.94
329.287	136.94
329.515	139.94
329.744	147.94
329.972	117.94
330.201	131.94
330.43	135.94
330.658	150.94
330.887	125.94
331.115	125.94
331.344	118.94
331.572	141.94
331.801	141.94
332.03	139.94
332.258	145.94
332.486	159.94
332.715	138.94
332.943	152.94
333.172	157.94
333.4	143.94
333.629	175.94
333.857	158.94
334.085	162.94
334.314	155.94
334.542	159.94
334.771	158.94
334.999	147.94
335.227	142.94
335.455	137.94
335.684	136.94
335.912	154.94
336.14	160.94
336.369	145.94
336.597	140.94
336.825	153.94
337.053	131.94
337.281	139.94
337.51	147.94
337.738	134.94
337.966	140.94
338.194	144.94
338.422	131.94
338.65	139.94
338.878	145.94
339.106	126.94
339.334	151.94
339.562	135.94
339.79	137.94
340.018	158.94
340.246	143.94
340.474	133.94
340.702	119.94
340.93	133.94
341.158	135.94
341.386	119.94
341.614	140.94
341.842	132.94
342.07	134.94
342.298	135.94
342.526	141.94
342.754	125.94
342.981	129.94
343.209	128.94
343.437	156.94
343.665	147.94
343.893	164.94
344.12	167.94
344.348	148.94
344.576	146.94
344.804	144.94
345.031	127.94
345.259	140.94
345.487	143.94
345.714	122.94
345.942	139.94
346.17	155.94
346.397	134.94
346.625	139.94
346.853	124.94
347.08	140.94
347.308	123.94
347.535	147.94
347.763	123.94
347.99	142.94
348.218	155.94
348.445	135.94
348.673	124.94
348.9	133.94
349.128	143.94
349.355	140.94
349.583	140.94
349.81	132.94
350.037	149.94
350.265	120.94
350.492	142.94
350.72	147.94
350.947	129.94
351.174	127.94
351.402	125.94
351.629	132.94
351.856	133.94
352.083	137.94
352.311	127.94
352.538	131.94
352.765	139.94
352.992	157.94
353.22	140.94
353.447	131.94
353.674	156.94
353.901	127.94
354.128	137.94
354.355	135.94
354.583	142.94
354.81	147.94
355.037	127.94
355.264	144.94
355.491	144.94
355.718	129.94
355.945	138.94
356.172	143.94
356.399	132.94
356.626	139.94
356.853	117.94
357.08	151.94
357.307	134.94
357.534	141.94
357.761	145.94
357.988	129.94
358.215	132.94
358.441	129.94
358.668	169.94
358.895	134.94
359.122	135.94
359.349	129.94
359.576	145.94
359.802	142.94
360.029	129.94
360.256	132.94
360.483	130.94
360.709	139.94
360.936	146.94
361.163	125.94
361.39	140.94
361.616	135.94
361.843	148.94
362.07	143.94
362.296	130.94
362.523	129.94
362.749	139.94
362.976	139.94
363.203	154.94
363.429	118.94
363.656	136.94
363.882	126.94
364.109	124.94
364.335	149.94
364.562	137.94
364.788	126.94
365.015	145.94
365.241	128.94
365.468	136.94
365.694	122.94
365.92	137.94
366.147	145.94
366.373	136.94
366.599	128.94
366.826	126.94
367.052	141.94
367.278	151.94
367.505	146.94
367.731	142.94
367.957	130.94
368.184	149.94
368.41	147.94
368.636	142.94
368.862	137.94
369.089	160.94
369.315	123.94
369.541	141.94
369.767	129.94
369.993	129.94
370.219	132.94
370.445	129.94
370.672	142.94
370.898	144.94
371.124	139.94
371.35	131.94
371.576	144.94
371.802	135.94
372.028	148.94
372.254	146.94
372.48	149.94
372.706	139.94
372.932	134.94
373.158	137.94
373.384	158.94
373.61	133.94
373.835	144.94
374.061	157.94
374.287	151.94
374.513	145.94
374.739	140.94
374.965	142.94
375.191	150.94
375.416	149.94
375.642	153.94
375.868	150.94
376.094	157.94
376.319	138.94
376.545	122.94
376.771	124.94
376.997	144.94
377.222	168.94
377.448	155.94
377.674	134.94
377.899	136.94
378.125	141.94
378.35	155.94
378.576	146.94
378.802	137.94
379.027	150.94
379.253	141.94
379.478	147.94
379.704	129.94
379.929	144.94
380.155	147.94
380.38	143.94
380.606	139.94
380.831	135.94
381.057	151.94
381.282	137.94
381.507	142.94
381.733	159.94
381.958	148.94
382.184	143.94
382.409	135.94
382.634	149.94
382.86	138.94
383.085	152.94
383.31	136.94
383.535	154.94
383.761	155.94
383.986	142.94
384.211	134.94
384.436	153.94
384.662	142.94
384.887	148.94
385.112	160.94
385.337	138.94
385.562	156.94
385.787	161.94
386.013	159.94
386.238	164.94
386.463	155.94
386.688	177.94
386.913	164.94
387.138	161.94
387.363	161.94
387.588	162.94
387.813	172.94
388.038	147.94
388.263	145.94
388.488	161.94
388.713	148.94
388.938	169.94
389.163	156.94
389.387	148.94
389.612	145.94
389.837	153.94
390.062	162.94
390.287	160.94
390.512	164.94
390.736	145.94
390.961	167.94
391.186	162.94
391.411	164.94
391.636	156.94
391.86	162.94
392.085	157.94
392.31	156.94
392.534	156.94
392.759	158.94
392.984	177.94
393.208	182.94
393.433	183.94
393.658	186.94
393.882	158.94
394.107	166.94
394.331	180.94
394.556	176.94
394.78	162.94
395.005	169.94
395.229	161.94
395.454	170.94
395.678	175.94
395.903	176.94
396.127	166.94
396.352	163.94
396.576	164.94
396.801	168.94
397.025	172.94
397.249	169.94
397.474	189.94
397.698	176.94
397.922	176.94
398.147	177.94
398.371	165.94
398.595	176.94
398.82	184.94
399.044	184.94
399.268	198.94
399.492	227.94
399.717	260.94
399.941	239.94
400.165	217.94
400.389	196.94
400.613	198.94
400.837	186.94
401.062	190.94
401.286	165.94
401.51	171.94
401.734	192.94
401.958	177.94
402.182	167.94
402.406	177.94
402.63	195.94
402.854	196.94
403.078	174.94
403.302	208.94
403.526	204.94
403.75	196.94
403.974	211.94
404.198	203.94
404.422	206.94
404.645	199.94
404.869	188.94
405.093	211.94
405.317	201.94
405.541	191.94
405.765	204.94
405.988	201.94
406.212	199.94
406.436	172.94
406.66	200.94
406.883	216.94
407.107	211.94
407.331	204.94
407.555	204.94
407.778	224.94
408.002	202.94
408.226	204.94
408.449	200.94
408.673	191.94
408.896	190.94
409.12	208.94
409.344	191.94
409.567	198.94
409.791	193.94
410.014	195.94
410.238	199.94
410.461	200.94
410.685	183.94
410.908	179.94
411.132	190.94
411.355	188.94
411.578	207.94
411.802	190.94
412.025	189.94
412.249	180.94
412.472	183.94
412.695	195.94
412.919	177.94
413.142	189.94
413.365	167.94
413.589	183.94
413.812	174.94
414.035	193.94
414.258	188.94
414.482	187.94
414.705	195.94
414.928	199.94
415.151	179.94
415.374	173.94
415.597	185.94
415.821	166.94
416.044	177.94
416.267	167.94
416.49	167.94
416.713	181.94
416.936	181.94
417.159	182.94
417.382	193.94
417.605	199.94
417.828	187.94
418.051	172.94
418.274	174.94
418.497	174.94
418.72	184.94
418.943	176.94
419.166	204.94
419.389	196.94
419.611	182.94
419.834	179.94
420.057	187.94
420.28	187.94
420.503	175.94
420.726	180.94
420.948	188.94
421.171	179.94
421.394	177.94
421.617	184.94
421.839	183.94
422.062	195.94
422.285	175.94
422.507	182.94
422.73	184.94
422.953	178.94
423.175	186.94
423.398	180.94
423.621	201.94
423.843	192.94
424.066	178.94
424.288	196.94
424.511	191.94
424.733	191.94
424.956	188.94
425.178	193.94
425.401	185.94
425.623	175.94
425.846	181.94
426.068	184.94
426.291	165.94
426.513	185.94
426.735	173.94
426.958	179.94
427.18	174.94
427.402	192.94
427.625	178.94
427.847	153.94
428.069	172.94
428.292	169.94
428.514	160.94
428.736	179.94
428.958	161.94
429.181	166.94
429.403	161.94
429.625	158.94
429.847	159.94
430.069	158.94
430.292	180.94
430.514	167.94
430.736	150.94
430.958	167.94
431.18	165.94
431.402	181.94
431.624	172.94
431.846	154.94
432.068	191.94
432.29	169.94
432.512	182.94
432.734	161.94
432.956	182.94
433.178	186.94
433.4	180.94
433.622	180.94
433.844	163.94
434.066	169.94
434.287	170.94
434.509	158.94
434.731	159.94
434.953	182.94
435.175	187.94
435.397	205.94
435.618	167.94
435.84	182.94
436.062	173.94
436.284	164.94
436.505	176.94
436.727	182.94
436.949	177.94
437.17	184.94
437.392	149.94
437.614	156.94
437.835	154.94
438.057	144.94
438.278	144.94
438.5	170.94
438.721	177.94
438.943	175.94
439.165	174.94
439.386	140.94
439.608	177.94
439.829	170.94
440.05	164.94
440.272	179.94
440.493	179.94
440.715	175.94
440.936	189.94
441.158	187.94
441.379	175.94
441.6	174.94
441.822	196.94
442.043	180.94
442.264	182.94
442.486	177.94
442.707	183.94
442.928	177.94
443.149	191.94
443.371	180.94
443.592	183.94
443.813	181.94
444.034	189.94
444.255	185.94
444.476	187.94
444.698	195.94
444.919	210.94
445.14	453.94
445.361	301.94
445.582	192.94
445.803	181.94
446.024	171.94
446.245	169.94
446.466	165.94
446.687	167.94
446.908	178.94
447.129	182.94
447.35	170.94
447.571	163.94
447.792	150.94
448.013	175.94
448.234	176.94
448.455	174.94
448.675	147.94
448.896	145.94
449.117	168.94
449.338	153.94
449.559	165.94
449.779	160.94
450	164.94
450.221	160.94
450.442	157.94
450.662	162.94
450.883	174.94
451.104	183.94
451.324	160.94
451.545	168.94
451.766	164.94
451.986	166.94
452.207	172.94
452.428	157.94
452.648	151.94
452.869	149.94
453.089	156.94
453.31	159.94
453.53	165.94
453.751	179.94
453.971	161.94
454.192	160.94
454.412	152.94
454.633	164.94
454.853	167.94
455.073	157.94
455.294	159.94
455.514	165.94
455.734	152.94
455.955	157.94
456.175	161.94
456.395	174.94
456.616	157.94
456.836	171.94
457.056	152.94
457.276	155.94
457.497	151.94
457.717	145.94
457.937	148.94
458.157	159.94
458.377	167.94
458.598	164.94
458.818	157.94
459.038	152.94
459.258	163.94
459.478	157.94
459.698	168.94
459.918	177.94
460.138	179.94
460.358	177.94
460.578	198.94
460.798	176.94
461.018	186.94
461.238	189.94
461.458	196.94
461.678	177.94
461.898	187.94
462.118	191.94
462.338	206.94
462.558	202.94
462.777	213.94
462.997	219.94
463.217	220.94
463.437	237.94
463.657	211.94
463.876	209.94
464.096	200.94
464.316	200.94
464.536	194.94
464.755	204.94
464.975	187.94
465.195	191.94
465.414	184.94
465.634	184.94
465.854	175.94
466.073	171.94
466.293	175.94
466.512	167.94
466.732	175.94
466.951	172.94
467.171	167.94
467.391	171.94
467.61	155.94
467.829	161.94
468.049	170.94
468.268	163.94
468.488	145.94
468.707	146.94
468.927	157.94
469.146	168.94
469.365	158.94
469.585	172.94
469.804	158.94
470.023	165.94
470.243	163.94
470.462	173.94
470.681	181.94
470.901	165.94
471.12	164.94
471.339	180.94
471.558	153.94
471.777	180.94
471.997	173.94
472.216	170.94
472.435	169.94
472.654	161.94
472.873	155.94
473.092	159.94
473.311	136.94
473.53	158.94
473.749	150.94
473.968	159.94
474.187	160.94
474.406	149.94
474.625	169.94
474.844	159.94
475.063	154.94
475.282	160.94
475.501	174.94
475.72	168.94
475.939	163.94
476.158	175.94
476.377	154.94
476.596	163.94
476.814	156.94
477.033	167.94
477.252	171.94
477.471	170.94
477.69	178.94
477.908	174.94
478.127	185.94
478.346	179.94
478.564	194.94
478.783	188.94
479.002	186.94
479.22	163.94
479.439	182.94
479.658	182.94
479.876	201.94
480.095	189.94
480.313	189.94
480.532	209.94
480.751	189.94
480.969	198.94
481.188	166.94
481.406	181.94
481.624	175.94
481.843	159.94
482.061	164.94
482.28	192.94
482.498	163.94
482.717	176.94
482.935	191.94
483.153	180.94
483.372	175.94
483.59	198.94
483.808	180.94
484.027	184.94
484.245	175.94
484.463	170.94
484.681	197.94
484.9	177.94
485.118	193.94
485.336	178.94
485.554	173.94
485.772	192.94
485.99	176.94
486.209	188.94
486.427	183.94
486.645	165.94
486.863	178.94
487.081	189.94
487.299	173.94
487.517	195.94
487.735	183.94
487.953	205.94
488.171	181.94
488.389	161.94
488.607	158.94
488.825	177.94
489.043	169.94
489.261	167.94
489.479	178.94
489.696	190.94
489.914	190.94
490.132	183.94
490.35	184.94
490.568	182.94
490.786	170.94
491.003	183.94
491.221	186.94
491.439	191.94
491.657	196.94
491.874	189.94
492.092	177.94
492.31	199.94
492.527	191.94
492.745	194.94
492.963	214.94
493.18	196.94
493.398	184.94
493.615	199.94
493.833	184.94
494.05	184.94
494.268	197.94
494.485	198.94
494.703	198.94
494.92	183.94
495.138	189.94
495.355	187.94
495.573	188.94
495.79	206.94
496.008	201.94
496.225	206.94
496.442	208.94
496.66	201.94
496.877	212.94
497.094	205.94
497.312	209.94
497.529	209.94
497.746	203.94
497.963	182.94
498.181	216.94
498.398	215.94
498.615	223.94
498.832	245.94
499.049	261.94
499.267	272.94
499.484	277.94
499.701	321.94
499.918	358.94
500.135	376.94
500.352	403.94
500.569	421.94
500.786	420.94
501.003	378.94
501.22	335.94
501.437	316.94
501.654	262.94
501.871	244.94
502.088	243.94
502.305	231.94
502.522	251.94
502.739	217.94
502.956	225.94
503.172	233.94
503.389	200.94
503.606	201.94
503.823	195.94
504.04	187.94
504.256	217.94
504.473	209.94
504.69	199.94
