Data from SampD_HRD10591_00013.txt Node
Date: Mon Jan 19 11:41:25 EST 2026
User: Yrep
Spectrometer: HR+D1059
Trigger mode: 0
Integration Time (sec): 3.443000E-1
Scans to average: 1
Electric dark correction enabled: true
Nonlinearity correction enabled: false
Boxcar width: 0
XAxis mode: Wavelengths
Number of Pixels in Spectrum: 2048
>>>>>Begin Spectral Data<<<<<
223.165	-24.62
223.4	-24.62
223.635	-24.62
223.869	-20.62
224.104	-20.62
224.338	-15.62
224.573	-3.62
224.808	-15.62
225.042	-4.62
225.277	-12.62
225.511	-19.62
225.746	13.38
225.98	10.38
226.215	9.38
226.449	8.38
226.683	19.38
226.918	24.38
227.152	52.38
227.387	40.38
227.621	52.38
227.856	37.38
228.09	46.38
228.324	57.38
228.559	65.38
228.793	72.38
229.027	71.38
229.262	71.38
229.496	66.38
229.73	65.38
229.964	85.38
230.199	83.38
230.433	71.38
230.667	107.38
230.901	92.38
231.136	81.38
231.37	76.38
231.604	85.38
231.838	73.38
232.072	81.38
232.306	97.38
232.541	91.38
232.775	83.38
233.009	89.38
233.243	98.38
233.477	97.38
233.711	84.38
233.945	89.38
234.179	90.38
234.413	90.38
234.647	100.38
234.881	102.38
235.115	84.38
235.349	79.38
235.583	88.38
235.817	85.38
236.051	81.38
236.285	74.38
236.519	90.38
236.753	84.38
236.987	79.38
237.221	68.38
237.455	92.38
237.689	98.38
237.922	77.38
238.156	94.38
238.39	79.38
238.624	71.38
238.858	90.38
239.091	83.38
239.325	78.38
239.559	81.38
239.793	72.38
240.027	97.38
240.26	86.38
240.494	87.38
240.728	79.38
240.961	93.38
241.195	84.38
241.429	89.38
241.662	63.38
241.896	69.38
242.13	92.38
242.363	68.38
242.597	71.38
242.83	80.38
243.064	84.38
243.298	80.38
243.531	70.38
243.765	83.38
243.998	97.38
244.232	92.38
244.465	77.38
244.699	75.38
244.932	89.38
245.166	90.38
245.399	99.38
245.633	81.38
245.866	89.38
246.099	71.38
246.333	87.38
246.566	97.38
246.8	103.38
247.033	99.38
247.266	85.38
247.5	88.38
247.733	98.38
247.966	81.38
248.2	95.38
248.433	91.38
248.666	92.38
248.899	88.38
249.133	88.38
249.366	101.38
249.599	93.38
249.832	93.38
250.066	101.38
250.299	93.38
250.532	93.38
250.765	93.38
250.998	73.38
251.231	85.38
251.465	105.38
251.698	83.38
251.931	97.38
252.164	80.38
252.397	87.38
252.63	104.38
252.863	97.38
253.096	90.38
253.329	114.38
253.562	91.38
253.795	95.38
254.028	101.38
254.261	97.38
254.494	80.38
254.727	96.38
254.96	107.38
255.193	87.38
255.426	91.38
255.659	95.38
255.892	93.38
256.124	98.38
256.357	88.38
256.59	90.38
256.823	79.38
257.056	95.38
257.289	101.38
257.521	84.38
257.754	94.38
257.987	93.38
258.22	93.38
258.452	92.38
258.685	87.38
258.918	87.38
259.151	100.38
259.383	85.38
259.616	89.38
259.849	100.38
260.081	97.38
260.314	107.38
260.547	79.38
260.779	90.38
261.012	81.38
261.244	98.38
261.477	98.38
261.71	105.38
261.942	86.38
262.175	102.38
262.407	87.38
262.64	85.38
262.872	94.38
263.105	112.38
263.337	99.38
263.57	92.38
263.802	99.38
264.035	106.38
264.267	95.38
264.499	88.38
264.732	89.38
264.964	96.38
265.197	87.38
265.429	93.38
265.661	101.38
265.894	95.38
266.126	97.38
266.358	96.38
266.591	99.38
266.823	103.38
267.055	94.38
267.287	90.38
267.52	98.38
267.752	98.38
267.984	112.38
268.216	108.38
268.448	105.38
268.681	96.38
268.913	97.38
269.145	89.38
269.377	110.38
269.609	94.38
269.841	93.38
270.073	107.38
270.306	105.38
270.538	91.38
270.77	85.38
271.002	97.38
271.234	96.38
271.466	106.38
271.698	96.38
271.93	99.38
272.162	103.38
272.394	99.38
272.626	88.38
272.858	101.38
273.09	92.38
273.322	99.38
273.553	101.38
273.785	105.38
274.017	87.38
274.249	100.38
274.481	97.38
274.713	77.38
274.945	92.38
275.176	90.38
275.408	113.38
275.64	96.38
275.872	86.38
276.104	106.38
276.335	101.38
276.567	103.38
276.799	100.38
277.031	102.38
277.262	106.38
277.494	93.38
277.726	98.38
277.957	105.38
278.189	95.38
278.421	87.38
278.652	96.38
278.884	100.38
279.115	87.38
279.347	109.38
279.579	108.38
279.81	95.38
280.042	103.38
280.273	101.38
280.505	98.38
280.736	100.38
280.968	107.38
281.199	106.38
281.431	97.38
281.662	104.38
281.894	91.38
282.125	109.38
282.356	109.38
282.588	103.38
282.819	87.38
283.051	95.38
283.282	104.38
283.513	117.38
283.745	103.38
283.976	106.38
284.207	95.38
284.439	100.38
284.67	105.38
284.901	126.38
285.132	94.38
285.364	93.38
285.595	114.38
285.826	102.38
286.057	108.38
286.288	105.38
286.52	109.38
286.751	98.38
286.982	109.38
287.213	100.38
287.444	109.38
287.675	111.38
287.906	122.38
288.138	104.38
288.369	109.38
288.6	120.38
288.831	108.38
289.062	111.38
289.293	108.38
289.524	100.38
289.755	110.38
289.986	120.38
290.217	100.38
290.448	89.38
290.679	111.38
290.91	109.38
291.141	101.38
291.371	100.38
291.602	96.38
291.833	105.38
292.064	111.38
292.295	107.38
292.526	104.38
292.757	104.38
292.987	95.38
293.218	98.38
293.449	99.38
293.68	105.38
293.91	107.38
294.141	108.38
294.372	88.38
294.603	102.38
294.833	98.38
295.064	108.38
295.295	105.38
295.525	88.38
295.756	112.38
295.987	105.38
296.217	116.38
296.448	103.38
296.679	105.38
296.909	102.38
297.14	99.38
297.37	137.38
297.601	109.38
297.831	104.38
298.062	113.38
298.292	110.38
298.523	108.38
298.753	116.38
298.984	104.38
299.214	95.38
299.445	109.38
299.675	109.38
299.905	120.38
300.136	105.38
300.366	113.38
300.597	102.38
300.827	93.38
301.057	107.38
301.288	101.38
301.518	106.38
301.748	113.38
301.979	129.38
302.209	106.38
302.439	119.38
302.669	99.38
302.9	95.38
303.13	112.38
303.36	109.38
303.59	116.38
303.82	114.38
304.051	116.38
304.281	115.38
304.511	135.38
304.741	109.38
304.971	109.38
305.201	101.38
305.431	114.38
305.661	135.38
305.891	112.38
306.121	110.38
306.352	117.38
306.582	105.38
306.812	98.38
307.042	100.38
307.272	103.38
307.502	113.38
307.731	109.38
307.961	120.38
308.191	117.38
308.421	107.38
308.651	118.38
308.881	120.38
309.111	112.38
309.341	111.38
309.571	101.38
309.8	123.38
310.03	118.38
310.26	104.38
310.49	110.38
310.72	105.38
310.949	99.38
311.179	99.38
311.409	109.38
311.639	104.38
311.868	129.38
312.098	120.38
312.328	98.38
312.557	113.38
312.787	116.38
313.017	119.38
313.246	124.38
313.476	107.38
313.706	98.38
313.935	99.38
314.165	100.38
314.394	119.38
314.624	108.38
314.853	107.38
315.083	117.38
315.312	108.38
315.542	105.38
315.771	117.38
316.001	108.38
316.23	115.38
316.46	103.38
316.689	112.38
316.919	115.38
317.148	107.38
317.377	117.38
317.607	132.38
317.836	106.38
318.065	101.38
318.295	115.38
318.524	112.38
318.753	124.38
318.983	99.38
319.212	122.38
319.441	104.38
319.67	107.38
319.9	105.38
320.129	99.38
320.358	110.38
320.587	100.38
320.816	114.38
321.046	115.38
321.275	111.38
321.504	111.38
321.733	96.38
321.962	120.38
322.191	106.38
322.42	99.38
322.649	123.38
322.878	105.38
323.108	114.38
323.337	115.38
323.566	105.38
323.795	115.38
324.024	113.38
324.253	107.38
324.482	106.38
324.71	108.38
324.939	111.38
325.168	111.38
325.397	107.38
325.626	105.38
325.855	106.38
326.084	103.38
326.313	106.38
326.542	103.38
326.77	121.38
326.999	103.38
327.228	124.38
327.457	100.38
327.686	107.38
327.914	113.38
328.143	116.38
328.372	105.38
328.6	116.38
328.829	116.38
329.058	127.38
329.287	118.38
329.515	112.38
329.744	99.38
329.972	114.38
330.201	118.38
330.43	113.38
330.658	113.38
330.887	112.38
331.115	111.38
331.344	106.38
331.572	131.38
331.801	119.38
332.03	95.38
332.258	116.38
332.486	121.38
332.715	119.38
332.943	111.38
333.172	126.38
333.4	120.38
333.629	128.38
333.857	122.38
334.085	129.38
334.314	131.38
334.542	122.38
334.771	124.38
334.999	113.38
335.227	112.38
335.455	98.38
335.684	142.38
335.912	112.38
336.14	109.38
336.369	107.38
336.597	135.38
336.825	106.38
337.053	138.38
337.281	109.38
337.51	102.38
337.738	116.38
337.966	117.38
338.194	114.38
338.422	105.38
338.65	120.38
338.878	115.38
339.106	119.38
339.334	128.38
339.562	116.38
339.79	112.38
340.018	108.38
340.246	99.38
340.474	116.38
340.702	117.38
340.93	107.38
341.158	101.38
341.386	105.38
341.614	121.38
341.842	111.38
342.07	97.38
342.298	105.38
342.526	109.38
342.754	113.38
342.981	115.38
343.209	109.38
343.437	133.38
343.665	119.38
343.893	110.38
344.12	139.38
344.348	130.38
344.576	119.38
344.804	118.38
345.031	116.38
345.259	115.38
345.487	109.38
345.714	100.38
345.942	109.38
346.17	106.38
346.397	108.38
346.625	96.38
346.853	106.38
347.08	118.38
347.308	131.38
347.535	104.38
347.763	112.38
347.99	109.38
348.218	131.38
348.445	100.38
348.673	121.38
348.9	120.38
349.128	123.38
349.355	124.38
349.583	125.38
349.81	97.38
350.037	111.38
350.265	116.38
350.492	126.38
350.72	100.38
350.947	121.38
351.174	104.38
351.402	105.38
351.629	111.38
351.856	106.38
352.083	102.38
352.311	119.38
352.538	113.38
352.765	109.38
352.992	127.38
353.22	124.38
353.447	116.38
353.674	119.38
353.901	123.38
354.128	118.38
354.355	91.38
354.583	111.38
354.81	110.38
355.037	121.38
355.264	112.38
355.491	113.38
355.718	118.38
355.945	127.38
356.172	116.38
356.399	131.38
356.626	123.38
356.853	104.38
357.08	114.38
357.307	119.38
357.534	116.38
357.761	140.38
357.988	126.38
358.215	115.38
358.441	92.38
358.668	111.38
358.895	100.38
359.122	121.38
359.349	131.38
359.576	98.38
359.802	101.38
360.029	112.38
360.256	122.38
360.483	101.38
360.709	121.38
360.936	138.38
361.163	118.38
361.39	111.38
361.616	105.38
361.843	112.38
362.07	100.38
362.296	115.38
362.523	110.38
362.749	110.38
362.976	107.38
363.203	118.38
363.429	122.38
363.656	104.38
363.882	108.38
364.109	120.38
364.335	114.38
364.562	118.38
364.788	111.38
365.015	114.38
365.241	110.38
365.468	115.38
365.694	110.38
365.92	115.38
366.147	113.38
366.373	119.38
366.599	105.38
366.826	113.38
367.052	112.38
367.278	117.38
367.505	112.38
367.731	112.38
367.957	111.38
368.184	116.38
368.41	124.38
368.636	101.38
368.862	114.38
369.089	97.38
369.315	112.38
369.541	116.38
369.767	111.38
369.993	121.38
370.219	105.38
370.445	95.38
370.672	102.38
370.898	105.38
371.124	121.38
371.35	109.38
371.576	131.38
371.802	99.38
372.028	103.38
372.254	112.38
372.48	113.38
372.706	105.38
372.932	122.38
373.158	107.38
373.384	113.38
373.61	114.38
373.835	119.38
374.061	111.38
374.287	119.38
374.513	119.38
374.739	108.38
374.965	114.38
375.191	115.38
375.416	121.38
375.642	120.38
375.868	123.38
376.094	127.38
376.319	108.38
376.545	115.38
376.771	115.38
376.997	114.38
377.222	100.38
377.448	110.38
377.674	117.38
377.899	111.38
378.125	110.38
378.35	131.38
378.576	125.38
378.802	113.38
379.027	116.38
379.253	110.38
379.478	109.38
379.704	114.38
379.929	100.38
380.155	105.38
380.38	118.38
380.606	121.38
380.831	115.38
381.057	125.38
381.282	106.38
381.507	106.38
381.733	115.38
381.958	111.38
382.184	105.38
382.409	125.38
382.634	115.38
382.86	122.38
383.085	127.38
383.31	127.38
383.535	123.38
383.761	116.38
383.986	121.38
384.211	114.38
384.436	131.38
384.662	123.38
384.887	115.38
385.112	113.38
385.337	123.38
385.562	112.38
385.787	111.38
386.013	120.38
386.238	103.38
386.463	130.38
386.688	158.38
386.913	110.38
387.138	109.38
387.363	132.38
387.588	132.38
387.813	112.38
388.038	121.38
388.263	129.38
388.488	132.38
388.713	129.38
388.938	104.38
389.163	115.38
389.387	122.38
389.612	117.38
389.837	127.38
390.062	127.38
390.287	115.38
390.512	123.38
390.736	122.38
390.961	109.38
391.186	129.38
391.411	109.38
391.636	111.38
391.86	112.38
392.085	123.38
392.31	130.38
392.534	119.38
392.759	132.38
392.984	131.38
393.208	134.38
393.433	128.38
393.658	113.38
393.882	135.38
394.107	112.38
394.331	127.38
394.556	128.38
394.78	122.38
395.005	123.38
395.229	110.38
395.454	113.38
395.678	118.38
395.903	125.38
396.127	133.38
396.352	119.38
396.576	111.38
396.801	132.38
397.025	122.38
397.249	131.38
397.474	128.38
397.698	119.38
397.922	133.38
398.147	114.38
398.371	119.38
398.595	128.38
398.82	145.38
399.044	128.38
399.268	136.38
399.492	165.38
399.717	151.38
399.941	156.38
400.165	169.38
400.389	160.38
400.613	140.38
400.837	139.38
401.062	137.38
401.286	134.38
401.51	121.38
401.734	111.38
401.958	144.38
402.182	132.38
402.406	119.38
402.63	121.38
402.854	132.38
403.078	130.38
403.302	127.38
403.526	132.38
403.75	157.38
403.974	150.38
404.198	150.38
404.422	133.38
404.645	136.38
404.869	133.38
405.093	127.38
405.317	143.38
405.541	134.38
405.765	130.38
405.988	147.38
406.212	155.38
406.436	148.38
406.66	139.38
406.883	128.38
407.107	135.38
407.331	145.38
407.555	150.38
407.778	152.38
408.002	130.38
408.226	145.38
408.449	130.38
408.673	127.38
408.896	125.38
409.12	137.38
409.344	112.38
409.567	134.38
409.791	138.38
410.014	152.38
410.238	143.38
410.461	143.38
410.685	146.38
410.908	134.38
411.132	139.38
411.355	136.38
411.578	134.38
411.802	130.38
412.025	144.38
412.249	132.38
412.472	122.38
412.695	117.38
412.919	125.38
413.142	143.38
413.365	122.38
413.589	136.38
413.812	131.38
414.035	149.38
414.258	141.38
414.482	137.38
414.705	139.38
414.928	137.38
415.151	147.38
415.374	125.38
415.597	128.38
415.821	133.38
416.044	126.38
416.267	146.38
416.49	125.38
416.713	128.38
416.936	131.38
417.159	139.38
417.382	128.38
417.605	135.38
417.828	142.38
418.051	134.38
418.274	134.38
418.497	124.38
418.72	139.38
418.943	128.38
419.166	135.38
419.389	130.38
419.611	117.38
419.834	136.38
420.057	136.38
420.28	139.38
420.503	133.38
420.726	137.38
420.948	126.38
421.171	124.38
421.394	105.38
421.617	130.38
421.839	135.38
422.062	137.38
422.285	114.38
422.507	139.38
422.73	148.38
422.953	125.38
423.175	120.38
423.398	147.38
423.621	137.38
423.843	122.38
424.066	142.38
424.288	146.38
424.511	162.38
424.733	129.38
424.956	121.38
425.178	130.38
425.401	111.38
425.623	127.38
425.846	120.38
426.068	124.38
426.291	124.38
426.513	130.38
426.735	121.38
426.958	135.38
427.18	130.38
427.402	137.38
427.625	119.38
427.847	128.38
428.069	126.38
428.292	136.38
428.514	123.38
428.736	133.38
428.958	128.38
429.181	119.38
429.403	137.38
429.625	138.38
429.847	132.38
430.069	131.38
430.292	128.38
430.514	120.38
430.736	118.38
430.958	134.38
431.18	131.38
431.402	122.38
431.624	124.38
431.846	123.38
432.068	117.38
432.29	139.38
432.512	140.38
432.734	116.38
432.956	122.38
433.178	138.38
433.4	133.38
433.622	134.38
433.844	135.38
434.066	117.38
434.287	118.38
434.509	136.38
434.731	133.38
434.953	132.38
435.175	139.38
435.397	138.38
435.618	132.38
435.84	122.38
436.062	129.38
436.284	127.38
436.505	112.38
436.727	109.38
436.949	123.38
437.17	120.38
437.392	121.38
437.614	120.38
437.835	105.38
438.057	128.38
438.278	126.38
438.5	117.38
438.721	121.38
438.943	112.38
439.165	135.38
439.386	135.38
439.608	132.38
439.829	114.38
440.05	123.38
440.272	136.38
440.493	123.38
440.715	122.38
440.936	134.38
441.158	126.38
441.379	124.38
441.6	122.38
441.822	131.38
442.043	146.38
442.264	122.38
442.486	121.38
442.707	127.38
442.928	129.38
443.149	129.38
443.371	134.38
443.592	135.38
443.813	123.38
444.034	136.38
444.255	145.38
444.476	125.38
444.698	131.38
444.919	153.38
445.14	383.38
445.361	255.38
445.582	150.38
445.803	133.38
446.024	129.38
446.245	127.38
446.466	116.38
446.687	130.38
446.908	134.38
447.129	140.38
447.35	116.38
447.571	118.38
447.792	109.38
448.013	132.38
448.234	129.38
448.455	106.38
448.675	129.38
448.896	131.38
449.117	115.38
449.338	118.38
449.559	129.38
449.779	122.38
450	121.38
450.221	106.38
450.442	122.38
450.662	128.38
450.883	112.38
451.104	135.38
451.324	120.38
451.545	127.38
451.766	111.38
451.986	127.38
452.207	118.38
452.428	124.38
452.648	133.38
452.869	127.38
453.089	107.38
453.31	129.38
453.53	104.38
453.751	107.38
453.971	116.38
454.192	116.38
454.412	103.38
454.633	131.38
454.853	122.38
455.073	120.38
455.294	116.38
455.514	132.38
455.734	111.38
455.955	121.38
456.175	108.38
456.395	112.38
456.616	117.38
456.836	122.38
457.056	123.38
457.276	114.38
457.497	123.38
457.717	114.38
457.937	119.38
458.157	105.38
458.377	109.38
458.598	113.38
458.818	119.38
459.038	126.38
459.258	120.38
459.478	117.38
459.698	115.38
459.918	141.38
460.138	106.38
460.358	124.38
460.578	130.38
460.798	161.38
461.018	125.38
461.238	121.38
461.458	152.38
461.678	137.38
461.898	124.38
462.118	130.38
462.338	122.38
462.558	116.38
462.777	135.38
462.997	129.38
463.217	160.38
463.437	147.38
463.657	143.38
463.876	136.38
464.096	135.38
464.316	134.38
464.536	139.38
464.755	144.38
464.975	130.38
465.195	135.38
465.414	129.38
465.634	132.38
465.854	131.38
466.073	133.38
466.293	128.38
466.512	117.38
466.732	120.38
466.951	122.38
467.171	107.38
467.391	116.38
467.61	123.38
467.829	130.38
468.049	127.38
468.268	115.38
468.488	111.38
468.707	136.38
468.927	121.38
469.146	131.38
469.365	109.38
469.585	131.38
469.804	122.38
470.023	115.38
470.243	142.38
470.462	112.38
470.681	131.38
470.901	119.38
471.12	122.38
471.339	132.38
471.558	117.38
471.777	109.38
471.997	117.38
472.216	115.38
472.435	119.38
472.654	117.38
472.873	116.38
473.092	111.38
473.311	137.38
473.53	116.38
473.749	117.38
473.968	135.38
474.187	135.38
474.406	108.38
474.625	121.38
474.844	130.38
475.063	122.38
475.282	114.38
475.501	112.38
475.72	129.38
475.939	117.38
476.158	132.38
476.377	117.38
476.596	128.38
476.814	117.38
477.033	124.38
477.252	142.38
477.471	122.38
477.69	121.38
477.908	136.38
478.127	138.38
478.346	121.38
478.564	131.38
478.783	114.38
479.002	132.38
479.22	137.38
479.439	144.38
479.658	135.38
479.876	135.38
480.095	134.38
480.313	147.38
480.532	140.38
480.751	145.38
480.969	118.38
481.188	146.38
481.406	133.38
481.624	129.38
481.843	120.38
482.061	134.38
482.28	113.38
482.498	115.38
482.717	133.38
482.935	134.38
483.153	119.38
483.372	134.38
483.59	120.38
483.808	133.38
484.027	149.38
484.245	122.38
484.463	124.38
484.681	146.38
484.9	125.38
485.118	122.38
485.336	127.38
485.554	138.38
485.772	122.38
485.99	133.38
486.209	136.38
486.427	141.38
486.645	135.38
486.863	132.38
487.081	115.38
487.299	115.38
487.517	122.38
487.735	119.38
487.953	107.38
488.171	128.38
488.389	118.38
488.607	124.38
488.825	110.38
489.043	127.38
489.261	131.38
489.479	126.38
489.696	134.38
489.914	133.38
490.132	124.38
490.35	143.38
490.568	129.38
490.786	135.38
491.003	124.38
491.221	136.38
491.439	132.38
491.657	126.38
491.874	129.38
492.092	135.38
492.31	135.38
492.527	144.38
492.745	130.38
492.963	146.38
493.18	129.38
493.398	120.38
493.615	135.38
493.833	150.38
494.05	136.38
494.268	122.38
494.485	145.38
494.703	138.38
494.92	128.38
495.138	130.38
495.355	132.38
495.573	121.38
495.79	129.38
496.008	140.38
496.225	138.38
496.442	140.38
496.66	142.38
496.877	137.38
497.094	164.38
497.312	125.38
497.529	145.38
497.746	148.38
497.963	145.38
498.181	143.38
498.398	148.38
498.615	144.38
498.832	155.38
499.049	149.38
499.267	171.38
499.484	174.38
499.701	191.38
499.918	201.38
500.135	233.38
500.352	232.38
500.569	244.38
500.786	236.38
501.003	234.38
501.22	199.38
501.437	195.38
501.654	168.38
501.871	167.38
502.088	171.38
502.305	172.38
502.522	169.38
502.739	145.38
502.956	132.38
503.172	150.38
503.389	136.38
503.606	155.38
503.823	146.38
504.04	164.38
504.256	161.38
504.473	137.38
504.69	134.38
504.907	164.38
505.123	139.38
505.34	130.38
505.557	129.38
505.773	143.38
