Data from SampD_HRD10591_00054.txt Node
Date: Mon Jan 19 11:41:39 EST 2026
User: Yrep
Spectrometer: HR+D1059
Trigger mode: 0
Integration Time (sec): 3.443000E-1
Scans to average: 1
Electric dark correction enabled: true
Nonlinearity correction enabled: false
Boxcar width: 0
XAxis mode: Wavelengths
Number of Pixels in Spectrum: 2048
>>>>>Begin Spectral Data<<<<<
223.165	-15.94
223.4	-15.94
223.635	-15.94
223.869	-18.94
224.104	-24.94
224.338	-15.94
224.573	-27.94
224.808	-10.94
225.042	-5.94
225.277	2.06
225.511	16.06
225.746	-5.94
225.98	11.06
226.215	12.06
226.449	10.06
226.683	28.06
226.918	14.06
227.152	33.06
227.387	38.06
227.621	40.06
227.856	49.06
228.09	37.06
228.324	42.06
228.559	63.06
228.793	70.06
229.027	76.06
229.262	62.06
229.496	51.06
229.73	71.06
229.964	78.06
230.199	88.06
230.433	75.06
230.667	76.06
230.901	92.06
231.136	81.06
231.37	84.06
231.604	76.06
231.838	86.06
232.072	93.06
232.306	83.06
232.541	73.06
232.775	88.06
233.009	86.06
233.243	94.06
233.477	78.06
233.711	81.06
233.945	91.06
234.179	91.06
234.413	91.06
234.647	95.06
234.881	72.06
235.115	87.06
235.349	76.06
235.583	82.06
235.817	89.06
236.051	79.06
236.285	98.06
236.519	83.06
236.753	80.06
236.987	87.06
237.221	83.06
237.455	74.06
237.689	74.06
237.922	81.06
238.156	90.06
238.39	82.06
238.624	84.06
238.858	86.06
239.091	88.06
239.325	78.06
239.559	81.06
239.793	93.06
240.027	91.06
240.26	72.06
240.494	99.06
240.728	92.06
240.961	84.06
241.195	97.06
241.429	70.06
241.662	84.06
241.896	81.06
242.13	88.06
242.363	71.06
242.597	99.06
242.83	83.06
243.064	78.06
243.298	83.06
243.531	98.06
243.765	80.06
243.998	83.06
244.232	97.06
244.465	95.06
244.699	97.06
244.932	80.06
245.166	78.06
245.399	81.06
245.633	99.06
245.866	87.06
246.099	87.06
246.333	86.06
246.566	86.06
246.8	86.06
247.033	101.06
247.266	93.06
247.5	100.06
247.733	95.06
247.966	70.06
248.2	81.06
248.433	101.06
248.666	85.06
248.899	95.06
249.133	92.06
249.366	115.06
249.599	85.06
249.832	92.06
250.066	106.06
250.299	84.06
250.532	87.06
250.765	80.06
250.998	99.06
251.231	95.06
251.465	96.06
251.698	103.06
251.931	90.06
252.164	90.06
252.397	88.06
252.63	92.06
252.863	102.06
253.096	94.06
253.329	91.06
253.562	88.06
253.795	99.06
254.028	94.06
254.261	94.06
254.494	106.06
254.727	106.06
254.96	97.06
255.193	78.06
255.426	98.06
255.659	82.06
255.892	98.06
256.124	99.06
256.357	100.06
256.59	96.06
256.823	106.06
257.056	102.06
257.289	89.06
257.521	104.06
257.754	83.06
257.987	97.06
258.22	96.06
258.452	97.06
258.685	112.06
258.918	86.06
259.151	99.06
259.383	112.06
259.616	97.06
259.849	79.06
260.081	101.06
260.314	88.06
260.547	88.06
260.779	97.06
261.012	106.06
261.244	103.06
261.477	108.06
261.71	92.06
261.942	92.06
262.175	102.06
262.407	110.06
262.64	96.06
262.872	99.06
263.105	104.06
263.337	106.06
263.57	102.06
263.802	97.06
264.035	106.06
264.267	111.06
264.499	93.06
264.732	111.06
264.964	94.06
265.197	100.06
265.429	100.06
265.661	108.06
265.894	78.06
266.126	105.06
266.358	100.06
266.591	109.06
266.823	90.06
267.055	82.06
267.287	98.06
267.52	94.06
267.752	90.06
267.984	119.06
268.216	112.06
268.448	88.06
268.681	105.06
268.913	96.06
269.145	119.06
269.377	105.06
269.609	92.06
269.841	114.06
270.073	98.06
270.306	103.06
270.538	98.06
270.77	113.06
271.002	104.06
271.234	104.06
271.466	112.06
271.698	110.06
271.93	109.06
272.162	101.06
272.394	109.06
272.626	90.06
272.858	103.06
273.09	105.06
273.322	116.06
273.553	97.06
273.785	108.06
274.017	112.06
274.249	116.06
274.481	90.06
274.713	93.06
274.945	114.06
275.176	107.06
275.408	92.06
275.64	105.06
275.872	117.06
276.104	97.06
276.335	117.06
276.567	103.06
276.799	106.06
277.031	106.06
277.262	100.06
277.494	110.06
277.726	109.06
277.957	121.06
278.189	106.06
278.421	120.06
278.652	110.06
278.884	121.06
279.115	109.06
279.347	113.06
279.579	95.06
279.81	113.06
280.042	119.06
280.273	108.06
280.505	106.06
280.736	90.06
280.968	105.06
281.199	129.06
281.431	121.06
281.662	119.06
281.894	103.06
282.125	114.06
282.356	125.06
282.588	102.06
282.819	111.06
283.051	114.06
283.282	113.06
283.513	111.06
283.745	130.06
283.976	128.06
284.207	129.06
284.439	116.06
284.67	131.06
284.901	125.06
285.132	106.06
285.364	117.06
285.595	116.06
285.826	105.06
286.057	109.06
286.288	118.06
286.52	125.06
286.751	106.06
286.982	113.06
287.213	113.06
287.444	126.06
287.675	117.06
287.906	110.06
288.138	126.06
288.369	122.06
288.6	124.06
288.831	115.06
289.062	128.06
289.293	123.06
289.524	116.06
289.755	115.06
289.986	110.06
290.217	135.06
290.448	118.06
290.679	125.06
290.91	129.06
291.141	120.06
291.371	134.06
291.602	117.06
291.833	121.06
292.064	132.06
292.295	122.06
292.526	122.06
292.757	129.06
292.987	110.06
293.218	129.06
293.449	111.06
293.68	124.06
293.91	119.06
294.141	133.06
294.372	113.06
294.603	139.06
294.833	123.06
295.064	121.06
295.295	122.06
295.525	120.06
295.756	117.06
295.987	130.06
296.217	114.06
296.448	135.06
296.679	125.06
296.909	122.06
297.14	117.06
297.37	115.06
297.601	118.06
297.831	108.06
298.062	114.06
298.292	126.06
298.523	125.06
298.753	129.06
298.984	130.06
299.214	126.06
299.445	128.06
299.675	134.06
299.905	132.06
300.136	117.06
300.366	122.06
300.597	122.06
300.827	114.06
301.057	149.06
301.288	122.06
301.518	117.06
301.748	120.06
301.979	155.06
302.209	127.06
302.439	127.06
302.669	124.06
302.9	137.06
303.13	129.06
303.36	118.06
303.59	133.06
303.82	114.06
304.051	118.06
304.281	118.06
304.511	137.06
304.741	127.06
304.971	133.06
305.201	134.06
305.431	122.06
305.661	132.06
305.891	124.06
306.121	152.06
306.352	124.06
306.582	134.06
306.812	120.06
307.042	130.06
307.272	129.06
307.502	117.06
307.731	119.06
307.961	114.06
308.191	122.06
308.421	127.06
308.651	137.06
308.881	124.06
309.111	137.06
309.341	120.06
309.571	124.06
309.8	125.06
310.03	119.06
310.26	135.06
310.49	111.06
310.72	121.06
310.949	128.06
311.179	125.06
311.409	114.06
311.639	118.06
311.868	120.06
312.098	124.06
312.328	131.06
312.557	131.06
312.787	115.06
313.017	126.06
313.246	133.06
313.476	122.06
313.706	108.06
313.935	129.06
314.165	126.06
314.394	117.06
314.624	141.06
314.853	131.06
315.083	123.06
315.312	125.06
315.542	124.06
315.771	115.06
316.001	134.06
316.23	129.06
316.46	126.06
316.689	125.06
316.919	124.06
317.148	128.06
317.377	135.06
317.607	133.06
317.836	125.06
318.065	148.06
318.295	149.06
318.524	133.06
318.753	119.06
318.983	112.06
319.212	118.06
319.441	102.06
319.67	139.06
319.9	132.06
320.129	134.06
320.358	126.06
320.587	126.06
320.816	120.06
321.046	140.06
321.275	141.06
321.504	128.06
321.733	135.06
321.962	129.06
322.191	130.06
322.42	132.06
322.649	151.06
322.878	135.06
323.108	140.06
323.337	125.06
323.566	152.06
323.795	117.06
324.024	157.06
324.253	129.06
324.482	135.06
324.71	133.06
324.939	148.06
325.168	124.06
325.397	137.06
325.626	136.06
325.855	123.06
326.084	144.06
326.313	137.06
326.542	127.06
326.77	135.06
326.999	125.06
327.228	141.06
327.457	149.06
327.686	128.06
327.914	135.06
328.143	147.06
328.372	137.06
328.6	138.06
328.829	136.06
329.058	143.06
329.287	133.06
329.515	121.06
329.744	124.06
329.972	123.06
330.201	133.06
330.43	135.06
330.658	138.06
330.887	125.06
331.115	130.06
331.344	138.06
331.572	149.06
331.801	138.06
332.03	156.06
332.258	136.06
332.486	162.06
332.715	138.06
332.943	155.06
333.172	150.06
333.4	169.06
333.629	165.06
333.857	151.06
334.085	161.06
334.314	152.06
334.542	163.06
334.771	133.06
334.999	152.06
335.227	146.06
335.455	157.06
335.684	150.06
335.912	153.06
336.14	152.06
336.369	153.06
336.597	154.06
336.825	157.06
337.053	140.06
337.281	127.06
337.51	148.06
337.738	150.06
337.966	122.06
338.194	136.06
338.422	143.06
338.65	143.06
338.878	135.06
339.106	130.06
339.334	137.06
339.562	146.06
339.79	142.06
340.018	137.06
340.246	140.06
340.474	136.06
340.702	155.06
340.93	133.06
341.158	145.06
341.386	133.06
341.614	141.06
341.842	131.06
342.07	144.06
342.298	133.06
342.526	126.06
342.754	134.06
342.981	140.06
343.209	137.06
343.437	164.06
343.665	146.06
343.893	144.06
344.12	156.06
344.348	147.06
344.576	140.06
344.804	137.06
345.031	140.06
345.259	143.06
345.487	141.06
345.714	133.06
345.942	146.06
346.17	133.06
346.397	137.06
346.625	153.06
346.853	142.06
347.08	129.06
347.308	154.06
347.535	134.06
347.763	133.06
347.99	130.06
348.218	137.06
348.445	124.06
348.673	145.06
348.9	142.06
349.128	145.06
349.355	130.06
349.583	136.06
349.81	122.06
350.037	131.06
350.265	125.06
350.492	118.06
350.72	128.06
350.947	131.06
351.174	135.06
351.402	149.06
351.629	130.06
351.856	135.06
352.083	133.06
352.311	129.06
352.538	118.06
352.765	143.06
352.992	140.06
353.22	136.06
353.447	125.06
353.674	129.06
353.901	142.06
354.128	140.06
354.355	135.06
354.583	124.06
354.81	158.06
355.037	164.06
355.264	134.06
355.491	137.06
355.718	133.06
355.945	138.06
356.172	134.06
356.399	113.06
356.626	132.06
356.853	142.06
357.08	136.06
357.307	118.06
357.534	115.06
357.761	138.06
357.988	125.06
358.215	142.06
358.441	118.06
358.668	137.06
358.895	128.06
359.122	140.06
359.349	135.06
359.576	122.06
359.802	145.06
360.029	135.06
360.256	149.06
360.483	144.06
360.709	127.06
360.936	138.06
361.163	140.06
361.39	129.06
361.616	140.06
361.843	138.06
362.07	126.06
362.296	124.06
362.523	127.06
362.749	131.06
362.976	125.06
363.203	143.06
363.429	136.06
363.656	127.06
363.882	113.06
364.109	138.06
364.335	132.06
364.562	126.06
364.788	150.06
365.015	142.06
365.241	130.06
365.468	144.06
365.694	127.06
365.92	129.06
366.147	125.06
366.373	123.06
366.599	136.06
366.826	130.06
367.052	125.06
367.278	146.06
367.505	139.06
367.731	140.06
367.957	128.06
368.184	115.06
368.41	133.06
368.636	131.06
368.862	149.06
369.089	145.06
369.315	141.06
369.541	142.06
369.767	142.06
369.993	144.06
370.219	131.06
370.445	124.06
370.672	125.06
370.898	144.06
371.124	150.06
371.35	119.06
371.576	144.06
371.802	137.06
372.028	148.06
372.254	142.06
372.48	170.06
372.706	144.06
372.932	161.06
373.158	138.06
373.384	142.06
373.61	156.06
373.835	144.06
374.061	142.06
374.287	133.06
374.513	144.06
374.739	145.06
374.965	128.06
375.191	140.06
375.416	160.06
375.642	151.06
375.868	154.06
376.094	145.06
376.319	148.06
376.545	152.06
376.771	146.06
376.997	126.06
377.222	124.06
377.448	129.06
377.674	146.06
377.899	122.06
378.125	142.06
378.35	156.06
378.576	134.06
378.802	136.06
379.027	157.06
379.253	144.06
379.478	145.06
379.704	134.06
379.929	141.06
380.155	140.06
380.38	145.06
380.606	141.06
380.831	138.06
381.057	154.06
381.282	136.06
381.507	133.06
381.733	166.06
381.958	142.06
382.184	128.06
382.409	138.06
382.634	146.06
382.86	152.06
383.085	146.06
383.31	149.06
383.535	160.06
383.761	143.06
383.986	158.06
384.211	153.06
384.436	150.06
384.662	154.06
384.887	164.06
385.112	165.06
385.337	157.06
385.562	153.06
385.787	171.06
386.013	164.06
386.238	168.06
386.463	149.06
386.688	186.06
386.913	145.06
387.138	140.06
387.363	162.06
387.588	170.06
387.813	158.06
388.038	162.06
388.263	162.06
388.488	171.06
388.713	154.06
388.938	146.06
389.163	163.06
389.387	160.06
389.612	144.06
389.837	147.06
390.062	147.06
390.287	161.06
390.512	159.06
390.736	161.06
390.961	156.06
391.186	152.06
391.411	170.06
391.636	161.06
391.86	148.06
392.085	153.06
392.31	156.06
392.534	174.06
392.759	156.06
392.984	173.06
393.208	160.06
393.433	161.06
393.658	165.06
393.882	156.06
394.107	154.06
394.331	163.06
394.556	158.06
394.78	184.06
395.005	176.06
395.229	156.06
395.454	164.06
395.678	171.06
395.903	164.06
396.127	174.06
396.352	159.06
396.576	171.06
396.801	170.06
397.025	164.06
397.249	165.06
397.474	178.06
397.698	150.06
397.922	165.06
398.147	162.06
398.371	158.06
398.595	164.06
398.82	170.06
399.044	188.06
399.268	196.06
399.492	221.06
399.717	248.06
399.941	216.06
400.165	197.06
400.389	182.06
400.613	186.06
400.837	196.06
401.062	171.06
401.286	190.06
401.51	180.06
401.734	158.06
401.958	201.06
402.182	195.06
402.406	177.06
402.63	176.06
402.854	187.06
403.078	185.06
403.302	191.06
403.526	210.06
403.75	197.06
403.974	192.06
404.198	193.06
404.422	197.06
404.645	184.06
404.869	178.06
405.093	199.06
405.317	196.06
405.541	188.06
405.765	188.06
405.988	184.06
406.212	206.06
406.436	178.06
406.66	205.06
406.883	219.06
407.107	197.06
407.331	191.06
407.555	194.06
407.778	220.06
408.002	192.06
408.226	206.06
408.449	193.06
408.673	184.06
408.896	192.06
409.12	196.06
409.344	195.06
409.567	196.06
409.791	195.06
410.014	198.06
410.238	191.06
410.461	171.06
410.685	215.06
410.908	198.06
411.132	191.06
411.355	172.06
411.578	196.06
411.802	180.06
412.025	188.06
412.249	185.06
412.472	185.06
412.695	170.06
412.919	178.06
413.142	186.06
413.365	162.06
413.589	184.06
413.812	185.06
414.035	185.06
414.258	164.06
414.482	171.06
414.705	188.06
414.928	179.06
415.151	188.06
415.374	167.06
415.597	185.06
415.821	173.06
416.044	182.06
416.267	195.06
416.49	174.06
416.713	166.06
416.936	186.06
417.159	179.06
417.382	187.06
417.605	179.06
417.828	200.06
418.051	183.06
418.274	176.06
418.497	174.06
418.72	202.06
418.943	194.06
419.166	178.06
419.389	190.06
419.611	195.06
419.834	189.06
420.057	175.06
420.28	168.06
420.503	162.06
420.726	165.06
420.948	192.06
421.171	169.06
421.394	177.06
421.617	183.06
421.839	162.06
422.062	181.06
422.285	180.06
422.507	189.06
422.73	174.06
422.953	191.06
423.175	176.06
423.398	194.06
423.621	210.06
423.843	182.06
424.066	204.06
424.288	175.06
424.511	184.06
424.733	188.06
424.956	183.06
425.178	186.06
425.401	192.06
425.623	184.06
425.846	175.06
426.068	188.06
426.291	188.06
426.513	178.06
426.735	181.06
426.958	174.06
427.18	198.06
427.402	189.06
427.625	166.06
427.847	169.06
428.069	169.06
428.292	162.06
428.514	183.06
428.736	176.06
428.958	166.06
429.181	177.06
429.403	165.06
429.625	175.06
429.847	164.06
430.069	152.06
430.292	182.06
430.514	165.06
430.736	168.06
430.958	167.06
431.18	175.06
431.402	186.06
431.624	155.06
431.846	168.06
432.068	148.06
432.29	160.06
432.512	171.06
432.734	162.06
432.956	176.06
433.178	167.06
433.4	159.06
433.622	174.06
433.844	152.06
434.066	162.06
434.287	160.06
434.509	169.06
434.731	175.06
434.953	188.06
435.175	174.06
435.397	173.06
435.618	173.06
435.84	184.06
436.062	175.06
436.284	175.06
436.505	167.06
436.727	178.06
436.949	178.06
437.17	181.06
437.392	162.06
437.614	144.06
437.835	164.06
438.057	177.06
438.278	161.06
438.5	145.06
438.721	169.06
438.943	163.06
439.165	158.06
439.386	167.06
439.608	179.06
439.829	166.06
440.05	188.06
440.272	168.06
440.493	180.06
440.715	177.06
440.936	168.06
441.158	178.06
441.379	182.06
441.6	184.06
441.822	193.06
442.043	176.06
442.264	181.06
442.486	188.06
442.707	181.06
442.928	177.06
443.149	169.06
443.371	168.06
443.592	170.06
443.813	190.06
444.034	186.06
444.255	203.06
444.476	194.06
444.698	198.06
444.919	197.06
445.14	442.06
445.361	302.06
445.582	202.06
445.803	183.06
446.024	173.06
446.245	176.06
446.466	189.06
446.687	169.06
446.908	160.06
447.129	188.06
447.35	177.06
447.571	173.06
447.792	163.06
448.013	154.06
448.234	162.06
448.455	150.06
448.675	161.06
448.896	168.06
449.117	165.06
449.338	153.06
449.559	160.06
449.779	146.06
450	172.06
450.221	145.06
450.442	163.06
450.662	166.06
450.883	167.06
451.104	158.06
451.324	166.06
451.545	153.06
451.766	161.06
451.986	175.06
452.207	137.06
452.428	176.06
452.648	150.06
452.869	163.06
453.089	144.06
453.31	152.06
453.53	165.06
453.751	178.06
453.971	137.06
454.192	146.06
454.412	136.06
454.633	147.06
454.853	158.06
455.073	162.06
455.294	154.06
455.514	157.06
455.734	132.06
455.955	152.06
456.175	144.06
456.395	160.06
456.616	163.06
456.836	151.06
457.056	145.06
457.276	148.06
457.497	162.06
457.717	156.06
457.937	154.06
458.157	164.06
458.377	153.06
458.598	151.06
458.818	155.06
459.038	158.06
459.258	173.06
459.478	169.06
459.698	167.06
459.918	168.06
460.138	191.06
460.358	168.06
460.578	197.06
460.798	178.06
461.018	182.06
461.238	190.06
461.458	171.06
461.678	159.06
461.898	202.06
462.118	184.06
462.338	192.06
462.558	200.06
462.777	196.06
462.997	220.06
463.217	212.06
463.437	219.06
463.657	210.06
463.876	217.06
464.096	204.06
464.316	205.06
464.536	192.06
464.755	199.06
464.975	192.06
465.195	197.06
465.414	176.06
465.634	178.06
465.854	162.06
466.073	178.06
466.293	149.06
466.512	182.06
466.732	159.06
466.951	153.06
467.171	169.06
467.391	168.06
467.61	172.06
467.829	152.06
468.049	160.06
468.268	154.06
468.488	145.06
468.707	168.06
468.927	166.06
469.146	160.06
469.365	182.06
469.585	158.06
469.804	170.06
470.023	169.06
470.243	176.06
470.462	174.06
470.681	169.06
470.901	164.06
471.12	167.06
471.339	168.06
471.558	167.06
471.777	176.06
471.997	174.06
472.216	168.06
472.435	167.06
472.654	140.06
472.873	159.06
473.092	169.06
473.311	170.06
473.53	145.06
473.749	150.06
473.968	162.06
474.187	165.06
474.406	160.06
474.625	158.06
474.844	146.06
475.063	160.06
475.282	164.06
475.501	166.06
475.72	153.06
475.939	156.06
476.158	164.06
476.377	149.06
476.596	165.06
476.814	160.06
477.033	185.06
477.252	168.06
477.471	165.06
477.69	160.06
477.908	167.06
478.127	173.06
478.346	173.06
478.564	197.06
478.783	191.06
479.002	187.06
479.22	184.06
479.439	179.06
479.658	181.06
479.876	192.06
480.095	177.06
480.313	184.06
480.532	198.06
480.751	175.06
480.969	174.06
481.188	159.06
481.406	177.06
481.624	164.06
481.843	157.06
482.061	160.06
482.28	162.06
482.498	177.06
482.717	175.06
482.935	181.06
483.153	170.06
483.372	186.06
483.59	170.06
483.808	179.06
484.027	170.06
484.245	182.06
484.463	170.06
484.681	173.06
484.9	174.06
485.118	180.06
485.336	170.06
485.554	184.06
485.772	175.06
485.99	185.06
486.209	188.06
486.427	179.06
486.645	179.06
486.863	181.06
487.081	176.06
487.299	167.06
487.517	192.06
487.735	182.06
487.953	185.06
488.171	166.06
488.389	185.06
488.607	166.06
488.825	180.06
489.043	184.06
489.261	184.06
489.479	163.06
489.696	180.06
489.914	186.06
490.132	183.06
490.35	188.06
490.568	195.06
490.786	173.06
491.003	189.06
491.221	175.06
491.439	173.06
491.657	190.06
491.874	180.06
492.092	175.06
492.31	194.06
492.527	183.06
492.745	176.06
492.963	192.06
493.18	189.06
493.398	184.06
493.615	188.06
493.833	166.06
494.05	176.06
494.268	195.06
494.485	194.06
494.703	191.06
494.92	183.06
495.138	183.06
495.355	169.06
495.573	190.06
495.79	184.06
496.008	192.06
496.225	182.06
496.442	201.06
496.66	190.06
496.877	186.06
497.094	205.06
497.312	198.06
497.529	220.06
497.746	216.06
497.963	204.06
498.181	202.06
498.398	230.06
498.615	209.06
498.832	223.06
499.049	241.06
499.267	272.06
499.484	295.06
499.701	301.06
499.918	313.06
500.135	359.06
500.352	412.06
500.569	423.06
500.786	406.06
501.003	373.06
501.22	332.06
501.437	307.06
501.654	278.06
501.871	264.06
502.088	231.06
502.305	243.06
502.522	214.06
502.739	233.06
502.956	218.06
503.172	203.06
503.389	207.06
503.606	193.06
503.823	218.06
504.04	194.06
504.256	192.06
504.473	206.06
504.69	201.06
