Data from SampD_HRD10591_00006.txt Node
Date: Mon Jan 19 11:41:23 EST 2026
User: Yrep
Spectrometer: HR+D1059
Trigger mode: 0
Integration Time (sec): 3.443000E-1
Scans to average: 1
Electric dark correction enabled: true
Nonlinearity correction enabled: false
Boxcar width: 0
XAxis mode: Wavelengths
Number of Pixels in Spectrum: 2048
>>>>>Begin Spectral Data<<<<<
223.165	-30.5
223.4	-30.5
223.635	-30.5
223.869	-27.5
224.104	-22.5
224.338	0.5
224.573	-22.5
224.808	-18.5
225.042	-2.5
225.277	-15.5
225.511	3.5
225.746	7.5
225.98	21.5
226.215	-2.5
226.449	20.5
226.683	24.5
226.918	33.5
227.152	30.5
227.387	25.5
227.621	40.5
227.856	46.5
228.09	51.5
228.324	54.5
228.559	49.5
228.793	48.5
229.027	71.5
229.262	79.5
229.496	78.5
229.73	73.5
229.964	80.5
230.199	73.5
230.433	79.5
230.667	79.5
230.901	89.5
231.136	78.5
231.37	83.5
231.604	78.5
231.838	70.5
232.072	78.5
232.306	81.5
232.541	90.5
232.775	76.5
233.009	86.5
233.243	89.5
233.477	87.5
233.711	94.5
233.945	84.5
234.179	69.5
234.413	92.5
234.647	78.5
234.881	73.5
235.115	81.5
235.349	76.5
235.583	86.5
235.817	81.5
236.051	88.5
236.285	78.5
236.519	76.5
236.753	82.5
236.987	109.5
237.221	89.5
237.455	81.5
237.689	85.5
237.922	76.5
238.156	77.5
238.39	72.5
238.624	78.5
238.858	92.5
239.091	81.5
239.325	87.5
239.559	80.5
239.793	93.5
240.027	91.5
240.26	55.5
240.494	81.5
240.728	76.5
240.961	73.5
241.195	86.5
241.429	76.5
241.662	72.5
241.896	73.5
242.13	81.5
242.363	82.5
242.597	80.5
242.83	93.5
243.064	80.5
243.298	88.5
243.531	80.5
243.765	70.5
243.998	82.5
244.232	95.5
244.465	97.5
244.699	76.5
244.932	78.5
245.166	76.5
245.399	97.5
245.633	88.5
245.866	75.5
246.099	72.5
246.333	90.5
246.566	85.5
246.8	88.5
247.033	97.5
247.266	80.5
247.5	70.5
247.733	97.5
247.966	99.5
248.2	70.5
248.433	71.5
248.666	80.5
248.899	93.5
249.133	93.5
249.366	111.5
249.599	90.5
249.832	85.5
250.066	85.5
250.299	80.5
250.532	94.5
250.765	94.5
250.998	97.5
251.231	76.5
251.465	80.5
251.698	84.5
251.931	85.5
252.164	85.5
252.397	84.5
252.63	78.5
252.863	85.5
253.096	82.5
253.329	94.5
253.562	97.5
253.795	95.5
254.028	92.5
254.261	102.5
254.494	76.5
254.727	92.5
254.96	88.5
255.193	91.5
255.426	82.5
255.659	78.5
255.892	93.5
256.124	83.5
256.357	103.5
256.59	94.5
256.823	83.5
257.056	92.5
257.289	94.5
257.521	96.5
257.754	87.5
257.987	76.5
258.22	93.5
258.452	81.5
258.685	89.5
258.918	79.5
259.151	79.5
259.383	78.5
259.616	100.5
259.849	100.5
260.081	71.5
260.314	86.5
260.547	88.5
260.779	90.5
261.012	95.5
261.244	92.5
261.477	122.5
261.71	81.5
261.942	72.5
262.175	94.5
262.407	88.5
262.64	94.5
262.872	90.5
263.105	85.5
263.337	95.5
263.57	103.5
263.802	94.5
264.035	90.5
264.267	89.5
264.499	89.5
264.732	103.5
264.964	103.5
265.197	92.5
265.429	80.5
265.661	93.5
265.894	95.5
266.126	112.5
266.358	89.5
266.591	92.5
266.823	99.5
267.055	95.5
267.287	89.5
267.52	70.5
267.752	101.5
267.984	100.5
268.216	89.5
268.448	96.5
268.681	101.5
268.913	84.5
269.145	96.5
269.377	87.5
269.609	97.5
269.841	95.5
270.073	96.5
270.306	85.5
270.538	90.5
270.77	100.5
271.002	98.5
271.234	100.5
271.466	116.5
271.698	88.5
271.93	98.5
272.162	103.5
272.394	120.5
272.626	92.5
272.858	88.5
273.09	99.5
273.322	99.5
273.553	99.5
273.785	85.5
274.017	86.5
274.249	106.5
274.481	101.5
274.713	97.5
274.945	110.5
275.176	89.5
275.408	99.5
275.64	95.5
275.872	68.5
276.104	95.5
276.335	88.5
276.567	110.5
276.799	105.5
277.031	103.5
277.262	97.5
277.494	100.5
277.726	99.5
277.957	96.5
278.189	95.5
278.421	107.5
278.652	106.5
278.884	104.5
279.115	90.5
279.347	101.5
279.579	98.5
279.81	106.5
280.042	100.5
280.273	102.5
280.505	105.5
280.736	101.5
280.968	100.5
281.199	96.5
281.431	100.5
281.662	103.5
281.894	114.5
282.125	100.5
282.356	99.5
282.588	99.5
282.819	108.5
283.051	103.5
283.282	98.5
283.513	118.5
283.745	116.5
283.976	116.5
284.207	107.5
284.439	116.5
284.67	101.5
284.901	105.5
285.132	106.5
285.364	102.5
285.595	107.5
285.826	91.5
286.057	112.5
286.288	100.5
286.52	96.5
286.751	91.5
286.982	84.5
287.213	89.5
287.444	99.5
287.675	128.5
287.906	100.5
288.138	102.5
288.369	86.5
288.6	99.5
288.831	88.5
289.062	115.5
289.293	100.5
289.524	96.5
289.755	110.5
289.986	97.5
290.217	110.5
290.448	105.5
290.679	105.5
290.91	111.5
291.141	101.5
291.371	101.5
291.602	109.5
291.833	112.5
292.064	97.5
292.295	120.5
292.526	100.5
292.757	99.5
292.987	98.5
293.218	106.5
293.449	101.5
293.68	106.5
293.91	112.5
294.141	116.5
294.372	90.5
294.603	111.5
294.833	92.5
295.064	99.5
295.295	100.5
295.525	113.5
295.756	119.5
295.987	110.5
296.217	110.5
296.448	91.5
296.679	106.5
296.909	106.5
297.14	108.5
297.37	114.5
297.601	109.5
297.831	111.5
298.062	88.5
298.292	101.5
298.523	124.5
298.753	110.5
298.984	118.5
299.214	105.5
299.445	106.5
299.675	111.5
299.905	111.5
300.136	109.5
300.366	108.5
300.597	111.5
300.827	111.5
301.057	100.5
301.288	108.5
301.518	102.5
301.748	104.5
301.979	132.5
302.209	104.5
302.439	100.5
302.669	113.5
302.9	121.5
303.13	123.5
303.36	102.5
303.59	102.5
303.82	111.5
304.051	115.5
304.281	120.5
304.511	127.5
304.741	102.5
304.971	116.5
305.201	106.5
305.431	120.5
305.661	112.5
305.891	109.5
306.121	108.5
306.352	115.5
306.582	103.5
306.812	112.5
307.042	104.5
307.272	104.5
307.502	90.5
307.731	110.5
307.961	106.5
308.191	109.5
308.421	111.5
308.651	110.5
308.881	93.5
309.111	98.5
309.341	113.5
309.571	99.5
309.8	109.5
310.03	102.5
310.26	105.5
310.49	120.5
310.72	100.5
310.949	96.5
311.179	125.5
311.409	95.5
311.639	112.5
311.868	108.5
312.098	104.5
312.328	111.5
312.557	112.5
312.787	110.5
313.017	105.5
313.246	105.5
313.476	85.5
313.706	95.5
313.935	103.5
314.165	117.5
314.394	110.5
314.624	116.5
314.853	99.5
315.083	106.5
315.312	110.5
315.542	110.5
315.771	104.5
316.001	119.5
316.23	121.5
316.46	114.5
316.689	104.5
316.919	108.5
317.148	109.5
317.377	108.5
317.607	109.5
317.836	104.5
318.065	93.5
318.295	119.5
318.524	105.5
318.753	108.5
318.983	120.5
319.212	110.5
319.441	100.5
319.67	128.5
319.9	111.5
320.129	98.5
320.358	113.5
320.587	102.5
320.816	109.5
321.046	119.5
321.275	118.5
321.504	103.5
321.733	115.5
321.962	103.5
322.191	110.5
322.42	110.5
322.649	101.5
322.878	104.5
323.108	116.5
323.337	107.5
323.566	104.5
323.795	110.5
324.024	129.5
324.253	118.5
324.482	113.5
324.71	117.5
324.939	109.5
325.168	117.5
325.397	109.5
325.626	100.5
325.855	118.5
326.084	101.5
326.313	107.5
326.542	98.5
326.77	109.5
326.999	109.5
327.228	117.5
327.457	119.5
327.686	111.5
327.914	119.5
328.143	109.5
328.372	111.5
328.6	116.5
328.829	118.5
329.058	102.5
329.287	108.5
329.515	111.5
329.744	111.5
329.972	107.5
330.201	124.5
330.43	117.5
330.658	119.5
330.887	109.5
331.115	125.5
331.344	122.5
331.572	118.5
331.801	105.5
332.03	122.5
332.258	130.5
332.486	111.5
332.715	121.5
332.943	129.5
333.172	135.5
333.4	136.5
333.629	135.5
333.857	121.5
334.085	110.5
334.314	134.5
334.542	113.5
334.771	129.5
334.999	118.5
335.227	119.5
335.455	121.5
335.684	124.5
335.912	125.5
336.14	116.5
336.369	118.5
336.597	114.5
336.825	124.5
337.053	115.5
337.281	120.5
337.51	111.5
337.738	129.5
337.966	113.5
338.194	105.5
338.422	116.5
338.65	116.5
338.878	118.5
339.106	119.5
339.334	119.5
339.562	109.5
339.79	123.5
340.018	110.5
340.246	117.5
340.474	126.5
340.702	116.5
340.93	110.5
341.158	109.5
341.386	111.5
341.614	122.5
341.842	109.5
342.07	103.5
342.298	103.5
342.526	100.5
342.754	104.5
342.981	113.5
343.209	105.5
343.437	145.5
343.665	120.5
343.893	127.5
344.12	136.5
344.348	118.5
344.576	118.5
344.804	103.5
345.031	109.5
345.259	116.5
345.487	116.5
345.714	108.5
345.942	114.5
346.17	115.5
346.397	126.5
346.625	102.5
346.853	99.5
347.08	99.5
347.308	110.5
347.535	102.5
347.763	110.5
347.99	118.5
348.218	109.5
348.445	120.5
348.673	121.5
348.9	117.5
349.128	129.5
349.355	113.5
349.583	119.5
349.81	101.5
350.037	106.5
350.265	120.5
350.492	102.5
350.72	124.5
350.947	114.5
351.174	109.5
351.402	117.5
351.629	108.5
351.856	100.5
352.083	114.5
352.311	112.5
352.538	101.5
352.765	108.5
352.992	124.5
353.22	101.5
353.447	109.5
353.674	111.5
353.901	115.5
354.128	111.5
354.355	103.5
354.583	108.5
354.81	110.5
355.037	116.5
355.264	117.5
355.491	113.5
355.718	106.5
355.945	113.5
356.172	119.5
356.399	103.5
356.626	105.5
356.853	104.5
357.08	117.5
357.307	129.5
357.534	106.5
357.761	110.5
357.988	114.5
358.215	131.5
358.441	114.5
358.668	103.5
358.895	115.5
359.122	104.5
359.349	106.5
359.576	119.5
359.802	106.5
360.029	119.5
360.256	110.5
360.483	97.5
360.709	103.5
360.936	122.5
361.163	92.5
361.39	108.5
361.616	115.5
361.843	114.5
362.07	104.5
362.296	107.5
362.523	105.5
362.749	103.5
362.976	115.5
363.203	121.5
363.429	116.5
363.656	106.5
363.882	110.5
364.109	100.5
364.335	103.5
364.562	122.5
364.788	103.5
365.015	106.5
365.241	110.5
365.468	112.5
365.694	98.5
365.92	104.5
366.147	105.5
366.373	105.5
366.599	106.5
366.826	100.5
367.052	114.5
367.278	108.5
367.505	119.5
367.731	112.5
367.957	106.5
368.184	99.5
368.41	106.5
368.636	120.5
368.862	117.5
369.089	104.5
369.315	124.5
369.541	121.5
369.767	118.5
369.993	105.5
370.219	116.5
370.445	116.5
370.672	111.5
370.898	124.5
371.124	112.5
371.35	102.5
371.576	114.5
371.802	100.5
372.028	116.5
372.254	112.5
372.48	105.5
372.706	112.5
372.932	120.5
373.158	116.5
373.384	130.5
373.61	111.5
373.835	117.5
374.061	117.5
374.287	112.5
374.513	110.5
374.739	123.5
374.965	114.5
375.191	124.5
375.416	127.5
375.642	101.5
375.868	124.5
376.094	117.5
376.319	101.5
376.545	124.5
376.771	122.5
376.997	130.5
377.222	109.5
377.448	126.5
377.674	106.5
377.899	105.5
378.125	116.5
378.35	117.5
378.576	110.5
378.802	115.5
379.027	117.5
379.253	122.5
379.478	118.5
379.704	121.5
379.929	116.5
380.155	110.5
380.38	113.5
380.606	107.5
380.831	131.5
381.057	134.5
381.282	112.5
381.507	125.5
381.733	120.5
381.958	103.5
382.184	106.5
382.409	111.5
382.634	137.5
382.86	108.5
383.085	121.5
383.31	118.5
383.535	127.5
383.761	115.5
383.986	125.5
384.211	116.5
384.436	128.5
384.662	135.5
384.887	128.5
385.112	107.5
385.337	129.5
385.562	110.5
385.787	118.5
386.013	99.5
386.238	116.5
386.463	126.5
386.688	157.5
386.913	117.5
387.138	112.5
387.363	108.5
387.588	128.5
387.813	119.5
388.038	129.5
388.263	120.5
388.488	104.5
388.713	111.5
388.938	114.5
389.163	119.5
389.387	119.5
389.612	120.5
389.837	132.5
390.062	128.5
390.287	105.5
390.512	125.5
390.736	133.5
390.961	123.5
391.186	119.5
391.411	123.5
391.636	120.5
391.86	139.5
392.085	127.5
392.31	114.5
392.534	127.5
392.759	121.5
392.984	117.5
393.208	117.5
393.433	105.5
393.658	129.5
393.882	124.5
394.107	121.5
394.331	140.5
394.556	126.5
394.78	138.5
395.005	110.5
395.229	124.5
395.454	125.5
395.678	129.5
395.903	130.5
396.127	117.5
396.352	128.5
396.576	121.5
396.801	120.5
397.025	116.5
397.249	122.5
397.474	138.5
397.698	146.5
397.922	130.5
398.147	116.5
398.371	137.5
398.595	148.5
398.82	131.5
399.044	128.5
399.268	151.5
399.492	153.5
399.717	164.5
399.941	161.5
400.165	153.5
400.389	134.5
400.613	137.5
400.837	138.5
401.062	114.5
401.286	139.5
401.51	142.5
401.734	112.5
401.958	134.5
402.182	137.5
402.406	134.5
402.63	150.5
402.854	132.5
403.078	135.5
403.302	122.5
403.526	140.5
403.75	120.5
403.974	148.5
404.198	154.5
404.422	149.5
404.645	156.5
404.869	138.5
405.093	140.5
405.317	141.5
405.541	138.5
405.765	135.5
405.988	137.5
406.212	132.5
406.436	140.5
406.66	165.5
406.883	151.5
407.107	134.5
407.331	138.5
407.555	151.5
407.778	124.5
408.002	136.5
408.226	154.5
408.449	132.5
408.673	147.5
408.896	132.5
409.12	143.5
409.344	140.5
409.567	148.5
409.791	138.5
410.014	156.5
410.238	147.5
410.461	125.5
410.685	139.5
410.908	145.5
411.132	143.5
411.355	135.5
411.578	133.5
411.802	135.5
412.025	124.5
412.249	139.5
412.472	143.5
412.695	163.5
412.919	138.5
413.142	136.5
413.365	136.5
413.589	148.5
413.812	137.5
414.035	138.5
414.258	120.5
414.482	126.5
414.705	134.5
414.928	145.5
415.151	120.5
415.374	135.5
415.597	131.5
415.821	141.5
416.044	111.5
416.267	133.5
416.49	125.5
416.713	132.5
416.936	124.5
417.159	140.5
417.382	127.5
417.605	142.5
417.828	145.5
418.051	125.5
418.274	130.5
418.497	119.5
418.72	136.5
418.943	128.5
419.166	124.5
419.389	139.5
419.611	153.5
419.834	131.5
420.057	129.5
420.28	127.5
420.503	143.5
420.726	129.5
420.948	131.5
421.171	142.5
421.394	118.5
421.617	132.5
421.839	125.5
422.062	140.5
422.285	136.5
422.507	140.5
422.73	138.5
422.953	137.5
423.175	136.5
423.398	133.5
423.621	142.5
423.843	128.5
424.066	135.5
424.288	135.5
424.511	112.5
424.733	135.5
424.956	144.5
425.178	135.5
425.401	131.5
425.623	127.5
425.846	125.5
426.068	125.5
426.291	130.5
426.513	141.5
426.735	128.5
426.958	144.5
427.18	128.5
427.402	121.5
427.625	134.5
427.847	121.5
428.069	131.5
428.292	124.5
428.514	127.5
428.736	129.5
428.958	149.5
429.181	132.5
429.403	107.5
429.625	124.5
429.847	128.5
430.069	124.5
430.292	126.5
430.514	120.5
430.736	123.5
430.958	133.5
431.18	119.5
431.402	112.5
431.624	131.5
431.846	123.5
432.068	132.5
432.29	118.5
432.512	132.5
432.734	131.5
432.956	137.5
433.178	138.5
433.4	122.5
433.622	124.5
433.844	127.5
434.066	137.5
434.287	140.5
434.509	130.5
434.731	136.5
434.953	156.5
435.175	121.5
435.397	124.5
435.618	151.5
435.84	134.5
436.062	143.5
436.284	126.5
436.505	134.5
436.727	135.5
436.949	133.5
437.17	124.5
437.392	116.5
437.614	120.5
437.835	118.5
438.057	112.5
438.278	117.5
438.5	132.5
438.721	130.5
438.943	124.5
439.165	122.5
439.386	109.5
439.608	117.5
439.829	129.5
440.05	121.5
440.272	129.5
440.493	126.5
440.715	133.5
440.936	131.5
441.158	131.5
441.379	130.5
441.6	142.5
441.822	131.5
442.043	134.5
442.264	135.5
442.486	125.5
442.707	143.5
442.928	126.5
443.149	129.5
443.371	134.5
443.592	134.5
443.813	130.5
444.034	149.5
444.255	140.5
444.476	140.5
444.698	150.5
444.919	158.5
445.14	400.5
445.361	239.5
445.582	148.5
445.803	116.5
446.024	143.5
446.245	141.5
446.466	138.5
446.687	125.5
446.908	110.5
447.129	131.5
447.35	118.5
447.571	140.5
447.792	136.5
448.013	118.5
448.234	123.5
448.455	142.5
448.675	117.5
448.896	128.5
449.117	129.5
449.338	130.5
449.559	116.5
449.779	109.5
450	130.5
450.221	112.5
450.442	109.5
450.662	130.5
450.883	128.5
451.104	137.5
451.324	117.5
451.545	123.5
451.766	113.5
451.986	122.5
452.207	119.5
452.428	127.5
452.648	134.5
452.869	119.5
453.089	121.5
453.31	127.5
453.53	123.5
453.751	120.5
453.971	118.5
454.192	116.5
454.412	119.5
454.633	122.5
454.853	133.5
455.073	120.5
455.294	115.5
455.514	131.5
455.734	118.5
455.955	112.5
456.175	117.5
456.395	117.5
456.616	102.5
456.836	128.5
457.056	115.5
457.276	96.5
457.497	105.5
457.717	113.5
457.937	128.5
458.157	105.5
458.377	119.5
458.598	122.5
458.818	118.5
459.038	113.5
459.258	121.5
459.478	142.5
459.698	116.5
459.918	132.5
460.138	145.5
460.358	140.5
460.578	140.5
460.798	131.5
461.018	127.5
461.238	141.5
461.458	154.5
461.678	138.5
461.898	140.5
462.118	122.5
462.338	131.5
462.558	154.5
462.777	120.5
462.997	170.5
463.217	159.5
463.437	145.5
463.657	151.5
463.876	154.5
464.096	141.5
464.316	153.5
464.536	138.5
464.755	170.5
464.975	143.5
465.195	147.5
465.414	145.5
465.634	131.5
465.854	125.5
466.073	121.5
466.293	109.5
466.512	118.5
466.732	120.5
466.951	133.5
467.171	122.5
467.391	116.5
467.61	115.5
467.829	125.5
468.049	115.5
468.268	117.5
468.488	122.5
468.707	124.5
468.927	134.5
469.146	120.5
469.365	117.5
469.585	127.5
469.804	129.5
470.023	137.5
470.243	129.5
470.462	124.5
470.681	117.5
470.901	113.5
471.12	118.5
471.339	140.5
471.558	122.5
471.777	121.5
471.997	134.5
472.216	121.5
472.435	132.5
472.654	106.5
472.873	128.5
473.092	136.5
473.311	113.5
473.53	128.5
473.749	142.5
473.968	121.5
474.187	112.5
474.406	118.5
474.625	131.5
474.844	117.5
475.063	137.5
475.282	133.5
475.501	120.5
475.72	150.5
475.939	130.5
476.158	117.5
476.377	132.5
476.596	136.5
476.814	125.5
477.033	127.5
477.252	118.5
477.471	133.5
477.69	128.5
477.908	143.5
478.127	145.5
478.346	143.5
478.564	131.5
478.783	129.5
479.002	131.5
479.22	140.5
479.439	140.5
479.658	153.5
479.876	127.5
480.095	146.5
480.313	142.5
480.532	129.5
480.751	129.5
480.969	131.5
481.188	140.5
481.406	143.5
481.624	140.5
481.843	128.5
482.061	127.5
482.28	141.5
482.498	127.5
482.717	136.5
482.935	133.5
483.153	125.5
483.372	133.5
483.59	127.5
483.808	129.5
484.027	117.5
484.245	127.5
484.463	126.5
484.681	138.5
484.9	129.5
485.118	137.5
485.336	136.5
485.554	135.5
485.772	121.5
485.99	128.5
486.209	133.5
486.427	123.5
486.645	134.5
486.863	125.5
487.081	139.5
487.299	120.5
487.517	125.5
487.735	136.5
487.953	132.5
488.171	150.5
488.389	124.5
488.607	126.5
488.825	117.5
489.043	131.5
489.261	142.5
489.479	119.5
489.696	133.5
489.914	138.5
490.132	141.5
490.35	144.5
490.568	136.5
490.786	126.5
491.003	121.5
491.221	131.5
491.439	112.5
491.657	126.5
491.874	148.5
492.092	113.5
492.31	144.5
492.527	133.5
492.745	141.5
492.963	148.5
493.18	148.5
493.398	140.5
493.615	130.5
493.833	138.5
494.05	134.5
494.268	136.5
494.485	156.5
494.703	138.5
494.92	134.5
495.138	147.5
495.355	136.5
495.573	147.5
495.79	134.5
496.008	144.5
496.225	140.5
496.442	154.5
496.66	154.5
496.877	138.5
497.094	152.5
497.312	143.5
497.529	146.5
497.746	148.5
497.963	142.5
498.181	140.5
498.398	150.5
498.615	160.5
498.832	162.5
499.049	178.5
499.267	176.5
499.484	196.5
499.701	219.5
499.918	208.5
500.135	247.5
500.352	268.5
500.569	261.5
500.786	270.5
501.003	247.5
501.22	234.5
501.437	214.5
501.654	178.5
501.871	160.5
502.088	175.5
502.305	177.5
502.522	165.5
502.739	186.5
502.956	154.5
503.172	160.5
503.389	156.5
503.606	156.5
503.823	151.5
504.04	151.5
504.256	145.5
504.473	141.5
504.69	149.5
504.907	169.5
505.123	141.5
505.34	140.5
505.557	127.5
505.773	138.5
505.99	142.5
506.207	126.5
506.423	119.5
506.64	150.5
506.856	158.5
507.073	131.5
507.289	127.5
507.506	128.5
507.722	132.5
507.939	142.5
508.155	110.5
508.372	126.5
508.588	129.5
508.805	123.5
509.021	126.5
509.238	125.5
509.454	128.5
509.67	129.5
509.887	123.5
510.103	121.5
510.319	118.5
510.536	119.5
510.752	142.5
510.968	123.5
511.184	133.5
511.401	106.5
511.617	129.5
511.833	130.5
512.049	128.5
512.265	133.5
512.481	120.5
512.698	137.5
512.914	133.5
513.13	128.5
513.346	133.5
513.562	126.5
513.778	153.5
513.994	135.5
514.21	131.5
514.426	132.5
514.642	127.5
514.858	133.5
515.074	132.5
515.29	129.5
515.506	135.5
515.721	131.5
515.937	137.5
516.153	140.5
516.369	124.5
516.585	142.5
516.801	126.5
517.016	142.5
517.232	131.5
517.448	151.5
517.664	144.5
517.879	150.5
518.095	157.5
518.311	150.5
518.527	136.5
518.742	141.5
518.958	138.5
519.173	130.5
519.389	129.5
519.605	132.5
519.82	133.5
520.036	119.5
520.251	126.5
520.467	123.5
520.682	132.5
520.898	122.5
521.113	147.5
521.329	135.5
521.544	131.5
521.76	140.5
521.975	123.5
522.19	137.5
522.406	126.5
522.621	125.5
522.836	136.5
523.052	131.5
523.267	126.5
523.482	112.5
523.698	118.5
523.913	126.5
524.128	121.5
