Data from SampD_HRD10591_00056.txt Node
Date: Mon Jan 19 11:41:40 EST 2026
User: Yrep
Spectrometer: HR+D1059
Trigger mode: 0
Integration Time (sec): 3.443000E-1
Scans to average: 1
Electric dark correction enabled: true
Nonlinearity correction enabled: false
Boxcar width: 0
XAxis mode: Wavelengths
Number of Pixels in Spectrum: 2048
>>>>>Begin Spectral Data<<<<<
223.165	-30.69
223.4	-30.69
223.635	-30.69
223.869	-13.69
224.104	-20.69
224.338	-15.69
224.573	-3.69
224.808	-10.69
225.042	-16.69
225.277	-4.69
225.511	3.31
225.746	2.31
225.98	17.31
226.215	20.31
226.449	19.31
226.683	12.31
226.918	22.31
227.152	19.31
227.387	57.31
227.621	36.31
227.856	54.31
228.09	53.31
228.324	52.31
228.559	59.31
228.793	68.31
229.027	76.31
229.262	72.31
229.496	78.31
229.73	61.31
229.964	68.31
230.199	72.31
230.433	88.31
230.667	79.31
230.901	83.31
231.136	94.31
231.37	89.31
231.604	91.31
231.838	79.31
232.072	76.31
232.306	95.31
232.541	83.31
232.775	79.31
233.009	81.31
233.243	70.31
233.477	85.31
233.711	81.31
233.945	94.31
234.179	79.31
234.413	83.31
234.647	73.31
234.881	65.31
235.115	83.31
235.349	85.31
235.583	80.31
235.817	80.31
236.051	82.31
236.285	79.31
236.519	78.31
236.753	88.31
236.987	91.31
237.221	74.31
237.455	89.31
237.689	83.31
237.922	81.31
238.156	77.31
238.39	86.31
238.624	71.31
238.858	89.31
239.091	80.31
239.325	69.31
239.559	75.31
239.793	79.31
240.027	85.31
240.26	77.31
240.494	78.31
240.728	83.31
240.961	87.31
241.195	78.31
241.429	100.31
241.662	75.31
241.896	75.31
242.13	89.31
242.363	93.31
242.597	89.31
242.83	92.31
243.064	95.31
243.298	77.31
243.531	85.31
243.765	71.31
243.998	92.31
244.232	88.31
244.465	79.31
244.699	84.31
244.932	86.31
245.166	79.31
245.399	77.31
245.633	82.31
245.866	81.31
246.099	75.31
246.333	72.31
246.566	80.31
246.8	69.31
247.033	93.31
247.266	77.31
247.5	89.31
247.733	83.31
247.966	83.31
248.2	75.31
248.433	84.31
248.666	75.31
248.899	89.31
249.133	77.31
249.366	75.31
249.599	78.31
249.832	90.31
250.066	88.31
250.299	84.31
250.532	76.31
250.765	103.31
250.998	87.31
251.231	85.31
251.465	91.31
251.698	78.31
251.931	67.31
252.164	92.31
252.397	95.31
252.63	96.31
252.863	96.31
253.096	99.31
253.329	89.31
253.562	96.31
253.795	82.31
254.028	82.31
254.261	76.31
254.494	78.31
254.727	94.31
254.96	76.31
255.193	86.31
255.426	71.31
255.659	83.31
255.892	101.31
256.124	92.31
256.357	100.31
256.59	86.31
256.823	100.31
257.056	104.31
257.289	81.31
257.521	80.31
257.754	85.31
257.987	82.31
258.22	98.31
258.452	101.31
258.685	94.31
258.918	103.31
259.151	86.31
259.383	82.31
259.616	90.31
259.849	98.31
260.081	99.31
260.314	80.31
260.547	95.31
260.779	86.31
261.012	88.31
261.244	110.31
261.477	93.31
261.71	78.31
261.942	92.31
262.175	86.31
262.407	71.31
262.64	85.31
262.872	101.31
263.105	86.31
263.337	99.31
263.57	96.31
263.802	103.31
264.035	88.31
264.267	104.31
264.499	103.31
264.732	85.31
264.964	94.31
265.197	95.31
265.429	103.31
265.661	84.31
265.894	79.31
266.126	102.31
266.358	99.31
266.591	89.31
266.823	95.31
267.055	93.31
267.287	104.31
267.52	110.31
267.752	103.31
267.984	99.31
268.216	95.31
268.448	99.31
268.681	94.31
268.913	101.31
269.145	109.31
269.377	77.31
269.609	98.31
269.841	107.31
270.073	72.31
270.306	105.31
270.538	81.31
270.77	89.31
271.002	92.31
271.234	97.31
271.466	80.31
271.698	79.31
271.93	108.31
272.162	98.31
272.394	101.31
272.626	95.31
272.858	94.31
273.09	98.31
273.322	95.31
273.553	81.31
273.785	110.31
274.017	95.31
274.249	101.31
274.481	110.31
274.713	83.31
274.945	96.31
275.176	93.31
275.408	100.31
275.64	106.31
275.872	86.31
276.104	98.31
276.335	104.31
276.567	92.31
276.799	103.31
277.031	110.31
277.262	96.31
277.494	83.31
277.726	108.31
277.957	95.31
278.189	104.31
278.421	93.31
278.652	88.31
278.884	100.31
279.115	103.31
279.347	102.31
279.579	103.31
279.81	97.31
280.042	112.31
280.273	101.31
280.505	105.31
280.736	85.31
280.968	102.31
281.199	87.31
281.431	88.31
281.662	104.31
281.894	98.31
282.125	89.31
282.356	107.31
282.588	112.31
282.819	103.31
283.051	113.31
283.282	95.31
283.513	110.31
283.745	103.31
283.976	104.31
284.207	99.31
284.439	125.31
284.67	101.31
284.901	104.31
285.132	108.31
285.364	110.31
285.595	105.31
285.826	116.31
286.057	107.31
286.288	114.31
286.52	107.31
286.751	100.31
286.982	104.31
287.213	93.31
287.444	112.31
287.675	102.31
287.906	118.31
288.138	101.31
288.369	94.31
288.6	98.31
288.831	112.31
289.062	108.31
289.293	99.31
289.524	100.31
289.755	88.31
289.986	87.31
290.217	105.31
290.448	108.31
290.679	110.31
290.91	116.31
291.141	110.31
291.371	88.31
291.602	99.31
291.833	100.31
292.064	112.31
292.295	108.31
292.526	97.31
292.757	85.31
292.987	109.31
293.218	108.31
293.449	112.31
293.68	105.31
293.91	100.31
294.141	120.31
294.372	96.31
294.603	96.31
294.833	103.31
295.064	111.31
295.295	105.31
295.525	114.31
295.756	119.31
295.987	114.31
296.217	104.31
296.448	106.31
296.679	113.31
296.909	92.31
297.14	115.31
297.37	116.31
297.601	104.31
297.831	113.31
298.062	110.31
298.292	104.31
298.523	113.31
298.753	102.31
298.984	106.31
299.214	108.31
299.445	113.31
299.675	121.31
299.905	105.31
300.136	115.31
300.366	116.31
300.597	110.31
300.827	124.31
301.057	113.31
301.288	125.31
301.518	108.31
301.748	115.31
301.979	141.31
302.209	99.31
302.439	105.31
302.669	111.31
302.9	96.31
303.13	115.31
303.36	110.31
303.59	115.31
303.82	129.31
304.051	110.31
304.281	103.31
304.511	115.31
304.741	109.31
304.971	111.31
305.201	112.31
305.431	123.31
305.661	104.31
305.891	105.31
306.121	120.31
306.352	115.31
306.582	116.31
306.812	120.31
307.042	103.31
307.272	129.31
307.502	81.31
307.731	112.31
307.961	110.31
308.191	109.31
308.421	111.31
308.651	103.31
308.881	108.31
309.111	88.31
309.341	103.31
309.571	96.31
309.8	109.31
310.03	115.31
310.26	109.31
310.49	119.31
310.72	105.31
310.949	109.31
311.179	108.31
311.409	110.31
311.639	124.31
311.868	126.31
312.098	110.31
312.328	115.31
312.557	116.31
312.787	103.31
313.017	101.31
313.246	111.31
313.476	113.31
313.706	114.31
313.935	111.31
314.165	107.31
314.394	108.31
314.624	125.31
314.853	109.31
315.083	111.31
315.312	105.31
315.542	120.31
315.771	100.31
316.001	112.31
316.23	113.31
316.46	114.31
316.689	104.31
316.919	101.31
317.148	113.31
317.377	134.31
317.607	114.31
317.836	111.31
318.065	116.31
318.295	117.31
318.524	106.31
318.753	112.31
318.983	112.31
319.212	108.31
319.441	101.31
319.67	125.31
319.9	102.31
320.129	109.31
320.358	120.31
320.587	113.31
320.816	119.31
321.046	96.31
321.275	124.31
321.504	96.31
321.733	119.31
321.962	118.31
322.191	112.31
322.42	116.31
322.649	121.31
322.878	115.31
323.108	114.31
323.337	109.31
323.566	126.31
323.795	101.31
324.024	125.31
324.253	103.31
324.482	118.31
324.71	122.31
324.939	108.31
325.168	116.31
325.397	108.31
325.626	113.31
325.855	110.31
326.084	113.31
326.313	129.31
326.542	113.31
326.77	111.31
326.999	104.31
327.228	106.31
327.457	113.31
327.686	119.31
327.914	104.31
328.143	139.31
328.372	134.31
328.6	120.31
328.829	125.31
329.058	115.31
329.287	116.31
329.515	114.31
329.744	130.31
329.972	131.31
330.201	104.31
330.43	114.31
330.658	115.31
330.887	115.31
331.115	120.31
331.344	117.31
331.572	108.31
331.801	116.31
332.03	111.31
332.258	123.31
332.486	111.31
332.715	114.31
332.943	112.31
333.172	117.31
333.4	113.31
333.629	134.31
333.857	123.31
334.085	130.31
334.314	111.31
334.542	132.31
334.771	125.31
334.999	112.31
335.227	127.31
335.455	112.31
335.684	134.31
335.912	127.31
336.14	108.31
336.369	124.31
336.597	115.31
336.825	124.31
337.053	112.31
337.281	102.31
337.51	116.31
337.738	126.31
337.966	109.31
338.194	118.31
338.422	118.31
338.65	120.31
338.878	118.31
339.106	94.31
339.334	129.31
339.562	131.31
339.79	131.31
340.018	108.31
340.246	123.31
340.474	107.31
340.702	115.31
340.93	116.31
341.158	123.31
341.386	111.31
341.614	113.31
341.842	115.31
342.07	105.31
342.298	116.31
342.526	127.31
342.754	113.31
342.981	112.31
343.209	109.31
343.437	152.31
343.665	125.31
343.893	113.31
344.12	129.31
344.348	129.31
344.576	119.31
344.804	119.31
345.031	119.31
345.259	109.31
345.487	117.31
345.714	107.31
345.942	115.31
346.17	123.31
346.397	124.31
346.625	110.31
346.853	118.31
347.08	101.31
347.308	101.31
347.535	113.31
347.763	122.31
347.99	104.31
348.218	116.31
348.445	126.31
348.673	125.31
348.9	118.31
349.128	117.31
349.355	109.31
349.583	123.31
349.81	120.31
350.037	116.31
350.265	118.31
350.492	132.31
350.72	111.31
350.947	109.31
351.174	101.31
351.402	112.31
351.629	117.31
351.856	120.31
352.083	117.31
352.311	111.31
352.538	105.31
352.765	115.31
352.992	119.31
353.22	113.31
353.447	118.31
353.674	102.31
353.901	122.31
354.128	115.31
354.355	114.31
354.583	105.31
354.81	106.31
355.037	114.31
355.264	113.31
355.491	101.31
355.718	110.31
355.945	120.31
356.172	117.31
356.399	115.31
356.626	111.31
356.853	117.31
357.08	123.31
357.307	126.31
357.534	114.31
357.761	102.31
357.988	116.31
358.215	113.31
358.441	117.31
358.668	112.31
358.895	118.31
359.122	97.31
359.349	108.31
359.576	105.31
359.802	126.31
360.029	117.31
360.256	117.31
360.483	101.31
360.709	119.31
360.936	129.31
361.163	110.31
361.39	123.31
361.616	114.31
361.843	119.31
362.07	111.31
362.296	118.31
362.523	106.31
362.749	124.31
362.976	110.31
363.203	122.31
363.429	118.31
363.656	119.31
363.882	119.31
364.109	117.31
364.335	113.31
364.562	106.31
364.788	103.31
365.015	113.31
365.241	103.31
365.468	104.31
365.694	122.31
365.92	112.31
366.147	126.31
366.373	108.31
366.599	111.31
366.826	114.31
367.052	112.31
367.278	118.31
367.505	112.31
367.731	130.31
367.957	117.31
368.184	119.31
368.41	123.31
368.636	123.31
368.862	102.31
369.089	108.31
369.315	102.31
369.541	119.31
369.767	103.31
369.993	107.31
370.219	110.31
370.445	116.31
370.672	107.31
370.898	121.31
371.124	113.31
371.35	104.31
371.576	108.31
371.802	111.31
372.028	120.31
372.254	116.31
372.48	111.31
372.706	122.31
372.932	106.31
373.158	124.31
373.384	117.31
373.61	130.31
373.835	123.31
374.061	109.31
374.287	115.31
374.513	117.31
374.739	129.31
374.965	127.31
375.191	125.31
375.416	115.31
375.642	126.31
375.868	127.31
376.094	123.31
376.319	112.31
376.545	96.31
376.771	118.31
376.997	105.31
377.222	115.31
377.448	115.31
377.674	107.31
377.899	110.31
378.125	105.31
378.35	134.31
378.576	110.31
378.802	109.31
379.027	127.31
379.253	124.31
379.478	113.31
379.704	113.31
379.929	120.31
380.155	105.31
380.38	113.31
380.606	99.31
380.831	101.31
381.057	134.31
381.282	118.31
381.507	104.31
381.733	122.31
381.958	132.31
382.184	118.31
382.409	124.31
382.634	128.31
382.86	122.31
383.085	126.31
383.31	121.31
383.535	131.31
383.761	112.31
383.986	121.31
384.211	117.31
384.436	125.31
384.662	118.31
384.887	132.31
385.112	110.31
385.337	118.31
385.562	131.31
385.787	115.31
386.013	131.31
386.238	133.31
386.463	110.31
386.688	153.31
386.913	117.31
387.138	132.31
387.363	124.31
387.588	128.31
387.813	135.31
388.038	121.31
388.263	138.31
388.488	123.31
388.713	115.31
388.938	117.31
389.163	127.31
389.387	119.31
389.612	131.31
389.837	134.31
390.062	118.31
390.287	134.31
390.512	129.31
390.736	119.31
390.961	116.31
391.186	147.31
391.411	124.31
391.636	143.31
391.86	133.31
392.085	140.31
392.31	120.31
392.534	120.31
392.759	125.31
392.984	118.31
393.208	125.31
393.433	117.31
393.658	127.31
393.882	141.31
394.107	141.31
394.331	121.31
394.556	121.31
394.78	139.31
395.005	125.31
395.229	129.31
395.454	116.31
395.678	119.31
395.903	136.31
396.127	123.31
396.352	131.31
396.576	129.31
396.801	127.31
397.025	130.31
397.249	135.31
397.474	139.31
397.698	126.31
397.922	133.31
398.147	146.31
398.371	147.31
398.595	133.31
398.82	123.31
399.044	130.31
399.268	156.31
399.492	165.31
399.717	176.31
399.941	163.31
400.165	168.31
400.389	161.31
400.613	157.31
400.837	143.31
401.062	140.31
401.286	140.31
401.51	131.31
401.734	131.31
401.958	158.31
402.182	139.31
402.406	140.31
402.63	144.31
402.854	148.31
403.078	146.31
403.302	128.31
403.526	163.31
403.75	163.31
403.974	162.31
404.198	152.31
404.422	146.31
404.645	163.31
404.869	145.31
405.093	156.31
405.317	168.31
405.541	166.31
405.765	152.31
405.988	144.31
406.212	145.31
406.436	144.31
406.66	140.31
406.883	139.31
407.107	152.31
407.331	140.31
407.555	145.31
407.778	155.31
408.002	171.31
408.226	156.31
408.449	149.31
408.673	145.31
408.896	140.31
409.12	154.31
409.344	159.31
409.567	146.31
409.791	149.31
410.014	156.31
410.238	149.31
410.461	151.31
410.685	156.31
410.908	133.31
411.132	146.31
411.355	143.31
411.578	136.31
411.802	150.31
412.025	151.31
412.249	146.31
412.472	126.31
412.695	143.31
412.919	155.31
413.142	131.31
413.365	143.31
413.589	133.31
413.812	118.31
414.035	140.31
414.258	151.31
414.482	133.31
414.705	139.31
414.928	157.31
415.151	149.31
415.374	147.31
415.597	129.31
415.821	129.31
416.044	154.31
416.267	134.31
416.49	135.31
416.713	132.31
416.936	127.31
417.159	123.31
417.382	142.31
417.605	131.31
417.828	155.31
418.051	151.31
418.274	137.31
418.497	139.31
418.72	135.31
418.943	130.31
419.166	146.31
419.389	134.31
419.611	144.31
419.834	149.31
420.057	150.31
420.28	140.31
420.503	145.31
420.726	131.31
420.948	157.31
421.171	127.31
421.394	142.31
421.617	133.31
421.839	131.31
422.062	143.31
422.285	151.31
422.507	151.31
422.73	149.31
422.953	145.31
423.175	141.31
423.398	140.31
423.621	143.31
423.843	134.31
424.066	162.31
424.288	129.31
424.511	147.31
424.733	133.31
424.956	147.31
425.178	143.31
425.401	157.31
425.623	143.31
425.846	131.31
426.068	130.31
426.291	131.31
426.513	126.31
426.735	130.31
426.958	132.31
427.18	133.31
427.402	141.31
427.625	142.31
427.847	128.31
428.069	135.31
428.292	123.31
428.514	134.31
428.736	135.31
428.958	133.31
429.181	141.31
429.403	120.31
429.625	105.31
429.847	124.31
430.069	132.31
430.292	131.31
430.514	128.31
430.736	139.31
430.958	136.31
431.18	123.31
431.402	142.31
431.624	143.31
431.846	142.31
432.068	137.31
432.29	151.31
432.512	135.31
432.734	130.31
432.956	132.31
433.178	144.31
433.4	140.31
433.622	143.31
433.844	152.31
434.066	141.31
434.287	143.31
434.509	126.31
434.731	140.31
434.953	137.31
435.175	143.31
435.397	137.31
435.618	133.31
435.84	127.31
436.062	155.31
436.284	139.31
436.505	133.31
436.727	142.31
436.949	133.31
437.17	115.31
437.392	127.31
437.614	147.31
437.835	121.31
438.057	126.31
438.278	140.31
438.5	149.31
438.721	137.31
438.943	146.31
439.165	131.31
439.386	132.31
439.608	152.31
439.829	121.31
440.05	141.31
440.272	139.31
440.493	115.31
440.715	128.31
440.936	136.31
441.158	123.31
441.379	134.31
441.6	148.31
441.822	134.31
442.043	140.31
442.264	139.31
442.486	145.31
442.707	143.31
442.928	145.31
443.149	126.31
443.371	145.31
443.592	141.31
443.813	143.31
444.034	152.31
444.255	159.31
444.476	141.31
444.698	160.31
444.919	154.31
445.14	427.31
445.361	246.31
445.582	136.31
445.803	140.31
446.024	125.31
446.245	141.31
446.466	127.31
446.687	124.31
446.908	131.31
447.129	142.31
447.35	128.31
447.571	147.31
447.792	139.31
448.013	118.31
448.234	121.31
448.455	117.31
448.675	123.31
448.896	121.31
449.117	119.31
449.338	133.31
449.559	125.31
449.779	117.31
450	127.31
450.221	132.31
450.442	116.31
450.662	127.31
450.883	133.31
451.104	124.31
451.324	122.31
451.545	136.31
451.766	133.31
451.986	132.31
452.207	127.31
452.428	133.31
452.648	126.31
452.869	125.31
453.089	147.31
453.31	113.31
453.53	139.31
453.751	136.31
453.971	110.31
454.192	109.31
454.412	126.31
454.633	122.31
454.853	109.31
455.073	121.31
455.294	123.31
455.514	139.31
455.734	124.31
455.955	134.31
456.175	101.31
456.395	111.31
456.616	112.31
456.836	110.31
457.056	126.31
457.276	118.31
457.497	122.31
457.717	120.31
457.937	124.31
458.157	128.31
458.377	117.31
458.598	128.31
458.818	123.31
459.038	127.31
459.258	135.31
459.478	113.31
459.698	143.31
459.918	141.31
460.138	145.31
460.358	141.31
460.578	155.31
460.798	156.31
461.018	141.31
461.238	145.31
461.458	149.31
461.678	145.31
461.898	139.31
462.118	132.31
462.338	151.31
462.558	157.31
462.777	161.31
462.997	155.31
463.217	169.31
463.437	153.31
463.657	147.31
463.876	160.31
464.096	158.31
464.316	167.31
464.536	153.31
464.755	160.31
464.975	152.31
465.195	135.31
465.414	135.31
465.634	142.31
465.854	120.31
466.073	132.31
466.293	125.31
466.512	123.31
466.732	123.31
466.951	130.31
467.171	126.31
467.391	119.31
467.61	136.31
467.829	132.31
468.049	116.31
468.268	122.31
468.488	139.31
468.707	123.31
468.927	126.31
469.146	129.31
469.365	142.31
469.585	140.31
469.804	126.31
470.023	125.31
470.243	123.31
470.462	123.31
470.681	145.31
470.901	125.31
471.12	118.31
471.339	139.31
471.558	123.31
471.777	134.31
471.997	137.31
472.216	124.31
472.435	121.31
472.654	132.31
472.873	155.31
473.092	121.31
473.311	122.31
473.53	127.31
473.749	123.31
473.968	132.31
474.187	135.31
474.406	128.31
474.625	126.31
474.844	135.31
475.063	132.31
475.282	118.31
475.501	113.31
475.72	128.31
475.939	142.31
476.158	112.31
476.377	129.31
476.596	120.31
476.814	126.31
477.033	133.31
477.252	125.31
477.471	131.31
477.69	128.31
477.908	135.31
478.127	147.31
478.346	124.31
478.564	143.31
478.783	155.31
479.002	140.31
479.22	121.31
479.439	141.31
479.658	141.31
479.876	130.31
480.095	136.31
480.313	148.31
480.532	141.31
480.751	152.31
480.969	141.31
481.188	134.31
481.406	141.31
481.624	139.31
481.843	119.31
482.061	111.31
482.28	133.31
482.498	133.31
482.717	128.31
482.935	140.31
483.153	124.31
483.372	126.31
483.59	148.31
483.808	141.31
484.027	141.31
484.245	157.31
484.463	131.31
484.681	159.31
484.9	125.31
485.118	140.31
485.336	143.31
485.554	152.31
485.772	129.31
485.99	155.31
486.209	140.31
486.427	148.31
486.645	158.31
486.863	134.31
487.081	134.31
487.299	137.31
487.517	145.31
487.735	139.31
487.953	139.31
488.171	146.31
488.389	144.31
488.607	134.31
488.825	131.31
489.043	133.31
489.261	140.31
489.479	140.31
489.696	143.31
489.914	153.31
490.132	142.31
490.35	134.31
490.568	157.31
490.786	147.31
491.003	127.31
491.221	152.31
491.439	132.31
491.657	145.31
491.874	143.31
492.092	156.31
492.31	144.31
492.527	147.31
492.745	160.31
492.963	149.31
493.18	139.31
493.398	148.31
493.615	141.31
493.833	136.31
494.05	139.31
494.268	133.31
494.485	148.31
494.703	149.31
494.92	146.31
495.138	155.31
495.355	158.31
495.573	148.31
495.79	137.31
496.008	159.31
496.225	146.31
496.442	148.31
496.66	150.31
496.877	161.31
497.094	178.31
497.312	139.31
497.529	145.31
497.746	161.31
497.963	158.31
498.181	136.31
498.398	172.31
498.615	165.31
498.832	186.31
499.049	189.31
499.267	213.31
499.484	234.31
499.701	215.31
499.918	244.31
500.135	253.31
500.352	258.31
500.569	276.31
500.786	273.31
501.003	252.31
501.22	221.31
501.437	217.31
501.654	184.31
501.871	191.31
502.088	180.31
502.305	191.31
502.522	171.31
502.739	162.31
502.956	168.31
503.172	163.31
503.389	157.31
503.606	148.31
503.823	160.31
504.04	171.31
504.256	144.31
504.473	151.31
504.69	166.31
504.907	194.31
505.123	144.31
505.34	127.31
505.557	140.31
