Data from SampD_HRD10591_00078.txt Node
Date: Mon Jan 19 11:41:47 EST 2026
User: Yrep
Spectrometer: HR+D1059
Trigger mode: 0
Integration Time (sec): 3.443000E-1
Scans to average: 1
Electric dark correction enabled: true
Nonlinearity correction enabled: false
Boxcar width: 0
XAxis mode: Wavelengths
Number of Pixels in Spectrum: 2048
>>>>>Begin Spectral Data<<<<<
223.165	-23.19
223.4	-23.19
223.635	-23.19
223.869	-26.19
224.104	-16.19
224.338	-10.19
224.573	-31.19
224.808	-16.19
225.042	-16.19
225.277	4.81
225.511	5.81
225.746	5.81
225.98	18.81
226.215	9.81
226.449	21.81
226.683	24.81
226.918	15.81
227.152	31.81
227.387	24.81
227.621	35.81
227.856	55.81
228.09	44.81
228.324	49.81
228.559	61.81
228.793	48.81
229.027	52.81
229.262	70.81
229.496	65.81
229.73	70.81
229.964	86.81
230.199	84.81
230.433	72.81
230.667	78.81
230.901	84.81
231.136	86.81
231.37	68.81
231.604	72.81
231.838	93.81
232.072	81.81
232.306	96.81
232.541	80.81
232.775	87.81
233.009	82.81
233.243	78.81
233.477	88.81
233.711	93.81
233.945	77.81
234.179	95.81
234.413	90.81
234.647	88.81
234.881	82.81
235.115	93.81
235.349	69.81
235.583	84.81
235.817	87.81
236.051	81.81
236.285	84.81
236.519	75.81
236.753	92.81
236.987	88.81
237.221	82.81
237.455	77.81
237.689	95.81
237.922	71.81
238.156	79.81
238.39	80.81
238.624	93.81
238.858	91.81
239.091	80.81
239.325	89.81
239.559	85.81
239.793	102.81
240.027	91.81
240.26	86.81
240.494	76.81
240.728	79.81
240.961	83.81
241.195	91.81
241.429	82.81
241.662	79.81
241.896	87.81
242.13	73.81
242.363	96.81
242.597	87.81
242.83	86.81
243.064	81.81
243.298	91.81
243.531	93.81
243.765	85.81
243.998	91.81
244.232	87.81
244.465	86.81
244.699	93.81
244.932	85.81
245.166	87.81
245.399	85.81
245.633	91.81
245.866	83.81
246.099	94.81
246.333	89.81
246.566	85.81
246.8	82.81
247.033	86.81
247.266	84.81
247.5	92.81
247.733	90.81
247.966	81.81
248.2	86.81
248.433	86.81
248.666	98.81
248.899	88.81
249.133	83.81
249.366	91.81
249.599	102.81
249.832	96.81
250.066	119.81
250.299	67.81
250.532	72.81
250.765	79.81
250.998	104.81
251.231	108.81
251.465	77.81
251.698	85.81
251.931	87.81
252.164	91.81
252.397	83.81
252.63	80.81
252.863	86.81
253.096	87.81
253.329	106.81
253.562	95.81
253.795	93.81
254.028	93.81
254.261	102.81
254.494	83.81
254.727	100.81
254.96	100.81
255.193	98.81
255.426	101.81
255.659	102.81
255.892	104.81
256.124	96.81
256.357	115.81
256.59	96.81
256.823	91.81
257.056	107.81
257.289	100.81
257.521	109.81
257.754	92.81
257.987	72.81
258.22	95.81
258.452	88.81
258.685	81.81
258.918	98.81
259.151	103.81
259.383	104.81
259.616	87.81
259.849	102.81
260.081	86.81
260.314	88.81
260.547	105.81
260.779	92.81
261.012	97.81
261.244	106.81
261.477	112.81
261.71	99.81
261.942	89.81
262.175	103.81
262.407	88.81
262.64	86.81
262.872	95.81
263.105	102.81
263.337	118.81
263.57	116.81
263.802	83.81
264.035	105.81
264.267	101.81
264.499	98.81
264.732	103.81
264.964	107.81
265.197	110.81
265.429	108.81
265.661	100.81
265.894	116.81
266.126	114.81
266.358	108.81
266.591	97.81
266.823	105.81
267.055	101.81
267.287	82.81
267.52	98.81
267.752	108.81
267.984	103.81
268.216	96.81
268.448	129.81
268.681	108.81
268.913	118.81
269.145	116.81
269.377	101.81
269.609	91.81
269.841	96.81
270.073	105.81
270.306	103.81
270.538	102.81
270.77	99.81
271.002	109.81
271.234	103.81
271.466	105.81
271.698	103.81
271.93	122.81
272.162	123.81
272.394	115.81
272.626	112.81
272.858	98.81
273.09	100.81
273.322	114.81
273.553	111.81
273.785	111.81
274.017	113.81
274.249	98.81
274.481	102.81
274.713	103.81
274.945	97.81
275.176	90.81
275.408	113.81
275.64	108.81
275.872	113.81
276.104	112.81
276.335	108.81
276.567	115.81
276.799	97.81
277.031	89.81
277.262	108.81
277.494	103.81
277.726	106.81
277.957	113.81
278.189	99.81
278.421	108.81
278.652	109.81
278.884	102.81
279.115	104.81
279.347	89.81
279.579	103.81
279.81	101.81
280.042	116.81
280.273	123.81
280.505	118.81
280.736	111.81
280.968	110.81
281.199	117.81
281.431	113.81
281.662	104.81
281.894	107.81
282.125	120.81
282.356	106.81
282.588	119.81
282.819	107.81
283.051	95.81
283.282	107.81
283.513	120.81
283.745	109.81
283.976	104.81
284.207	112.81
284.439	115.81
284.67	118.81
284.901	103.81
285.132	113.81
285.364	105.81
285.595	113.81
285.826	105.81
286.057	119.81
286.288	122.81
286.52	104.81
286.751	110.81
286.982	106.81
287.213	120.81
287.444	118.81
287.675	112.81
287.906	117.81
288.138	117.81
288.369	114.81
288.6	126.81
288.831	110.81
289.062	127.81
289.293	122.81
289.524	108.81
289.755	111.81
289.986	113.81
290.217	132.81
290.448	119.81
290.679	117.81
290.91	125.81
291.141	117.81
291.371	132.81
291.602	132.81
291.833	118.81
292.064	126.81
292.295	112.81
292.526	115.81
292.757	125.81
292.987	123.81
293.218	120.81
293.449	137.81
293.68	125.81
293.91	104.81
294.141	117.81
294.372	122.81
294.603	116.81
294.833	120.81
295.064	113.81
295.295	108.81
295.525	115.81
295.756	131.81
295.987	127.81
296.217	123.81
296.448	121.81
296.679	121.81
296.909	132.81
297.14	139.81
297.37	131.81
297.601	123.81
297.831	124.81
298.062	128.81
298.292	130.81
298.523	129.81
298.753	125.81
298.984	123.81
299.214	114.81
299.445	118.81
299.675	126.81
299.905	112.81
300.136	124.81
300.366	124.81
300.597	119.81
300.827	116.81
301.057	130.81
301.288	133.81
301.518	114.81
301.748	109.81
301.979	164.81
302.209	135.81
302.439	122.81
302.669	124.81
302.9	126.81
303.13	136.81
303.36	108.81
303.59	113.81
303.82	110.81
304.051	123.81
304.281	122.81
304.511	140.81
304.741	117.81
304.971	116.81
305.201	139.81
305.431	145.81
305.661	131.81
305.891	119.81
306.121	116.81
306.352	105.81
306.582	119.81
306.812	136.81
307.042	123.81
307.272	136.81
307.502	125.81
307.731	124.81
307.961	126.81
308.191	123.81
308.421	124.81
308.651	121.81
308.881	118.81
309.111	127.81
309.341	115.81
309.571	128.81
309.8	136.81
310.03	131.81
310.26	122.81
310.49	132.81
310.72	120.81
310.949	117.81
311.179	133.81
311.409	127.81
311.639	118.81
311.868	131.81
312.098	132.81
312.328	125.81
312.557	124.81
312.787	116.81
313.017	136.81
313.246	120.81
313.476	129.81
313.706	128.81
313.935	136.81
314.165	129.81
314.394	132.81
314.624	125.81
314.853	126.81
315.083	112.81
315.312	135.81
315.542	129.81
315.771	132.81
316.001	125.81
316.23	128.81
316.46	132.81
316.689	113.81
316.919	134.81
317.148	124.81
317.377	117.81
317.607	125.81
317.836	125.81
318.065	128.81
318.295	127.81
318.524	120.81
318.753	140.81
318.983	124.81
319.212	136.81
319.441	143.81
319.67	120.81
319.9	135.81
320.129	127.81
320.358	116.81
320.587	128.81
320.816	132.81
321.046	135.81
321.275	150.81
321.504	130.81
321.733	127.81
321.962	123.81
322.191	120.81
322.42	129.81
322.649	133.81
322.878	128.81
323.108	123.81
323.337	120.81
323.566	142.81
323.795	133.81
324.024	127.81
324.253	130.81
324.482	147.81
324.71	139.81
324.939	151.81
325.168	112.81
325.397	123.81
325.626	114.81
325.855	118.81
326.084	133.81
326.313	124.81
326.542	119.81
326.77	141.81
326.999	135.81
327.228	129.81
327.457	135.81
327.686	137.81
327.914	148.81
328.143	155.81
328.372	139.81
328.6	136.81
328.829	120.81
329.058	142.81
329.287	128.81
329.515	126.81
329.744	135.81
329.972	129.81
330.201	138.81
330.43	135.81
330.658	132.81
330.887	120.81
331.115	134.81
331.344	142.81
331.572	165.81
331.801	131.81
332.03	144.81
332.258	155.81
332.486	142.81
332.715	140.81
332.943	136.81
333.172	152.81
333.4	158.81
333.629	169.81
333.857	157.81
334.085	143.81
334.314	139.81
334.542	155.81
334.771	135.81
334.999	148.81
335.227	143.81
335.455	154.81
335.684	153.81
335.912	142.81
336.14	147.81
336.369	152.81
336.597	154.81
336.825	147.81
337.053	155.81
337.281	156.81
337.51	144.81
337.738	147.81
337.966	152.81
338.194	153.81
338.422	128.81
338.65	154.81
338.878	141.81
339.106	128.81
339.334	162.81
339.562	128.81
339.79	130.81
340.018	124.81
340.246	139.81
340.474	133.81
340.702	133.81
340.93	133.81
341.158	117.81
341.386	130.81
341.614	137.81
341.842	136.81
342.07	141.81
342.298	130.81
342.526	131.81
342.754	130.81
342.981	154.81
343.209	143.81
343.437	173.81
343.665	144.81
343.893	151.81
344.12	136.81
344.348	143.81
344.576	149.81
344.804	146.81
345.031	136.81
345.259	134.81
345.487	127.81
345.714	130.81
345.942	129.81
346.17	139.81
346.397	146.81
346.625	136.81
346.853	148.81
347.08	109.81
347.308	129.81
347.535	144.81
347.763	136.81
347.99	136.81
348.218	124.81
348.445	125.81
348.673	129.81
348.9	152.81
349.128	153.81
349.355	125.81
349.583	151.81
349.81	140.81
350.037	137.81
350.265	143.81
350.492	140.81
350.72	143.81
350.947	147.81
351.174	136.81
351.402	130.81
351.629	117.81
351.856	128.81
352.083	107.81
352.311	145.81
352.538	135.81
352.765	122.81
352.992	155.81
353.22	132.81
353.447	129.81
353.674	143.81
353.901	128.81
354.128	132.81
354.355	132.81
354.583	131.81
354.81	125.81
355.037	132.81
355.264	131.81
355.491	152.81
355.718	144.81
355.945	128.81
356.172	135.81
356.399	133.81
356.626	137.81
356.853	145.81
357.08	123.81
357.307	148.81
357.534	123.81
357.761	134.81
357.988	139.81
358.215	142.81
358.441	134.81
358.668	140.81
358.895	115.81
359.122	134.81
359.349	129.81
359.576	148.81
359.802	133.81
360.029	139.81
360.256	135.81
360.483	130.81
360.709	116.81
360.936	156.81
361.163	132.81
361.39	153.81
361.616	135.81
361.843	135.81
362.07	141.81
362.296	126.81
362.523	131.81
362.749	128.81
362.976	140.81
363.203	150.81
363.429	130.81
363.656	141.81
363.882	129.81
364.109	129.81
364.335	121.81
364.562	138.81
364.788	123.81
365.015	125.81
365.241	133.81
365.468	140.81
365.694	126.81
365.92	136.81
366.147	137.81
366.373	154.81
366.599	145.81
366.826	148.81
367.052	130.81
367.278	139.81
367.505	130.81
367.731	151.81
367.957	126.81
368.184	124.81
368.41	133.81
368.636	123.81
368.862	152.81
369.089	141.81
369.315	135.81
369.541	145.81
369.767	143.81
369.993	132.81
370.219	115.81
370.445	134.81
370.672	139.81
370.898	141.81
371.124	135.81
371.35	142.81
371.576	126.81
371.802	129.81
372.028	132.81
372.254	149.81
372.48	139.81
372.706	142.81
372.932	139.81
373.158	146.81
373.384	135.81
373.61	142.81
373.835	142.81
374.061	142.81
374.287	143.81
374.513	141.81
374.739	136.81
374.965	145.81
375.191	139.81
375.416	141.81
375.642	136.81
375.868	150.81
376.094	144.81
376.319	138.81
376.545	135.81
376.771	142.81
376.997	149.81
377.222	139.81
377.448	129.81
377.674	131.81
377.899	148.81
378.125	149.81
378.35	139.81
378.576	132.81
378.802	139.81
379.027	145.81
379.253	140.81
379.478	148.81
379.704	133.81
379.929	147.81
380.155	133.81
380.38	145.81
380.606	134.81
380.831	144.81
381.057	165.81
381.282	146.81
381.507	135.81
381.733	139.81
381.958	168.81
382.184	139.81
382.409	143.81
382.634	158.81
382.86	135.81
383.085	144.81
383.31	148.81
383.535	130.81
383.761	152.81
383.986	140.81
384.211	140.81
384.436	149.81
384.662	147.81
384.887	134.81
385.112	151.81
385.337	179.81
385.562	151.81
385.787	167.81
386.013	171.81
386.238	161.81
386.463	161.81
386.688	205.81
386.913	173.81
387.138	165.81
387.363	160.81
387.588	160.81
387.813	177.81
388.038	162.81
388.263	164.81
388.488	144.81
388.713	150.81
388.938	155.81
389.163	149.81
389.387	166.81
389.612	144.81
389.837	147.81
390.062	157.81
390.287	158.81
390.512	169.81
390.736	155.81
390.961	154.81
391.186	169.81
391.411	157.81
391.636	162.81
391.86	158.81
392.085	178.81
392.31	170.81
392.534	173.81
392.759	168.81
392.984	147.81
393.208	152.81
393.433	164.81
393.658	178.81
393.882	162.81
394.107	158.81
394.331	162.81
394.556	157.81
394.78	161.81
395.005	167.81
395.229	164.81
395.454	167.81
395.678	171.81
395.903	169.81
396.127	169.81
396.352	153.81
396.576	166.81
396.801	173.81
397.025	149.81
397.249	167.81
397.474	178.81
397.698	168.81
397.922	187.81
398.147	165.81
398.371	180.81
398.595	189.81
398.82	193.81
399.044	198.81
399.268	199.81
399.492	232.81
399.717	243.81
399.941	217.81
400.165	210.81
400.389	205.81
400.613	199.81
400.837	175.81
401.062	172.81
401.286	173.81
401.51	174.81
401.734	182.81
401.958	184.81
402.182	172.81
402.406	185.81
402.63	189.81
402.854	188.81
403.078	193.81
403.302	199.81
403.526	200.81
403.75	188.81
403.974	196.81
404.198	196.81
404.422	195.81
404.645	202.81
404.869	189.81
405.093	192.81
405.317	188.81
405.541	197.81
405.765	187.81
405.988	187.81
406.212	199.81
406.436	192.81
406.66	204.81
406.883	211.81
407.107	204.81
407.331	205.81
407.555	212.81
407.778	203.81
408.002	220.81
408.226	191.81
408.449	201.81
408.673	192.81
408.896	198.81
409.12	205.81
409.344	191.81
409.567	199.81
409.791	199.81
410.014	190.81
410.238	200.81
410.461	180.81
410.685	180.81
410.908	180.81
411.132	208.81
411.355	179.81
411.578	182.81
411.802	182.81
412.025	172.81
412.249	175.81
412.472	189.81
412.695	184.81
412.919	185.81
413.142	181.81
413.365	176.81
413.589	181.81
413.812	182.81
414.035	180.81
414.258	185.81
414.482	183.81
414.705	160.81
414.928	175.81
415.151	184.81
415.374	182.81
415.597	169.81
415.821	187.81
416.044	186.81
416.267	189.81
416.49	188.81
416.713	183.81
416.936	173.81
417.159	179.81
417.382	180.81
417.605	179.81
417.828	162.81
418.051	186.81
418.274	203.81
418.497	181.81
418.72	187.81
418.943	185.81
419.166	199.81
419.389	207.81
419.611	195.81
419.834	185.81
420.057	191.81
420.28	167.81
420.503	184.81
420.726	193.81
420.948	187.81
421.171	192.81
421.394	167.81
421.617	198.81
421.839	193.81
422.062	167.81
422.285	182.81
422.507	184.81
422.73	178.81
422.953	191.81
423.175	181.81
423.398	185.81
423.621	190.81
423.843	196.81
424.066	191.81
424.288	179.81
424.511	191.81
424.733	198.81
424.956	188.81
425.178	190.81
425.401	187.81
425.623	176.81
425.846	185.81
426.068	179.81
426.291	177.81
426.513	167.81
426.735	168.81
426.958	186.81
427.18	177.81
427.402	169.81
427.625	172.81
427.847	180.81
428.069	188.81
428.292	190.81
428.514	163.81
428.736	164.81
428.958	177.81
429.181	179.81
429.403	172.81
429.625	157.81
429.847	175.81
430.069	155.81
430.292	167.81
430.514	192.81
430.736	183.81
430.958	183.81
431.18	160.81
431.402	159.81
431.624	171.81
431.846	171.81
432.068	173.81
432.29	175.81
432.512	175.81
432.734	168.81
432.956	175.81
433.178	193.81
433.4	170.81
433.622	183.81
433.844	167.81
434.066	178.81
434.287	167.81
434.509	181.81
434.731	181.81
434.953	173.81
435.175	180.81
435.397	186.81
435.618	166.81
435.84	148.81
436.062	169.81
436.284	172.81
436.505	160.81
436.727	175.81
436.949	180.81
437.17	157.81
437.392	147.81
437.614	160.81
437.835	148.81
438.057	160.81
438.278	174.81
438.5	168.81
438.721	168.81
438.943	162.81
439.165	160.81
439.386	167.81
439.608	171.81
439.829	177.81
440.05	188.81
440.272	186.81
440.493	167.81
440.715	176.81
440.936	170.81
441.158	183.81
441.379	195.81
441.6	195.81
441.822	183.81
442.043	189.81
442.264	171.81
442.486	188.81
442.707	179.81
442.928	174.81
443.149	175.81
443.371	171.81
443.592	183.81
443.813	189.81
444.034	191.81
444.255	193.81
444.476	193.81
444.698	198.81
444.919	215.81
445.14	443.81
445.361	305.81
445.582	182.81
445.803	167.81
446.024	170.81
446.245	185.81
446.466	192.81
446.687	166.81
446.908	183.81
447.129	148.81
447.35	172.81
447.571	177.81
447.792	160.81
448.013	173.81
448.234	180.81
448.455	170.81
448.675	175.81
448.896	168.81
449.117	162.81
449.338	161.81
449.559	160.81
449.779	157.81
450	157.81
450.221	159.81
450.442	164.81
450.662	173.81
450.883	172.81
451.104	168.81
451.324	177.81
451.545	155.81
451.766	157.81
451.986	163.81
452.207	160.81
452.428	167.81
452.648	184.81
452.869	169.81
453.089	159.81
453.31	152.81
453.53	158.81
453.751	161.81
453.971	159.81
454.192	153.81
454.412	163.81
454.633	165.81
454.853	149.81
455.073	158.81
455.294	161.81
455.514	169.81
455.734	163.81
455.955	137.81
456.175	162.81
456.395	134.81
456.616	156.81
456.836	147.81
457.056	150.81
457.276	144.81
457.497	147.81
457.717	155.81
457.937	177.81
458.157	162.81
458.377	145.81
458.598	155.81
458.818	156.81
459.038	143.81
459.258	155.81
459.478	174.81
459.698	167.81
459.918	166.81
460.138	170.81
460.358	184.81
460.578	197.81
460.798	176.81
461.018	200.81
461.238	176.81
461.458	183.81
461.678	184.81
461.898	196.81
462.118	201.81
462.338	181.81
462.558	200.81
462.777	209.81
462.997	223.81
463.217	236.81
463.437	226.81
463.657	212.81
463.876	204.81
464.096	210.81
464.316	207.81
464.536	199.81
464.755	191.81
464.975	200.81
465.195	195.81
465.414	176.81
465.634	175.81
465.854	178.81
466.073	156.81
466.293	163.81
466.512	176.81
466.732	165.81
466.951	174.81
467.171	171.81
467.391	157.81
467.61	161.81
467.829	173.81
468.049	164.81
468.268	166.81
468.488	155.81
468.707	142.81
468.927	148.81
469.146	153.81
469.365	165.81
469.585	161.81
469.804	156.81
470.023	169.81
470.243	171.81
470.462	165.81
470.681	174.81
470.901	176.81
471.12	167.81
471.339	180.81
471.558	174.81
471.777	160.81
471.997	177.81
472.216	146.81
472.435	149.81
472.654	156.81
472.873	166.81
473.092	166.81
473.311	151.81
473.53	151.81
473.749	170.81
473.968	173.81
474.187	167.81
474.406	160.81
474.625	164.81
474.844	166.81
475.063	144.81
475.282	172.81
475.501	176.81
475.72	173.81
475.939	173.81
476.158	148.81
476.377	152.81
476.596	152.81
476.814	178.81
477.033	181.81
477.252	167.81
477.471	163.81
477.69	174.81
477.908	189.81
478.127	207.81
478.346	183.81
478.564	185.81
478.783	176.81
479.002	174.81
479.22	183.81
479.439	169.81
479.658	183.81
479.876	172.81
480.095	177.81
480.313	195.81
480.532	208.81
480.751	169.81
480.969	196.81
481.188	176.81
481.406	190.81
481.624	184.81
481.843	168.81
482.061	144.81
482.28	164.81
482.498	149.81
482.717	176.81
482.935	174.81
483.153	175.81
483.372	164.81
483.59	188.81
483.808	169.81
484.027	181.81
484.245	173.81
484.463	172.81
484.681	198.81
484.9	187.81
485.118	181.81
485.336	182.81
485.554	196.81
485.772	195.81
485.99	163.81
486.209	176.81
486.427	189.81
486.645	188.81
486.863	185.81
487.081	177.81
487.299	177.81
487.517	183.81
487.735	180.81
487.953	175.81
488.171	198.81
488.389	179.81
488.607	192.81
488.825	185.81
489.043	179.81
489.261	180.81
489.479	180.81
489.696	158.81
489.914	175.81
490.132	179.81
490.35	189.81
490.568	182.81
490.786	183.81
491.003	180.81
491.221	181.81
491.439	184.81
491.657	187.81
491.874	181.81
492.092	199.81
492.31	213.81
492.527	187.81
492.745	195.81
492.963	193.81
493.18	184.81
493.398	198.81
493.615	180.81
493.833	193.81
494.05	191.81
494.268	180.81
494.485	197.81
494.703	207.81
494.92	183.81
495.138	194.81
495.355	198.81
495.573	193.81
495.79	195.81
496.008	184.81
496.225	184.81
496.442	200.81
496.66	201.81
496.877	203.81
497.094	201.81
497.312	191.81
497.529	203.81
497.746	196.81
497.963	195.81
498.181	214.81
498.398	222.81
498.615	223.81
498.832	249.81
499.049	245.81
499.267	273.81
499.484	274.81
499.701	318.81
499.918	347.81
500.135	389.81
500.352	422.81
500.569	429.81
500.786	438.81
501.003	382.81
501.22	319.81
501.437	307.81
501.654	270.81
501.871	254.81
502.088	252.81
502.305	238.81
502.522	235.81
502.739	227.81
502.956	220.81
503.172	215.81
503.389	209.81
503.606	214.81
503.823	201.81
504.04	222.81
504.256	221.81
504.473	215.81
504.69	220.81
