Data from SampD_HRD10591_00032.txt Node
Date: Mon Jan 19 11:41:32 EST 2026
User: Yrep
Spectrometer: HR+D1059
Trigger mode: 0
Integration Time (sec): 3.443000E-1
Scans to average: 1
Electric dark correction enabled: true
Nonlinearity correction enabled: false
Boxcar width: 0
XAxis mode: Wavelengths
Number of Pixels in Spectrum: 2048
>>>>>Begin Spectral Data<<<<<
223.165	-22.25
223.4	-22.25
223.635	-22.25
223.869	-15.25
224.104	-21.25
224.338	-13.25
224.573	-13.25
224.808	-13.25
225.042	-14.25
225.277	-10.25
225.511	-6.25
225.746	4.75
225.98	13.75
226.215	15.75
226.449	19.75
226.683	15.75
226.918	34.75
227.152	24.75
227.387	32.75
227.621	44.75
227.856	57.75
228.09	49.75
228.324	45.75
228.559	55.75
228.793	51.75
229.027	65.75
229.262	65.75
229.496	67.75
229.73	75.75
229.964	71.75
230.199	74.75
230.433	71.75
230.667	83.75
230.901	87.75
231.136	77.75
231.37	67.75
231.604	89.75
231.838	81.75
232.072	82.75
232.306	89.75
232.541	78.75
232.775	79.75
233.009	82.75
233.243	83.75
233.477	77.75
233.711	77.75
233.945	89.75
234.179	73.75
234.413	107.75
234.647	84.75
234.881	84.75
235.115	74.75
235.349	70.75
235.583	90.75
235.817	88.75
236.051	74.75
236.285	76.75
236.519	86.75
236.753	78.75
236.987	66.75
237.221	74.75
237.455	87.75
237.689	78.75
237.922	87.75
238.156	86.75
238.39	65.75
238.624	71.75
238.858	70.75
239.091	84.75
239.325	78.75
239.559	80.75
239.793	83.75
240.027	76.75
240.26	76.75
240.494	77.75
240.728	68.75
240.961	77.75
241.195	77.75
241.429	58.75
241.662	76.75
241.896	82.75
242.13	81.75
242.363	73.75
242.597	90.75
242.83	91.75
243.064	60.75
243.298	83.75
243.531	74.75
243.765	82.75
243.998	87.75
244.232	88.75
244.465	83.75
244.699	73.75
244.932	81.75
245.166	82.75
245.399	70.75
245.633	71.75
245.866	89.75
246.099	91.75
246.333	90.75
246.566	84.75
246.8	92.75
247.033	82.75
247.266	89.75
247.5	86.75
247.733	88.75
247.966	88.75
248.2	91.75
248.433	88.75
248.666	84.75
248.899	96.75
249.133	86.75
249.366	83.75
249.599	91.75
249.832	84.75
250.066	94.75
250.299	89.75
250.532	89.75
250.765	85.75
250.998	95.75
251.231	91.75
251.465	81.75
251.698	87.75
251.931	81.75
252.164	75.75
252.397	78.75
252.63	81.75
252.863	81.75
253.096	93.75
253.329	91.75
253.562	96.75
253.795	86.75
254.028	99.75
254.261	82.75
254.494	94.75
254.727	87.75
254.96	88.75
255.193	92.75
255.426	92.75
255.659	82.75
255.892	100.75
256.124	88.75
256.357	85.75
256.59	89.75
256.823	88.75
257.056	111.75
257.289	105.75
257.521	86.75
257.754	86.75
257.987	96.75
258.22	89.75
258.452	98.75
258.685	103.75
258.918	99.75
259.151	88.75
259.383	87.75
259.616	97.75
259.849	94.75
260.081	89.75
260.314	94.75
260.547	102.75
260.779	94.75
261.012	95.75
261.244	94.75
261.477	103.75
261.71	90.75
261.942	105.75
262.175	109.75
262.407	98.75
262.64	97.75
262.872	87.75
263.105	93.75
263.337	81.75
263.57	105.75
263.802	91.75
264.035	90.75
264.267	92.75
264.499	95.75
264.732	98.75
264.964	97.75
265.197	86.75
265.429	88.75
265.661	87.75
265.894	88.75
266.126	107.75
266.358	96.75
266.591	104.75
266.823	89.75
267.055	98.75
267.287	106.75
267.52	109.75
267.752	93.75
267.984	96.75
268.216	86.75
268.448	117.75
268.681	96.75
268.913	109.75
269.145	111.75
269.377	86.75
269.609	88.75
269.841	95.75
270.073	114.75
270.306	95.75
270.538	92.75
270.77	95.75
271.002	84.75
271.234	104.75
271.466	103.75
271.698	101.75
271.93	98.75
272.162	96.75
272.394	104.75
272.626	101.75
272.858	88.75
273.09	90.75
273.322	102.75
273.553	106.75
273.785	112.75
274.017	107.75
274.249	110.75
274.481	85.75
274.713	87.75
274.945	101.75
275.176	90.75
275.408	105.75
275.64	120.75
275.872	108.75
276.104	106.75
276.335	108.75
276.567	99.75
276.799	98.75
277.031	93.75
277.262	102.75
277.494	123.75
277.726	106.75
277.957	99.75
278.189	99.75
278.421	106.75
278.652	113.75
278.884	102.75
279.115	104.75
279.347	111.75
279.579	99.75
279.81	113.75
280.042	101.75
280.273	105.75
280.505	103.75
280.736	101.75
280.968	87.75
281.199	101.75
281.431	114.75
281.662	119.75
281.894	95.75
282.125	119.75
282.356	110.75
282.588	99.75
282.819	102.75
283.051	115.75
283.282	117.75
283.513	112.75
283.745	107.75
283.976	100.75
284.207	113.75
284.439	117.75
284.67	116.75
284.901	95.75
285.132	104.75
285.364	104.75
285.595	134.75
285.826	108.75
286.057	124.75
286.288	112.75
286.52	113.75
286.751	106.75
286.982	108.75
287.213	103.75
287.444	126.75
287.675	126.75
287.906	122.75
288.138	118.75
288.369	113.75
288.6	116.75
288.831	107.75
289.062	117.75
289.293	102.75
289.524	110.75
289.755	118.75
289.986	96.75
290.217	113.75
290.448	113.75
290.679	102.75
290.91	114.75
291.141	118.75
291.371	114.75
291.602	113.75
291.833	107.75
292.064	121.75
292.295	122.75
292.526	121.75
292.757	106.75
292.987	109.75
293.218	108.75
293.449	100.75
293.68	100.75
293.91	119.75
294.141	112.75
294.372	120.75
294.603	105.75
294.833	106.75
295.064	112.75
295.295	125.75
295.525	110.75
295.756	119.75
295.987	115.75
296.217	101.75
296.448	113.75
296.679	122.75
296.909	100.75
297.14	112.75
297.37	110.75
297.601	122.75
297.831	119.75
298.062	109.75
298.292	121.75
298.523	121.75
298.753	115.75
298.984	113.75
299.214	124.75
299.445	102.75
299.675	111.75
299.905	119.75
300.136	113.75
300.366	105.75
300.597	105.75
300.827	127.75
301.057	118.75
301.288	122.75
301.518	105.75
301.748	112.75
301.979	150.75
302.209	128.75
302.439	104.75
302.669	124.75
302.9	115.75
303.13	119.75
303.36	107.75
303.59	109.75
303.82	119.75
304.051	131.75
304.281	134.75
304.511	131.75
304.741	113.75
304.971	98.75
305.201	129.75
305.431	118.75
305.661	112.75
305.891	120.75
306.121	109.75
306.352	104.75
306.582	108.75
306.812	115.75
307.042	124.75
307.272	117.75
307.502	137.75
307.731	112.75
307.961	123.75
308.191	109.75
308.421	119.75
308.651	111.75
308.881	111.75
309.111	124.75
309.341	112.75
309.571	112.75
309.8	118.75
310.03	112.75
310.26	109.75
310.49	122.75
310.72	101.75
310.949	116.75
311.179	112.75
311.409	135.75
311.639	122.75
311.868	122.75
312.098	121.75
312.328	131.75
312.557	118.75
312.787	127.75
313.017	109.75
313.246	128.75
313.476	110.75
313.706	120.75
313.935	114.75
314.165	111.75
314.394	131.75
314.624	126.75
314.853	125.75
315.083	131.75
315.312	131.75
315.542	126.75
315.771	126.75
316.001	117.75
316.23	129.75
316.46	111.75
316.689	110.75
316.919	111.75
317.148	118.75
317.377	122.75
317.607	124.75
317.836	113.75
318.065	118.75
318.295	108.75
318.524	112.75
318.753	132.75
318.983	109.75
319.212	138.75
319.441	126.75
319.67	109.75
319.9	114.75
320.129	121.75
320.358	127.75
320.587	115.75
320.816	123.75
321.046	135.75
321.275	133.75
321.504	117.75
321.733	118.75
321.962	127.75
322.191	108.75
322.42	126.75
322.649	122.75
322.878	124.75
323.108	120.75
323.337	111.75
323.566	120.75
323.795	128.75
324.024	135.75
324.253	124.75
324.482	128.75
324.71	121.75
324.939	129.75
325.168	132.75
325.397	126.75
325.626	115.75
325.855	121.75
326.084	133.75
326.313	123.75
326.542	132.75
326.77	142.75
326.999	125.75
327.228	144.75
327.457	128.75
327.686	127.75
327.914	132.75
328.143	139.75
328.372	125.75
328.6	131.75
328.829	130.75
329.058	111.75
329.287	120.75
329.515	135.75
329.744	125.75
329.972	129.75
330.201	157.75
330.43	134.75
330.658	147.75
330.887	125.75
331.115	129.75
331.344	125.75
331.572	142.75
331.801	145.75
332.03	139.75
332.258	147.75
332.486	137.75
332.715	140.75
332.943	138.75
333.172	136.75
333.4	153.75
333.629	179.75
333.857	157.75
334.085	155.75
334.314	146.75
334.542	135.75
334.771	126.75
334.999	155.75
335.227	130.75
335.455	128.75
335.684	149.75
335.912	129.75
336.14	140.75
336.369	134.75
336.597	138.75
336.825	140.75
337.053	140.75
337.281	129.75
337.51	131.75
337.738	142.75
337.966	142.75
338.194	140.75
338.422	121.75
338.65	145.75
338.878	140.75
339.106	142.75
339.334	146.75
339.562	112.75
339.79	131.75
340.018	130.75
340.246	137.75
340.474	130.75
340.702	123.75
340.93	127.75
341.158	118.75
341.386	119.75
341.614	119.75
341.842	124.75
342.07	116.75
342.298	136.75
342.526	129.75
342.754	137.75
342.981	128.75
343.209	154.75
343.437	164.75
343.665	142.75
343.893	151.75
344.12	154.75
344.348	144.75
344.576	129.75
344.804	141.75
345.031	134.75
345.259	134.75
345.487	119.75
345.714	115.75
345.942	133.75
346.17	135.75
346.397	136.75
346.625	134.75
346.853	129.75
347.08	123.75
347.308	146.75
347.535	131.75
347.763	124.75
347.99	127.75
348.218	155.75
348.445	138.75
348.673	144.75
348.9	139.75
349.128	136.75
349.355	127.75
349.583	129.75
349.81	115.75
350.037	127.75
350.265	124.75
350.492	134.75
350.72	125.75
350.947	129.75
351.174	127.75
351.402	134.75
351.629	122.75
351.856	131.75
352.083	136.75
352.311	127.75
352.538	126.75
352.765	118.75
352.992	126.75
353.22	120.75
353.447	124.75
353.674	126.75
353.901	140.75
354.128	130.75
354.355	126.75
354.583	137.75
354.81	139.75
355.037	141.75
355.264	124.75
355.491	124.75
355.718	126.75
355.945	122.75
356.172	130.75
356.399	145.75
356.626	120.75
356.853	127.75
357.08	126.75
357.307	133.75
357.534	127.75
357.761	110.75
357.988	145.75
358.215	145.75
358.441	122.75
358.668	116.75
358.895	132.75
359.122	120.75
359.349	121.75
359.576	113.75
359.802	127.75
360.029	116.75
360.256	147.75
360.483	119.75
360.709	124.75
360.936	136.75
361.163	124.75
361.39	126.75
361.616	128.75
361.843	120.75
362.07	116.75
362.296	130.75
362.523	120.75
362.749	129.75
362.976	112.75
363.203	120.75
363.429	132.75
363.656	129.75
363.882	124.75
364.109	122.75
364.335	145.75
364.562	125.75
364.788	118.75
365.015	105.75
365.241	134.75
365.468	117.75
365.694	104.75
365.92	122.75
366.147	121.75
366.373	135.75
366.599	119.75
366.826	110.75
367.052	113.75
367.278	125.75
367.505	136.75
367.731	150.75
367.957	136.75
368.184	121.75
368.41	127.75
368.636	124.75
368.862	132.75
369.089	127.75
369.315	125.75
369.541	128.75
369.767	121.75
369.993	127.75
370.219	122.75
370.445	127.75
370.672	121.75
370.898	116.75
371.124	128.75
371.35	133.75
371.576	127.75
371.802	133.75
372.028	136.75
372.254	124.75
372.48	146.75
372.706	123.75
372.932	144.75
373.158	129.75
373.384	129.75
373.61	125.75
373.835	140.75
374.061	150.75
374.287	124.75
374.513	123.75
374.739	152.75
374.965	143.75
375.191	128.75
375.416	131.75
375.642	139.75
375.868	150.75
376.094	126.75
376.319	140.75
376.545	131.75
376.771	142.75
376.997	144.75
377.222	119.75
377.448	136.75
377.674	131.75
377.899	128.75
378.125	123.75
378.35	137.75
378.576	140.75
378.802	123.75
379.027	138.75
379.253	124.75
379.478	126.75
379.704	131.75
379.929	130.75
380.155	130.75
380.38	142.75
380.606	135.75
380.831	131.75
381.057	160.75
381.282	117.75
381.507	132.75
381.733	136.75
381.958	161.75
382.184	129.75
382.409	151.75
382.634	157.75
382.86	141.75
383.085	139.75
383.31	124.75
383.535	139.75
383.761	137.75
383.986	159.75
384.211	139.75
384.436	143.75
384.662	151.75
384.887	137.75
385.112	128.75
385.337	140.75
385.562	136.75
385.787	143.75
386.013	168.75
386.238	159.75
386.463	147.75
386.688	175.75
386.913	146.75
387.138	147.75
387.363	154.75
387.588	159.75
387.813	159.75
388.038	142.75
388.263	157.75
388.488	158.75
388.713	141.75
388.938	140.75
389.163	148.75
389.387	149.75
389.612	144.75
389.837	150.75
390.062	160.75
390.287	151.75
390.512	146.75
390.736	156.75
390.961	147.75
391.186	151.75
391.411	159.75
391.636	170.75
391.86	164.75
392.085	156.75
392.31	159.75
392.534	162.75
392.759	152.75
392.984	157.75
393.208	158.75
393.433	154.75
393.658	154.75
393.882	134.75
394.107	159.75
394.331	152.75
394.556	159.75
394.78	163.75
395.005	168.75
395.229	146.75
395.454	165.75
395.678	162.75
395.903	181.75
396.127	170.75
396.352	157.75
396.576	144.75
396.801	161.75
397.025	156.75
397.249	153.75
397.474	171.75
397.698	167.75
397.922	156.75
398.147	145.75
398.371	162.75
398.595	174.75
398.82	172.75
399.044	177.75
399.268	200.75
399.492	210.75
399.717	226.75
399.941	216.75
400.165	197.75
400.389	187.75
400.613	186.75
400.837	176.75
401.062	190.75
401.286	147.75
401.51	164.75
401.734	155.75
401.958	168.75
402.182	172.75
402.406	184.75
402.63	174.75
402.854	172.75
403.078	191.75
403.302	184.75
403.526	185.75
403.75	190.75
403.974	190.75
404.198	205.75
404.422	209.75
404.645	193.75
404.869	195.75
405.093	170.75
405.317	165.75
405.541	182.75
405.765	180.75
405.988	174.75
406.212	178.75
406.436	177.75
406.66	186.75
406.883	185.75
407.107	208.75
407.331	199.75
407.555	187.75
407.778	207.75
408.002	200.75
408.226	192.75
408.449	193.75
408.673	170.75
408.896	179.75
409.12	175.75
409.344	189.75
409.567	200.75
409.791	183.75
410.014	187.75
410.238	189.75
410.461	196.75
410.685	187.75
410.908	168.75
411.132	178.75
411.355	172.75
411.578	191.75
411.802	176.75
412.025	172.75
412.249	178.75
412.472	174.75
412.695	173.75
412.919	161.75
413.142	169.75
413.365	164.75
413.589	174.75
413.812	185.75
414.035	168.75
414.258	169.75
414.482	165.75
414.705	172.75
414.928	185.75
415.151	161.75
415.374	160.75
415.597	160.75
415.821	164.75
416.044	170.75
416.267	180.75
416.49	156.75
416.713	165.75
416.936	170.75
417.159	170.75
417.382	168.75
417.605	163.75
417.828	171.75
418.051	179.75
418.274	168.75
418.497	184.75
418.72	205.75
418.943	172.75
419.166	184.75
419.389	189.75
419.611	202.75
419.834	178.75
420.057	161.75
420.28	169.75
420.503	171.75
420.726	171.75
420.948	192.75
421.171	186.75
421.394	159.75
421.617	172.75
421.839	174.75
422.062	176.75
422.285	186.75
422.507	168.75
422.73	187.75
422.953	176.75
423.175	164.75
423.398	181.75
423.621	180.75
423.843	182.75
424.066	167.75
424.288	172.75
424.511	171.75
424.733	187.75
424.956	169.75
425.178	168.75
425.401	178.75
425.623	179.75
425.846	154.75
426.068	168.75
426.291	168.75
426.513	167.75
426.735	155.75
426.958	154.75
427.18	148.75
427.402	153.75
427.625	165.75
427.847	152.75
428.069	158.75
428.292	171.75
428.514	165.75
428.736	152.75
428.958	167.75
429.181	164.75
429.403	156.75
429.625	155.75
429.847	156.75
430.069	138.75
430.292	156.75
430.514	144.75
430.736	161.75
430.958	168.75
431.18	152.75
431.402	158.75
431.624	169.75
431.846	170.75
432.068	158.75
432.29	156.75
432.512	165.75
432.734	167.75
432.956	158.75
433.178	176.75
433.4	173.75
433.622	167.75
433.844	180.75
434.066	175.75
434.287	163.75
434.509	168.75
434.731	184.75
434.953	177.75
435.175	171.75
435.397	179.75
435.618	140.75
435.84	167.75
436.062	160.75
436.284	162.75
436.505	164.75
436.727	154.75
436.949	164.75
437.17	143.75
437.392	166.75
437.614	163.75
437.835	170.75
438.057	146.75
438.278	155.75
438.5	148.75
438.721	158.75
438.943	148.75
439.165	143.75
439.386	144.75
439.608	188.75
439.829	161.75
440.05	168.75
440.272	159.75
440.493	163.75
440.715	162.75
440.936	161.75
441.158	178.75
441.379	181.75
441.6	170.75
441.822	177.75
442.043	171.75
442.264	162.75
442.486	182.75
442.707	153.75
442.928	169.75
443.149	154.75
443.371	164.75
443.592	172.75
443.813	183.75
444.034	174.75
444.255	178.75
444.476	196.75
444.698	210.75
444.919	192.75
445.14	453.75
445.361	291.75
445.582	178.75
445.803	164.75
446.024	171.75
446.245	169.75
446.466	169.75
446.687	154.75
446.908	157.75
447.129	174.75
447.35	157.75
447.571	159.75
447.792	156.75
448.013	141.75
448.234	147.75
448.455	159.75
448.675	142.75
448.896	150.75
449.117	154.75
449.338	152.75
449.559	156.75
449.779	165.75
450	140.75
450.221	156.75
450.442	158.75
450.662	142.75
450.883	167.75
451.104	163.75
451.324	156.75
451.545	171.75
451.766	150.75
451.986	155.75
452.207	157.75
452.428	160.75
452.648	159.75
452.869	156.75
453.089	156.75
453.31	153.75
453.53	146.75
453.751	156.75
453.971	153.75
454.192	148.75
454.412	129.75
454.633	141.75
454.853	129.75
455.073	151.75
455.294	145.75
455.514	165.75
455.734	137.75
455.955	143.75
456.175	130.75
456.395	146.75
456.616	154.75
456.836	143.75
457.056	158.75
457.276	136.75
457.497	144.75
457.717	142.75
457.937	147.75
458.157	146.75
458.377	151.75
458.598	155.75
458.818	152.75
459.038	175.75
459.258	141.75
459.478	157.75
459.698	159.75
459.918	174.75
460.138	172.75
460.358	172.75
460.578	190.75
460.798	192.75
461.018	193.75
461.238	181.75
461.458	169.75
461.678	175.75
461.898	188.75
462.118	192.75
462.338	182.75
462.558	199.75
462.777	189.75
462.997	201.75
463.217	221.75
463.437	193.75
463.657	211.75
463.876	193.75
464.096	191.75
464.316	190.75
464.536	174.75
464.755	213.75
464.975	186.75
465.195	186.75
465.414	177.75
465.634	155.75
465.854	142.75
466.073	160.75
466.293	162.75
466.512	156.75
466.732	146.75
466.951	156.75
467.171	153.75
467.391	176.75
467.61	157.75
467.829	140.75
468.049	162.75
468.268	165.75
468.488	154.75
468.707	168.75
468.927	151.75
469.146	138.75
469.365	153.75
469.585	146.75
469.804	160.75
470.023	160.75
470.243	151.75
470.462	155.75
470.681	168.75
470.901	155.75
471.12	169.75
471.339	156.75
471.558	167.75
471.777	164.75
471.997	168.75
472.216	154.75
472.435	145.75
472.654	158.75
472.873	169.75
473.092	153.75
473.311	152.75
473.53	154.75
473.749	159.75
473.968	180.75
474.187	135.75
474.406	147.75
474.625	159.75
474.844	163.75
475.063	137.75
475.282	164.75
475.501	144.75
475.72	153.75
475.939	166.75
476.158	140.75
476.377	163.75
476.596	153.75
476.814	159.75
477.033	164.75
477.252	166.75
477.471	144.75
477.69	137.75
477.908	165.75
478.127	169.75
478.346	180.75
478.564	168.75
478.783	168.75
479.002	173.75
479.22	165.75
479.439	176.75
479.658	151.75
479.876	174.75
480.095	184.75
480.313	179.75
480.532	187.75
480.751	188.75
480.969	178.75
481.188	165.75
481.406	148.75
481.624	174.75
481.843	162.75
482.061	170.75
482.28	184.75
482.498	182.75
482.717	160.75
482.935	167.75
483.153	167.75
483.372	171.75
483.59	169.75
483.808	159.75
484.027	174.75
484.245	160.75
484.463	175.75
484.681	182.75
484.9	163.75
485.118	187.75
485.336	179.75
485.554	185.75
485.772	174.75
485.99	178.75
486.209	168.75
486.427	179.75
486.645	170.75
486.863	161.75
487.081	156.75
487.299	170.75
487.517	185.75
487.735	170.75
487.953	175.75
488.171	179.75
488.389	180.75
488.607	178.75
488.825	167.75
489.043	179.75
489.261	169.75
489.479	162.75
489.696	177.75
489.914	179.75
490.132	177.75
490.35	184.75
490.568	162.75
490.786	179.75
491.003	179.75
491.221	171.75
491.439	182.75
491.657	160.75
491.874	177.75
492.092	187.75
492.31	193.75
492.527	171.75
492.745	175.75
492.963	178.75
493.18	194.75
493.398	187.75
493.615	182.75
493.833	176.75
494.05	188.75
494.268	186.75
494.485	176.75
494.703	176.75
494.92	195.75
495.138	180.75
495.355	168.75
495.573	182.75
495.79	159.75
496.008	189.75
496.225	192.75
496.442	193.75
496.66	183.75
496.877	168.75
497.094	189.75
497.312	198.75
497.529	198.75
497.746	197.75
497.963	215.75
498.181	188.75
498.398	218.75
498.615	218.75
498.832	222.75
499.049	226.75
499.267	263.75
499.484	276.75
499.701	299.75
499.918	324.75
500.135	369.75
500.352	385.75
500.569	401.75
500.786	387.75
501.003	367.75
501.22	335.75
501.437	300.75
501.654	284.75
501.871	250.75
502.088	245.75
502.305	241.75
502.522	219.75
502.739	226.75
502.956	227.75
503.172	214.75
503.389	210.75
503.606	191.75
503.823	221.75
504.04	198.75
504.256	205.75
504.473	196.75
504.69	188.75
504.907	207.75
505.123	169.75
