Data from SampD_HRD10591_00031.txt Node
Date: Mon Jan 19 11:41:31 EST 2026
User: Yrep
Spectrometer: HR+D1059
Trigger mode: 0
Integration Time (sec): 3.443000E-1
Scans to average: 1
Electric dark correction enabled: true
Nonlinearity correction enabled: false
Boxcar width: 0
XAxis mode: Wavelengths
Number of Pixels in Spectrum: 2048
>>>>>Begin Spectral Data<<<<<
223.165	-16.62
223.4	-16.62
223.635	-16.62
223.869	-31.62
224.104	-26.62
224.338	-5.62
224.573	-9.62
224.808	-17.62
225.042	-7.62
225.277	-7.62
225.511	0.38
225.746	11.38
225.98	7.38
226.215	15.38
226.449	13.38
226.683	24.38
226.918	23.38
227.152	27.38
227.387	37.38
227.621	35.38
227.856	47.38
228.09	56.38
228.324	45.38
228.559	43.38
228.793	67.38
229.027	66.38
229.262	70.38
229.496	67.38
229.73	69.38
229.964	83.38
230.199	79.38
230.433	87.38
230.667	92.38
230.901	82.38
231.136	70.38
231.37	90.38
231.604	76.38
231.838	79.38
232.072	82.38
232.306	91.38
232.541	77.38
232.775	69.38
233.009	82.38
233.243	83.38
233.477	95.38
233.711	90.38
233.945	90.38
234.179	68.38
234.413	95.38
234.647	80.38
234.881	85.38
235.115	81.38
235.349	85.38
235.583	87.38
235.817	78.38
236.051	75.38
236.285	89.38
236.519	90.38
236.753	72.38
236.987	78.38
237.221	72.38
237.455	82.38
237.689	78.38
237.922	84.38
238.156	79.38
238.39	80.38
238.624	77.38
238.858	87.38
239.091	84.38
239.325	93.38
239.559	79.38
239.793	86.38
240.027	87.38
240.26	68.38
240.494	74.38
240.728	83.38
240.961	79.38
241.195	84.38
241.429	80.38
241.662	74.38
241.896	79.38
242.13	72.38
242.363	71.38
242.597	82.38
242.83	87.38
243.064	75.38
243.298	79.38
243.531	75.38
243.765	63.38
243.998	82.38
244.232	80.38
244.465	70.38
244.699	86.38
244.932	73.38
245.166	90.38
245.399	77.38
245.633	79.38
245.866	71.38
246.099	78.38
246.333	87.38
246.566	74.38
246.8	94.38
247.033	75.38
247.266	69.38
247.5	74.38
247.733	85.38
247.966	67.38
248.2	77.38
248.433	95.38
248.666	87.38
248.899	86.38
249.133	92.38
249.366	94.38
249.599	86.38
249.832	90.38
250.066	83.38
250.299	85.38
250.532	76.38
250.765	72.38
250.998	78.38
251.231	103.38
251.465	85.38
251.698	93.38
251.931	88.38
252.164	100.38
252.397	88.38
252.63	95.38
252.863	76.38
253.096	90.38
253.329	94.38
253.562	93.38
253.795	94.38
254.028	94.38
254.261	85.38
254.494	92.38
254.727	98.38
254.96	76.38
255.193	87.38
255.426	91.38
255.659	77.38
255.892	86.38
256.124	85.38
256.357	92.38
256.59	87.38
256.823	96.38
257.056	103.38
257.289	98.38
257.521	75.38
257.754	81.38
257.987	87.38
258.22	94.38
258.452	81.38
258.685	86.38
258.918	79.38
259.151	86.38
259.383	102.38
259.616	84.38
259.849	94.38
260.081	86.38
260.314	100.38
260.547	90.38
260.779	78.38
261.012	108.38
261.244	100.38
261.477	96.38
261.71	96.38
261.942	96.38
262.175	84.38
262.407	103.38
262.64	80.38
262.872	93.38
263.105	90.38
263.337	95.38
263.57	83.38
263.802	88.38
264.035	88.38
264.267	83.38
264.499	86.38
264.732	97.38
264.964	93.38
265.197	94.38
265.429	91.38
265.661	95.38
265.894	84.38
266.126	90.38
266.358	99.38
266.591	74.38
266.823	73.38
267.055	79.38
267.287	82.38
267.52	97.38
267.752	101.38
267.984	93.38
268.216	87.38
268.448	103.38
268.681	82.38
268.913	101.38
269.145	86.38
269.377	90.38
269.609	95.38
269.841	99.38
270.073	83.38
270.306	87.38
270.538	94.38
270.77	90.38
271.002	90.38
271.234	103.38
271.466	110.38
271.698	90.38
271.93	87.38
272.162	88.38
272.394	104.38
272.626	93.38
272.858	85.38
273.09	98.38
273.322	93.38
273.553	80.38
273.785	96.38
274.017	90.38
274.249	90.38
274.481	84.38
274.713	96.38
274.945	90.38
275.176	88.38
275.408	109.38
275.64	97.38
275.872	108.38
276.104	108.38
276.335	95.38
276.567	98.38
276.799	85.38
277.031	85.38
277.262	97.38
277.494	107.38
277.726	93.38
277.957	86.38
278.189	95.38
278.421	98.38
278.652	101.38
278.884	100.38
279.115	95.38
279.347	100.38
279.579	93.38
279.81	87.38
280.042	101.38
280.273	117.38
280.505	107.38
280.736	94.38
280.968	111.38
281.199	104.38
281.431	90.38
281.662	109.38
281.894	116.38
282.125	99.38
282.356	105.38
282.588	102.38
282.819	94.38
283.051	110.38
283.282	100.38
283.513	98.38
283.745	90.38
283.976	102.38
284.207	101.38
284.439	115.38
284.67	92.38
284.901	101.38
285.132	78.38
285.364	97.38
285.595	96.38
285.826	85.38
286.057	86.38
286.288	105.38
286.52	101.38
286.751	100.38
286.982	101.38
287.213	114.38
287.444	91.38
287.675	110.38
287.906	110.38
288.138	94.38
288.369	100.38
288.6	108.38
288.831	96.38
289.062	109.38
289.293	99.38
289.524	103.38
289.755	105.38
289.986	90.38
290.217	107.38
290.448	104.38
290.679	114.38
290.91	109.38
291.141	91.38
291.371	104.38
291.602	103.38
291.833	104.38
292.064	114.38
292.295	99.38
292.526	103.38
292.757	109.38
292.987	92.38
293.218	99.38
293.449	99.38
293.68	95.38
293.91	109.38
294.141	101.38
294.372	104.38
294.603	94.38
294.833	86.38
295.064	100.38
295.295	106.38
295.525	106.38
295.756	100.38
295.987	98.38
296.217	100.38
296.448	103.38
296.679	103.38
296.909	113.38
297.14	98.38
297.37	108.38
297.601	102.38
297.831	115.38
298.062	108.38
298.292	104.38
298.523	101.38
298.753	107.38
298.984	104.38
299.214	102.38
299.445	96.38
299.675	79.38
299.905	110.38
300.136	90.38
300.366	108.38
300.597	125.38
300.827	94.38
301.057	99.38
301.288	102.38
301.518	98.38
301.748	107.38
301.979	146.38
302.209	110.38
302.439	100.38
302.669	104.38
302.9	117.38
303.13	108.38
303.36	99.38
303.59	94.38
303.82	108.38
304.051	100.38
304.281	111.38
304.511	120.38
304.741	87.38
304.971	102.38
305.201	108.38
305.431	103.38
305.661	104.38
305.891	114.38
306.121	105.38
306.352	103.38
306.582	109.38
306.812	106.38
307.042	116.38
307.272	101.38
307.502	95.38
307.731	111.38
307.961	97.38
308.191	95.38
308.421	95.38
308.651	116.38
308.881	112.38
309.111	98.38
309.341	84.38
309.571	88.38
309.8	86.38
310.03	95.38
310.26	99.38
310.49	107.38
310.72	110.38
310.949	101.38
311.179	116.38
311.409	99.38
311.639	115.38
311.868	124.38
312.098	109.38
312.328	113.38
312.557	110.38
312.787	102.38
313.017	101.38
313.246	95.38
313.476	89.38
313.706	122.38
313.935	102.38
314.165	102.38
314.394	103.38
314.624	103.38
314.853	118.38
315.083	112.38
315.312	102.38
315.542	108.38
315.771	116.38
316.001	111.38
316.23	92.38
316.46	95.38
316.689	96.38
316.919	130.38
317.148	104.38
317.377	117.38
317.607	101.38
317.836	102.38
318.065	88.38
318.295	111.38
318.524	109.38
318.753	108.38
318.983	109.38
319.212	108.38
319.441	101.38
319.67	94.38
319.9	95.38
320.129	87.38
320.358	88.38
320.587	87.38
320.816	103.38
321.046	114.38
321.275	98.38
321.504	101.38
321.733	102.38
321.962	104.38
322.191	105.38
322.42	111.38
322.649	111.38
322.878	114.38
323.108	108.38
323.337	103.38
323.566	100.38
323.795	113.38
324.024	103.38
324.253	101.38
324.482	104.38
324.71	122.38
324.939	104.38
325.168	99.38
325.397	107.38
325.626	123.38
325.855	111.38
326.084	103.38
326.313	114.38
326.542	109.38
326.77	100.38
326.999	101.38
327.228	110.38
327.457	102.38
327.686	112.38
327.914	123.38
328.143	126.38
328.372	102.38
328.6	117.38
328.829	119.38
329.058	107.38
329.287	99.38
329.515	102.38
329.744	105.38
329.972	111.38
330.201	126.38
330.43	110.38
330.658	94.38
330.887	99.38
331.115	114.38
331.344	105.38
331.572	113.38
331.801	114.38
332.03	117.38
332.258	128.38
332.486	108.38
332.715	115.38
332.943	122.38
333.172	103.38
333.4	124.38
333.629	126.38
333.857	117.38
334.085	126.38
334.314	117.38
334.542	115.38
334.771	130.38
334.999	122.38
335.227	105.38
335.455	114.38
335.684	125.38
335.912	112.38
336.14	117.38
336.369	103.38
336.597	114.38
336.825	119.38
337.053	101.38
337.281	110.38
337.51	101.38
337.738	119.38
337.966	111.38
338.194	111.38
338.422	102.38
338.65	117.38
338.878	116.38
339.106	115.38
339.334	126.38
339.562	102.38
339.79	111.38
340.018	115.38
340.246	111.38
340.474	117.38
340.702	114.38
340.93	117.38
341.158	119.38
341.386	113.38
341.614	91.38
341.842	111.38
342.07	104.38
342.298	94.38
342.526	108.38
342.754	115.38
342.981	104.38
343.209	96.38
343.437	130.38
343.665	124.38
343.893	116.38
344.12	129.38
344.348	121.38
344.576	112.38
344.804	108.38
345.031	113.38
345.259	117.38
345.487	104.38
345.714	101.38
345.942	101.38
346.17	110.38
346.397	108.38
346.625	106.38
346.853	112.38
347.08	99.38
347.308	111.38
347.535	118.38
347.763	107.38
347.99	112.38
348.218	95.38
348.445	94.38
348.673	115.38
348.9	116.38
349.128	101.38
349.355	97.38
349.583	101.38
349.81	111.38
350.037	109.38
350.265	106.38
350.492	110.38
350.72	107.38
350.947	106.38
351.174	114.38
351.402	104.38
351.629	90.38
351.856	110.38
352.083	95.38
352.311	115.38
352.538	103.38
352.765	118.38
352.992	108.38
353.22	111.38
353.447	110.38
353.674	111.38
353.901	106.38
354.128	111.38
354.355	102.38
354.583	115.38
354.81	108.38
355.037	117.38
355.264	113.38
355.491	100.38
355.718	104.38
355.945	102.38
356.172	103.38
356.399	95.38
356.626	109.38
356.853	100.38
357.08	112.38
357.307	104.38
357.534	88.38
357.761	107.38
357.988	108.38
358.215	115.38
358.441	95.38
358.668	103.38
358.895	107.38
359.122	96.38
359.349	95.38
359.576	108.38
359.802	100.38
360.029	104.38
360.256	92.38
360.483	102.38
360.709	99.38
360.936	117.38
361.163	110.38
361.39	104.38
361.616	101.38
361.843	117.38
362.07	124.38
362.296	113.38
362.523	97.38
362.749	98.38
362.976	113.38
363.203	130.38
363.429	93.38
363.656	112.38
363.882	93.38
364.109	100.38
364.335	107.38
364.562	91.38
364.788	108.38
365.015	108.38
365.241	104.38
365.468	119.38
365.694	91.38
365.92	106.38
366.147	110.38
366.373	102.38
366.599	119.38
366.826	111.38
367.052	102.38
367.278	105.38
367.505	98.38
367.731	108.38
367.957	123.38
368.184	103.38
368.41	102.38
368.636	113.38
368.862	107.38
369.089	112.38
369.315	95.38
369.541	102.38
369.767	108.38
369.993	107.38
370.219	105.38
370.445	106.38
370.672	100.38
370.898	114.38
371.124	110.38
371.35	112.38
371.576	118.38
371.802	104.38
372.028	109.38
372.254	123.38
372.48	112.38
372.706	108.38
372.932	108.38
373.158	115.38
373.384	110.38
373.61	106.38
373.835	108.38
374.061	112.38
374.287	120.38
374.513	104.38
374.739	104.38
374.965	113.38
375.191	105.38
375.416	103.38
375.642	104.38
375.868	126.38
376.094	119.38
376.319	105.38
376.545	102.38
376.771	102.38
376.997	110.38
377.222	115.38
377.448	111.38
377.674	122.38
377.899	103.38
378.125	107.38
378.35	129.38
378.576	112.38
378.802	103.38
379.027	107.38
379.253	118.38
379.478	103.38
379.704	110.38
379.929	108.38
380.155	115.38
380.38	103.38
380.606	105.38
380.831	111.38
381.057	124.38
381.282	112.38
381.507	100.38
381.733	115.38
381.958	106.38
382.184	103.38
382.409	104.38
382.634	119.38
382.86	103.38
383.085	125.38
383.31	116.38
383.535	111.38
383.761	113.38
383.986	114.38
384.211	110.38
384.436	118.38
384.662	111.38
384.887	102.38
385.112	119.38
385.337	127.38
385.562	111.38
385.787	122.38
386.013	121.38
386.238	102.38
386.463	114.38
386.688	143.38
386.913	118.38
387.138	97.38
387.363	114.38
387.588	99.38
387.813	119.38
388.038	121.38
388.263	117.38
388.488	116.38
388.713	107.38
388.938	110.38
389.163	120.38
389.387	109.38
389.612	122.38
389.837	129.38
390.062	133.38
390.287	121.38
390.512	123.38
390.736	110.38
390.961	114.38
391.186	111.38
391.411	100.38
391.636	128.38
391.86	121.38
392.085	129.38
392.31	113.38
392.534	124.38
392.759	122.38
392.984	113.38
393.208	124.38
393.433	107.38
393.658	117.38
393.882	112.38
394.107	118.38
394.331	109.38
394.556	116.38
394.78	141.38
395.005	122.38
395.229	113.38
395.454	109.38
395.678	116.38
395.903	114.38
396.127	130.38
396.352	110.38
396.576	112.38
396.801	116.38
397.025	131.38
397.249	124.38
397.474	128.38
397.698	122.38
397.922	120.38
398.147	132.38
398.371	112.38
398.595	130.38
398.82	126.38
399.044	124.38
399.268	142.38
399.492	166.38
399.717	159.38
399.941	154.38
400.165	151.38
400.389	135.38
400.613	115.38
400.837	127.38
401.062	127.38
401.286	120.38
401.51	130.38
401.734	118.38
401.958	138.38
402.182	133.38
402.406	127.38
402.63	111.38
402.854	118.38
403.078	132.38
403.302	123.38
403.526	142.38
403.75	130.38
403.974	135.38
404.198	134.38
404.422	132.38
404.645	124.38
404.869	150.38
405.093	120.38
405.317	122.38
405.541	140.38
405.765	135.38
405.988	133.38
406.212	143.38
406.436	124.38
406.66	138.38
406.883	138.38
407.107	138.38
407.331	146.38
407.555	142.38
407.778	156.38
408.002	128.38
408.226	144.38
408.449	127.38
408.673	128.38
408.896	145.38
409.12	129.38
409.344	117.38
409.567	116.38
409.791	136.38
410.014	141.38
410.238	138.38
410.461	128.38
410.685	140.38
410.908	121.38
411.132	128.38
411.355	117.38
411.578	131.38
411.802	138.38
412.025	117.38
412.249	132.38
412.472	131.38
412.695	126.38
412.919	131.38
413.142	128.38
413.365	134.38
413.589	130.38
413.812	140.38
414.035	129.38
414.258	120.38
414.482	143.38
414.705	127.38
414.928	129.38
415.151	118.38
415.374	122.38
415.597	133.38
415.821	123.38
416.044	109.38
416.267	120.38
416.49	125.38
416.713	126.38
416.936	137.38
417.159	124.38
417.382	132.38
417.605	118.38
417.828	122.38
418.051	141.38
418.274	130.38
418.497	132.38
418.72	120.38
418.943	143.38
419.166	130.38
419.389	132.38
419.611	136.38
419.834	127.38
420.057	132.38
420.28	116.38
420.503	121.38
420.726	119.38
420.948	114.38
421.171	121.38
421.394	124.38
421.617	128.38
421.839	130.38
422.062	123.38
422.285	130.38
422.507	129.38
422.73	110.38
422.953	132.38
423.175	132.38
423.398	135.38
423.621	134.38
423.843	112.38
424.066	144.38
424.288	140.38
424.511	126.38
424.733	124.38
424.956	126.38
425.178	114.38
425.401	111.38
425.623	129.38
425.846	122.38
426.068	126.38
426.291	111.38
426.513	130.38
426.735	123.38
426.958	107.38
427.18	125.38
427.402	126.38
427.625	132.38
427.847	109.38
428.069	124.38
428.292	113.38
428.514	128.38
428.736	111.38
428.958	118.38
429.181	115.38
429.403	122.38
429.625	110.38
429.847	109.38
430.069	103.38
430.292	126.38
430.514	126.38
430.736	138.38
430.958	123.38
431.18	114.38
431.402	123.38
431.624	136.38
431.846	116.38
432.068	129.38
432.29	112.38
432.512	134.38
432.734	115.38
432.956	129.38
433.178	138.38
433.4	136.38
433.622	119.38
433.844	117.38
434.066	127.38
434.287	124.38
434.509	126.38
434.731	126.38
434.953	115.38
435.175	116.38
435.397	123.38
435.618	115.38
435.84	120.38
436.062	119.38
436.284	116.38
436.505	127.38
436.727	131.38
436.949	137.38
437.17	107.38
437.392	111.38
437.614	119.38
437.835	112.38
438.057	114.38
438.278	130.38
438.5	120.38
438.721	122.38
438.943	130.38
439.165	111.38
439.386	127.38
439.608	111.38
439.829	123.38
440.05	126.38
440.272	120.38
440.493	116.38
440.715	133.38
440.936	116.38
441.158	110.38
441.379	131.38
441.6	143.38
441.822	119.38
442.043	146.38
442.264	117.38
442.486	125.38
442.707	141.38
442.928	131.38
443.149	119.38
443.371	114.38
443.592	132.38
443.813	128.38
444.034	123.38
444.255	132.38
444.476	130.38
444.698	133.38
444.919	117.38
445.14	370.38
445.361	265.38
445.582	140.38
445.803	129.38
446.024	123.38
446.245	122.38
446.466	131.38
446.687	117.38
446.908	114.38
447.129	147.38
447.35	134.38
447.571	119.38
447.792	128.38
448.013	123.38
448.234	129.38
448.455	115.38
448.675	114.38
448.896	130.38
449.117	138.38
449.338	109.38
449.559	133.38
449.779	125.38
450	112.38
450.221	116.38
450.442	132.38
450.662	122.38
450.883	108.38
451.104	130.38
451.324	125.38
451.545	115.38
451.766	115.38
451.986	128.38
452.207	118.38
452.428	129.38
452.648	125.38
452.869	123.38
453.089	123.38
453.31	128.38
453.53	118.38
453.751	115.38
453.971	111.38
454.192	114.38
454.412	116.38
454.633	120.38
454.853	116.38
455.073	111.38
455.294	108.38
455.514	118.38
455.734	108.38
455.955	110.38
456.175	96.38
456.395	109.38
456.616	110.38
456.836	119.38
457.056	111.38
457.276	127.38
457.497	121.38
457.717	104.38
457.937	112.38
458.157	117.38
458.377	118.38
458.598	115.38
458.818	116.38
459.038	112.38
459.258	114.38
459.478	115.38
459.698	126.38
459.918	130.38
460.138	128.38
460.358	123.38
460.578	134.38
460.798	137.38
461.018	133.38
461.238	141.38
461.458	146.38
461.678	143.38
461.898	125.38
462.118	124.38
462.338	148.38
462.558	144.38
462.777	138.38
462.997	156.38
463.217	152.38
463.437	149.38
463.657	142.38
463.876	146.38
464.096	133.38
464.316	136.38
464.536	135.38
464.755	131.38
464.975	139.38
465.195	135.38
465.414	138.38
465.634	127.38
465.854	125.38
466.073	132.38
466.293	109.38
466.512	122.38
466.732	113.38
466.951	120.38
467.171	118.38
467.391	127.38
467.61	120.38
467.829	111.38
468.049	115.38
468.268	113.38
468.488	105.38
468.707	115.38
468.927	117.38
469.146	104.38
469.365	114.38
469.585	127.38
469.804	115.38
470.023	116.38
470.243	117.38
470.462	128.38
470.681	136.38
470.901	127.38
471.12	121.38
471.339	122.38
471.558	130.38
471.777	119.38
471.997	126.38
472.216	117.38
472.435	104.38
472.654	120.38
472.873	128.38
473.092	125.38
473.311	124.38
473.53	125.38
473.749	110.38
473.968	123.38
474.187	118.38
474.406	111.38
474.625	123.38
474.844	132.38
475.063	116.38
475.282	121.38
475.501	116.38
475.72	120.38
475.939	114.38
476.158	122.38
476.377	119.38
476.596	113.38
476.814	133.38
477.033	131.38
477.252	131.38
477.471	124.38
477.69	125.38
477.908	129.38
478.127	130.38
478.346	116.38
478.564	131.38
478.783	141.38
479.002	121.38
479.22	119.38
479.439	124.38
479.658	118.38
479.876	109.38
480.095	139.38
480.313	121.38
480.532	130.38
480.751	138.38
480.969	133.38
481.188	124.38
481.406	128.38
481.624	122.38
481.843	126.38
482.061	109.38
482.28	127.38
482.498	132.38
482.717	107.38
482.935	119.38
483.153	133.38
483.372	125.38
483.59	127.38
483.808	126.38
484.027	122.38
484.245	131.38
484.463	121.38
484.681	141.38
484.9	114.38
485.118	128.38
485.336	132.38
485.554	109.38
485.772	131.38
485.99	122.38
486.209	118.38
486.427	130.38
486.645	120.38
486.863	119.38
487.081	131.38
487.299	129.38
487.517	118.38
487.735	125.38
487.953	134.38
488.171	123.38
488.389	135.38
488.607	140.38
488.825	116.38
489.043	115.38
489.261	140.38
489.479	138.38
489.696	134.38
489.914	126.38
490.132	112.38
490.35	123.38
490.568	119.38
490.786	118.38
491.003	127.38
491.221	130.38
491.439	119.38
491.657	127.38
491.874	135.38
492.092	139.38
492.31	142.38
492.527	134.38
492.745	141.38
492.963	136.38
493.18	128.38
493.398	120.38
493.615	111.38
493.833	154.38
494.05	156.38
494.268	132.38
494.485	124.38
494.703	142.38
494.92	143.38
495.138	133.38
495.355	128.38
495.573	132.38
495.79	125.38
496.008	145.38
496.225	125.38
496.442	137.38
496.66	145.38
496.877	131.38
497.094	163.38
497.312	132.38
497.529	152.38
497.746	156.38
497.963	129.38
498.181	138.38
498.398	158.38
498.615	163.38
498.832	174.38
499.049	166.38
499.267	172.38
499.484	188.38
499.701	204.38
499.918	221.38
500.135	226.38
500.352	238.38
500.569	232.38
500.786	267.38
501.003	227.38
501.22	206.38
501.437	192.38
501.654	186.38
501.871	161.38
502.088	152.38
502.305	168.38
502.522	154.38
502.739	152.38
502.956	150.38
503.172	142.38
503.389	129.38
503.606	148.38
503.823	151.38
504.04	145.38
504.256	156.38
504.473	124.38
504.69	129.38
504.907	144.38
505.123	149.38
505.34	150.38
505.557	124.38
505.773	123.38
505.99	116.38
506.207	139.38
506.423	132.38
506.64	126.38
