Data from SampD_HRD10591_00097.txt Node
Date: Mon Jan 19 11:41:54 EST 2026
User: Yrep
Spectrometer: HR+D1059
Trigger mode: 0
Integration Time (sec): 3.443000E-1
Scans to average: 1
Electric dark correction enabled: true
Nonlinearity correction enabled: false
Boxcar width: 0
XAxis mode: Wavelengths
Number of Pixels in Spectrum: 2048
>>>>>Begin Spectral Data<<<<<
223.165	-28.44
223.4	-28.44
223.635	-28.44
223.869	-46.44
224.104	-39.44
224.338	-9.44
224.573	-18.44
224.808	-6.44
225.042	-8.44
225.277	2.56
225.511	1.56
225.746	14.56
225.98	7.56
226.215	14.56
226.449	21.56
226.683	17.56
226.918	26.56
227.152	50.56
227.387	31.56
227.621	37.56
227.856	68.56
228.09	51.56
228.324	56.56
228.559	69.56
228.793	66.56
229.027	67.56
229.262	86.56
229.496	77.56
229.73	70.56
229.964	101.56
230.199	79.56
230.433	83.56
230.667	86.56
230.901	79.56
231.136	93.56
231.37	86.56
231.604	92.56
231.838	89.56
232.072	93.56
232.306	88.56
232.541	83.56
232.775	83.56
233.009	106.56
233.243	98.56
233.477	97.56
233.711	93.56
233.945	96.56
234.179	89.56
234.413	87.56
234.647	91.56
234.881	89.56
235.115	81.56
235.349	81.56
235.583	88.56
235.817	77.56
236.051	81.56
236.285	89.56
236.519	80.56
236.753	75.56
236.987	93.56
237.221	88.56
237.455	97.56
237.689	74.56
237.922	81.56
238.156	79.56
238.39	87.56
238.624	74.56
238.858	87.56
239.091	81.56
239.325	90.56
239.559	88.56
239.793	80.56
240.027	96.56
240.26	83.56
240.494	89.56
240.728	93.56
240.961	87.56
241.195	77.56
241.429	91.56
241.662	88.56
241.896	93.56
242.13	75.56
242.363	83.56
242.597	94.56
242.83	87.56
243.064	92.56
243.298	78.56
243.531	104.56
243.765	99.56
243.998	79.56
244.232	104.56
244.465	93.56
244.699	98.56
244.932	98.56
245.166	88.56
245.399	96.56
245.633	92.56
245.866	86.56
246.099	77.56
246.333	93.56
246.566	96.56
246.8	77.56
247.033	95.56
247.266	89.56
247.5	101.56
247.733	100.56
247.966	87.56
248.2	95.56
248.433	98.56
248.666	90.56
248.899	97.56
249.133	95.56
249.366	103.56
249.599	80.56
249.832	95.56
250.066	107.56
250.299	98.56
250.532	94.56
250.765	95.56
250.998	94.56
251.231	101.56
251.465	97.56
251.698	98.56
251.931	91.56
252.164	99.56
252.397	94.56
252.63	111.56
252.863	93.56
253.096	98.56
253.329	99.56
253.562	87.56
253.795	86.56
254.028	119.56
254.261	100.56
254.494	87.56
254.727	93.56
254.96	88.56
255.193	100.56
255.426	101.56
255.659	104.56
255.892	110.56
256.124	105.56
256.357	96.56
256.59	98.56
256.823	114.56
257.056	93.56
257.289	103.56
257.521	106.56
257.754	105.56
257.987	94.56
258.22	89.56
258.452	95.56
258.685	95.56
258.918	97.56
259.151	98.56
259.383	102.56
259.616	114.56
259.849	95.56
260.081	97.56
260.314	110.56
260.547	118.56
260.779	99.56
261.012	117.56
261.244	101.56
261.477	113.56
261.71	102.56
261.942	109.56
262.175	93.56
262.407	104.56
262.64	94.56
262.872	104.56
263.105	102.56
263.337	116.56
263.57	109.56
263.802	109.56
264.035	114.56
264.267	86.56
264.499	96.56
264.732	106.56
264.964	88.56
265.197	118.56
265.429	121.56
265.661	113.56
265.894	110.56
266.126	119.56
266.358	105.56
266.591	111.56
266.823	110.56
267.055	111.56
267.287	90.56
267.52	110.56
267.752	107.56
267.984	114.56
268.216	121.56
268.448	121.56
268.681	108.56
268.913	99.56
269.145	107.56
269.377	100.56
269.609	112.56
269.841	118.56
270.073	112.56
270.306	112.56
270.538	118.56
270.77	98.56
271.002	99.56
271.234	99.56
271.466	110.56
271.698	116.56
271.93	119.56
272.162	111.56
272.394	115.56
272.626	124.56
272.858	107.56
273.09	117.56
273.322	92.56
273.553	110.56
273.785	110.56
274.017	121.56
274.249	119.56
274.481	114.56
274.713	110.56
274.945	111.56
275.176	108.56
275.408	100.56
275.64	118.56
275.872	104.56
276.104	101.56
276.335	119.56
276.567	100.56
276.799	106.56
277.031	116.56
277.262	114.56
277.494	111.56
277.726	105.56
277.957	109.56
278.189	102.56
278.421	94.56
278.652	106.56
278.884	115.56
279.115	107.56
279.347	123.56
279.579	107.56
279.81	115.56
280.042	103.56
280.273	112.56
280.505	101.56
280.736	124.56
280.968	120.56
281.199	117.56
281.431	118.56
281.662	124.56
281.894	128.56
282.125	126.56
282.356	123.56
282.588	115.56
282.819	128.56
283.051	118.56
283.282	117.56
283.513	116.56
283.745	128.56
283.976	130.56
284.207	117.56
284.439	120.56
284.67	111.56
284.901	133.56
285.132	126.56
285.364	126.56
285.595	131.56
285.826	103.56
286.057	115.56
286.288	124.56
286.52	117.56
286.751	126.56
286.982	117.56
287.213	116.56
287.444	116.56
287.675	124.56
287.906	125.56
288.138	121.56
288.369	117.56
288.6	131.56
288.831	130.56
289.062	134.56
289.293	116.56
289.524	122.56
289.755	137.56
289.986	121.56
290.217	117.56
290.448	113.56
290.679	141.56
290.91	135.56
291.141	129.56
291.371	129.56
291.602	128.56
291.833	127.56
292.064	120.56
292.295	119.56
292.526	137.56
292.757	127.56
292.987	119.56
293.218	126.56
293.449	123.56
293.68	123.56
293.91	147.56
294.141	133.56
294.372	133.56
294.603	125.56
294.833	134.56
295.064	137.56
295.295	119.56
295.525	122.56
295.756	145.56
295.987	125.56
296.217	120.56
296.448	138.56
296.679	119.56
296.909	142.56
297.14	140.56
297.37	138.56
297.601	132.56
297.831	133.56
298.062	131.56
298.292	142.56
298.523	149.56
298.753	138.56
298.984	137.56
299.214	134.56
299.445	138.56
299.675	126.56
299.905	143.56
300.136	126.56
300.366	141.56
300.597	128.56
300.827	122.56
301.057	133.56
301.288	133.56
301.518	134.56
301.748	131.56
301.979	163.56
302.209	132.56
302.439	120.56
302.669	145.56
302.9	129.56
303.13	135.56
303.36	127.56
303.59	127.56
303.82	125.56
304.051	141.56
304.281	130.56
304.511	144.56
304.741	136.56
304.971	140.56
305.201	144.56
305.431	132.56
305.661	124.56
305.891	123.56
306.121	127.56
306.352	133.56
306.582	132.56
306.812	138.56
307.042	135.56
307.272	134.56
307.502	131.56
307.731	135.56
307.961	133.56
308.191	126.56
308.421	127.56
308.651	130.56
308.881	123.56
309.111	121.56
309.341	131.56
309.571	135.56
309.8	143.56
310.03	135.56
310.26	136.56
310.49	132.56
310.72	120.56
310.949	128.56
311.179	130.56
311.409	121.56
311.639	135.56
311.868	138.56
312.098	143.56
312.328	141.56
312.557	142.56
312.787	138.56
313.017	141.56
313.246	136.56
313.476	146.56
313.706	147.56
313.935	136.56
314.165	145.56
314.394	127.56
314.624	131.56
314.853	143.56
315.083	150.56
315.312	141.56
315.542	126.56
315.771	136.56
316.001	146.56
316.23	149.56
316.46	136.56
316.689	129.56
316.919	133.56
317.148	129.56
317.377	149.56
317.607	147.56
317.836	136.56
318.065	147.56
318.295	141.56
318.524	122.56
318.753	137.56
318.983	137.56
319.212	137.56
319.441	136.56
319.67	146.56
319.9	130.56
320.129	138.56
320.358	122.56
320.587	139.56
320.816	132.56
321.046	127.56
321.275	135.56
321.504	135.56
321.733	137.56
321.962	144.56
322.191	131.56
322.42	141.56
322.649	118.56
322.878	127.56
323.108	150.56
323.337	143.56
323.566	124.56
323.795	131.56
324.024	149.56
324.253	147.56
324.482	130.56
324.71	139.56
324.939	143.56
325.168	129.56
325.397	148.56
325.626	151.56
325.855	138.56
326.084	148.56
326.313	138.56
326.542	133.56
326.77	154.56
326.999	130.56
327.228	142.56
327.457	147.56
327.686	154.56
327.914	135.56
328.143	138.56
328.372	143.56
328.6	138.56
328.829	142.56
329.058	127.56
329.287	130.56
329.515	158.56
329.744	152.56
329.972	146.56
330.201	145.56
330.43	152.56
330.658	134.56
330.887	158.56
331.115	149.56
331.344	156.56
331.572	158.56
331.801	150.56
332.03	155.56
332.258	158.56
332.486	152.56
332.715	163.56
332.943	164.56
333.172	177.56
333.4	170.56
333.629	177.56
333.857	177.56
334.085	167.56
334.314	157.56
334.542	166.56
334.771	149.56
334.999	165.56
335.227	175.56
335.455	155.56
335.684	166.56
335.912	162.56
336.14	162.56
336.369	159.56
336.597	154.56
336.825	154.56
337.053	148.56
337.281	165.56
337.51	150.56
337.738	165.56
337.966	141.56
338.194	131.56
338.422	136.56
338.65	151.56
338.878	147.56
339.106	148.56
339.334	149.56
339.562	149.56
339.79	159.56
340.018	166.56
340.246	140.56
340.474	148.56
340.702	157.56
340.93	145.56
341.158	144.56
341.386	128.56
341.614	158.56
341.842	147.56
342.07	145.56
342.298	142.56
342.526	127.56
342.754	150.56
342.981	163.56
343.209	159.56
343.437	179.56
343.665	169.56
343.893	157.56
344.12	174.56
344.348	162.56
344.576	146.56
344.804	142.56
345.031	140.56
345.259	150.56
345.487	146.56
345.714	151.56
345.942	135.56
346.17	169.56
346.397	150.56
346.625	143.56
346.853	152.56
347.08	141.56
347.308	153.56
347.535	154.56
347.763	172.56
347.99	163.56
348.218	159.56
348.445	147.56
348.673	154.56
348.9	145.56
349.128	149.56
349.355	138.56
349.583	156.56
349.81	141.56
350.037	136.56
350.265	135.56
350.492	124.56
350.72	141.56
350.947	131.56
351.174	133.56
351.402	121.56
351.629	134.56
351.856	138.56
352.083	141.56
352.311	155.56
352.538	139.56
352.765	143.56
352.992	172.56
353.22	138.56
353.447	138.56
353.674	156.56
353.901	154.56
354.128	151.56
354.355	151.56
354.583	142.56
354.81	145.56
355.037	148.56
355.264	146.56
355.491	144.56
355.718	150.56
355.945	137.56
356.172	139.56
356.399	159.56
356.626	156.56
356.853	148.56
357.08	133.56
357.307	146.56
357.534	138.56
357.761	154.56
357.988	146.56
358.215	146.56
358.441	135.56
358.668	141.56
358.895	132.56
359.122	134.56
359.349	142.56
359.576	143.56
359.802	145.56
360.029	153.56
360.256	133.56
360.483	167.56
360.709	126.56
360.936	154.56
361.163	152.56
361.39	148.56
361.616	140.56
361.843	148.56
362.07	140.56
362.296	129.56
362.523	140.56
362.749	159.56
362.976	148.56
363.203	150.56
363.429	130.56
363.656	146.56
363.882	135.56
364.109	159.56
364.335	141.56
364.562	148.56
364.788	124.56
365.015	136.56
365.241	156.56
365.468	157.56
365.694	133.56
365.92	141.56
366.147	132.56
366.373	131.56
366.599	146.56
366.826	117.56
367.052	143.56
367.278	145.56
367.505	143.56
367.731	163.56
367.957	134.56
368.184	133.56
368.41	138.56
368.636	140.56
368.862	146.56
369.089	146.56
369.315	151.56
369.541	146.56
369.767	137.56
369.993	137.56
370.219	158.56
370.445	151.56
370.672	148.56
370.898	156.56
371.124	145.56
371.35	142.56
371.576	161.56
371.802	128.56
372.028	150.56
372.254	149.56
372.48	168.56
372.706	155.56
372.932	152.56
373.158	147.56
373.384	173.56
373.61	157.56
373.835	160.56
374.061	149.56
374.287	136.56
374.513	150.56
374.739	146.56
374.965	161.56
375.191	174.56
375.416	158.56
375.642	160.56
375.868	166.56
376.094	137.56
376.319	150.56
376.545	148.56
376.771	146.56
376.997	150.56
377.222	170.56
377.448	134.56
377.674	166.56
377.899	151.56
378.125	157.56
378.35	151.56
378.576	149.56
378.802	136.56
379.027	163.56
379.253	152.56
379.478	160.56
379.704	154.56
379.929	158.56
380.155	137.56
380.38	134.56
380.606	157.56
380.831	147.56
381.057	175.56
381.282	160.56
381.507	175.56
381.733	134.56
381.958	157.56
382.184	147.56
382.409	163.56
382.634	165.56
382.86	154.56
383.085	154.56
383.31	155.56
383.535	170.56
383.761	178.56
383.986	158.56
384.211	169.56
384.436	165.56
384.662	169.56
384.887	172.56
385.112	158.56
385.337	169.56
385.562	166.56
385.787	165.56
386.013	181.56
386.238	157.56
386.463	154.56
386.688	185.56
386.913	186.56
387.138	161.56
387.363	168.56
387.588	179.56
387.813	166.56
388.038	169.56
388.263	173.56
388.488	170.56
388.713	148.56
388.938	162.56
389.163	159.56
389.387	171.56
389.612	155.56
389.837	173.56
390.062	170.56
390.287	169.56
390.512	159.56
390.736	167.56
390.961	163.56
391.186	165.56
391.411	182.56
391.636	166.56
391.86	182.56
392.085	185.56
392.31	179.56
392.534	179.56
392.759	182.56
392.984	180.56
393.208	188.56
393.433	200.56
393.658	184.56
393.882	173.56
394.107	176.56
394.331	178.56
394.556	174.56
394.78	181.56
395.005	179.56
395.229	169.56
395.454	183.56
395.678	176.56
395.903	191.56
396.127	184.56
396.352	176.56
396.576	180.56
396.801	191.56
397.025	182.56
397.249	191.56
397.474	208.56
397.698	180.56
397.922	197.56
398.147	168.56
398.371	174.56
398.595	200.56
398.82	186.56
399.044	210.56
399.268	235.56
399.492	259.56
399.717	269.56
399.941	266.56
400.165	233.56
400.389	215.56
400.613	187.56
400.837	202.56
401.062	190.56
401.286	194.56
401.51	195.56
401.734	195.56
401.958	185.56
402.182	192.56
402.406	206.56
402.63	199.56
402.854	184.56
403.078	205.56
403.302	205.56
403.526	202.56
403.75	205.56
403.974	217.56
404.198	220.56
404.422	208.56
404.645	209.56
404.869	224.56
405.093	224.56
405.317	209.56
405.541	203.56
405.765	196.56
405.988	206.56
406.212	210.56
406.436	216.56
406.66	225.56
406.883	211.56
407.107	223.56
407.331	224.56
407.555	222.56
407.778	210.56
408.002	229.56
408.226	215.56
408.449	195.56
408.673	209.56
408.896	216.56
409.12	221.56
409.344	221.56
409.567	208.56
409.791	221.56
410.014	207.56
410.238	213.56
410.461	197.56
410.685	215.56
410.908	219.56
411.132	206.56
411.355	197.56
411.578	216.56
411.802	215.56
412.025	202.56
412.249	191.56
412.472	201.56
412.695	199.56
412.919	194.56
413.142	190.56
413.365	201.56
413.589	186.56
413.812	203.56
414.035	200.56
414.258	203.56
414.482	193.56
414.705	214.56
414.928	195.56
415.151	213.56
415.374	185.56
415.597	203.56
415.821	186.56
416.044	185.56
416.267	189.56
416.49	196.56
416.713	199.56
416.936	190.56
417.159	210.56
417.382	195.56
417.605	191.56
417.828	209.56
418.051	207.56
418.274	193.56
418.497	208.56
418.72	195.56
418.943	199.56
419.166	201.56
419.389	198.56
419.611	186.56
419.834	200.56
420.057	202.56
420.28	195.56
420.503	216.56
420.726	207.56
420.948	198.56
421.171	201.56
421.394	189.56
421.617	192.56
421.839	191.56
422.062	203.56
422.285	199.56
422.507	203.56
422.73	198.56
422.953	210.56
423.175	214.56
423.398	199.56
423.621	196.56
423.843	196.56
424.066	197.56
424.288	210.56
424.511	205.56
424.733	194.56
424.956	179.56
425.178	202.56
425.401	194.56
425.623	200.56
425.846	202.56
426.068	203.56
426.291	194.56
426.513	197.56
426.735	187.56
426.958	180.56
427.18	167.56
427.402	193.56
427.625	174.56
427.847	172.56
428.069	186.56
428.292	186.56
428.514	201.56
428.736	185.56
428.958	190.56
429.181	186.56
429.403	172.56
429.625	171.56
429.847	177.56
430.069	181.56
430.292	198.56
430.514	183.56
430.736	186.56
430.958	189.56
431.18	165.56
431.402	164.56
431.624	174.56
431.846	165.56
432.068	172.56
432.29	174.56
432.512	185.56
432.734	175.56
432.956	190.56
433.178	195.56
433.4	203.56
433.622	198.56
433.844	190.56
434.066	183.56
434.287	187.56
434.509	183.56
434.731	198.56
434.953	200.56
435.175	201.56
435.397	182.56
435.618	176.56
435.84	185.56
436.062	187.56
436.284	184.56
436.505	181.56
436.727	177.56
436.949	180.56
437.17	166.56
437.392	179.56
437.614	162.56
437.835	161.56
438.057	176.56
438.278	182.56
438.5	181.56
438.721	193.56
438.943	186.56
439.165	170.56
439.386	171.56
439.608	194.56
439.829	173.56
440.05	182.56
440.272	190.56
440.493	183.56
440.715	182.56
440.936	198.56
441.158	177.56
441.379	187.56
441.6	213.56
441.822	207.56
442.043	203.56
442.264	202.56
442.486	185.56
442.707	206.56
442.928	193.56
443.149	196.56
443.371	199.56
443.592	190.56
443.813	195.56
444.034	217.56
444.255	215.56
444.476	211.56
444.698	230.56
444.919	217.56
445.14	458.56
445.361	299.56
445.582	205.56
445.803	213.56
446.024	205.56
446.245	209.56
446.466	189.56
446.687	181.56
446.908	192.56
447.129	199.56
447.35	177.56
447.571	185.56
447.792	171.56
448.013	177.56
448.234	175.56
448.455	174.56
448.675	171.56
448.896	168.56
449.117	162.56
449.338	159.56
449.559	179.56
449.779	162.56
450	185.56
450.221	170.56
450.442	173.56
450.662	174.56
450.883	170.56
451.104	179.56
451.324	185.56
451.545	171.56
451.766	166.56
451.986	179.56
452.207	184.56
452.428	177.56
452.648	184.56
452.869	171.56
453.089	160.56
453.31	166.56
453.53	175.56
453.751	171.56
453.971	170.56
454.192	161.56
454.412	162.56
454.633	177.56
454.853	180.56
455.073	156.56
455.294	159.56
455.514	177.56
455.734	162.56
455.955	152.56
456.175	165.56
456.395	158.56
456.616	161.56
456.836	167.56
457.056	166.56
457.276	154.56
457.497	162.56
457.717	169.56
457.937	172.56
458.157	171.56
458.377	170.56
458.598	185.56
458.818	175.56
459.038	181.56
459.258	165.56
459.478	196.56
459.698	184.56
459.918	192.56
460.138	199.56
460.358	198.56
460.578	207.56
460.798	205.56
461.018	211.56
461.238	219.56
461.458	189.56
461.678	196.56
461.898	202.56
462.118	202.56
462.338	195.56
462.558	197.56
462.777	220.56
462.997	244.56
463.217	232.56
463.437	252.56
463.657	215.56
463.876	211.56
464.096	233.56
464.316	236.56
464.536	213.56
464.755	220.56
464.975	217.56
465.195	200.56
465.414	197.56
465.634	190.56
465.854	193.56
466.073	193.56
466.293	155.56
466.512	176.56
466.732	167.56
466.951	180.56
467.171	183.56
467.391	178.56
467.61	172.56
467.829	183.56
468.049	163.56
468.268	183.56
468.488	165.56
468.707	166.56
468.927	177.56
469.146	183.56
469.365	190.56
469.585	180.56
469.804	194.56
470.023	193.56
470.243	195.56
470.462	162.56
470.681	183.56
470.901	169.56
471.12	177.56
471.339	190.56
471.558	166.56
471.777	170.56
471.997	172.56
472.216	165.56
472.435	166.56
472.654	167.56
472.873	182.56
473.092	162.56
473.311	165.56
473.53	161.56
473.749	176.56
473.968	172.56
474.187	170.56
474.406	150.56
474.625	191.56
474.844	181.56
475.063	168.56
475.282	181.56
475.501	158.56
475.72	189.56
475.939	184.56
476.158	171.56
476.377	174.56
476.596	169.56
476.814	175.56
477.033	183.56
477.252	174.56
477.471	167.56
477.69	185.56
477.908	186.56
478.127	228.56
478.346	195.56
478.564	191.56
478.783	192.56
479.002	207.56
479.22	196.56
479.439	186.56
479.658	183.56
479.876	196.56
480.095	195.56
480.313	207.56
480.532	210.56
480.751	206.56
480.969	189.56
481.188	185.56
481.406	207.56
481.624	187.56
481.843	177.56
482.061	184.56
482.28	193.56
482.498	186.56
482.717	177.56
482.935	190.56
483.153	183.56
483.372	180.56
483.59	182.56
483.808	194.56
484.027	185.56
484.245	190.56
484.463	187.56
484.681	200.56
484.9	189.56
485.118	191.56
485.336	203.56
485.554	206.56
485.772	208.56
485.99	185.56
486.209	189.56
486.427	186.56
486.645	206.56
486.863	207.56
487.081	184.56
487.299	191.56
487.517	198.56
487.735	179.56
487.953	197.56
488.171	202.56
488.389	198.56
488.607	194.56
488.825	184.56
489.043	165.56
489.261	200.56
489.479	214.56
489.696	213.56
489.914	184.56
490.132	200.56
490.35	201.56
490.568	208.56
490.786	200.56
491.003	217.56
491.221	213.56
491.439	202.56
491.657	196.56
491.874	198.56
492.092	207.56
492.31	198.56
492.527	217.56
492.745	215.56
492.963	200.56
493.18	209.56
493.398	216.56
493.615	191.56
493.833	199.56
494.05	214.56
494.268	203.56
494.485	221.56
494.703	197.56
494.92	197.56
495.138	202.56
495.355	207.56
495.573	201.56
495.79	212.56
496.008	206.56
496.225	212.56
496.442	214.56
496.66	231.56
496.877	219.56
497.094	215.56
497.312	207.56
497.529	213.56
497.746	228.56
497.963	219.56
498.181	219.56
498.398	244.56
498.615	250.56
498.832	265.56
499.049	262.56
499.267	282.56
499.484	293.56
499.701	346.56
499.918	367.56
500.135	402.56
500.352	463.56
500.569	468.56
500.786	458.56
501.003	414.56
501.22	362.56
501.437	347.56
501.654	312.56
501.871	302.56
502.088	279.56
502.305	256.56
502.522	249.56
502.739	251.56
502.956	248.56
503.172	227.56
503.389	219.56
503.606	215.56
503.823	213.56
504.04	211.56
504.256	222.56
504.473	217.56
