Data from SampD_HRD10591_00022.txt Node
Date: Mon Jan 19 11:41:28 EST 2026
User: Yrep
Spectrometer: HR+D1059
Trigger mode: 0
Integration Time (sec): 3.443000E-1
Scans to average: 1
Electric dark correction enabled: true
Nonlinearity correction enabled: false
Boxcar width: 0
XAxis mode: Wavelengths
Number of Pixels in Spectrum: 2048
>>>>>Begin Spectral Data<<<<<
223.165	-30
223.4	-30
223.635	-30
223.869	-23
224.104	-17
224.338	-13
224.573	-12
224.808	-3
225.042	0
225.277	-17
225.511	-3
225.746	13
225.98	1
226.215	19
226.449	18
226.683	17
226.918	20
227.152	30
227.387	40
227.621	40
227.856	45
228.09	41
228.324	46
228.559	64
228.793	67
229.027	53
229.262	80
229.496	61
229.73	60
229.964	80
230.199	73
230.433	85
230.667	86
230.901	91
231.136	83
231.37	113
231.604	96
231.838	81
232.072	85
232.306	89
232.541	90
232.775	95
233.009	90
233.243	84
233.477	71
233.711	92
233.945	80
234.179	84
234.413	87
234.647	96
234.881	87
235.115	71
235.349	87
235.583	88
235.817	95
236.051	85
236.285	93
236.519	81
236.753	86
236.987	80
237.221	74
237.455	92
237.689	84
237.922	80
238.156	85
238.39	89
238.624	75
238.858	92
239.091	103
239.325	100
239.559	73
239.793	79
240.027	90
240.26	83
240.494	95
240.728	88
240.961	86
241.195	90
241.429	81
241.662	73
241.896	92
242.13	90
242.363	85
242.597	90
242.83	88
243.064	84
243.298	79
243.531	70
243.765	84
243.998	84
244.232	93
244.465	97
244.699	79
244.932	85
245.166	92
245.399	89
245.633	99
245.866	78
246.099	86
246.333	77
246.566	85
246.8	97
247.033	88
247.266	84
247.5	83
247.733	75
247.966	83
248.2	93
248.433	93
248.666	107
248.899	97
249.133	95
249.366	92
249.599	102
249.832	92
250.066	104
250.299	88
250.532	92
250.765	100
250.998	94
251.231	83
251.465	81
251.698	82
251.931	100
252.164	87
252.397	91
252.63	82
252.863	91
253.096	97
253.329	104
253.562	87
253.795	92
254.028	91
254.261	84
254.494	97
254.727	100
254.96	84
255.193	87
255.426	109
255.659	84
255.892	102
256.124	86
256.357	72
256.59	87
256.823	108
257.056	102
257.289	100
257.521	93
257.754	92
257.987	89
258.22	109
258.452	92
258.685	106
258.918	90
259.151	100
259.383	101
259.616	93
259.849	93
260.081	86
260.314	111
260.547	88
260.779	107
261.012	92
261.244	96
261.477	105
261.71	101
261.942	98
262.175	92
262.407	95
262.64	96
262.872	81
263.105	116
263.337	91
263.57	90
263.802	94
264.035	84
264.267	95
264.499	109
264.732	99
264.964	104
265.197	89
265.429	103
265.661	100
265.894	109
266.126	105
266.358	93
266.591	100
266.823	99
267.055	94
267.287	98
267.52	95
267.752	95
267.984	112
268.216	101
268.448	113
268.681	93
268.913	112
269.145	112
269.377	113
269.609	101
269.841	103
270.073	98
270.306	110
270.538	104
270.77	107
271.002	101
271.234	110
271.466	104
271.698	104
271.93	108
272.162	95
272.394	109
272.626	96
272.858	96
273.09	114
273.322	112
273.553	96
273.785	104
274.017	103
274.249	103
274.481	116
274.713	90
274.945	104
275.176	91
275.408	111
275.64	100
275.872	109
276.104	118
276.335	116
276.567	112
276.799	89
277.031	117
277.262	101
277.494	116
277.726	105
277.957	110
278.189	114
278.421	111
278.652	111
278.884	103
279.115	108
279.347	113
279.579	118
279.81	101
280.042	113
280.273	102
280.505	107
280.736	113
280.968	93
281.199	104
281.431	113
281.662	109
281.894	110
282.125	102
282.356	117
282.588	100
282.819	117
283.051	116
283.282	105
283.513	116
283.745	129
283.976	102
284.207	113
284.439	104
284.67	114
284.901	119
285.132	112
285.364	119
285.595	105
285.826	119
286.057	123
286.288	111
286.52	112
286.751	118
286.982	128
287.213	113
287.444	94
287.675	103
287.906	109
288.138	113
288.369	121
288.6	121
288.831	129
289.062	123
289.293	133
289.524	103
289.755	113
289.986	122
290.217	121
290.448	115
290.679	122
290.91	126
291.141	110
291.371	121
291.602	107
291.833	107
292.064	119
292.295	109
292.526	112
292.757	112
292.987	127
293.218	115
293.449	124
293.68	121
293.91	111
294.141	117
294.372	112
294.603	121
294.833	108
295.064	108
295.295	124
295.525	119
295.756	135
295.987	123
296.217	104
296.448	124
296.679	125
296.909	115
297.14	121
297.37	133
297.601	130
297.831	126
298.062	115
298.292	124
298.523	128
298.753	126
298.984	125
299.214	131
299.445	136
299.675	131
299.905	119
300.136	129
300.366	143
300.597	125
300.827	124
301.057	113
301.288	124
301.518	120
301.748	121
301.979	160
302.209	111
302.439	128
302.669	118
302.9	117
303.13	132
303.36	119
303.59	136
303.82	124
304.051	114
304.281	133
304.511	134
304.741	124
304.971	127
305.201	122
305.431	112
305.661	123
305.891	143
306.121	122
306.352	138
306.582	131
306.812	125
307.042	127
307.272	124
307.502	111
307.731	122
307.961	116
308.191	129
308.421	129
308.651	130
308.881	126
309.111	112
309.341	127
309.571	112
309.8	119
310.03	124
310.26	115
310.49	116
310.72	129
310.949	100
311.179	118
311.409	118
311.639	113
311.868	137
312.098	133
312.328	114
312.557	128
312.787	118
313.017	124
313.246	133
313.476	122
313.706	115
313.935	123
314.165	120
314.394	120
314.624	119
314.853	131
315.083	116
315.312	116
315.542	124
315.771	118
316.001	116
316.23	131
316.46	123
316.689	125
316.919	121
317.148	123
317.377	119
317.607	132
317.836	104
318.065	122
318.295	116
318.524	123
318.753	127
318.983	128
319.212	141
319.441	118
319.67	150
319.9	137
320.129	129
320.358	126
320.587	124
320.816	125
321.046	117
321.275	130
321.504	121
321.733	121
321.962	122
322.191	132
322.42	133
322.649	137
322.878	117
323.108	125
323.337	125
323.566	119
323.795	137
324.024	139
324.253	130
324.482	129
324.71	151
324.939	131
325.168	140
325.397	131
325.626	134
325.855	127
326.084	124
326.313	135
326.542	129
326.77	132
326.999	132
327.228	144
327.457	120
327.686	117
327.914	135
328.143	142
328.372	135
328.6	130
328.829	134
329.058	117
329.287	136
329.515	123
329.744	134
329.972	133
330.201	123
330.43	144
330.658	114
330.887	120
331.115	122
331.344	134
331.572	149
331.801	132
332.03	144
332.258	136
332.486	145
332.715	132
332.943	166
333.172	159
333.4	152
333.629	145
333.857	141
334.085	153
334.314	144
334.542	150
334.771	143
334.999	134
335.227	147
335.455	120
335.684	137
335.912	159
336.14	141
336.369	147
336.597	124
336.825	151
337.053	147
337.281	139
337.51	130
337.738	150
337.966	142
338.194	132
338.422	147
338.65	128
338.878	148
339.106	131
339.334	123
339.562	134
339.79	132
340.018	134
340.246	139
340.474	134
340.702	134
340.93	115
341.158	129
341.386	122
341.614	129
341.842	142
342.07	132
342.298	127
342.526	133
342.754	126
342.981	136
343.209	125
343.437	164
343.665	148
343.893	156
344.12	155
344.348	138
344.576	135
344.804	139
345.031	131
345.259	123
345.487	123
345.714	123
345.942	139
346.17	143
346.397	128
346.625	136
346.853	128
347.08	136
347.308	134
347.535	136
347.763	131
347.99	130
348.218	128
348.445	131
348.673	139
348.9	130
349.128	137
349.355	128
349.583	133
349.81	133
350.037	120
350.265	132
350.492	116
350.72	110
350.947	129
351.174	142
351.402	127
351.629	138
351.856	124
352.083	127
352.311	128
352.538	122
352.765	136
352.992	154
353.22	142
353.447	130
353.674	134
353.901	132
354.128	121
354.355	119
354.583	130
354.81	124
355.037	135
355.264	142
355.491	139
355.718	126
355.945	124
356.172	135
356.399	130
356.626	122
356.853	133
357.08	146
357.307	133
357.534	120
357.761	125
357.988	116
358.215	137
358.441	133
358.668	127
358.895	135
359.122	142
359.349	142
359.576	135
359.802	132
360.029	114
360.256	124
360.483	120
360.709	130
360.936	127
361.163	143
361.39	125
361.616	116
361.843	134
362.07	134
362.296	137
362.523	113
362.749	117
362.976	126
363.203	157
363.429	137
363.656	132
363.882	135
364.109	132
364.335	136
364.562	143
364.788	118
365.015	135
365.241	127
365.468	128
365.694	139
365.92	141
366.147	128
366.373	124
366.599	129
366.826	142
367.052	119
367.278	115
367.505	132
367.731	145
367.957	112
368.184	142
368.41	121
368.636	128
368.862	128
369.089	130
369.315	133
369.541	142
369.767	132
369.993	131
370.219	119
370.445	125
370.672	139
370.898	144
371.124	134
371.35	146
371.576	135
371.802	137
372.028	131
372.254	143
372.48	139
372.706	146
372.932	132
373.158	128
373.384	149
373.61	154
373.835	142
374.061	148
374.287	139
374.513	135
374.739	136
374.965	146
375.191	130
375.416	133
375.642	140
375.868	142
376.094	133
376.319	129
376.545	124
376.771	139
376.997	151
377.222	120
377.448	131
377.674	127
377.899	144
378.125	132
378.35	139
378.576	139
378.802	133
379.027	142
379.253	134
379.478	152
379.704	143
379.929	131
380.155	128
380.38	148
380.606	125
380.831	134
381.057	145
381.282	140
381.507	144
381.733	135
381.958	132
382.184	150
382.409	141
382.634	157
382.86	145
383.085	156
383.31	148
383.535	145
383.761	145
383.986	143
384.211	140
384.436	147
384.662	159
384.887	161
385.112	150
385.337	158
385.562	152
385.787	146
386.013	157
386.238	146
386.463	151
386.688	183
386.913	142
387.138	152
387.363	146
387.588	159
387.813	170
388.038	160
388.263	167
388.488	149
388.713	145
388.938	155
389.163	142
389.387	153
389.612	150
389.837	143
390.062	158
390.287	156
390.512	153
390.736	139
390.961	163
391.186	164
391.411	170
391.636	167
391.86	159
392.085	159
392.31	149
392.534	173
392.759	168
392.984	165
393.208	180
393.433	194
393.658	204
393.882	170
394.107	155
394.331	156
394.556	161
394.78	151
395.005	160
395.229	148
395.454	157
395.678	167
395.903	158
396.127	171
396.352	168
396.576	172
396.801	193
397.025	184
397.249	178
397.474	177
397.698	163
397.922	166
398.147	136
398.371	174
398.595	179
398.82	182
399.044	206
399.268	199
399.492	221
399.717	236
399.941	221
400.165	203
400.389	176
400.613	185
400.837	173
401.062	176
401.286	168
401.51	195
401.734	155
401.958	176
402.182	175
402.406	192
402.63	175
402.854	201
403.078	183
403.302	183
403.526	196
403.75	199
403.974	193
404.198	208
404.422	208
404.645	168
404.869	170
405.093	181
405.317	196
405.541	189
405.765	187
405.988	184
406.212	166
406.436	177
406.66	185
406.883	181
407.107	203
407.331	189
407.555	194
407.778	206
408.002	203
408.226	193
408.449	185
408.673	193
408.896	198
409.12	186
409.344	184
409.567	192
409.791	187
410.014	181
410.238	167
410.461	191
410.685	192
410.908	193
411.132	197
411.355	172
411.578	180
411.802	174
412.025	168
412.249	182
412.472	170
412.695	181
412.919	168
413.142	173
413.365	185
413.589	192
413.812	179
414.035	168
414.258	176
414.482	173
414.705	185
414.928	183
415.151	169
415.374	176
415.597	173
415.821	175
416.044	159
416.267	165
416.49	165
416.713	169
416.936	163
417.159	176
417.382	170
417.605	176
417.828	186
418.051	161
418.274	189
418.497	173
418.72	175
418.943	182
419.166	186
419.389	188
419.611	186
419.834	173
420.057	182
420.28	181
420.503	167
420.726	173
420.948	168
421.171	177
421.394	180
421.617	166
421.839	177
422.062	170
422.285	182
422.507	183
422.73	174
422.953	180
423.175	179
423.398	188
423.621	174
423.843	179
424.066	171
424.288	191
424.511	206
424.733	183
424.956	184
425.178	187
425.401	176
425.623	186
425.846	168
426.068	152
426.291	181
426.513	173
426.735	167
426.958	162
427.18	160
427.402	164
427.625	168
427.847	172
428.069	169
428.292	164
428.514	175
428.736	161
428.958	175
429.181	166
429.403	159
429.625	167
429.847	150
430.069	172
430.292	169
430.514	169
430.736	165
430.958	156
431.18	168
431.402	154
431.624	152
431.846	159
432.068	158
432.29	173
432.512	169
432.734	164
432.956	172
433.178	176
433.4	157
433.622	169
433.844	168
434.066	173
434.287	177
434.509	171
434.731	172
434.953	168
435.175	177
435.397	191
435.618	168
435.84	172
436.062	173
436.284	177
436.505	170
436.727	156
436.949	162
437.17	156
437.392	154
437.614	165
437.835	157
438.057	181
438.278	144
438.5	160
438.721	173
438.943	165
439.165	159
439.386	170
439.608	187
439.829	160
440.05	178
440.272	151
440.493	159
440.715	156
440.936	173
441.158	174
441.379	177
441.6	189
441.822	182
442.043	172
442.264	179
442.486	170
442.707	175
442.928	174
443.149	167
443.371	191
443.592	165
443.813	181
444.034	184
444.255	193
444.476	187
444.698	192
444.919	210
445.14	436
445.361	292
445.582	188
445.803	170
446.024	176
446.245	180
446.466	178
446.687	175
446.908	164
447.129	178
447.35	165
447.571	165
447.792	169
448.013	158
448.234	158
448.455	156
448.675	153
448.896	143
449.117	157
449.338	136
449.559	168
449.779	161
450	145
450.221	134
450.442	144
450.662	155
450.883	153
451.104	174
451.324	163
451.545	157
451.766	161
451.986	147
452.207	135
452.428	151
452.648	156
452.869	159
453.089	141
453.31	156
453.53	160
453.751	160
453.971	158
454.192	148
454.412	142
454.633	145
454.853	159
455.073	165
455.294	155
455.514	165
455.734	139
455.955	139
456.175	155
456.395	145
456.616	152
456.836	145
457.056	148
457.276	154
457.497	139
457.717	157
457.937	163
458.157	149
458.377	142
458.598	162
458.818	154
459.038	165
459.258	149
459.478	157
459.698	166
459.918	188
460.138	191
460.358	187
460.578	191
460.798	188
461.018	179
461.238	179
461.458	175
461.678	177
461.898	176
462.118	189
462.338	202
462.558	209
462.777	193
462.997	209
463.217	238
463.437	229
463.657	193
463.876	189
464.096	214
464.316	202
464.536	186
464.755	191
464.975	203
465.195	205
465.414	172
465.634	170
465.854	168
466.073	175
466.293	160
466.512	165
466.732	162
466.951	168
467.171	156
467.391	167
467.61	163
467.829	165
468.049	166
468.268	154
468.488	148
468.707	155
468.927	152
469.146	159
469.365	156
469.585	160
469.804	166
470.023	154
470.243	161
470.462	194
470.681	177
470.901	166
471.12	171
471.339	170
471.558	171
471.777	153
471.997	159
472.216	158
472.435	149
472.654	159
472.873	157
473.092	160
473.311	170
473.53	167
473.749	146
473.968	153
474.187	139
474.406	151
474.625	164
474.844	148
475.063	155
475.282	152
475.501	149
475.72	175
475.939	154
476.158	162
476.377	140
476.596	158
476.814	166
477.033	180
477.252	180
477.471	164
477.69	173
477.908	183
478.127	196
478.346	173
478.564	165
478.783	188
479.002	181
479.22	182
479.439	179
479.658	167
479.876	163
480.095	193
480.313	186
480.532	196
480.751	188
480.969	174
481.188	181
481.406	157
481.624	161
481.843	173
482.061	169
482.28	179
482.498	166
482.717	161
482.935	170
483.153	175
483.372	176
483.59	169
483.808	157
484.027	170
484.245	184
484.463	174
484.681	182
484.9	182
485.118	197
485.336	185
485.554	178
485.772	178
485.99	181
486.209	164
486.427	179
486.645	178
486.863	183
487.081	170
487.299	188
487.517	190
487.735	181
487.953	183
488.171	179
488.389	177
488.607	165
488.825	165
489.043	177
489.261	182
489.479	180
489.696	191
489.914	189
490.132	193
490.35	193
490.568	189
490.786	195
491.003	184
491.221	178
491.439	161
491.657	183
491.874	181
492.092	173
492.31	206
492.527	199
492.745	179
492.963	199
493.18	206
493.398	200
493.615	188
493.833	192
494.05	182
494.268	180
494.485	186
494.703	198
494.92	193
495.138	183
495.355	176
495.573	180
495.79	158
496.008	198
496.225	205
496.442	186
496.66	193
496.877	191
497.094	197
497.312	187
497.529	193
497.746	205
497.963	218
498.181	220
498.398	213
498.615	228
498.832	220
499.049	234
499.267	254
499.484	278
499.701	315
499.918	321
500.135	359
500.352	400
500.569	397
500.786	411
501.003	361
501.22	337
501.437	274
501.654	259
501.871	258
502.088	230
502.305	238
502.522	225
502.739	216
502.956	221
503.172	199
503.389	211
503.606	195
503.823	217
504.04	217
504.256	208
504.473	206
504.69	227
504.907	214
505.123	189
505.34	197
505.557	185
505.773	191
505.99	179
506.207	188
506.423	180
506.64	171
506.856	172
507.073	174
507.289	180
507.506	175
507.722	164
507.939	194
508.155	186
508.372	159
508.588	161
508.805	184
509.021	164
509.238	177
509.454	175
509.67	155
509.887	158
510.103	155
510.319	170
510.536	148
510.752	148
510.968	144
511.184	162
511.401	163
511.617	154
511.833	165
512.049	176
512.265	172
512.481	163
512.698	171
512.914	171
513.13	177
513.346	159
513.562	162
513.778	162
513.994	166
514.21	157
514.426	162
514.642	181
514.858	157
515.074	158
515.29	177
515.506	139
515.721	177
515.937	166
516.153	171
516.369	176
516.585	167
516.801	177
517.016	188
517.232	212
517.448	201
517.664	208
517.879	184
518.095	201
518.311	198
518.527	190
518.742	184
518.958	185
519.173	168
519.389	178
519.605	164
519.82	177
520.036	174
520.251	140
520.467	159
520.682	165
520.898	155
521.113	169
521.329	168
521.544	169
521.76	160
521.975	167
522.19	154
522.406	160
522.621	152
522.836	162
523.052	161
523.267	166
523.482	163
523.698	158
523.913	152
524.128	168
524.343	162
524.559	170
524.774	166
524.989	176
525.204	164
525.419	157
525.634	147
525.849	165
526.064	148
526.28	160
526.495	166
526.71	144
526.925	149
527.14	141
527.355	138
527.57	159
527.785	158
527.999	161
528.214	163
528.429	155
528.644	163
528.859	158
529.074	171
529.289	172
529.503	146
529.718	162
529.933	143
530.148	147
530.363	158
530.577	137
530.792	156
531.007	136
531.221	143
531.436	148
531.651	155
531.865	157
532.08	156
532.295	156
532.509	164
532.724	154
532.938	157
533.153	142
533.367	159
533.582	151
533.796	161
534.011	152
534.225	151
534.44	158
534.654	156
534.868	162
535.083	155
535.297	149
535.511	166
535.726	163
535.94	155
536.154	162
536.369	149
536.583	141
536.797	157
537.011	158
537.225	143
537.44	138
537.654	155
537.868	153
538.082	151
538.296	170
538.51	160
538.724	151
538.938	158
539.153	156
539.367	154
539.581	153
539.795	138
540.009	142
540.222	153
540.436	164
540.65	135
540.864	139
541.078	158
541.292	154
541.506	165
541.72	167
541.934	173
542.147	158
542.361	175
542.575	158
542.789	156
543.002	131
543.216	153
543.43	161
543.644	174
543.857	156
544.071	155
544.285	157
544.498	141
544.712	162
544.925	159
545.139	165
545.352	146
545.566	148
545.779	161
545.993	144
546.206	171
546.42	147
546.633	162
546.847	166
547.06	155
547.274	169
547.487	162
547.7	160
547.914	151
548.127	156
548.34	150
548.554	172
548.767	177
548.98	164
549.193	145
549.407	153
549.62	160
549.833	157
550.046	170
550.259	164
550.473	161
550.686	167
550.899	159
551.112	152
551.325	150
551.538	141
551.751	163
551.964	158
552.177	177
552.39	161
552.603	148
552.816	153
553.029	155
553.242	163
553.455	172
553.667	189
553.88	170
554.093	176
554.306	156
554.519	160
554.732	140
554.944	150
555.157	163
555.37	157
555.583	160
555.795	158
556.008	150
556.221	148
556.433	132
556.646	151
556.859	143
557.071	160
557.284	147
557.496	131
557.709	140
557.921	142
558.134	152
558.346	140
558.559	142
558.771	153
558.984	155
559.196	150
559.409	156
559.621	148
559.833	135
560.046	126
560.258	155
560.47	136
560.683	151
560.895	129
561.107	156
561.32	147
561.532	131
561.744	137
561.956	146
562.168	145
562.381	139
562.593	152
562.805	159
563.017	138
563.229	133
563.441	140
563.653	139
563.865	135
564.077	138
564.289	164
564.501	144
564.713	155
564.925	145
565.137	167
565.349	165
565.561	156
565.773	158
565.985	170
566.197	171
566.408	166
566.62	175
566.832	179
567.044	176
