Data from SampD_HRD10591_00029.txt Node
Date: Mon Jan 19 11:41:31 EST 2026
User: Yrep
Spectrometer: HR+D1059
Trigger mode: 0
Integration Time (sec): 3.443000E-1
Scans to average: 1
Electric dark correction enabled: true
Nonlinearity correction enabled: false
Boxcar width: 0
XAxis mode: Wavelengths
Number of Pixels in Spectrum: 2048
>>>>>Begin Spectral Data<<<<<
223.165	-17.12
223.4	-17.12
223.635	-17.12
223.869	-23.12
224.104	-23.12
224.338	-12.12
224.573	-18.12
224.808	-9.12
225.042	-0.12
225.277	-1.12
225.511	-12.12
225.746	7.88
225.98	11.88
226.215	18.88
226.449	24.88
226.683	17.88
226.918	14.88
227.152	19.88
227.387	28.88
227.621	42.88
227.856	45.88
228.09	43.88
228.324	39.88
228.559	61.88
228.793	52.88
229.027	74.88
229.262	65.88
229.496	58.88
229.73	80.88
229.964	86.88
230.199	63.88
230.433	95.88
230.667	84.88
230.901	90.88
231.136	84.88
231.37	77.88
231.604	91.88
231.838	92.88
232.072	91.88
232.306	88.88
232.541	80.88
232.775	98.88
233.009	88.88
233.243	82.88
233.477	87.88
233.711	76.88
233.945	87.88
234.179	80.88
234.413	78.88
234.647	86.88
234.881	84.88
235.115	102.88
235.349	95.88
235.583	96.88
235.817	86.88
236.051	82.88
236.285	73.88
236.519	84.88
236.753	79.88
236.987	78.88
237.221	91.88
237.455	88.88
237.689	79.88
237.922	80.88
238.156	89.88
238.39	94.88
238.624	78.88
238.858	95.88
239.091	86.88
239.325	80.88
239.559	85.88
239.793	95.88
240.027	80.88
240.26	87.88
240.494	85.88
240.728	80.88
240.961	64.88
241.195	92.88
241.429	78.88
241.662	82.88
241.896	89.88
242.13	80.88
242.363	81.88
242.597	86.88
242.83	84.88
243.064	91.88
243.298	87.88
243.531	91.88
243.765	87.88
243.998	84.88
244.232	112.88
244.465	99.88
244.699	93.88
244.932	90.88
245.166	93.88
245.399	84.88
245.633	86.88
245.866	89.88
246.099	90.88
246.333	84.88
246.566	96.88
246.8	86.88
247.033	84.88
247.266	82.88
247.5	88.88
247.733	79.88
247.966	95.88
248.2	103.88
248.433	83.88
248.666	97.88
248.899	108.88
249.133	104.88
249.366	103.88
249.599	96.88
249.832	93.88
250.066	96.88
250.299	95.88
250.532	90.88
250.765	83.88
250.998	88.88
251.231	94.88
251.465	111.88
251.698	91.88
251.931	93.88
252.164	90.88
252.397	100.88
252.63	99.88
252.863	91.88
253.096	106.88
253.329	97.88
253.562	97.88
253.795	110.88
254.028	93.88
254.261	105.88
254.494	94.88
254.727	109.88
254.96	102.88
255.193	93.88
255.426	95.88
255.659	95.88
255.892	93.88
256.124	87.88
256.357	104.88
256.59	100.88
256.823	114.88
257.056	108.88
257.289	97.88
257.521	89.88
257.754	91.88
257.987	99.88
258.22	102.88
258.452	104.88
258.685	107.88
258.918	90.88
259.151	107.88
259.383	104.88
259.616	98.88
259.849	105.88
260.081	92.88
260.314	102.88
260.547	122.88
260.779	104.88
261.012	96.88
261.244	117.88
261.477	123.88
261.71	95.88
261.942	108.88
262.175	112.88
262.407	87.88
262.64	97.88
262.872	110.88
263.105	105.88
263.337	114.88
263.57	112.88
263.802	91.88
264.035	113.88
264.267	107.88
264.499	109.88
264.732	113.88
264.964	96.88
265.197	118.88
265.429	112.88
265.661	100.88
265.894	103.88
266.126	112.88
266.358	115.88
266.591	114.88
266.823	110.88
267.055	114.88
267.287	106.88
267.52	100.88
267.752	114.88
267.984	115.88
268.216	100.88
268.448	111.88
268.681	122.88
268.913	127.88
269.145	112.88
269.377	110.88
269.609	102.88
269.841	104.88
270.073	115.88
270.306	110.88
270.538	110.88
270.77	104.88
271.002	124.88
271.234	122.88
271.466	122.88
271.698	118.88
271.93	127.88
272.162	101.88
272.394	112.88
272.626	110.88
272.858	112.88
273.09	112.88
273.322	107.88
273.553	118.88
273.785	115.88
274.017	112.88
274.249	124.88
274.481	112.88
274.713	128.88
274.945	123.88
275.176	113.88
275.408	117.88
275.64	121.88
275.872	124.88
276.104	123.88
276.335	110.88
276.567	119.88
276.799	111.88
277.031	114.88
277.262	122.88
277.494	116.88
277.726	103.88
277.957	108.88
278.189	134.88
278.421	118.88
278.652	103.88
278.884	127.88
279.115	123.88
279.347	118.88
279.579	126.88
279.81	103.88
280.042	127.88
280.273	113.88
280.505	127.88
280.736	120.88
280.968	109.88
281.199	113.88
281.431	118.88
281.662	138.88
281.894	121.88
282.125	115.88
282.356	113.88
282.588	122.88
282.819	135.88
283.051	127.88
283.282	131.88
283.513	132.88
283.745	122.88
283.976	125.88
284.207	118.88
284.439	133.88
284.67	127.88
284.901	110.88
285.132	147.88
285.364	120.88
285.595	121.88
285.826	129.88
286.057	126.88
286.288	129.88
286.52	128.88
286.751	132.88
286.982	144.88
287.213	125.88
287.444	131.88
287.675	136.88
287.906	151.88
288.138	141.88
288.369	132.88
288.6	143.88
288.831	119.88
289.062	126.88
289.293	130.88
289.524	131.88
289.755	123.88
289.986	129.88
290.217	135.88
290.448	121.88
290.679	124.88
290.91	134.88
291.141	128.88
291.371	133.88
291.602	131.88
291.833	132.88
292.064	150.88
292.295	140.88
292.526	126.88
292.757	122.88
292.987	126.88
293.218	130.88
293.449	123.88
293.68	146.88
293.91	132.88
294.141	145.88
294.372	129.88
294.603	126.88
294.833	119.88
295.064	135.88
295.295	131.88
295.525	135.88
295.756	133.88
295.987	145.88
296.217	144.88
296.448	131.88
296.679	132.88
296.909	139.88
297.14	124.88
297.37	142.88
297.601	143.88
297.831	125.88
298.062	137.88
298.292	142.88
298.523	156.88
298.753	126.88
298.984	152.88
299.214	154.88
299.445	136.88
299.675	144.88
299.905	141.88
300.136	136.88
300.366	144.88
300.597	142.88
300.827	140.88
301.057	166.88
301.288	154.88
301.518	144.88
301.748	141.88
301.979	171.88
302.209	146.88
302.439	131.88
302.669	146.88
302.9	127.88
303.13	145.88
303.36	136.88
303.59	131.88
303.82	139.88
304.051	147.88
304.281	151.88
304.511	138.88
304.741	156.88
304.971	134.88
305.201	144.88
305.431	128.88
305.661	138.88
305.891	129.88
306.121	135.88
306.352	131.88
306.582	158.88
306.812	133.88
307.042	136.88
307.272	148.88
307.502	140.88
307.731	153.88
307.961	142.88
308.191	154.88
308.421	133.88
308.651	150.88
308.881	132.88
309.111	147.88
309.341	118.88
309.571	145.88
309.8	143.88
310.03	147.88
310.26	134.88
310.49	133.88
310.72	142.88
310.949	141.88
311.179	150.88
311.409	145.88
311.639	143.88
311.868	147.88
312.098	153.88
312.328	133.88
312.557	146.88
312.787	135.88
313.017	162.88
313.246	146.88
313.476	149.88
313.706	144.88
313.935	136.88
314.165	152.88
314.394	148.88
314.624	164.88
314.853	142.88
315.083	146.88
315.312	152.88
315.542	137.88
315.771	135.88
316.001	154.88
316.23	156.88
316.46	150.88
316.689	151.88
316.919	152.88
317.148	152.88
317.377	155.88
317.607	159.88
317.836	152.88
318.065	150.88
318.295	146.88
318.524	149.88
318.753	141.88
318.983	136.88
319.212	164.88
319.441	159.88
319.67	139.88
319.9	176.88
320.129	149.88
320.358	131.88
320.587	160.88
320.816	153.88
321.046	138.88
321.275	145.88
321.504	142.88
321.733	135.88
321.962	126.88
322.191	145.88
322.42	162.88
322.649	151.88
322.878	156.88
323.108	156.88
323.337	138.88
323.566	139.88
323.795	138.88
324.024	156.88
324.253	158.88
324.482	152.88
324.71	160.88
324.939	148.88
325.168	159.88
325.397	148.88
325.626	146.88
325.855	168.88
326.084	145.88
326.313	168.88
326.542	149.88
326.77	160.88
326.999	160.88
327.228	148.88
327.457	148.88
327.686	160.88
327.914	164.88
328.143	150.88
328.372	154.88
328.6	159.88
328.829	159.88
329.058	157.88
329.287	154.88
329.515	142.88
329.744	161.88
329.972	158.88
330.201	174.88
330.43	144.88
330.658	159.88
330.887	146.88
331.115	152.88
331.344	173.88
331.572	178.88
331.801	156.88
332.03	166.88
332.258	160.88
332.486	179.88
332.715	156.88
332.943	176.88
333.172	197.88
333.4	187.88
333.629	190.88
333.857	197.88
334.085	188.88
334.314	193.88
334.542	177.88
334.771	167.88
334.999	199.88
335.227	169.88
335.455	179.88
335.684	194.88
335.912	164.88
336.14	173.88
336.369	176.88
336.597	160.88
336.825	172.88
337.053	167.88
337.281	172.88
337.51	178.88
337.738	171.88
337.966	169.88
338.194	158.88
338.422	143.88
338.65	165.88
338.878	166.88
339.106	171.88
339.334	176.88
339.562	138.88
339.79	151.88
340.018	156.88
340.246	175.88
340.474	147.88
340.702	165.88
340.93	171.88
341.158	162.88
341.386	168.88
341.614	163.88
341.842	169.88
342.07	164.88
342.298	162.88
342.526	158.88
342.754	161.88
342.981	172.88
343.209	158.88
343.437	196.88
343.665	170.88
343.893	169.88
344.12	197.88
344.348	171.88
344.576	174.88
344.804	164.88
345.031	171.88
345.259	155.88
345.487	165.88
345.714	162.88
345.942	147.88
346.17	149.88
346.397	168.88
346.625	180.88
346.853	155.88
347.08	150.88
347.308	143.88
347.535	158.88
347.763	176.88
347.99	166.88
348.218	166.88
348.445	156.88
348.673	155.88
348.9	155.88
349.128	174.88
349.355	150.88
349.583	159.88
349.81	154.88
350.037	159.88
350.265	143.88
350.492	148.88
350.72	152.88
350.947	164.88
351.174	169.88
351.402	155.88
351.629	155.88
351.856	162.88
352.083	155.88
352.311	157.88
352.538	132.88
352.765	154.88
352.992	167.88
353.22	151.88
353.447	142.88
353.674	158.88
353.901	169.88
354.128	167.88
354.355	155.88
354.583	165.88
354.81	164.88
355.037	148.88
355.264	166.88
355.491	146.88
355.718	158.88
355.945	174.88
356.172	143.88
356.399	172.88
356.626	164.88
356.853	154.88
357.08	164.88
357.307	164.88
357.534	162.88
357.761	161.88
357.988	178.88
358.215	158.88
358.441	145.88
358.668	164.88
358.895	169.88
359.122	158.88
359.349	142.88
359.576	132.88
359.802	158.88
360.029	163.88
360.256	163.88
360.483	159.88
360.709	158.88
360.936	176.88
361.163	145.88
361.39	152.88
361.616	154.88
361.843	158.88
362.07	159.88
362.296	159.88
362.523	142.88
362.749	177.88
362.976	140.88
363.203	160.88
363.429	170.88
363.656	159.88
363.882	159.88
364.109	154.88
364.335	168.88
364.562	167.88
364.788	144.88
365.015	155.88
365.241	145.88
365.468	161.88
365.694	157.88
365.92	151.88
366.147	146.88
366.373	143.88
366.599	152.88
366.826	165.88
367.052	159.88
367.278	167.88
367.505	156.88
367.731	189.88
367.957	167.88
368.184	156.88
368.41	162.88
368.636	150.88
368.862	167.88
369.089	158.88
369.315	151.88
369.541	175.88
369.767	140.88
369.993	155.88
370.219	156.88
370.445	152.88
370.672	166.88
370.898	148.88
371.124	169.88
371.35	167.88
371.576	163.88
371.802	158.88
372.028	161.88
372.254	161.88
372.48	175.88
372.706	162.88
372.932	165.88
373.158	159.88
373.384	172.88
373.61	176.88
373.835	148.88
374.061	165.88
374.287	172.88
374.513	174.88
374.739	185.88
374.965	173.88
375.191	179.88
375.416	180.88
375.642	165.88
375.868	176.88
376.094	180.88
376.319	165.88
376.545	169.88
376.771	175.88
376.997	156.88
377.222	170.88
377.448	171.88
377.674	148.88
377.899	169.88
378.125	173.88
378.35	174.88
378.576	171.88
378.802	178.88
379.027	145.88
379.253	148.88
379.478	162.88
379.704	161.88
379.929	163.88
380.155	167.88
380.38	168.88
380.606	177.88
380.831	160.88
381.057	175.88
381.282	173.88
381.507	162.88
381.733	173.88
381.958	169.88
382.184	168.88
382.409	177.88
382.634	184.88
382.86	178.88
383.085	168.88
383.31	164.88
383.535	174.88
383.761	167.88
383.986	179.88
384.211	185.88
384.436	177.88
384.662	184.88
384.887	187.88
385.112	187.88
385.337	194.88
385.562	189.88
385.787	189.88
386.013	168.88
386.238	193.88
386.463	189.88
386.688	223.88
386.913	189.88
387.138	168.88
387.363	171.88
387.588	190.88
387.813	185.88
388.038	202.88
388.263	191.88
388.488	176.88
388.713	201.88
388.938	176.88
389.163	160.88
389.387	195.88
389.612	184.88
389.837	196.88
390.062	183.88
390.287	184.88
390.512	186.88
390.736	171.88
390.961	188.88
391.186	182.88
391.411	184.88
391.636	204.88
391.86	190.88
392.085	222.88
392.31	199.88
392.534	205.88
392.759	208.88
392.984	198.88
393.208	194.88
393.433	174.88
393.658	185.88
393.882	179.88
394.107	203.88
394.331	193.88
394.556	181.88
394.78	197.88
395.005	210.88
395.229	203.88
395.454	193.88
395.678	199.88
395.903	211.88
396.127	202.88
396.352	191.88
396.576	176.88
396.801	185.88
397.025	207.88
397.249	197.88
397.474	198.88
397.698	214.88
397.922	192.88
398.147	186.88
398.371	213.88
398.595	219.88
398.82	205.88
399.044	215.88
399.268	275.88
399.492	282.88
399.717	311.88
399.941	302.88
400.165	266.88
400.389	227.88
400.613	226.88
400.837	218.88
401.062	211.88
401.286	218.88
401.51	231.88
401.734	239.88
401.958	212.88
402.182	228.88
402.406	229.88
402.63	218.88
402.854	232.88
403.078	248.88
403.302	238.88
403.526	232.88
403.75	240.88
403.974	237.88
404.198	239.88
404.422	244.88
404.645	223.88
404.869	224.88
405.093	250.88
405.317	232.88
405.541	235.88
405.765	222.88
405.988	231.88
406.212	229.88
406.436	227.88
406.66	253.88
406.883	258.88
407.107	270.88
407.331	266.88
407.555	262.88
407.778	259.88
408.002	258.88
408.226	254.88
408.449	242.88
408.673	231.88
408.896	217.88
409.12	236.88
409.344	239.88
409.567	243.88
409.791	235.88
410.014	231.88
410.238	251.88
410.461	228.88
410.685	225.88
410.908	233.88
411.132	230.88
411.355	213.88
411.578	221.88
411.802	213.88
412.025	220.88
412.249	231.88
412.472	233.88
412.695	227.88
412.919	210.88
413.142	205.88
413.365	216.88
413.589	200.88
413.812	200.88
414.035	235.88
414.258	233.88
414.482	219.88
414.705	222.88
414.928	207.88
415.151	210.88
415.374	229.88
415.597	211.88
415.821	198.88
416.044	212.88
416.267	227.88
416.49	215.88
416.713	215.88
416.936	216.88
417.159	206.88
417.382	219.88
417.605	212.88
417.828	232.88
418.051	220.88
418.274	231.88
418.497	218.88
418.72	225.88
418.943	235.88
419.166	218.88
419.389	231.88
419.611	221.88
419.834	244.88
420.057	222.88
420.28	217.88
420.503	209.88
420.726	218.88
420.948	218.88
421.171	208.88
421.394	213.88
421.617	210.88
421.839	221.88
422.062	222.88
422.285	225.88
422.507	228.88
422.73	219.88
422.953	211.88
423.175	216.88
423.398	231.88
423.621	226.88
423.843	229.88
424.066	228.88
424.288	209.88
424.511	218.88
424.733	231.88
424.956	229.88
425.178	203.88
425.401	214.88
425.623	214.88
425.846	222.88
426.068	200.88
426.291	216.88
426.513	202.88
426.735	209.88
426.958	204.88
427.18	196.88
427.402	208.88
427.625	212.88
427.847	192.88
428.069	224.88
428.292	206.88
428.514	204.88
428.736	195.88
428.958	196.88
429.181	208.88
429.403	204.88
429.625	192.88
429.847	207.88
430.069	206.88
430.292	192.88
430.514	184.88
430.736	184.88
430.958	210.88
431.18	193.88
431.402	199.88
431.624	189.88
431.846	188.88
432.068	190.88
432.29	190.88
432.512	199.88
432.734	195.88
432.956	206.88
433.178	191.88
433.4	206.88
433.622	206.88
433.844	208.88
434.066	188.88
434.287	196.88
434.509	198.88
434.731	222.88
434.953	212.88
435.175	205.88
435.397	222.88
435.618	196.88
435.84	187.88
436.062	188.88
436.284	199.88
436.505	208.88
436.727	198.88
436.949	197.88
437.17	195.88
437.392	190.88
437.614	184.88
437.835	183.88
438.057	179.88
438.278	193.88
438.5	184.88
438.721	183.88
438.943	185.88
439.165	194.88
439.386	197.88
439.608	232.88
439.829	212.88
440.05	212.88
440.272	193.88
440.493	215.88
440.715	200.88
440.936	199.88
441.158	213.88
441.379	220.88
441.6	218.88
441.822	250.88
442.043	228.88
442.264	213.88
442.486	210.88
442.707	217.88
442.928	218.88
443.149	210.88
443.371	229.88
443.592	217.88
443.813	227.88
444.034	227.88
444.255	229.88
444.476	237.88
444.698	264.88
444.919	237.88
445.14	489.88
445.361	338.88
445.582	233.88
445.803	207.88
446.024	205.88
446.245	227.88
446.466	215.88
446.687	182.88
446.908	195.88
447.129	222.88
447.35	200.88
447.571	216.88
447.792	191.88
448.013	182.88
448.234	197.88
448.455	183.88
448.675	185.88
448.896	190.88
449.117	179.88
449.338	185.88
449.559	190.88
449.779	183.88
450	194.88
450.221	188.88
450.442	205.88
450.662	176.88
450.883	188.88
451.104	197.88
451.324	204.88
451.545	186.88
451.766	190.88
451.986	185.88
452.207	180.88
452.428	170.88
452.648	182.88
452.869	176.88
453.089	200.88
453.31	175.88
453.53	183.88
453.751	168.88
453.971	191.88
454.192	168.88
454.412	179.88
454.633	190.88
454.853	189.88
455.073	181.88
455.294	177.88
455.514	200.88
455.734	210.88
455.955	189.88
456.175	199.88
456.395	169.88
456.616	183.88
456.836	176.88
457.056	173.88
457.276	178.88
457.497	182.88
457.717	185.88
457.937	176.88
458.157	180.88
458.377	178.88
458.598	186.88
458.818	199.88
459.038	174.88
459.258	197.88
459.478	195.88
459.698	202.88
459.918	198.88
460.138	199.88
460.358	230.88
460.578	247.88
460.798	218.88
461.018	237.88
461.238	224.88
461.458	224.88
461.678	219.88
461.898	219.88
462.118	230.88
462.338	234.88
462.558	258.88
462.777	249.88
462.997	267.88
463.217	282.88
463.437	245.88
463.657	259.88
463.876	247.88
464.096	256.88
464.316	240.88
464.536	226.88
464.755	242.88
464.975	233.88
465.195	232.88
465.414	218.88
465.634	196.88
465.854	202.88
466.073	184.88
466.293	207.88
466.512	206.88
466.732	209.88
466.951	207.88
467.171	178.88
467.391	197.88
467.61	194.88
467.829	188.88
468.049	193.88
468.268	184.88
468.488	180.88
468.707	184.88
468.927	175.88
469.146	156.88
469.365	189.88
469.585	192.88
469.804	184.88
470.023	198.88
470.243	202.88
470.462	193.88
470.681	215.88
470.901	204.88
471.12	204.88
471.339	199.88
471.558	187.88
471.777	184.88
471.997	189.88
472.216	192.88
472.435	202.88
472.654	184.88
472.873	185.88
473.092	185.88
473.311	178.88
473.53	185.88
473.749	182.88
473.968	193.88
474.187	187.88
474.406	185.88
474.625	195.88
474.844	193.88
475.063	173.88
475.282	182.88
475.501	172.88
475.72	208.88
475.939	165.88
476.158	192.88
476.377	181.88
476.596	178.88
476.814	179.88
477.033	192.88
477.252	200.88
477.471	211.88
477.69	192.88
477.908	225.88
478.127	216.88
478.346	209.88
478.564	212.88
478.783	216.88
479.002	223.88
479.22	215.88
479.439	226.88
479.658	221.88
479.876	219.88
480.095	212.88
480.313	226.88
480.532	235.88
480.751	246.88
480.969	223.88
481.188	218.88
481.406	195.88
481.624	210.88
481.843	212.88
482.061	198.88
482.28	205.88
482.498	211.88
482.717	220.88
482.935	198.88
483.153	204.88
483.372	213.88
483.59	194.88
483.808	200.88
484.027	205.88
484.245	211.88
484.463	210.88
484.681	217.88
484.9	203.88
485.118	210.88
485.336	193.88
485.554	214.88
485.772	204.88
485.99	193.88
486.209	215.88
486.427	211.88
486.645	208.88
486.863	218.88
487.081	215.88
487.299	198.88
487.517	214.88
487.735	211.88
487.953	218.88
488.171	225.88
488.389	219.88
488.607	206.88
488.825	227.88
489.043	210.88
489.261	223.88
489.479	210.88
489.696	220.88
489.914	228.88
490.132	211.88
490.35	212.88
490.568	219.88
490.786	212.88
491.003	196.88
491.221	205.88
491.439	217.88
491.657	227.88
491.874	228.88
492.092	204.88
492.31	229.88
492.527	235.88
492.745	229.88
492.963	242.88
493.18	219.88
493.398	221.88
493.615	232.88
493.833	214.88
494.05	221.88
494.268	219.88
494.485	233.88
494.703	231.88
494.92	244.88
495.138	227.88
495.355	234.88
495.573	228.88
495.79	209.88
496.008	235.88
496.225	221.88
496.442	214.88
496.66	251.88
496.877	244.88
497.094	260.88
497.312	240.88
497.529	242.88
497.746	241.88
497.963	236.88
498.181	253.88
498.398	250.88
498.615	259.88
498.832	288.88
499.049	318.88
499.267	365.88
499.484	343.88
499.701	395.88
499.918	430.88
500.135	488.88
500.352	529.88
500.569	531.88
500.786	533.88
501.003	497.88
501.22	440.88
501.437	383.88
501.654	357.88
501.871	339.88
502.088	303.88
502.305	282.88
502.522	293.88
502.739	284.88
502.956	267.88
503.172	271.88
503.389	274.88
503.606	233.88
503.823	240.88
504.04	243.88
504.256	244.88
