Data from SampD_HRD10591_00074.txt Node
Date: Mon Jan 19 11:41:46 EST 2026
User: Yrep
Spectrometer: HR+D1059
Trigger mode: 0
Integration Time (sec): 3.443000E-1
Scans to average: 1
Electric dark correction enabled: true
Nonlinearity correction enabled: false
Boxcar width: 0
XAxis mode: Wavelengths
Number of Pixels in Spectrum: 2048
>>>>>Begin Spectral Data<<<<<
223.165	-27
223.4	-27
223.635	-27
223.869	-22
224.104	-43
224.338	-8
224.573	-19
224.808	-7
225.042	-1
225.277	4
225.511	-11
225.746	13
225.98	2
226.215	19
226.449	10
226.683	20
226.918	20
227.152	50
227.387	45
227.621	34
227.856	34
228.09	50
228.324	44
228.559	49
228.793	67
229.027	66
229.262	78
229.496	75
229.73	58
229.964	63
230.199	73
230.433	87
230.667	96
230.901	89
231.136	86
231.37	81
231.604	88
231.838	74
232.072	77
232.306	96
232.541	76
232.775	80
233.009	89
233.243	89
233.477	78
233.711	90
233.945	81
234.179	85
234.413	81
234.647	82
234.881	95
235.115	85
235.349	85
235.583	92
235.817	81
236.051	81
236.285	78
236.519	90
236.753	90
236.987	93
237.221	87
237.455	85
237.689	74
237.922	85
238.156	73
238.39	83
238.624	85
238.858	93
239.091	93
239.325	85
239.559	83
239.793	99
240.027	94
240.26	61
240.494	84
240.728	88
240.961	85
241.195	99
241.429	100
241.662	80
241.896	81
242.13	87
242.363	87
242.597	94
242.83	91
243.064	68
243.298	87
243.531	95
243.765	93
243.998	86
244.232	98
244.465	93
244.699	88
244.932	92
245.166	95
245.399	84
245.633	83
245.866	82
246.099	101
246.333	95
246.566	107
246.8	85
247.033	73
247.266	80
247.5	85
247.733	86
247.966	85
248.2	83
248.433	77
248.666	75
248.899	90
249.133	93
249.366	104
249.599	81
249.832	79
250.066	81
250.299	94
250.532	101
250.765	74
250.998	100
251.231	75
251.465	97
251.698	87
251.931	71
252.164	88
252.397	96
252.63	103
252.863	85
253.096	100
253.329	95
253.562	105
253.795	87
254.028	92
254.261	83
254.494	93
254.727	87
254.96	100
255.193	102
255.426	97
255.659	90
255.892	84
256.124	87
256.357	98
256.59	91
256.823	84
257.056	94
257.289	96
257.521	102
257.754	88
257.987	78
258.22	99
258.452	85
258.685	87
258.918	107
259.151	80
259.383	101
259.616	97
259.849	88
260.081	101
260.314	97
260.547	89
260.779	99
261.012	96
261.244	86
261.477	105
261.71	91
261.942	91
262.175	106
262.407	95
262.64	89
262.872	80
263.105	93
263.337	109
263.57	105
263.802	91
264.035	89
264.267	86
264.499	71
264.732	102
264.964	103
265.197	87
265.429	107
265.661	90
265.894	100
266.126	92
266.358	95
266.591	81
266.823	95
267.055	102
267.287	93
267.52	109
267.752	102
267.984	93
268.216	99
268.448	101
268.681	101
268.913	111
269.145	95
269.377	94
269.609	100
269.841	98
270.073	117
270.306	108
270.538	94
270.77	93
271.002	98
271.234	85
271.466	101
271.698	93
271.93	89
272.162	96
272.394	102
272.626	105
272.858	94
273.09	100
273.322	88
273.553	92
273.785	95
274.017	84
274.249	113
274.481	94
274.713	93
274.945	119
275.176	96
275.408	89
275.64	106
275.872	98
276.104	88
276.335	101
276.567	89
276.799	110
277.031	90
277.262	99
277.494	109
277.726	94
277.957	97
278.189	98
278.421	91
278.652	102
278.884	103
279.115	87
279.347	107
279.579	89
279.81	104
280.042	95
280.273	102
280.505	101
280.736	93
280.968	104
281.199	102
281.431	87
281.662	117
281.894	102
282.125	107
282.356	100
282.588	105
282.819	95
283.051	93
283.282	97
283.513	129
283.745	90
283.976	106
284.207	98
284.439	108
284.67	112
284.901	115
285.132	114
285.364	102
285.595	103
285.826	87
286.057	113
286.288	95
286.52	106
286.751	102
286.982	95
287.213	99
287.444	95
287.675	97
287.906	115
288.138	114
288.369	122
288.6	106
288.831	110
289.062	106
289.293	113
289.524	106
289.755	113
289.986	104
290.217	118
290.448	94
290.679	107
290.91	106
291.141	95
291.371	105
291.602	125
291.833	103
292.064	112
292.295	118
292.526	103
292.757	96
292.987	105
293.218	104
293.449	113
293.68	104
293.91	98
294.141	101
294.372	100
294.603	112
294.833	109
295.064	106
295.295	89
295.525	112
295.756	102
295.987	115
296.217	107
296.448	114
296.679	119
296.909	112
297.14	106
297.37	106
297.601	113
297.831	101
298.062	99
298.292	107
298.523	106
298.753	106
298.984	103
299.214	118
299.445	115
299.675	119
299.905	95
300.136	113
300.366	102
300.597	119
300.827	105
301.057	99
301.288	113
301.518	117
301.748	98
301.979	154
302.209	109
302.439	106
302.669	101
302.9	119
303.13	119
303.36	110
303.59	114
303.82	112
304.051	99
304.281	113
304.511	108
304.741	112
304.971	105
305.201	109
305.431	104
305.661	101
305.891	110
306.121	119
306.352	117
306.582	110
306.812	103
307.042	103
307.272	119
307.502	121
307.731	114
307.961	100
308.191	106
308.421	99
308.651	103
308.881	121
309.111	105
309.341	106
309.571	108
309.8	112
310.03	100
310.26	106
310.49	111
310.72	115
310.949	116
311.179	107
311.409	104
311.639	105
311.868	109
312.098	112
312.328	106
312.557	116
312.787	120
313.017	103
313.246	122
313.476	115
313.706	130
313.935	109
314.165	108
314.394	117
314.624	102
314.853	106
315.083	99
315.312	110
315.542	103
315.771	110
316.001	102
316.23	112
316.46	106
316.689	109
316.919	119
317.148	112
317.377	112
317.607	122
317.836	105
318.065	103
318.295	115
318.524	113
318.753	112
318.983	110
319.212	110
319.441	111
319.67	105
319.9	114
320.129	117
320.358	110
320.587	117
320.816	117
321.046	118
321.275	113
321.504	109
321.733	115
321.962	127
322.191	97
322.42	101
322.649	106
322.878	98
323.108	121
323.337	103
323.566	119
323.795	110
324.024	106
324.253	115
324.482	118
324.71	116
324.939	125
325.168	102
325.397	100
325.626	121
325.855	111
326.084	114
326.313	118
326.542	121
326.77	119
326.999	101
327.228	115
327.457	107
327.686	107
327.914	113
328.143	118
328.372	117
328.6	101
328.829	101
329.058	114
329.287	103
329.515	109
329.744	106
329.972	112
330.201	112
330.43	117
330.658	127
330.887	120
331.115	118
331.344	116
331.572	117
331.801	109
332.03	126
332.258	127
332.486	94
332.715	127
332.943	108
333.172	113
333.4	127
333.629	117
333.857	113
334.085	141
334.314	129
334.542	121
334.771	114
334.999	116
335.227	126
335.455	127
335.684	123
335.912	138
336.14	113
336.369	132
336.597	125
336.825	118
337.053	125
337.281	115
337.51	105
337.738	124
337.966	98
338.194	117
338.422	110
338.65	118
338.878	128
339.106	126
339.334	124
339.562	113
339.79	122
340.018	114
340.246	122
340.474	111
340.702	114
340.93	106
341.158	109
341.386	117
341.614	119
341.842	111
342.07	113
342.298	113
342.526	119
342.754	110
342.981	119
343.209	114
343.437	145
343.665	113
343.893	119
344.12	129
344.348	125
344.576	126
344.804	118
345.031	104
345.259	120
345.487	120
345.714	103
345.942	106
346.17	113
346.397	113
346.625	127
346.853	118
347.08	122
347.308	129
347.535	111
347.763	104
347.99	110
348.218	118
348.445	109
348.673	117
348.9	110
349.128	113
349.355	112
349.583	116
349.81	103
350.037	115
350.265	121
350.492	117
350.72	99
350.947	122
351.174	104
351.402	97
351.629	105
351.856	115
352.083	124
352.311	114
352.538	114
352.765	108
352.992	124
353.22	123
353.447	119
353.674	117
353.901	130
354.128	106
354.355	113
354.583	113
354.81	114
355.037	109
355.264	115
355.491	121
355.718	105
355.945	125
356.172	111
356.399	107
356.626	112
356.853	110
357.08	113
357.307	110
357.534	97
357.761	97
357.988	120
358.215	115
358.441	107
358.668	97
358.895	107
359.122	115
359.349	126
359.576	121
359.802	101
360.029	119
360.256	118
360.483	105
360.709	115
360.936	129
361.163	124
361.39	118
361.616	111
361.843	105
362.07	113
362.296	116
362.523	111
362.749	112
362.976	121
363.203	137
363.429	117
363.656	116
363.882	106
364.109	110
364.335	119
364.562	121
364.788	116
365.015	118
365.241	118
365.468	122
365.694	126
365.92	122
366.147	102
366.373	117
366.599	121
366.826	113
367.052	111
367.278	116
367.505	106
367.731	139
367.957	97
368.184	103
368.41	99
368.636	115
368.862	117
369.089	121
369.315	97
369.541	112
369.767	110
369.993	105
370.219	91
370.445	115
370.672	97
370.898	100
371.124	135
371.35	115
371.576	115
371.802	120
372.028	102
372.254	102
372.48	104
372.706	111
372.932	101
373.158	109
373.384	106
373.61	120
373.835	109
374.061	117
374.287	123
374.513	121
374.739	119
374.965	117
375.191	119
375.416	120
375.642	126
375.868	124
376.094	128
376.319	120
376.545	116
376.771	114
376.997	114
377.222	119
377.448	118
377.674	123
377.899	126
378.125	109
378.35	119
378.576	119
378.802	105
379.027	119
379.253	115
379.478	111
379.704	112
379.929	112
380.155	114
380.38	124
380.606	118
380.831	119
381.057	137
381.282	119
381.507	128
381.733	120
381.958	112
382.184	116
382.409	120
382.634	117
382.86	123
383.085	128
383.31	126
383.535	112
383.761	129
383.986	131
384.211	130
384.436	122
384.662	128
384.887	130
385.112	125
385.337	130
385.562	123
385.787	119
386.013	121
386.238	139
386.463	129
386.688	148
386.913	129
387.138	115
387.363	115
387.588	144
387.813	126
388.038	127
388.263	123
388.488	114
388.713	128
388.938	127
389.163	122
389.387	126
389.612	125
389.837	109
390.062	131
390.287	116
390.512	116
390.736	122
390.961	132
391.186	128
391.411	122
391.636	121
391.86	132
392.085	128
392.31	129
392.534	131
392.759	119
392.984	132
393.208	115
393.433	118
393.658	125
393.882	119
394.107	132
394.331	121
394.556	116
394.78	136
395.005	125
395.229	119
395.454	137
395.678	126
395.903	125
396.127	120
396.352	135
396.576	121
396.801	128
397.025	133
397.249	117
397.474	142
397.698	125
397.922	133
398.147	135
398.371	134
398.595	135
398.82	136
399.044	158
399.268	155
399.492	151
399.717	159
399.941	158
400.165	161
400.389	153
400.613	137
400.837	125
401.062	147
401.286	138
401.51	149
401.734	129
401.958	130
402.182	152
402.406	135
402.63	132
402.854	127
403.078	164
403.302	142
403.526	159
403.75	149
403.974	150
404.198	147
404.422	148
404.645	145
404.869	131
405.093	129
405.317	136
405.541	130
405.765	132
405.988	144
406.212	139
406.436	123
406.66	142
406.883	141
407.107	154
407.331	148
407.555	156
407.778	151
408.002	156
408.226	146
408.449	139
408.673	148
408.896	134
409.12	132
409.344	144
409.567	141
409.791	138
410.014	144
410.238	152
410.461	137
410.685	131
410.908	154
411.132	157
411.355	143
411.578	128
411.802	132
412.025	148
412.249	130
412.472	147
412.695	141
412.919	129
413.142	132
413.365	119
413.589	143
413.812	123
414.035	142
414.258	146
414.482	137
414.705	137
414.928	134
415.151	122
415.374	133
415.597	118
415.821	130
416.044	118
416.267	122
416.49	132
416.713	126
416.936	136
417.159	128
417.382	143
417.605	124
417.828	131
418.051	136
418.274	132
418.497	130
418.72	131
418.943	132
419.166	137
419.389	143
419.611	137
419.834	141
420.057	147
420.28	126
420.503	129
420.726	143
420.948	128
421.171	136
421.394	120
421.617	140
421.839	134
422.062	143
422.285	132
422.507	128
422.73	148
422.953	119
423.175	142
423.398	149
423.621	145
423.843	153
424.066	139
424.288	132
424.511	124
424.733	142
424.956	130
425.178	140
425.401	142
425.623	144
425.846	129
426.068	121
426.291	124
426.513	133
426.735	126
426.958	121
427.18	132
427.402	141
427.625	122
427.847	130
428.069	131
428.292	120
428.514	117
428.736	112
428.958	134
429.181	122
429.403	121
429.625	119
429.847	113
430.069	121
430.292	133
430.514	118
430.736	120
430.958	127
431.18	111
431.402	130
431.624	125
431.846	128
432.068	137
432.29	133
432.512	137
432.734	119
432.956	135
433.178	124
433.4	113
433.622	132
433.844	136
434.066	140
434.287	139
434.509	131
434.731	129
434.953	126
435.175	120
435.397	142
435.618	118
435.84	129
436.062	126
436.284	124
436.505	130
436.727	132
436.949	128
437.17	122
437.392	109
437.614	131
437.835	119
438.057	128
438.278	145
438.5	115
438.721	136
438.943	137
439.165	126
439.386	121
439.608	142
439.829	126
440.05	122
440.272	121
440.493	138
440.715	140
440.936	127
441.158	130
441.379	131
441.6	141
441.822	134
442.043	122
442.264	123
442.486	134
442.707	132
442.928	125
443.149	134
443.371	136
443.592	137
443.813	133
444.034	127
444.255	148
444.476	145
444.698	129
444.919	157
445.14	342
445.361	233
445.582	138
445.803	140
446.024	137
446.245	145
446.466	129
446.687	117
446.908	141
447.129	137
447.35	135
447.571	137
447.792	128
448.013	130
448.234	122
448.455	131
448.675	129
448.896	116
449.117	138
449.338	112
449.559	129
449.779	114
450	123
450.221	131
450.442	118
450.662	115
450.883	134
451.104	126
451.324	131
451.545	117
451.766	136
451.986	121
452.207	137
452.428	132
452.648	130
452.869	138
453.089	129
453.31	119
453.53	124
453.751	135
453.971	115
454.192	125
454.412	115
454.633	99
454.853	114
455.073	126
455.294	120
455.514	127
455.734	112
455.955	100
456.175	121
456.395	111
456.616	118
456.836	118
457.056	127
457.276	110
457.497	136
457.717	108
457.937	142
458.157	121
458.377	116
458.598	122
458.818	121
459.038	112
459.258	118
459.478	126
459.698	134
459.918	132
460.138	141
460.358	145
460.578	149
460.798	140
461.018	153
461.238	138
461.458	144
461.678	125
461.898	138
462.118	150
462.338	132
462.558	128
462.777	157
462.997	161
463.217	164
463.437	160
463.657	154
463.876	138
464.096	153
464.316	142
464.536	143
464.755	167
464.975	134
465.195	142
465.414	139
465.634	127
465.854	122
466.073	129
466.293	131
466.512	110
466.732	119
466.951	141
467.171	127
467.391	134
467.61	126
467.829	125
468.049	120
468.268	122
468.488	123
468.707	127
468.927	130
469.146	125
469.365	129
469.585	133
469.804	136
470.023	131
470.243	145
470.462	131
470.681	144
470.901	141
471.12	127
471.339	143
471.558	127
471.777	130
471.997	124
472.216	126
472.435	104
472.654	128
472.873	135
473.092	132
473.311	120
473.53	112
473.749	124
473.968	130
474.187	125
474.406	124
474.625	112
474.844	126
475.063	117
475.282	132
475.501	129
475.72	131
475.939	130
476.158	119
476.377	118
476.596	128
476.814	122
477.033	130
477.252	126
477.471	116
477.69	110
477.908	132
478.127	135
478.346	134
478.564	127
478.783	118
479.002	125
479.22	135
479.439	131
479.658	121
479.876	133
480.095	140
480.313	138
480.532	145
480.751	161
480.969	158
481.188	126
481.406	145
481.624	136
481.843	127
482.061	125
482.28	126
482.498	127
482.717	128
482.935	122
483.153	135
483.372	126
483.59	128
483.808	120
484.027	137
484.245	135
484.463	126
484.681	156
484.9	131
485.118	129
485.336	127
485.554	130
485.772	142
485.99	138
486.209	131
486.427	127
486.645	137
486.863	137
487.081	148
487.299	138
487.517	142
487.735	135
487.953	151
488.171	141
488.389	136
488.607	126
488.825	140
489.043	142
489.261	138
489.479	126
489.696	134
489.914	117
490.132	130
490.35	147
490.568	147
490.786	141
491.003	121
491.221	132
491.439	145
491.657	141
491.874	142
492.092	144
492.31	145
492.527	141
492.745	138
492.963	136
493.18	143
493.398	169
493.615	145
493.833	154
494.05	141
494.268	126
494.485	139
494.703	130
494.92	134
495.138	142
495.355	127
495.573	138
495.79	129
496.008	152
496.225	148
496.442	142
496.66	176
496.877	138
497.094	143
497.312	143
497.529	142
497.746	148
497.963	163
498.181	143
498.398	155
498.615	155
498.832	166
499.049	165
499.267	194
499.484	196
499.701	197
499.918	230
500.135	253
500.352	266
500.569	284
500.786	263
501.003	253
501.22	226
501.437	203
501.654	196
501.871	176
502.088	174
502.305	179
502.522	175
502.739	149
502.956	149
503.172	145
503.389	157
503.606	149
503.823	133
504.04	149
504.256	150
504.473	143
504.69	163
504.907	142
505.123	146
505.34	137
505.557	153
505.773	139
505.99	134
506.207	135
506.423	138
506.64	148
506.856	135
507.073	121
507.289	135
507.506	114
507.722	125
507.939	144
508.155	150
508.372	118
508.588	125
508.805	108
509.021	122
509.238	143
509.454	126
509.67	111
509.887	114
510.103	121
510.319	129
510.536	125
510.752	128
510.968	139
511.184	116
511.401	121
511.617	134
511.833	124
512.049	121
512.265	114
512.481	143
512.698	117
512.914	122
513.13	126
513.346	124
513.562	142
513.778	146
513.994	139
514.21	146
514.426	129
514.642	127
514.858	134
515.074	131
515.29	136
515.506	123
515.721	148
515.937	155
516.153	125
516.369	126
516.585	127
516.801	143
517.016	146
517.232	133
517.448	161
517.664	159
517.879	138
518.095	138
518.311	150
518.527	138
518.742	141
518.958	130
519.173	138
519.389	136
519.605	129
519.82	120
520.036	120
520.251	130
520.467	131
520.682	122
520.898	137
521.113	136
521.329	151
521.544	139
521.76	131
521.975	126
522.19	135
522.406	141
522.621	123
522.836	119
523.052	116
523.267	130
523.482	130
523.698	125
523.913	131
524.128	121
524.343	119
524.559	120
524.774	125
524.989	122
525.204	135
525.419	131
525.634	106
525.849	116
526.064	128
526.28	134
526.495	125
526.71	128
526.925	107
527.14	115
527.355	114
527.57	120
527.785	135
527.999	117
528.214	122
528.429	122
528.644	117
528.859	133
529.074	128
529.289	132
529.503	125
529.718	103
529.933	120
530.148	106
530.363	120
530.577	121
530.792	121
531.007	110
531.221	138
531.436	118
531.651	119
531.865	125
532.08	130
532.295	136
532.509	131
532.724	122
532.938	120
533.153	118
533.367	120
533.582	125
533.796	116
534.011	119
534.225	119
534.44	122
534.654	122
534.868	117
535.083	118
535.297	133
535.511	130
535.726	127
535.94	130
536.154	121
536.369	121
536.583	121
536.797	129
537.011	128
537.225	102
537.44	101
537.654	115
537.868	117
538.082	142
538.296	125
538.51	115
538.724	121
538.938	126
539.153	149
539.367	134
539.581	127
539.795	122
540.009	123
540.222	120
540.436	114
540.65	102
540.864	117
541.078	118
541.292	129
541.506	137
541.72	131
541.934	126
542.147	134
542.361	129
542.575	121
542.789	106
543.002	125
543.216	123
543.43	136
543.644	125
543.857	136
544.071	127
544.285	135
544.498	117
544.712	125
544.925	117
545.139	128
545.352	123
545.566	127
545.779	128
545.993	126
546.206	134
546.42	132
546.633	130
546.847	139
547.06	128
547.274	114
547.487	130
547.7	128
547.914	122
548.127	139
548.34	125
548.554	103
548.767	117
548.98	141
549.193	137
549.407	130
549.62	128
549.833	126
550.046	115
550.259	115
550.473	118
550.686	127
550.899	128
551.112	132
551.325	111
551.538	117
551.751	129
551.964	138
552.177	130
552.39	122
552.603	147
552.816	134
553.029	119
553.242	134
553.455	122
553.667	150
553.88	130
554.093	122
554.306	117
554.519	138
554.732	125
554.944	128
555.157	128
555.37	132
555.583	116
555.795	115
556.008	109
556.221	106
556.433	129
556.646	135
556.859	121
557.071	115
557.284	112
557.496	129
557.709	113
557.921	132
558.134	130
558.346	119
558.559	113
558.771	116
558.984	125
559.196	114
559.409	123
559.621	130
559.833	122
560.046	113
560.258	120
560.47	119
560.683	115
560.895	96
561.107	128
561.32	122
561.532	131
561.744	110
561.956	111
562.168	101
562.381	113
562.593	118
562.805	128
563.017	129
563.229	116
563.441	115
563.653	100
563.865	121
564.077	118
564.289	117
564.501	131
564.713	121
564.925	127
565.137	119
565.349	119
565.561	136
565.773	123
565.985	125
566.197	110
566.408	136
566.62	142
566.832	157
567.044	144
567.255	142
567.467	159
567.679	137
567.891	157
568.102	166
