Data from SampD_HRD10591_00015.txt Node
Date: Mon Jan 19 11:41:26 EST 2026
User: Yrep
Spectrometer: HR+D1059
Trigger mode: 0
Integration Time (sec): 3.443000E-1
Scans to average: 1
Electric dark correction enabled: true
Nonlinearity correction enabled: false
Boxcar width: 0
XAxis mode: Wavelengths
Number of Pixels in Spectrum: 2048
>>>>>Begin Spectral Data<<<<<
223.165	-11.06
223.4	-11.06
223.635	-11.06
223.869	-31.06
224.104	-25.06
224.338	2.94
224.573	-15.06
224.808	-27.06
225.042	-13.06
225.277	1.94
225.511	-1.06
225.746	4.94
225.98	10.94
226.215	12.94
226.449	9.94
226.683	15.94
226.918	25.94
227.152	37.94
227.387	45.94
227.621	33.94
227.856	40.94
228.09	64.94
228.324	43.94
228.559	52.94
228.793	63.94
229.027	66.94
229.262	64.94
229.496	62.94
229.73	78.94
229.964	69.94
230.199	81.94
230.433	79.94
230.667	78.94
230.901	87.94
231.136	78.94
231.37	82.94
231.604	79.94
231.838	81.94
232.072	86.94
232.306	75.94
232.541	89.94
232.775	81.94
233.009	85.94
233.243	70.94
233.477	95.94
233.711	79.94
233.945	89.94
234.179	89.94
234.413	81.94
234.647	80.94
234.881	69.94
235.115	78.94
235.349	98.94
235.583	96.94
235.817	81.94
236.051	80.94
236.285	73.94
236.519	80.94
236.753	81.94
236.987	88.94
237.221	68.94
237.455	77.94
237.689	85.94
237.922	77.94
238.156	61.94
238.39	82.94
238.624	84.94
238.858	83.94
239.091	82.94
239.325	74.94
239.559	81.94
239.793	89.94
240.027	90.94
240.26	90.94
240.494	68.94
240.728	89.94
240.961	70.94
241.195	79.94
241.429	84.94
241.662	80.94
241.896	84.94
242.13	87.94
242.363	85.94
242.597	90.94
242.83	85.94
243.064	90.94
243.298	83.94
243.531	77.94
243.765	86.94
243.998	83.94
244.232	82.94
244.465	101.94
244.699	76.94
244.932	79.94
245.166	84.94
245.399	79.94
245.633	96.94
245.866	86.94
246.099	80.94
246.333	85.94
246.566	90.94
246.8	79.94
247.033	85.94
247.266	84.94
247.5	99.94
247.733	90.94
247.966	97.94
248.2	93.94
248.433	95.94
248.666	82.94
248.899	89.94
249.133	98.94
249.366	89.94
249.599	102.94
249.832	96.94
250.066	97.94
250.299	90.94
250.532	94.94
250.765	91.94
250.998	99.94
251.231	105.94
251.465	96.94
251.698	103.94
251.931	85.94
252.164	90.94
252.397	82.94
252.63	102.94
252.863	93.94
253.096	93.94
253.329	95.94
253.562	96.94
253.795	87.94
254.028	110.94
254.261	77.94
254.494	102.94
254.727	97.94
254.96	85.94
255.193	94.94
255.426	83.94
255.659	85.94
255.892	111.94
256.124	101.94
256.357	110.94
256.59	91.94
256.823	110.94
257.056	102.94
257.289	100.94
257.521	102.94
257.754	99.94
257.987	100.94
258.22	117.94
258.452	92.94
258.685	103.94
258.918	78.94
259.151	91.94
259.383	93.94
259.616	102.94
259.849	84.94
260.081	94.94
260.314	100.94
260.547	101.94
260.779	103.94
261.012	86.94
261.244	93.94
261.477	111.94
261.71	88.94
261.942	89.94
262.175	97.94
262.407	100.94
262.64	94.94
262.872	94.94
263.105	101.94
263.337	101.94
263.57	98.94
263.802	108.94
264.035	111.94
264.267	96.94
264.499	93.94
264.732	102.94
264.964	95.94
265.197	105.94
265.429	103.94
265.661	84.94
265.894	101.94
266.126	112.94
266.358	113.94
266.591	99.94
266.823	95.94
267.055	101.94
267.287	92.94
267.52	111.94
267.752	121.94
267.984	118.94
268.216	108.94
268.448	119.94
268.681	110.94
268.913	103.94
269.145	99.94
269.377	100.94
269.609	106.94
269.841	117.94
270.073	103.94
270.306	94.94
270.538	123.94
270.77	100.94
271.002	110.94
271.234	118.94
271.466	110.94
271.698	104.94
271.93	117.94
272.162	109.94
272.394	101.94
272.626	107.94
272.858	92.94
273.09	111.94
273.322	117.94
273.553	103.94
273.785	107.94
274.017	110.94
274.249	105.94
274.481	110.94
274.713	117.94
274.945	112.94
275.176	106.94
275.408	115.94
275.64	108.94
275.872	118.94
276.104	115.94
276.335	104.94
276.567	104.94
276.799	98.94
277.031	106.94
277.262	95.94
277.494	113.94
277.726	103.94
277.957	108.94
278.189	119.94
278.421	110.94
278.652	117.94
278.884	115.94
279.115	121.94
279.347	114.94
279.579	109.94
279.81	109.94
280.042	102.94
280.273	122.94
280.505	109.94
280.736	112.94
280.968	116.94
281.199	122.94
281.431	123.94
281.662	107.94
281.894	113.94
282.125	110.94
282.356	108.94
282.588	116.94
282.819	113.94
283.051	112.94
283.282	111.94
283.513	113.94
283.745	116.94
283.976	114.94
284.207	118.94
284.439	125.94
284.67	129.94
284.901	102.94
285.132	128.94
285.364	115.94
285.595	98.94
285.826	123.94
286.057	131.94
286.288	124.94
286.52	125.94
286.751	110.94
286.982	125.94
287.213	118.94
287.444	133.94
287.675	119.94
287.906	124.94
288.138	99.94
288.369	131.94
288.6	125.94
288.831	110.94
289.062	130.94
289.293	120.94
289.524	112.94
289.755	119.94
289.986	126.94
290.217	117.94
290.448	121.94
290.679	129.94
290.91	124.94
291.141	111.94
291.371	124.94
291.602	118.94
291.833	111.94
292.064	118.94
292.295	122.94
292.526	118.94
292.757	101.94
292.987	118.94
293.218	142.94
293.449	118.94
293.68	114.94
293.91	121.94
294.141	134.94
294.372	107.94
294.603	122.94
294.833	123.94
295.064	103.94
295.295	118.94
295.525	114.94
295.756	122.94
295.987	132.94
296.217	126.94
296.448	141.94
296.679	129.94
296.909	124.94
297.14	117.94
297.37	132.94
297.601	119.94
297.831	127.94
298.062	112.94
298.292	117.94
298.523	141.94
298.753	129.94
298.984	134.94
299.214	109.94
299.445	117.94
299.675	119.94
299.905	119.94
300.136	120.94
300.366	116.94
300.597	122.94
300.827	125.94
301.057	118.94
301.288	139.94
301.518	134.94
301.748	118.94
301.979	177.94
302.209	114.94
302.439	122.94
302.669	142.94
302.9	137.94
303.13	137.94
303.36	126.94
303.59	117.94
303.82	127.94
304.051	126.94
304.281	144.94
304.511	139.94
304.741	147.94
304.971	124.94
305.201	117.94
305.431	142.94
305.661	137.94
305.891	141.94
306.121	134.94
306.352	133.94
306.582	133.94
306.812	125.94
307.042	125.94
307.272	115.94
307.502	133.94
307.731	137.94
307.961	123.94
308.191	112.94
308.421	135.94
308.651	131.94
308.881	140.94
309.111	140.94
309.341	137.94
309.571	105.94
309.8	122.94
310.03	132.94
310.26	121.94
310.49	132.94
310.72	128.94
310.949	134.94
311.179	129.94
311.409	145.94
311.639	143.94
311.868	142.94
312.098	134.94
312.328	122.94
312.557	142.94
312.787	145.94
313.017	125.94
313.246	133.94
313.476	127.94
313.706	124.94
313.935	115.94
314.165	137.94
314.394	152.94
314.624	131.94
314.853	119.94
315.083	132.94
315.312	134.94
315.542	141.94
315.771	133.94
316.001	130.94
316.23	126.94
316.46	122.94
316.689	143.94
316.919	130.94
317.148	137.94
317.377	130.94
317.607	126.94
317.836	125.94
318.065	124.94
318.295	143.94
318.524	124.94
318.753	144.94
318.983	132.94
319.212	129.94
319.441	133.94
319.67	133.94
319.9	134.94
320.129	131.94
320.358	145.94
320.587	133.94
320.816	139.94
321.046	129.94
321.275	135.94
321.504	145.94
321.733	138.94
321.962	126.94
322.191	126.94
322.42	121.94
322.649	134.94
322.878	145.94
323.108	137.94
323.337	121.94
323.566	138.94
323.795	126.94
324.024	140.94
324.253	131.94
324.482	114.94
324.71	114.94
324.939	126.94
325.168	153.94
325.397	139.94
325.626	132.94
325.855	159.94
326.084	134.94
326.313	144.94
326.542	120.94
326.77	140.94
326.999	144.94
327.228	146.94
327.457	133.94
327.686	149.94
327.914	147.94
328.143	145.94
328.372	138.94
328.6	143.94
328.829	139.94
329.058	127.94
329.287	146.94
329.515	125.94
329.744	133.94
329.972	135.94
330.201	139.94
330.43	137.94
330.658	117.94
330.887	139.94
331.115	157.94
331.344	144.94
331.572	147.94
331.801	159.94
332.03	149.94
332.258	140.94
332.486	143.94
332.715	175.94
332.943	159.94
333.172	167.94
333.4	154.94
333.629	179.94
333.857	161.94
334.085	161.94
334.314	151.94
334.542	153.94
334.771	150.94
334.999	165.94
335.227	155.94
335.455	156.94
335.684	152.94
335.912	149.94
336.14	159.94
336.369	140.94
336.597	139.94
336.825	150.94
337.053	149.94
337.281	148.94
337.51	171.94
337.738	148.94
337.966	146.94
338.194	149.94
338.422	139.94
338.65	134.94
338.878	158.94
339.106	133.94
339.334	144.94
339.562	158.94
339.79	134.94
340.018	129.94
340.246	147.94
340.474	138.94
340.702	157.94
340.93	123.94
341.158	121.94
341.386	145.94
341.614	144.94
341.842	140.94
342.07	151.94
342.298	133.94
342.526	133.94
342.754	149.94
342.981	131.94
343.209	140.94
343.437	185.94
343.665	152.94
343.893	169.94
344.12	157.94
344.348	146.94
344.576	156.94
344.804	142.94
345.031	144.94
345.259	161.94
345.487	137.94
345.714	147.94
345.942	139.94
346.17	149.94
346.397	142.94
346.625	134.94
346.853	143.94
347.08	132.94
347.308	151.94
347.535	151.94
347.763	149.94
347.99	142.94
348.218	137.94
348.445	133.94
348.673	138.94
348.9	132.94
349.128	135.94
349.355	153.94
349.583	139.94
349.81	137.94
350.037	128.94
350.265	148.94
350.492	141.94
350.72	130.94
350.947	126.94
351.174	144.94
351.402	135.94
351.629	138.94
351.856	139.94
352.083	133.94
352.311	145.94
352.538	130.94
352.765	121.94
352.992	141.94
353.22	137.94
353.447	129.94
353.674	143.94
353.901	142.94
354.128	153.94
354.355	135.94
354.583	135.94
354.81	139.94
355.037	145.94
355.264	142.94
355.491	147.94
355.718	124.94
355.945	142.94
356.172	138.94
356.399	140.94
356.626	138.94
356.853	150.94
357.08	138.94
357.307	149.94
357.534	131.94
357.761	134.94
357.988	132.94
358.215	160.94
358.441	133.94
358.668	144.94
358.895	145.94
359.122	138.94
359.349	131.94
359.576	145.94
359.802	137.94
360.029	141.94
360.256	135.94
360.483	124.94
360.709	131.94
360.936	153.94
361.163	152.94
361.39	130.94
361.616	137.94
361.843	126.94
362.07	157.94
362.296	147.94
362.523	149.94
362.749	138.94
362.976	153.94
363.203	144.94
363.429	138.94
363.656	134.94
363.882	128.94
364.109	149.94
364.335	142.94
364.562	132.94
364.788	119.94
365.015	141.94
365.241	136.94
365.468	150.94
365.694	121.94
365.92	155.94
366.147	145.94
366.373	146.94
366.599	126.94
366.826	143.94
367.052	153.94
367.278	144.94
367.505	138.94
367.731	173.94
367.957	154.94
368.184	145.94
368.41	125.94
368.636	141.94
368.862	131.94
369.089	140.94
369.315	149.94
369.541	153.94
369.767	150.94
369.993	134.94
370.219	126.94
370.445	141.94
370.672	141.94
370.898	154.94
371.124	162.94
371.35	145.94
371.576	138.94
371.802	139.94
372.028	141.94
372.254	144.94
372.48	136.94
372.706	145.94
372.932	127.94
373.158	141.94
373.384	156.94
373.61	152.94
373.835	145.94
374.061	142.94
374.287	132.94
374.513	150.94
374.739	161.94
374.965	165.94
375.191	161.94
375.416	155.94
375.642	128.94
375.868	143.94
376.094	155.94
376.319	143.94
376.545	146.94
376.771	144.94
376.997	132.94
377.222	158.94
377.448	153.94
377.674	128.94
377.899	155.94
378.125	147.94
378.35	148.94
378.576	146.94
378.802	137.94
379.027	147.94
379.253	145.94
379.478	142.94
379.704	142.94
379.929	139.94
380.155	149.94
380.38	140.94
380.606	140.94
380.831	159.94
381.057	151.94
381.282	133.94
381.507	154.94
381.733	143.94
381.958	157.94
382.184	147.94
382.409	137.94
382.634	135.94
382.86	159.94
383.085	157.94
383.31	167.94
383.535	164.94
383.761	164.94
383.986	152.94
384.211	172.94
384.436	186.94
384.662	172.94
384.887	170.94
385.112	172.94
385.337	162.94
385.562	166.94
385.787	160.94
386.013	175.94
386.238	177.94
386.463	170.94
386.688	196.94
386.913	167.94
387.138	164.94
387.363	159.94
387.588	180.94
387.813	153.94
388.038	165.94
388.263	179.94
388.488	164.94
388.713	166.94
388.938	159.94
389.163	149.94
389.387	151.94
389.612	170.94
389.837	176.94
390.062	163.94
390.287	161.94
390.512	164.94
390.736	169.94
390.961	156.94
391.186	165.94
391.411	173.94
391.636	182.94
391.86	185.94
392.085	169.94
392.31	177.94
392.534	155.94
392.759	175.94
392.984	189.94
393.208	191.94
393.433	170.94
393.658	170.94
393.882	165.94
394.107	175.94
394.331	176.94
394.556	174.94
394.78	177.94
395.005	173.94
395.229	176.94
395.454	177.94
395.678	157.94
395.903	182.94
396.127	178.94
396.352	160.94
396.576	167.94
396.801	176.94
397.025	171.94
397.249	170.94
397.474	185.94
397.698	173.94
397.922	168.94
398.147	180.94
398.371	179.94
398.595	197.94
398.82	202.94
399.044	211.94
399.268	215.94
399.492	247.94
399.717	252.94
399.941	253.94
400.165	220.94
400.389	188.94
400.613	202.94
400.837	181.94
401.062	181.94
401.286	195.94
401.51	179.94
401.734	184.94
401.958	183.94
402.182	199.94
402.406	196.94
402.63	198.94
402.854	202.94
403.078	201.94
403.302	196.94
403.526	198.94
403.75	216.94
403.974	208.94
404.198	195.94
404.422	203.94
404.645	224.94
404.869	221.94
405.093	192.94
405.317	188.94
405.541	201.94
405.765	204.94
405.988	186.94
406.212	198.94
406.436	209.94
406.66	222.94
406.883	201.94
407.107	216.94
407.331	227.94
407.555	234.94
407.778	224.94
408.002	206.94
408.226	203.94
408.449	221.94
408.673	213.94
408.896	194.94
409.12	211.94
409.344	207.94
409.567	201.94
409.791	216.94
410.014	212.94
410.238	182.94
410.461	195.94
410.685	208.94
410.908	195.94
411.132	199.94
411.355	183.94
411.578	189.94
411.802	190.94
412.025	210.94
412.249	209.94
412.472	188.94
412.695	179.94
412.919	189.94
413.142	195.94
413.365	193.94
413.589	196.94
413.812	187.94
414.035	199.94
414.258	192.94
414.482	173.94
414.705	206.94
414.928	188.94
415.151	196.94
415.374	196.94
415.597	185.94
415.821	183.94
416.044	198.94
416.267	191.94
416.49	175.94
416.713	187.94
416.936	188.94
417.159	189.94
417.382	190.94
417.605	193.94
417.828	202.94
418.051	177.94
418.274	190.94
418.497	203.94
418.72	185.94
418.943	183.94
419.166	181.94
419.389	213.94
419.611	190.94
419.834	190.94
420.057	202.94
420.28	194.94
420.503	190.94
420.726	190.94
420.948	209.94
421.171	183.94
421.394	183.94
421.617	198.94
421.839	171.94
422.062	198.94
422.285	171.94
422.507	194.94
422.73	209.94
422.953	203.94
423.175	207.94
423.398	197.94
423.621	205.94
423.843	195.94
424.066	205.94
424.288	203.94
424.511	189.94
424.733	185.94
424.956	202.94
425.178	192.94
425.401	183.94
425.623	208.94
425.846	193.94
426.068	195.94
426.291	188.94
426.513	181.94
426.735	189.94
426.958	186.94
427.18	178.94
427.402	176.94
427.625	171.94
427.847	177.94
428.069	192.94
428.292	169.94
428.514	180.94
428.736	180.94
428.958	166.94
429.181	179.94
429.403	181.94
429.625	171.94
429.847	162.94
430.069	163.94
430.292	173.94
430.514	177.94
430.736	169.94
430.958	155.94
431.18	170.94
431.402	170.94
431.624	171.94
431.846	185.94
432.068	167.94
432.29	173.94
432.512	186.94
432.734	163.94
432.956	188.94
433.178	193.94
433.4	178.94
433.622	174.94
433.844	175.94
434.066	198.94
434.287	183.94
434.509	184.94
434.731	190.94
434.953	196.94
435.175	192.94
435.397	199.94
435.618	180.94
435.84	175.94
436.062	170.94
436.284	160.94
436.505	172.94
436.727	169.94
436.949	180.94
437.17	159.94
437.392	168.94
437.614	172.94
437.835	159.94
438.057	172.94
438.278	157.94
438.5	187.94
438.721	167.94
438.943	172.94
439.165	172.94
439.386	157.94
439.608	190.94
439.829	177.94
440.05	169.94
440.272	177.94
440.493	173.94
440.715	189.94
440.936	181.94
441.158	191.94
441.379	197.94
441.6	195.94
441.822	191.94
442.043	186.94
442.264	185.94
442.486	185.94
442.707	181.94
442.928	205.94
443.149	195.94
443.371	184.94
443.592	198.94
443.813	192.94
444.034	195.94
444.255	209.94
444.476	216.94
444.698	195.94
444.919	201.94
445.14	480.94
445.361	322.94
445.582	207.94
445.803	196.94
446.024	166.94
446.245	177.94
446.466	176.94
446.687	159.94
446.908	180.94
447.129	175.94
447.35	181.94
447.571	178.94
447.792	165.94
448.013	162.94
448.234	177.94
448.455	179.94
448.675	169.94
448.896	179.94
449.117	160.94
449.338	160.94
449.559	161.94
449.779	166.94
450	152.94
450.221	171.94
450.442	183.94
450.662	167.94
450.883	165.94
451.104	166.94
451.324	159.94
451.545	177.94
451.766	172.94
451.986	168.94
452.207	178.94
452.428	173.94
452.648	190.94
452.869	170.94
453.089	145.94
453.31	158.94
453.53	171.94
453.751	160.94
453.971	175.94
454.192	152.94
454.412	153.94
454.633	157.94
454.853	172.94
455.073	162.94
455.294	162.94
455.514	172.94
455.734	149.94
455.955	155.94
456.175	163.94
456.395	153.94
456.616	148.94
456.836	157.94
457.056	173.94
457.276	141.94
457.497	159.94
457.717	157.94
457.937	147.94
458.157	163.94
458.377	159.94
458.598	158.94
458.818	150.94
459.038	173.94
459.258	172.94
459.478	174.94
459.698	188.94
459.918	194.94
460.138	194.94
460.358	206.94
460.578	194.94
460.798	197.94
461.018	178.94
461.238	197.94
461.458	173.94
461.678	193.94
461.898	194.94
462.118	205.94
462.338	209.94
462.558	209.94
462.777	219.94
462.997	244.94
463.217	236.94
463.437	242.94
463.657	218.94
463.876	217.94
464.096	197.94
464.316	228.94
464.536	211.94
464.755	198.94
464.975	196.94
465.195	204.94
465.414	200.94
465.634	208.94
465.854	182.94
466.073	186.94
466.293	175.94
466.512	174.94
466.732	155.94
466.951	176.94
467.171	193.94
467.391	169.94
467.61	160.94
467.829	173.94
468.049	178.94
468.268	170.94
468.488	173.94
468.707	171.94
468.927	154.94
469.146	158.94
469.365	167.94
469.585	171.94
469.804	193.94
470.023	170.94
470.243	186.94
470.462	178.94
470.681	190.94
470.901	182.94
471.12	164.94
471.339	194.94
471.558	183.94
471.777	180.94
471.997	170.94
472.216	189.94
472.435	160.94
472.654	156.94
472.873	165.94
473.092	163.94
473.311	171.94
473.53	168.94
473.749	153.94
473.968	170.94
474.187	175.94
474.406	163.94
474.625	161.94
474.844	170.94
475.063	171.94
475.282	154.94
475.501	170.94
475.72	172.94
475.939	173.94
476.158	167.94
476.377	164.94
476.596	167.94
476.814	166.94
477.033	179.94
477.252	202.94
477.471	179.94
477.69	191.94
477.908	186.94
478.127	201.94
478.346	185.94
478.564	194.94
478.783	192.94
479.002	197.94
479.22	193.94
479.439	187.94
479.658	189.94
479.876	197.94
480.095	191.94
480.313	218.94
480.532	216.94
480.751	198.94
480.969	186.94
481.188	193.94
481.406	181.94
481.624	182.94
481.843	188.94
482.061	175.94
482.28	180.94
482.498	177.94
482.717	173.94
482.935	161.94
483.153	188.94
483.372	189.94
483.59	203.94
483.808	164.94
484.027	180.94
484.245	184.94
484.463	179.94
484.681	201.94
484.9	197.94
485.118	181.94
485.336	190.94
485.554	183.94
485.772	198.94
485.99	180.94
486.209	175.94
486.427	185.94
486.645	197.94
486.863	208.94
487.081	192.94
487.299	194.94
487.517	195.94
487.735	194.94
487.953	186.94
488.171	187.94
488.389	193.94
488.607	182.94
488.825	195.94
489.043	181.94
489.261	194.94
489.479	197.94
489.696	195.94
489.914	191.94
490.132	177.94
490.35	185.94
490.568	173.94
490.786	185.94
491.003	194.94
491.221	206.94
491.439	204.94
491.657	189.94
491.874	206.94
492.092	194.94
492.31	222.94
492.527	187.94
492.745	200.94
492.963	205.94
493.18	208.94
493.398	209.94
493.615	214.94
493.833	201.94
494.05	215.94
494.268	202.94
494.485	203.94
494.703	202.94
494.92	197.94
495.138	202.94
495.355	187.94
495.573	192.94
495.79	184.94
496.008	196.94
496.225	177.94
496.442	212.94
496.66	207.94
496.877	212.94
497.094	219.94
497.312	205.94
497.529	213.94
497.746	204.94
497.963	236.94
498.181	213.94
498.398	228.94
498.615	238.94
498.832	267.94
499.049	268.94
499.267	267.94
499.484	309.94
499.701	325.94
499.918	377.94
500.135	413.94
500.352	472.94
500.569	442.94
500.786	463.94
501.003	409.94
501.22	377.94
501.437	355.94
501.654	308.94
501.871	279.94
502.088	263.94
502.305	255.94
502.522	237.94
502.739	227.94
502.956	239.94
503.172	240.94
503.389	218.94
503.606	211.94
503.823	204.94
504.04	217.94
504.256	227.94
504.473	207.94
504.69	213.94
