Data from SampD_HRD10591_00070.txt Node
Date: Mon Jan 19 11:41:45 EST 2026
User: Yrep
Spectrometer: HR+D1059
Trigger mode: 0
Integration Time (sec): 3.443000E-1
Scans to average: 1
Electric dark correction enabled: true
Nonlinearity correction enabled: false
Boxcar width: 0
XAxis mode: Wavelengths
Number of Pixels in Spectrum: 2048
>>>>>Begin Spectral Data<<<<<
223.165	-27.19
223.4	-27.19
223.635	-27.19
223.869	-22.19
224.104	-8.19
224.338	-11.19
224.573	-0.19
224.808	0.81
225.042	-31.19
225.277	5.81
225.511	0.81
225.746	2.81
225.98	7.81
226.215	4.81
226.449	21.81
226.683	20.81
226.918	11.81
227.152	22.81
227.387	46.81
227.621	41.81
227.856	47.81
228.09	34.81
228.324	45.81
228.559	60.81
228.793	62.81
229.027	65.81
229.262	78.81
229.496	70.81
229.73	87.81
229.964	87.81
230.199	59.81
230.433	71.81
230.667	92.81
230.901	83.81
231.136	94.81
231.37	81.81
231.604	82.81
231.838	95.81
232.072	84.81
232.306	81.81
232.541	86.81
232.775	76.81
233.009	92.81
233.243	101.81
233.477	84.81
233.711	89.81
233.945	73.81
234.179	79.81
234.413	79.81
234.647	86.81
234.881	83.81
235.115	84.81
235.349	96.81
235.583	83.81
235.817	87.81
236.051	73.81
236.285	77.81
236.519	79.81
236.753	87.81
236.987	69.81
237.221	89.81
237.455	93.81
237.689	84.81
237.922	89.81
238.156	70.81
238.39	87.81
238.624	93.81
238.858	91.81
239.091	98.81
239.325	79.81
239.559	79.81
239.793	85.81
240.027	69.81
240.26	70.81
240.494	77.81
240.728	79.81
240.961	75.81
241.195	79.81
241.429	89.81
241.662	79.81
241.896	95.81
242.13	83.81
242.363	88.81
242.597	76.81
242.83	72.81
243.064	97.81
243.298	77.81
243.531	67.81
243.765	89.81
243.998	79.81
244.232	85.81
244.465	90.81
244.699	78.81
244.932	80.81
245.166	90.81
245.399	86.81
245.633	79.81
245.866	69.81
246.099	75.81
246.333	85.81
246.566	67.81
246.8	97.81
247.033	85.81
247.266	85.81
247.5	69.81
247.733	76.81
247.966	92.81
248.2	93.81
248.433	89.81
248.666	77.81
248.899	80.81
249.133	88.81
249.366	89.81
249.599	85.81
249.832	100.81
250.066	79.81
250.299	93.81
250.532	93.81
250.765	85.81
250.998	86.81
251.231	84.81
251.465	82.81
251.698	73.81
251.931	92.81
252.164	95.81
252.397	83.81
252.63	94.81
252.863	88.81
253.096	83.81
253.329	91.81
253.562	83.81
253.795	88.81
254.028	83.81
254.261	83.81
254.494	81.81
254.727	82.81
254.96	85.81
255.193	77.81
255.426	81.81
255.659	84.81
255.892	79.81
256.124	89.81
256.357	81.81
256.59	89.81
256.823	80.81
257.056	87.81
257.289	88.81
257.521	90.81
257.754	88.81
257.987	82.81
258.22	95.81
258.452	77.81
258.685	92.81
258.918	86.81
259.151	91.81
259.383	92.81
259.616	76.81
259.849	86.81
260.081	82.81
260.314	80.81
260.547	91.81
260.779	92.81
261.012	96.81
261.244	93.81
261.477	110.81
261.71	94.81
261.942	96.81
262.175	83.81
262.407	69.81
262.64	76.81
262.872	91.81
263.105	81.81
263.337	92.81
263.57	103.81
263.802	96.81
264.035	93.81
264.267	93.81
264.499	88.81
264.732	110.81
264.964	96.81
265.197	92.81
265.429	95.81
265.661	92.81
265.894	84.81
266.126	97.81
266.358	98.81
266.591	89.81
266.823	94.81
267.055	74.81
267.287	87.81
267.52	86.81
267.752	91.81
267.984	95.81
268.216	87.81
268.448	117.81
268.681	92.81
268.913	101.81
269.145	84.81
269.377	95.81
269.609	102.81
269.841	85.81
270.073	104.81
270.306	97.81
270.538	88.81
270.77	94.81
271.002	89.81
271.234	103.81
271.466	120.81
271.698	83.81
271.93	96.81
272.162	93.81
272.394	115.81
272.626	98.81
272.858	105.81
273.09	91.81
273.322	98.81
273.553	84.81
273.785	98.81
274.017	105.81
274.249	89.81
274.481	78.81
274.713	99.81
274.945	102.81
275.176	87.81
275.408	87.81
275.64	102.81
275.872	88.81
276.104	99.81
276.335	77.81
276.567	93.81
276.799	92.81
277.031	86.81
277.262	103.81
277.494	100.81
277.726	107.81
277.957	106.81
278.189	97.81
278.421	93.81
278.652	81.81
278.884	100.81
279.115	100.81
279.347	109.81
279.579	106.81
279.81	94.81
280.042	97.81
280.273	92.81
280.505	88.81
280.736	100.81
280.968	97.81
281.199	108.81
281.431	101.81
281.662	108.81
281.894	113.81
282.125	95.81
282.356	103.81
282.588	108.81
282.819	103.81
283.051	93.81
283.282	85.81
283.513	116.81
283.745	92.81
283.976	101.81
284.207	93.81
284.439	97.81
284.67	100.81
284.901	104.81
285.132	86.81
285.364	102.81
285.595	98.81
285.826	99.81
286.057	107.81
286.288	95.81
286.52	98.81
286.751	101.81
286.982	100.81
287.213	96.81
287.444	109.81
287.675	96.81
287.906	96.81
288.138	105.81
288.369	94.81
288.6	104.81
288.831	96.81
289.062	109.81
289.293	96.81
289.524	104.81
289.755	108.81
289.986	91.81
290.217	101.81
290.448	88.81
290.679	103.81
290.91	103.81
291.141	109.81
291.371	115.81
291.602	105.81
291.833	115.81
292.064	108.81
292.295	95.81
292.526	113.81
292.757	98.81
292.987	101.81
293.218	109.81
293.449	91.81
293.68	97.81
293.91	104.81
294.141	110.81
294.372	102.81
294.603	117.81
294.833	117.81
295.064	100.81
295.295	94.81
295.525	113.81
295.756	112.81
295.987	111.81
296.217	102.81
296.448	93.81
296.679	114.81
296.909	107.81
297.14	93.81
297.37	115.81
297.601	101.81
297.831	83.81
298.062	96.81
298.292	103.81
298.523	105.81
298.753	100.81
298.984	108.81
299.214	116.81
299.445	102.81
299.675	108.81
299.905	109.81
300.136	108.81
300.366	97.81
300.597	109.81
300.827	98.81
301.057	105.81
301.288	103.81
301.518	107.81
301.748	111.81
301.979	131.81
302.209	104.81
302.439	102.81
302.669	105.81
302.9	103.81
303.13	106.81
303.36	104.81
303.59	109.81
303.82	102.81
304.051	112.81
304.281	123.81
304.511	124.81
304.741	102.81
304.971	104.81
305.201	104.81
305.431	96.81
305.661	105.81
305.891	112.81
306.121	127.81
306.352	112.81
306.582	101.81
306.812	117.81
307.042	95.81
307.272	83.81
307.502	104.81
307.731	118.81
307.961	105.81
308.191	102.81
308.421	110.81
308.651	104.81
308.881	99.81
309.111	93.81
309.341	88.81
309.571	103.81
309.8	114.81
310.03	110.81
310.26	112.81
310.49	116.81
310.72	103.81
310.949	100.81
311.179	104.81
311.409	109.81
311.639	110.81
311.868	103.81
312.098	111.81
312.328	105.81
312.557	115.81
312.787	99.81
313.017	111.81
313.246	104.81
313.476	105.81
313.706	99.81
313.935	96.81
314.165	105.81
314.394	107.81
314.624	106.81
314.853	101.81
315.083	95.81
315.312	112.81
315.542	109.81
315.771	113.81
316.001	107.81
316.23	115.81
316.46	101.81
316.689	109.81
316.919	112.81
317.148	105.81
317.377	119.81
317.607	109.81
317.836	99.81
318.065	103.81
318.295	114.81
318.524	113.81
318.753	108.81
318.983	105.81
319.212	87.81
319.441	120.81
319.67	107.81
319.9	118.81
320.129	93.81
320.358	112.81
320.587	96.81
320.816	108.81
321.046	112.81
321.275	118.81
321.504	103.81
321.733	100.81
321.962	106.81
322.191	115.81
322.42	95.81
322.649	110.81
322.878	104.81
323.108	116.81
323.337	100.81
323.566	113.81
323.795	96.81
324.024	101.81
324.253	109.81
324.482	97.81
324.71	97.81
324.939	102.81
325.168	97.81
325.397	96.81
325.626	95.81
325.855	120.81
326.084	115.81
326.313	104.81
326.542	104.81
326.77	107.81
326.999	116.81
327.228	111.81
327.457	109.81
327.686	120.81
327.914	109.81
328.143	111.81
328.372	114.81
328.6	110.81
328.829	104.81
329.058	105.81
329.287	101.81
329.515	104.81
329.744	119.81
329.972	105.81
330.201	113.81
330.43	103.81
330.658	118.81
330.887	112.81
331.115	115.81
331.344	109.81
331.572	107.81
331.801	108.81
332.03	119.81
332.258	124.81
332.486	119.81
332.715	113.81
332.943	107.81
333.172	122.81
333.4	114.81
333.629	126.81
333.857	122.81
334.085	119.81
334.314	116.81
334.542	116.81
334.771	109.81
334.999	112.81
335.227	127.81
335.455	115.81
335.684	118.81
335.912	127.81
336.14	119.81
336.369	114.81
336.597	112.81
336.825	114.81
337.053	101.81
337.281	120.81
337.51	99.81
337.738	102.81
337.966	106.81
338.194	101.81
338.422	108.81
338.65	110.81
338.878	120.81
339.106	102.81
339.334	131.81
339.562	109.81
339.79	123.81
340.018	112.81
340.246	117.81
340.474	95.81
340.702	114.81
340.93	113.81
341.158	110.81
341.386	116.81
341.614	114.81
341.842	101.81
342.07	103.81
342.298	105.81
342.526	114.81
342.754	103.81
342.981	100.81
343.209	108.81
343.437	155.81
343.665	117.81
343.893	134.81
344.12	127.81
344.348	124.81
344.576	113.81
344.804	116.81
345.031	114.81
345.259	117.81
345.487	104.81
345.714	115.81
345.942	100.81
346.17	114.81
346.397	120.81
346.625	112.81
346.853	115.81
347.08	89.81
347.308	106.81
347.535	108.81
347.763	99.81
347.99	97.81
348.218	114.81
348.445	101.81
348.673	115.81
348.9	108.81
349.128	116.81
349.355	102.81
349.583	93.81
349.81	102.81
350.037	115.81
350.265	108.81
350.492	116.81
350.72	103.81
350.947	106.81
351.174	115.81
351.402	109.81
351.629	116.81
351.856	97.81
352.083	102.81
352.311	110.81
352.538	95.81
352.765	109.81
352.992	122.81
353.22	104.81
353.447	108.81
353.674	108.81
353.901	106.81
354.128	107.81
354.355	104.81
354.583	115.81
354.81	97.81
355.037	107.81
355.264	118.81
355.491	104.81
355.718	102.81
355.945	109.81
356.172	126.81
356.399	108.81
356.626	95.81
356.853	118.81
357.08	118.81
357.307	102.81
357.534	99.81
357.761	111.81
357.988	93.81
358.215	112.81
358.441	102.81
358.668	115.81
358.895	118.81
359.122	115.81
359.349	108.81
359.576	101.81
359.802	93.81
360.029	100.81
360.256	111.81
360.483	107.81
360.709	100.81
360.936	122.81
361.163	106.81
361.39	109.81
361.616	99.81
361.843	95.81
362.07	109.81
362.296	115.81
362.523	104.81
362.749	100.81
362.976	107.81
363.203	108.81
363.429	111.81
363.656	120.81
363.882	88.81
364.109	115.81
364.335	123.81
364.562	107.81
364.788	107.81
365.015	124.81
365.241	116.81
365.468	118.81
365.694	105.81
365.92	98.81
366.147	105.81
366.373	97.81
366.599	101.81
366.826	107.81
367.052	117.81
367.278	110.81
367.505	109.81
367.731	105.81
367.957	105.81
368.184	93.81
368.41	114.81
368.636	102.81
368.862	115.81
369.089	112.81
369.315	101.81
369.541	115.81
369.767	115.81
369.993	116.81
370.219	112.81
370.445	124.81
370.672	126.81
370.898	94.81
371.124	105.81
371.35	116.81
371.576	111.81
371.802	100.81
372.028	112.81
372.254	107.81
372.48	99.81
372.706	123.81
372.932	103.81
373.158	108.81
373.384	126.81
373.61	119.81
373.835	107.81
374.061	106.81
374.287	118.81
374.513	111.81
374.739	113.81
374.965	107.81
375.191	112.81
375.416	110.81
375.642	116.81
375.868	124.81
376.094	114.81
376.319	113.81
376.545	126.81
376.771	109.81
376.997	102.81
377.222	99.81
377.448	101.81
377.674	112.81
377.899	115.81
378.125	95.81
378.35	120.81
378.576	100.81
378.802	97.81
379.027	103.81
379.253	119.81
379.478	119.81
379.704	93.81
379.929	113.81
380.155	96.81
380.38	118.81
380.606	119.81
380.831	104.81
381.057	116.81
381.282	105.81
381.507	102.81
381.733	121.81
381.958	117.81
382.184	110.81
382.409	101.81
382.634	125.81
382.86	111.81
383.085	125.81
383.31	103.81
383.535	125.81
383.761	131.81
383.986	127.81
384.211	108.81
384.436	121.81
384.662	123.81
384.887	120.81
385.112	108.81
385.337	118.81
385.562	116.81
385.787	119.81
386.013	120.81
386.238	121.81
386.463	111.81
386.688	147.81
386.913	110.81
387.138	112.81
387.363	114.81
387.588	130.81
387.813	113.81
388.038	121.81
388.263	117.81
388.488	110.81
388.713	113.81
388.938	106.81
389.163	113.81
389.387	108.81
389.612	112.81
389.837	119.81
390.062	119.81
390.287	117.81
390.512	111.81
390.736	111.81
390.961	124.81
391.186	117.81
391.411	121.81
391.636	104.81
391.86	128.81
392.085	124.81
392.31	125.81
392.534	118.81
392.759	123.81
392.984	116.81
393.208	129.81
393.433	113.81
393.658	127.81
393.882	131.81
394.107	116.81
394.331	124.81
394.556	117.81
394.78	117.81
395.005	124.81
395.229	124.81
395.454	120.81
395.678	124.81
395.903	129.81
396.127	136.81
396.352	124.81
396.576	124.81
396.801	131.81
397.025	117.81
397.249	132.81
397.474	137.81
397.698	117.81
397.922	130.81
398.147	125.81
398.371	122.81
398.595	111.81
398.82	120.81
399.044	119.81
399.268	143.81
399.492	159.81
399.717	157.81
399.941	155.81
400.165	142.81
400.389	125.81
400.613	134.81
400.837	130.81
401.062	113.81
401.286	138.81
401.51	142.81
401.734	127.81
401.958	128.81
402.182	117.81
402.406	115.81
402.63	124.81
402.854	134.81
403.078	138.81
403.302	136.81
403.526	142.81
403.75	143.81
403.974	125.81
404.198	134.81
404.422	139.81
404.645	148.81
404.869	143.81
405.093	132.81
405.317	137.81
405.541	129.81
405.765	116.81
405.988	122.81
406.212	143.81
406.436	132.81
406.66	135.81
406.883	125.81
407.107	148.81
407.331	157.81
407.555	134.81
407.778	155.81
408.002	149.81
408.226	143.81
408.449	124.81
408.673	141.81
408.896	129.81
409.12	133.81
409.344	128.81
409.567	133.81
409.791	136.81
410.014	137.81
410.238	141.81
410.461	130.81
410.685	127.81
410.908	125.81
411.132	162.81
411.355	130.81
411.578	133.81
411.802	138.81
412.025	137.81
412.249	123.81
412.472	126.81
412.695	128.81
412.919	117.81
413.142	120.81
413.365	134.81
413.589	117.81
413.812	133.81
414.035	146.81
414.258	128.81
414.482	123.81
414.705	120.81
414.928	140.81
415.151	115.81
415.374	121.81
415.597	140.81
415.821	139.81
416.044	117.81
416.267	125.81
416.49	132.81
416.713	117.81
416.936	120.81
417.159	125.81
417.382	112.81
417.605	118.81
417.828	136.81
418.051	115.81
418.274	143.81
418.497	116.81
418.72	136.81
418.943	125.81
419.166	135.81
419.389	144.81
419.611	146.81
419.834	128.81
420.057	147.81
420.28	136.81
420.503	105.81
420.726	127.81
420.948	140.81
421.171	136.81
421.394	139.81
421.617	130.81
421.839	121.81
422.062	119.81
422.285	133.81
422.507	124.81
422.73	142.81
422.953	121.81
423.175	121.81
423.398	148.81
423.621	140.81
423.843	127.81
424.066	137.81
424.288	133.81
424.511	134.81
424.733	126.81
424.956	129.81
425.178	131.81
425.401	133.81
425.623	127.81
425.846	123.81
426.068	118.81
426.291	136.81
426.513	129.81
426.735	137.81
426.958	139.81
427.18	115.81
427.402	129.81
427.625	116.81
427.847	122.81
428.069	142.81
428.292	129.81
428.514	116.81
428.736	117.81
428.958	126.81
429.181	117.81
429.403	127.81
429.625	130.81
429.847	116.81
430.069	125.81
430.292	128.81
430.514	120.81
430.736	111.81
430.958	125.81
431.18	112.81
431.402	116.81
431.624	120.81
431.846	138.81
432.068	122.81
432.29	117.81
432.512	131.81
432.734	116.81
432.956	124.81
433.178	135.81
433.4	132.81
433.622	131.81
433.844	110.81
434.066	111.81
434.287	132.81
434.509	113.81
434.731	146.81
434.953	119.81
435.175	126.81
435.397	134.81
435.618	135.81
435.84	125.81
436.062	120.81
436.284	129.81
436.505	129.81
436.727	117.81
436.949	117.81
437.17	117.81
437.392	122.81
437.614	119.81
437.835	115.81
438.057	127.81
438.278	132.81
438.5	124.81
438.721	120.81
438.943	130.81
439.165	115.81
439.386	124.81
439.608	125.81
439.829	127.81
440.05	125.81
440.272	122.81
440.493	120.81
440.715	123.81
440.936	108.81
441.158	136.81
441.379	125.81
441.6	134.81
441.822	142.81
442.043	115.81
442.264	131.81
442.486	118.81
442.707	123.81
442.928	134.81
443.149	137.81
443.371	133.81
443.592	141.81
443.813	138.81
444.034	132.81
444.255	127.81
444.476	129.81
444.698	133.81
444.919	136.81
445.14	318.81
445.361	232.81
445.582	145.81
445.803	127.81
446.024	126.81
446.245	129.81
446.466	129.81
446.687	111.81
446.908	129.81
447.129	116.81
447.35	112.81
447.571	128.81
447.792	127.81
448.013	111.81
448.234	110.81
448.455	122.81
448.675	115.81
448.896	124.81
449.117	125.81
449.338	140.81
449.559	134.81
449.779	121.81
450	129.81
450.221	122.81
450.442	113.81
450.662	112.81
450.883	115.81
451.104	135.81
451.324	124.81
451.545	131.81
451.766	136.81
451.986	126.81
452.207	120.81
452.428	125.81
452.648	118.81
452.869	112.81
453.089	120.81
453.31	127.81
453.53	127.81
453.751	121.81
453.971	121.81
454.192	97.81
454.412	112.81
454.633	119.81
454.853	100.81
455.073	106.81
455.294	129.81
455.514	117.81
455.734	121.81
455.955	119.81
456.175	116.81
456.395	113.81
456.616	102.81
456.836	113.81
457.056	119.81
457.276	113.81
457.497	119.81
457.717	112.81
457.937	109.81
458.157	103.81
458.377	117.81
458.598	116.81
458.818	117.81
459.038	130.81
459.258	130.81
459.478	120.81
459.698	138.81
459.918	137.81
460.138	132.81
460.358	111.81
460.578	136.81
460.798	125.81
461.018	119.81
461.238	126.81
461.458	125.81
461.678	132.81
461.898	147.81
462.118	143.81
462.338	124.81
462.558	139.81
462.777	130.81
462.997	158.81
463.217	147.81
463.437	149.81
463.657	156.81
463.876	159.81
464.096	158.81
464.316	148.81
464.536	149.81
464.755	135.81
464.975	141.81
465.195	128.81
465.414	134.81
465.634	123.81
465.854	130.81
466.073	118.81
466.293	125.81
466.512	102.81
466.732	126.81
466.951	133.81
467.171	150.81
467.391	111.81
467.61	125.81
467.829	116.81
468.049	109.81
468.268	113.81
468.488	130.81
468.707	115.81
468.927	121.81
469.146	121.81
469.365	134.81
469.585	125.81
469.804	121.81
470.023	121.81
470.243	120.81
470.462	120.81
470.681	128.81
470.901	126.81
471.12	145.81
471.339	116.81
471.558	125.81
471.777	137.81
471.997	126.81
472.216	124.81
472.435	120.81
472.654	112.81
472.873	123.81
473.092	118.81
473.311	119.81
473.53	128.81
473.749	117.81
473.968	122.81
474.187	115.81
474.406	125.81
474.625	128.81
474.844	129.81
475.063	105.81
475.282	112.81
475.501	119.81
475.72	150.81
475.939	112.81
476.158	119.81
476.377	113.81
476.596	124.81
476.814	123.81
477.033	127.81
477.252	127.81
477.471	113.81
477.69	119.81
477.908	119.81
478.127	127.81
478.346	126.81
478.564	133.81
478.783	129.81
479.002	136.81
479.22	136.81
479.439	125.81
479.658	119.81
479.876	124.81
480.095	128.81
480.313	134.81
480.532	144.81
480.751	129.81
480.969	114.81
481.188	124.81
481.406	124.81
481.624	134.81
481.843	127.81
482.061	113.81
482.28	128.81
482.498	114.81
482.717	133.81
482.935	128.81
483.153	113.81
483.372	129.81
483.59	128.81
483.808	118.81
484.027	124.81
484.245	142.81
484.463	132.81
484.681	140.81
484.9	145.81
485.118	131.81
485.336	124.81
485.554	135.81
485.772	108.81
485.99	132.81
486.209	127.81
486.427	132.81
486.645	139.81
486.863	139.81
487.081	135.81
487.299	116.81
487.517	128.81
487.735	126.81
487.953	147.81
488.171	118.81
488.389	119.81
488.607	121.81
488.825	119.81
489.043	122.81
489.261	128.81
489.479	124.81
489.696	142.81
489.914	133.81
490.132	149.81
490.35	132.81
490.568	120.81
490.786	136.81
491.003	156.81
491.221	126.81
491.439	139.81
491.657	141.81
491.874	132.81
492.092	148.81
492.31	141.81
492.527	126.81
492.745	124.81
492.963	152.81
493.18	132.81
493.398	129.81
493.615	134.81
493.833	136.81
494.05	134.81
494.268	146.81
494.485	141.81
494.703	141.81
494.92	133.81
495.138	135.81
495.355	123.81
495.573	128.81
495.79	142.81
496.008	134.81
496.225	141.81
496.442	127.81
496.66	141.81
496.877	136.81
497.094	146.81
497.312	141.81
497.529	157.81
497.746	148.81
497.963	131.81
498.181	143.81
498.398	163.81
498.615	149.81
498.832	153.81
499.049	168.81
499.267	192.81
499.484	182.81
499.701	208.81
499.918	207.81
500.135	234.81
500.352	249.81
500.569	239.81
500.786	248.81
501.003	245.81
501.22	213.81
501.437	191.81
501.654	185.81
501.871	174.81
502.088	162.81
502.305	159.81
502.522	141.81
502.739	157.81
502.956	152.81
503.172	149.81
503.389	133.81
503.606	138.81
503.823	156.81
504.04	148.81
504.256	165.81
504.473	146.81
504.69	138.81
504.907	161.81
505.123	140.81
505.34	129.81
505.557	139.81
505.773	137.81
505.99	141.81
506.207	155.81
506.423	140.81
506.64	133.81
