Data from SampD_HRD10591_00035.txt Node
Date: Mon Jan 19 11:41:33 EST 2026
User: Yrep
Spectrometer: HR+D1059
Trigger mode: 0
Integration Time (sec): 3.443000E-1
Scans to average: 1
Electric dark correction enabled: true
Nonlinearity correction enabled: false
Boxcar width: 0
XAxis mode: Wavelengths
Number of Pixels in Spectrum: 2048
>>>>>Begin Spectral Data<<<<<
223.165	-20.69
223.4	-20.69
223.635	-20.69
223.869	-26.69
224.104	-27.69
224.338	-6.69
224.573	-23.69
224.808	1.31
225.042	-4.69
225.277	-14.69
225.511	-8.69
225.746	11.31
225.98	0.31
226.215	22.31
226.449	26.31
226.683	17.31
226.918	23.31
227.152	31.31
227.387	43.31
227.621	41.31
227.856	56.31
228.09	44.31
228.324	38.31
228.559	53.31
228.793	48.31
229.027	59.31
229.262	79.31
229.496	78.31
229.73	87.31
229.964	74.31
230.199	81.31
230.433	80.31
230.667	85.31
230.901	100.31
231.136	80.31
231.37	90.31
231.604	87.31
231.838	93.31
232.072	83.31
232.306	88.31
232.541	99.31
232.775	83.31
233.009	72.31
233.243	91.31
233.477	103.31
233.711	92.31
233.945	71.31
234.179	81.31
234.413	92.31
234.647	87.31
234.881	84.31
235.115	76.31
235.349	80.31
235.583	76.31
235.817	91.31
236.051	70.31
236.285	77.31
236.519	91.31
236.753	76.31
236.987	84.31
237.221	87.31
237.455	81.31
237.689	82.31
237.922	82.31
238.156	78.31
238.39	79.31
238.624	84.31
238.858	88.31
239.091	92.31
239.325	90.31
239.559	69.31
239.793	99.31
240.027	98.31
240.26	91.31
240.494	85.31
240.728	87.31
240.961	82.31
241.195	94.31
241.429	71.31
241.662	77.31
241.896	80.31
242.13	84.31
242.363	103.31
242.597	90.31
242.83	88.31
243.064	78.31
243.298	84.31
243.531	81.31
243.765	86.31
243.998	85.31
244.232	87.31
244.465	99.31
244.699	84.31
244.932	78.31
245.166	93.31
245.399	88.31
245.633	80.31
245.866	84.31
246.099	83.31
246.333	95.31
246.566	84.31
246.8	89.31
247.033	90.31
247.266	94.31
247.5	92.31
247.733	95.31
247.966	86.31
248.2	92.31
248.433	90.31
248.666	95.31
248.899	86.31
249.133	101.31
249.366	93.31
249.599	103.31
249.832	77.31
250.066	100.31
250.299	93.31
250.532	103.31
250.765	96.31
250.998	90.31
251.231	78.31
251.465	95.31
251.698	88.31
251.931	89.31
252.164	74.31
252.397	97.31
252.63	109.31
252.863	82.31
253.096	93.31
253.329	92.31
253.562	93.31
253.795	65.31
254.028	100.31
254.261	96.31
254.494	97.31
254.727	100.31
254.96	95.31
255.193	100.31
255.426	83.31
255.659	100.31
255.892	101.31
256.124	97.31
256.357	90.31
256.59	101.31
256.823	86.31
257.056	97.31
257.289	98.31
257.521	98.31
257.754	95.31
257.987	83.31
258.22	90.31
258.452	93.31
258.685	80.31
258.918	100.31
259.151	91.31
259.383	86.31
259.616	104.31
259.849	101.31
260.081	98.31
260.314	103.31
260.547	91.31
260.779	96.31
261.012	101.31
261.244	98.31
261.477	100.31
261.71	92.31
261.942	104.31
262.175	102.31
262.407	111.31
262.64	90.31
262.872	100.31
263.105	97.31
263.337	102.31
263.57	103.31
263.802	108.31
264.035	100.31
264.267	102.31
264.499	120.31
264.732	101.31
264.964	89.31
265.197	96.31
265.429	98.31
265.661	89.31
265.894	83.31
266.126	112.31
266.358	105.31
266.591	108.31
266.823	109.31
267.055	87.31
267.287	97.31
267.52	107.31
267.752	119.31
267.984	115.31
268.216	110.31
268.448	94.31
268.681	87.31
268.913	92.31
269.145	110.31
269.377	99.31
269.609	101.31
269.841	90.31
270.073	108.31
270.306	118.31
270.538	98.31
270.77	101.31
271.002	113.31
271.234	118.31
271.466	106.31
271.698	102.31
271.93	114.31
272.162	88.31
272.394	117.31
272.626	98.31
272.858	109.31
273.09	106.31
273.322	120.31
273.553	106.31
273.785	97.31
274.017	108.31
274.249	103.31
274.481	129.31
274.713	104.31
274.945	113.31
275.176	107.31
275.408	114.31
275.64	103.31
275.872	117.31
276.104	106.31
276.335	100.31
276.567	102.31
276.799	108.31
277.031	103.31
277.262	116.31
277.494	111.31
277.726	122.31
277.957	112.31
278.189	112.31
278.421	109.31
278.652	114.31
278.884	102.31
279.115	112.31
279.347	100.31
279.579	114.31
279.81	115.31
280.042	117.31
280.273	108.31
280.505	114.31
280.736	123.31
280.968	124.31
281.199	128.31
281.431	100.31
281.662	92.31
281.894	129.31
282.125	113.31
282.356	129.31
282.588	109.31
282.819	122.31
283.051	114.31
283.282	109.31
283.513	127.31
283.745	118.31
283.976	116.31
284.207	113.31
284.439	125.31
284.67	130.31
284.901	118.31
285.132	111.31
285.364	119.31
285.595	128.31
285.826	136.31
286.057	106.31
286.288	124.31
286.52	125.31
286.751	123.31
286.982	125.31
287.213	119.31
287.444	121.31
287.675	120.31
287.906	108.31
288.138	115.31
288.369	122.31
288.6	97.31
288.831	112.31
289.062	126.31
289.293	117.31
289.524	112.31
289.755	121.31
289.986	121.31
290.217	117.31
290.448	118.31
290.679	133.31
290.91	119.31
291.141	112.31
291.371	119.31
291.602	115.31
291.833	123.31
292.064	128.31
292.295	122.31
292.526	115.31
292.757	132.31
292.987	136.31
293.218	130.31
293.449	126.31
293.68	131.31
293.91	123.31
294.141	138.31
294.372	117.31
294.603	131.31
294.833	124.31
295.064	83.31
295.295	115.31
295.525	113.31
295.756	124.31
295.987	116.31
296.217	134.31
296.448	115.31
296.679	118.31
296.909	113.31
297.14	117.31
297.37	120.31
297.601	126.31
297.831	120.31
298.062	139.31
298.292	127.31
298.523	132.31
298.753	132.31
298.984	119.31
299.214	125.31
299.445	111.31
299.675	123.31
299.905	136.31
300.136	122.31
300.366	130.31
300.597	132.31
300.827	117.31
301.057	123.31
301.288	113.31
301.518	124.31
301.748	130.31
301.979	147.31
302.209	139.31
302.439	138.31
302.669	132.31
302.9	127.31
303.13	116.31
303.36	117.31
303.59	115.31
303.82	128.31
304.051	129.31
304.281	139.31
304.511	146.31
304.741	118.31
304.971	113.31
305.201	129.31
305.431	124.31
305.661	135.31
305.891	140.31
306.121	129.31
306.352	120.31
306.582	117.31
306.812	135.31
307.042	127.31
307.272	136.31
307.502	125.31
307.731	126.31
307.961	135.31
308.191	122.31
308.421	134.31
308.651	133.31
308.881	132.31
309.111	130.31
309.341	117.31
309.571	121.31
309.8	125.31
310.03	127.31
310.26	119.31
310.49	123.31
310.72	138.31
310.949	133.31
311.179	125.31
311.409	121.31
311.639	127.31
311.868	137.31
312.098	139.31
312.328	139.31
312.557	126.31
312.787	130.31
313.017	131.31
313.246	138.31
313.476	118.31
313.706	133.31
313.935	125.31
314.165	127.31
314.394	123.31
314.624	130.31
314.853	139.31
315.083	126.31
315.312	143.31
315.542	123.31
315.771	139.31
316.001	131.31
316.23	141.31
316.46	120.31
316.689	125.31
316.919	110.31
317.148	140.31
317.377	125.31
317.607	130.31
317.836	126.31
318.065	136.31
318.295	134.31
318.524	130.31
318.753	126.31
318.983	135.31
319.212	132.31
319.441	118.31
319.67	131.31
319.9	136.31
320.129	132.31
320.358	142.31
320.587	137.31
320.816	134.31
321.046	148.31
321.275	130.31
321.504	122.31
321.733	133.31
321.962	129.31
322.191	134.31
322.42	126.31
322.649	134.31
322.878	128.31
323.108	123.31
323.337	139.31
323.566	127.31
323.795	120.31
324.024	132.31
324.253	123.31
324.482	127.31
324.71	136.31
324.939	137.31
325.168	135.31
325.397	139.31
325.626	127.31
325.855	142.31
326.084	122.31
326.313	134.31
326.542	127.31
326.77	140.31
326.999	126.31
327.228	127.31
327.457	134.31
327.686	140.31
327.914	130.31
328.143	140.31
328.372	134.31
328.6	118.31
328.829	142.31
329.058	135.31
329.287	124.31
329.515	133.31
329.744	158.31
329.972	145.31
330.201	133.31
330.43	146.31
330.658	138.31
330.887	140.31
331.115	142.31
331.344	144.31
331.572	141.31
331.801	133.31
332.03	139.31
332.258	156.31
332.486	148.31
332.715	151.31
332.943	155.31
333.172	166.31
333.4	146.31
333.629	163.31
333.857	156.31
334.085	165.31
334.314	164.31
334.542	142.31
334.771	152.31
334.999	135.31
335.227	146.31
335.455	133.31
335.684	159.31
335.912	159.31
336.14	149.31
336.369	142.31
336.597	134.31
336.825	150.31
337.053	132.31
337.281	145.31
337.51	130.31
337.738	153.31
337.966	141.31
338.194	133.31
338.422	137.31
338.65	154.31
338.878	142.31
339.106	141.31
339.334	154.31
339.562	123.31
339.79	146.31
340.018	126.31
340.246	126.31
340.474	136.31
340.702	146.31
340.93	156.31
341.158	140.31
341.386	141.31
341.614	131.31
341.842	132.31
342.07	141.31
342.298	138.31
342.526	126.31
342.754	140.31
342.981	140.31
343.209	136.31
343.437	168.31
343.665	153.31
343.893	156.31
344.12	155.31
344.348	130.31
344.576	153.31
344.804	153.31
345.031	143.31
345.259	128.31
345.487	144.31
345.714	141.31
345.942	143.31
346.17	150.31
346.397	139.31
346.625	132.31
346.853	139.31
347.08	134.31
347.308	144.31
347.535	127.31
347.763	138.31
347.99	152.31
348.218	136.31
348.445	115.31
348.673	144.31
348.9	128.31
349.128	140.31
349.355	120.31
349.583	130.31
349.81	122.31
350.037	126.31
350.265	147.31
350.492	128.31
350.72	134.31
350.947	148.31
351.174	132.31
351.402	134.31
351.629	138.31
351.856	132.31
352.083	140.31
352.311	140.31
352.538	140.31
352.765	140.31
352.992	150.31
353.22	135.31
353.447	141.31
353.674	136.31
353.901	142.31
354.128	136.31
354.355	155.31
354.583	146.31
354.81	138.31
355.037	130.31
355.264	156.31
355.491	142.31
355.718	131.31
355.945	138.31
356.172	116.31
356.399	138.31
356.626	132.31
356.853	122.31
357.08	141.31
357.307	142.31
357.534	152.31
357.761	143.31
357.988	148.31
358.215	158.31
358.441	138.31
358.668	117.31
358.895	141.31
359.122	131.31
359.349	148.31
359.576	134.31
359.802	129.31
360.029	130.31
360.256	141.31
360.483	138.31
360.709	127.31
360.936	163.31
361.163	142.31
361.39	128.31
361.616	154.31
361.843	140.31
362.07	145.31
362.296	136.31
362.523	142.31
362.749	131.31
362.976	128.31
363.203	134.31
363.429	124.31
363.656	126.31
363.882	126.31
364.109	149.31
364.335	144.31
364.562	115.31
364.788	140.31
365.015	131.31
365.241	142.31
365.468	140.31
365.694	128.31
365.92	128.31
366.147	135.31
366.373	130.31
366.599	136.31
366.826	140.31
367.052	135.31
367.278	147.31
367.505	141.31
367.731	158.31
367.957	125.31
368.184	145.31
368.41	136.31
368.636	148.31
368.862	122.31
369.089	142.31
369.315	129.31
369.541	139.31
369.767	134.31
369.993	130.31
370.219	136.31
370.445	141.31
370.672	148.31
370.898	135.31
371.124	144.31
371.35	144.31
371.576	145.31
371.802	131.31
372.028	141.31
372.254	131.31
372.48	138.31
372.706	147.31
372.932	142.31
373.158	138.31
373.384	144.31
373.61	127.31
373.835	142.31
374.061	132.31
374.287	134.31
374.513	144.31
374.739	135.31
374.965	146.31
375.191	143.31
375.416	144.31
375.642	157.31
375.868	159.31
376.094	157.31
376.319	145.31
376.545	134.31
376.771	135.31
376.997	152.31
377.222	147.31
377.448	147.31
377.674	141.31
377.899	146.31
378.125	141.31
378.35	146.31
378.576	156.31
378.802	145.31
379.027	148.31
379.253	146.31
379.478	134.31
379.704	142.31
379.929	135.31
380.155	135.31
380.38	141.31
380.606	132.31
380.831	148.31
381.057	160.31
381.282	145.31
381.507	142.31
381.733	159.31
381.958	162.31
382.184	143.31
382.409	151.31
382.634	146.31
382.86	133.31
383.085	153.31
383.31	156.31
383.535	146.31
383.761	159.31
383.986	152.31
384.211	147.31
384.436	155.31
384.662	140.31
384.887	172.31
385.112	164.31
385.337	147.31
385.562	152.31
385.787	166.31
386.013	152.31
386.238	136.31
386.463	152.31
386.688	185.31
386.913	165.31
387.138	160.31
387.363	141.31
387.588	156.31
387.813	156.31
388.038	148.31
388.263	151.31
388.488	167.31
388.713	148.31
388.938	158.31
389.163	166.31
389.387	166.31
389.612	163.31
389.837	158.31
390.062	170.31
390.287	156.31
390.512	134.31
390.736	140.31
390.961	164.31
391.186	156.31
391.411	162.31
391.636	150.31
391.86	181.31
392.085	173.31
392.31	174.31
392.534	173.31
392.759	175.31
392.984	161.31
393.208	173.31
393.433	155.31
393.658	163.31
393.882	171.31
394.107	164.31
394.331	163.31
394.556	164.31
394.78	168.31
395.005	166.31
395.229	158.31
395.454	165.31
395.678	166.31
395.903	166.31
396.127	173.31
396.352	160.31
396.576	163.31
396.801	159.31
397.025	175.31
397.249	172.31
397.474	178.31
397.698	171.31
397.922	173.31
398.147	163.31
398.371	174.31
398.595	191.31
398.82	202.31
399.044	186.31
399.268	218.31
399.492	221.31
399.717	242.31
399.941	233.31
400.165	196.31
400.389	194.31
400.613	173.31
400.837	182.31
401.062	184.31
401.286	182.31
401.51	167.31
401.734	172.31
401.958	191.31
402.182	174.31
402.406	178.31
402.63	194.31
402.854	204.31
403.078	196.31
403.302	197.31
403.526	198.31
403.75	215.31
403.974	209.31
404.198	191.31
404.422	191.31
404.645	194.31
404.869	202.31
405.093	193.31
405.317	184.31
405.541	219.31
405.765	198.31
405.988	196.31
406.212	185.31
406.436	191.31
406.66	190.31
406.883	211.31
407.107	207.31
407.331	220.31
407.555	204.31
407.778	203.31
408.002	208.31
408.226	197.31
408.449	194.31
408.673	197.31
408.896	188.31
409.12	190.31
409.344	187.31
409.567	191.31
409.791	179.31
410.014	200.31
410.238	185.31
410.461	200.31
410.685	189.31
410.908	174.31
411.132	194.31
411.355	185.31
411.578	198.31
411.802	195.31
412.025	190.31
412.249	183.31
412.472	163.31
412.695	171.31
412.919	186.31
413.142	203.31
413.365	189.31
413.589	170.31
413.812	170.31
414.035	190.31
414.258	180.31
414.482	166.31
414.705	181.31
414.928	195.31
415.151	182.31
415.374	169.31
415.597	190.31
415.821	195.31
416.044	176.31
416.267	176.31
416.49	190.31
416.713	172.31
416.936	178.31
417.159	183.31
417.382	162.31
417.605	181.31
417.828	174.31
418.051	156.31
418.274	173.31
418.497	176.31
418.72	171.31
418.943	193.31
419.166	182.31
419.389	186.31
419.611	185.31
419.834	196.31
420.057	193.31
420.28	183.31
420.503	176.31
420.726	173.31
420.948	169.31
421.171	182.31
421.394	160.31
421.617	183.31
421.839	180.31
422.062	178.31
422.285	172.31
422.507	190.31
422.73	191.31
422.953	195.31
423.175	191.31
423.398	190.31
423.621	195.31
423.843	190.31
424.066	186.31
424.288	184.31
424.511	186.31
424.733	202.31
424.956	183.31
425.178	194.31
425.401	189.31
425.623	170.31
425.846	172.31
426.068	177.31
426.291	184.31
426.513	183.31
426.735	191.31
426.958	180.31
427.18	185.31
427.402	169.31
427.625	166.31
427.847	170.31
428.069	162.31
428.292	189.31
428.514	179.31
428.736	172.31
428.958	155.31
429.181	166.31
429.403	194.31
429.625	162.31
429.847	170.31
430.069	166.31
430.292	184.31
430.514	149.31
430.736	150.31
430.958	162.31
431.18	158.31
431.402	162.31
431.624	151.31
431.846	162.31
432.068	183.31
432.29	180.31
432.512	180.31
432.734	171.31
432.956	175.31
433.178	172.31
433.4	169.31
433.622	163.31
433.844	182.31
434.066	186.31
434.287	188.31
434.509	180.31
434.731	182.31
434.953	176.31
435.175	181.31
435.397	184.31
435.618	155.31
435.84	176.31
436.062	192.31
436.284	171.31
436.505	172.31
436.727	183.31
436.949	183.31
437.17	172.31
437.392	166.31
437.614	162.31
437.835	155.31
438.057	162.31
438.278	174.31
438.5	168.31
438.721	159.31
438.943	175.31
439.165	164.31
439.386	179.31
439.608	174.31
439.829	181.31
440.05	168.31
440.272	161.31
440.493	173.31
440.715	178.31
440.936	183.31
441.158	191.31
441.379	186.31
441.6	186.31
441.822	175.31
442.043	193.31
442.264	182.31
442.486	173.31
442.707	174.31
442.928	187.31
443.149	189.31
443.371	186.31
443.592	182.31
443.813	184.31
444.034	184.31
444.255	192.31
444.476	202.31
444.698	196.31
444.919	216.31
445.14	452.31
445.361	303.31
445.582	180.31
445.803	178.31
446.024	177.31
446.245	189.31
446.466	172.31
446.687	167.31
446.908	156.31
447.129	191.31
447.35	168.31
447.571	173.31
447.792	166.31
448.013	175.31
448.234	150.31
448.455	160.31
448.675	158.31
448.896	150.31
449.117	144.31
449.338	151.31
449.559	168.31
449.779	163.31
450	164.31
450.221	159.31
450.442	151.31
450.662	168.31
450.883	179.31
451.104	172.31
451.324	161.31
451.545	175.31
451.766	164.31
451.986	178.31
452.207	164.31
452.428	157.31
452.648	158.31
452.869	162.31
453.089	172.31
453.31	148.31
453.53	147.31
453.751	155.31
453.971	149.31
454.192	155.31
454.412	158.31
454.633	153.31
454.853	166.31
455.073	162.31
455.294	156.31
455.514	173.31
455.734	151.31
455.955	166.31
456.175	159.31
456.395	152.31
456.616	133.31
456.836	162.31
457.056	154.31
457.276	159.31
457.497	146.31
457.717	147.31
457.937	147.31
458.157	157.31
458.377	156.31
458.598	157.31
458.818	164.31
459.038	159.31
459.258	151.31
459.478	160.31
459.698	168.31
459.918	162.31
460.138	185.31
460.358	169.31
460.578	187.31
460.798	191.31
461.018	181.31
461.238	191.31
461.458	196.31
461.678	168.31
461.898	203.31
462.118	202.31
462.338	186.31
462.558	206.31
462.777	215.31
462.997	216.31
463.217	214.31
463.437	223.31
463.657	218.31
463.876	204.31
464.096	213.31
464.316	205.31
464.536	198.31
464.755	209.31
464.975	182.31
465.195	183.31
465.414	187.31
465.634	173.31
465.854	191.31
466.073	161.31
466.293	176.31
466.512	164.31
466.732	167.31
466.951	159.31
467.171	174.31
467.391	162.31
467.61	170.31
467.829	161.31
468.049	158.31
468.268	159.31
468.488	172.31
468.707	179.31
468.927	163.31
469.146	157.31
469.365	168.31
469.585	168.31
469.804	171.31
470.023	165.31
470.243	182.31
470.462	183.31
470.681	178.31
470.901	160.31
471.12	154.31
471.339	174.31
471.558	159.31
471.777	164.31
471.997	172.31
472.216	162.31
472.435	157.31
472.654	162.31
472.873	173.31
473.092	172.31
473.311	163.31
473.53	165.31
473.749	172.31
473.968	169.31
474.187	164.31
474.406	160.31
474.625	160.31
474.844	173.31
475.063	166.31
475.282	163.31
475.501	159.31
475.72	176.31
475.939	175.31
476.158	157.31
476.377	158.31
476.596	178.31
476.814	172.31
477.033	178.31
477.252	176.31
477.471	175.31
477.69	170.31
477.908	165.31
478.127	190.31
478.346	181.31
478.564	198.31
478.783	169.31
479.002	174.31
479.22	193.31
479.439	204.31
479.658	186.31
479.876	176.31
480.095	194.31
480.313	187.31
480.532	204.31
480.751	182.31
480.969	166.31
481.188	194.31
481.406	193.31
481.624	163.31
481.843	164.31
482.061	146.31
482.28	181.31
482.498	155.31
482.717	164.31
482.935	171.31
483.153	171.31
483.372	196.31
483.59	170.31
483.808	166.31
484.027	186.31
484.245	190.31
484.463	174.31
484.681	220.31
484.9	191.31
485.118	188.31
485.336	165.31
485.554	170.31
485.772	170.31
485.99	184.31
486.209	183.31
486.427	170.31
486.645	185.31
486.863	182.31
487.081	176.31
487.299	188.31
487.517	188.31
487.735	189.31
487.953	190.31
488.171	187.31
488.389	184.31
488.607	174.31
488.825	167.31
489.043	180.31
489.261	190.31
489.479	179.31
489.696	185.31
489.914	175.31
490.132	181.31
490.35	193.31
490.568	181.31
490.786	190.31
491.003	175.31
491.221	182.31
491.439	171.31
491.657	199.31
491.874	202.31
492.092	195.31
492.31	195.31
492.527	193.31
492.745	180.31
492.963	199.31
493.18	199.31
493.398	186.31
493.615	194.31
493.833	176.31
494.05	193.31
494.268	184.31
494.485	192.31
494.703	203.31
494.92	189.31
495.138	185.31
495.355	195.31
495.573	192.31
495.79	194.31
496.008	202.31
496.225	197.31
496.442	209.31
496.66	202.31
496.877	194.31
497.094	215.31
497.312	220.31
497.529	192.31
497.746	219.31
497.963	198.31
498.181	214.31
498.398	228.31
498.615	237.31
498.832	238.31
499.049	261.31
499.267	278.31
499.484	284.31
499.701	301.31
499.918	359.31
500.135	380.31
500.352	435.31
500.569	424.31
500.786	412.31
501.003	387.31
501.22	342.31
501.437	334.31
501.654	282.31
501.871	271.31
502.088	247.31
502.305	237.31
502.522	244.31
502.739	231.31
502.956	226.31
503.172	225.31
503.389	205.31
503.606	199.31
503.823	206.31
504.04	223.31
504.256	228.31
504.473	218.31
504.69	204.31
