Data from SampD_HRD10591_00063.txt Node
Date: Mon Jan 19 11:41:42 EST 2026
User: Yrep
Spectrometer: HR+D1059
Trigger mode: 0
Integration Time (sec): 3.443000E-1
Scans to average: 1
Electric dark correction enabled: true
Nonlinearity correction enabled: false
Boxcar width: 0
XAxis mode: Wavelengths
Number of Pixels in Spectrum: 2048
>>>>>Begin Spectral Data<<<<<
223.165	-24.75
223.4	-24.75
223.635	-24.75
223.869	-22.75
224.104	-30.75
224.338	-10.75
224.573	-21.75
224.808	-17.75
225.042	-2.75
225.277	4.25
225.511	-5.75
225.746	8.25
225.98	1.25
226.215	12.25
226.449	6.25
226.683	28.25
226.918	37.25
227.152	39.25
227.387	46.25
227.621	30.25
227.856	40.25
228.09	39.25
228.324	59.25
228.559	64.25
228.793	59.25
229.027	81.25
229.262	73.25
229.496	67.25
229.73	68.25
229.964	83.25
230.199	81.25
230.433	62.25
230.667	65.25
230.901	81.25
231.136	79.25
231.37	85.25
231.604	89.25
231.838	80.25
232.072	81.25
232.306	85.25
232.541	78.25
232.775	83.25
233.009	86.25
233.243	74.25
233.477	82.25
233.711	78.25
233.945	91.25
234.179	78.25
234.413	78.25
234.647	81.25
234.881	69.25
235.115	68.25
235.349	79.25
235.583	93.25
235.817	78.25
236.051	86.25
236.285	70.25
236.519	88.25
236.753	83.25
236.987	78.25
237.221	78.25
237.455	69.25
237.689	84.25
237.922	62.25
238.156	70.25
238.39	70.25
238.624	76.25
238.858	64.25
239.091	72.25
239.325	75.25
239.559	82.25
239.793	72.25
240.027	91.25
240.26	82.25
240.494	82.25
240.728	70.25
240.961	73.25
241.195	78.25
241.429	87.25
241.662	79.25
241.896	76.25
242.13	77.25
242.363	85.25
242.597	79.25
242.83	71.25
243.064	84.25
243.298	61.25
243.531	74.25
243.765	79.25
243.998	93.25
244.232	95.25
244.465	85.25
244.699	96.25
244.932	79.25
245.166	76.25
245.399	72.25
245.633	78.25
245.866	77.25
246.099	81.25
246.333	85.25
246.566	84.25
246.8	86.25
247.033	78.25
247.266	75.25
247.5	78.25
247.733	63.25
247.966	60.25
248.2	76.25
248.433	86.25
248.666	91.25
248.899	82.25
249.133	80.25
249.366	94.25
249.599	85.25
249.832	82.25
250.066	83.25
250.299	91.25
250.532	81.25
250.765	94.25
250.998	76.25
251.231	67.25
251.465	78.25
251.698	84.25
251.931	88.25
252.164	86.25
252.397	87.25
252.63	80.25
252.863	83.25
253.096	88.25
253.329	78.25
253.562	82.25
253.795	84.25
254.028	80.25
254.261	75.25
254.494	83.25
254.727	94.25
254.96	82.25
255.193	83.25
255.426	78.25
255.659	84.25
255.892	99.25
256.124	80.25
256.357	86.25
256.59	100.25
256.823	79.25
257.056	84.25
257.289	91.25
257.521	87.25
257.754	77.25
257.987	81.25
258.22	92.25
258.452	94.25
258.685	92.25
258.918	92.25
259.151	78.25
259.383	90.25
259.616	74.25
259.849	80.25
260.081	91.25
260.314	90.25
260.547	82.25
260.779	91.25
261.012	78.25
261.244	88.25
261.477	96.25
261.71	101.25
261.942	83.25
262.175	86.25
262.407	87.25
262.64	82.25
262.872	88.25
263.105	77.25
263.337	91.25
263.57	90.25
263.802	77.25
264.035	75.25
264.267	92.25
264.499	82.25
264.732	93.25
264.964	90.25
265.197	68.25
265.429	92.25
265.661	78.25
265.894	90.25
266.126	111.25
266.358	102.25
266.591	80.25
266.823	85.25
267.055	90.25
267.287	104.25
267.52	94.25
267.752	113.25
267.984	100.25
268.216	92.25
268.448	88.25
268.681	92.25
268.913	86.25
269.145	94.25
269.377	85.25
269.609	78.25
269.841	86.25
270.073	83.25
270.306	92.25
270.538	89.25
270.77	80.25
271.002	100.25
271.234	96.25
271.466	100.25
271.698	104.25
271.93	93.25
272.162	85.25
272.394	97.25
272.626	84.25
272.858	107.25
273.09	80.25
273.322	95.25
273.553	86.25
273.785	90.25
274.017	79.25
274.249	101.25
274.481	91.25
274.713	100.25
274.945	94.25
275.176	78.25
275.408	82.25
275.64	86.25
275.872	100.25
276.104	92.25
276.335	94.25
276.567	96.25
276.799	100.25
277.031	92.25
277.262	89.25
277.494	88.25
277.726	100.25
277.957	82.25
278.189	84.25
278.421	96.25
278.652	98.25
278.884	103.25
279.115	93.25
279.347	98.25
279.579	102.25
279.81	88.25
280.042	96.25
280.273	100.25
280.505	89.25
280.736	99.25
280.968	85.25
281.199	107.25
281.431	86.25
281.662	96.25
281.894	99.25
282.125	98.25
282.356	90.25
282.588	101.25
282.819	98.25
283.051	89.25
283.282	106.25
283.513	104.25
283.745	92.25
283.976	101.25
284.207	110.25
284.439	99.25
284.67	106.25
284.901	88.25
285.132	85.25
285.364	81.25
285.595	98.25
285.826	94.25
286.057	96.25
286.288	94.25
286.52	102.25
286.751	93.25
286.982	110.25
287.213	100.25
287.444	110.25
287.675	95.25
287.906	90.25
288.138	105.25
288.369	94.25
288.6	101.25
288.831	91.25
289.062	117.25
289.293	101.25
289.524	96.25
289.755	97.25
289.986	94.25
290.217	92.25
290.448	93.25
290.679	106.25
290.91	102.25
291.141	92.25
291.371	75.25
291.602	110.25
291.833	104.25
292.064	104.25
292.295	105.25
292.526	106.25
292.757	91.25
292.987	94.25
293.218	99.25
293.449	98.25
293.68	109.25
293.91	85.25
294.141	110.25
294.372	97.25
294.603	92.25
294.833	89.25
295.064	99.25
295.295	94.25
295.525	99.25
295.756	93.25
295.987	104.25
296.217	97.25
296.448	100.25
296.679	85.25
296.909	95.25
297.14	107.25
297.37	102.25
297.601	99.25
297.831	91.25
298.062	92.25
298.292	98.25
298.523	98.25
298.753	95.25
298.984	99.25
299.214	101.25
299.445	94.25
299.675	108.25
299.905	106.25
300.136	88.25
300.366	103.25
300.597	98.25
300.827	101.25
301.057	96.25
301.288	110.25
301.518	102.25
301.748	101.25
301.979	137.25
302.209	123.25
302.439	93.25
302.669	88.25
302.9	103.25
303.13	105.25
303.36	112.25
303.59	119.25
303.82	104.25
304.051	111.25
304.281	102.25
304.511	99.25
304.741	97.25
304.971	95.25
305.201	90.25
305.431	100.25
305.661	97.25
305.891	82.25
306.121	98.25
306.352	97.25
306.582	98.25
306.812	101.25
307.042	92.25
307.272	109.25
307.502	100.25
307.731	101.25
307.961	103.25
308.191	108.25
308.421	88.25
308.651	99.25
308.881	101.25
309.111	90.25
309.341	92.25
309.571	108.25
309.8	92.25
310.03	90.25
310.26	102.25
310.49	99.25
310.72	92.25
310.949	91.25
311.179	92.25
311.409	94.25
311.639	93.25
311.868	112.25
312.098	106.25
312.328	104.25
312.557	98.25
312.787	105.25
313.017	107.25
313.246	109.25
313.476	102.25
313.706	98.25
313.935	102.25
314.165	109.25
314.394	111.25
314.624	102.25
314.853	107.25
315.083	102.25
315.312	101.25
315.542	99.25
315.771	105.25
316.001	84.25
316.23	98.25
316.46	110.25
316.689	99.25
316.919	95.25
317.148	113.25
317.377	114.25
317.607	91.25
317.836	110.25
318.065	96.25
318.295	88.25
318.524	94.25
318.753	100.25
318.983	98.25
319.212	100.25
319.441	97.25
319.67	94.25
319.9	85.25
320.129	120.25
320.358	108.25
320.587	111.25
320.816	100.25
321.046	98.25
321.275	119.25
321.504	94.25
321.733	120.25
321.962	99.25
322.191	109.25
322.42	99.25
322.649	100.25
322.878	104.25
323.108	107.25
323.337	108.25
323.566	115.25
323.795	101.25
324.024	107.25
324.253	107.25
324.482	112.25
324.71	106.25
324.939	102.25
325.168	97.25
325.397	91.25
325.626	106.25
325.855	111.25
326.084	106.25
326.313	108.25
326.542	106.25
326.77	102.25
326.999	90.25
327.228	96.25
327.457	105.25
327.686	100.25
327.914	102.25
328.143	109.25
328.372	101.25
328.6	103.25
328.829	93.25
329.058	96.25
329.287	102.25
329.515	103.25
329.744	113.25
329.972	106.25
330.201	110.25
330.43	116.25
330.658	117.25
330.887	108.25
331.115	117.25
331.344	119.25
331.572	106.25
331.801	120.25
332.03	106.25
332.258	113.25
332.486	131.25
332.715	121.25
332.943	104.25
333.172	123.25
333.4	98.25
333.629	121.25
333.857	120.25
334.085	129.25
334.314	107.25
334.542	114.25
334.771	117.25
334.999	101.25
335.227	123.25
335.455	106.25
335.684	120.25
335.912	109.25
336.14	109.25
336.369	98.25
336.597	111.25
336.825	106.25
337.053	109.25
337.281	114.25
337.51	102.25
337.738	117.25
337.966	111.25
338.194	104.25
338.422	108.25
338.65	103.25
338.878	115.25
339.106	112.25
339.334	136.25
339.562	109.25
339.79	104.25
340.018	92.25
340.246	102.25
340.474	104.25
340.702	100.25
340.93	99.25
341.158	108.25
341.386	102.25
341.614	106.25
341.842	110.25
342.07	97.25
342.298	121.25
342.526	103.25
342.754	102.25
342.981	120.25
343.209	107.25
343.437	136.25
343.665	107.25
343.893	100.25
344.12	123.25
344.348	114.25
344.576	97.25
344.804	89.25
345.031	102.25
345.259	103.25
345.487	109.25
345.714	110.25
345.942	90.25
346.17	102.25
346.397	106.25
346.625	102.25
346.853	109.25
347.08	116.25
347.308	109.25
347.535	100.25
347.763	122.25
347.99	123.25
348.218	120.25
348.445	88.25
348.673	94.25
348.9	111.25
349.128	109.25
349.355	117.25
349.583	96.25
349.81	114.25
350.037	111.25
350.265	113.25
350.492	97.25
350.72	101.25
350.947	110.25
351.174	115.25
351.402	98.25
351.629	98.25
351.856	110.25
352.083	110.25
352.311	95.25
352.538	96.25
352.765	105.25
352.992	125.25
353.22	103.25
353.447	96.25
353.674	113.25
353.901	118.25
354.128	108.25
354.355	103.25
354.583	109.25
354.81	117.25
355.037	108.25
355.264	105.25
355.491	97.25
355.718	132.25
355.945	112.25
356.172	111.25
356.399	109.25
356.626	86.25
356.853	94.25
357.08	96.25
357.307	109.25
357.534	94.25
357.761	106.25
357.988	116.25
358.215	120.25
358.441	94.25
358.668	108.25
358.895	112.25
359.122	112.25
359.349	96.25
359.576	100.25
359.802	82.25
360.029	112.25
360.256	101.25
360.483	100.25
360.709	111.25
360.936	121.25
361.163	108.25
361.39	96.25
361.616	96.25
361.843	102.25
362.07	101.25
362.296	119.25
362.523	112.25
362.749	88.25
362.976	103.25
363.203	132.25
363.429	100.25
363.656	91.25
363.882	95.25
364.109	102.25
364.335	110.25
364.562	108.25
364.788	99.25
365.015	102.25
365.241	100.25
365.468	117.25
365.694	113.25
365.92	122.25
366.147	99.25
366.373	98.25
366.599	96.25
366.826	88.25
367.052	94.25
367.278	106.25
367.505	116.25
367.731	131.25
367.957	114.25
368.184	107.25
368.41	118.25
368.636	101.25
368.862	102.25
369.089	112.25
369.315	88.25
369.541	98.25
369.767	109.25
369.993	105.25
370.219	93.25
370.445	115.25
370.672	107.25
370.898	107.25
371.124	105.25
371.35	97.25
371.576	98.25
371.802	109.25
372.028	100.25
372.254	99.25
372.48	108.25
372.706	106.25
372.932	113.25
373.158	111.25
373.384	114.25
373.61	101.25
373.835	96.25
374.061	94.25
374.287	107.25
374.513	92.25
374.739	100.25
374.965	89.25
375.191	114.25
375.416	107.25
375.642	119.25
375.868	115.25
376.094	102.25
376.319	116.25
376.545	114.25
376.771	114.25
376.997	113.25
377.222	97.25
377.448	116.25
377.674	122.25
377.899	98.25
378.125	102.25
378.35	101.25
378.576	90.25
378.802	96.25
379.027	99.25
379.253	115.25
379.478	97.25
379.704	111.25
379.929	118.25
380.155	113.25
380.38	102.25
380.606	100.25
380.831	107.25
381.057	116.25
381.282	113.25
381.507	106.25
381.733	106.25
381.958	107.25
382.184	106.25
382.409	104.25
382.634	114.25
382.86	97.25
383.085	102.25
383.31	104.25
383.535	104.25
383.761	121.25
383.986	121.25
384.211	117.25
384.436	124.25
384.662	120.25
384.887	117.25
385.112	115.25
385.337	105.25
385.562	106.25
385.787	114.25
386.013	117.25
386.238	125.25
386.463	116.25
386.688	135.25
386.913	108.25
387.138	114.25
387.363	131.25
387.588	112.25
387.813	116.25
388.038	129.25
388.263	115.25
388.488	109.25
388.713	108.25
388.938	108.25
389.163	115.25
389.387	106.25
389.612	121.25
389.837	122.25
390.062	121.25
390.287	112.25
390.512	115.25
390.736	109.25
390.961	120.25
391.186	113.25
391.411	123.25
391.636	112.25
391.86	113.25
392.085	116.25
392.31	126.25
392.534	124.25
392.759	117.25
392.984	99.25
393.208	124.25
393.433	125.25
393.658	112.25
393.882	121.25
394.107	104.25
394.331	125.25
394.556	129.25
394.78	121.25
395.005	102.25
395.229	107.25
395.454	122.25
395.678	122.25
395.903	131.25
396.127	121.25
396.352	122.25
396.576	117.25
396.801	109.25
397.025	115.25
397.249	123.25
397.474	126.25
397.698	124.25
397.922	126.25
398.147	114.25
398.371	124.25
398.595	122.25
398.82	119.25
399.044	138.25
399.268	147.25
399.492	142.25
399.717	150.25
399.941	148.25
400.165	141.25
400.389	129.25
400.613	114.25
400.837	121.25
401.062	134.25
401.286	116.25
401.51	118.25
401.734	132.25
401.958	117.25
402.182	132.25
402.406	113.25
402.63	133.25
402.854	126.25
403.078	126.25
403.302	137.25
403.526	134.25
403.75	136.25
403.974	140.25
404.198	144.25
404.422	142.25
404.645	113.25
404.869	124.25
405.093	133.25
405.317	131.25
405.541	136.25
405.765	133.25
405.988	123.25
406.212	120.25
406.436	128.25
406.66	138.25
406.883	121.25
407.107	127.25
407.331	130.25
407.555	132.25
407.778	147.25
408.002	131.25
408.226	120.25
408.449	135.25
408.673	136.25
408.896	128.25
409.12	125.25
409.344	128.25
409.567	138.25
409.791	125.25
410.014	142.25
410.238	132.25
410.461	129.25
410.685	131.25
410.908	124.25
411.132	145.25
411.355	128.25
411.578	117.25
411.802	131.25
412.025	131.25
412.249	139.25
412.472	112.25
412.695	138.25
412.919	107.25
413.142	130.25
413.365	141.25
413.589	123.25
413.812	116.25
414.035	144.25
414.258	128.25
414.482	104.25
414.705	122.25
414.928	133.25
415.151	130.25
415.374	134.25
415.597	125.25
415.821	133.25
416.044	137.25
416.267	133.25
416.49	131.25
416.713	129.25
416.936	124.25
417.159	126.25
417.382	124.25
417.605	129.25
417.828	136.25
418.051	107.25
418.274	128.25
418.497	123.25
418.72	128.25
418.943	122.25
419.166	144.25
419.389	128.25
419.611	138.25
419.834	126.25
420.057	136.25
420.28	140.25
420.503	141.25
420.726	151.25
420.948	125.25
421.171	113.25
421.394	127.25
421.617	120.25
421.839	116.25
422.062	144.25
422.285	116.25
422.507	120.25
422.73	128.25
422.953	125.25
423.175	125.25
423.398	122.25
423.621	141.25
423.843	138.25
424.066	122.25
424.288	124.25
424.511	116.25
424.733	124.25
424.956	124.25
425.178	140.25
425.401	124.25
425.623	125.25
425.846	142.25
426.068	107.25
426.291	121.25
426.513	114.25
426.735	124.25
426.958	133.25
427.18	108.25
427.402	133.25
427.625	112.25
427.847	121.25
428.069	117.25
428.292	135.25
428.514	136.25
428.736	133.25
428.958	121.25
429.181	119.25
429.403	114.25
429.625	121.25
429.847	125.25
430.069	115.25
430.292	121.25
430.514	118.25
430.736	115.25
430.958	103.25
431.18	111.25
431.402	120.25
431.624	110.25
431.846	105.25
432.068	111.25
432.29	121.25
432.512	133.25
432.734	120.25
432.956	129.25
433.178	134.25
433.4	119.25
433.622	134.25
433.844	126.25
434.066	103.25
434.287	115.25
434.509	129.25
434.731	123.25
434.953	140.25
435.175	125.25
435.397	128.25
435.618	127.25
435.84	121.25
436.062	121.25
436.284	119.25
436.505	136.25
436.727	120.25
436.949	106.25
437.17	103.25
437.392	110.25
437.614	109.25
437.835	113.25
438.057	107.25
438.278	106.25
438.5	97.25
438.721	110.25
438.943	113.25
439.165	128.25
439.386	124.25
439.608	115.25
439.829	121.25
440.05	126.25
440.272	116.25
440.493	114.25
440.715	131.25
440.936	129.25
441.158	129.25
441.379	116.25
441.6	122.25
441.822	113.25
442.043	132.25
442.264	120.25
442.486	128.25
442.707	125.25
442.928	123.25
443.149	114.25
443.371	131.25
443.592	125.25
443.813	114.25
444.034	124.25
444.255	140.25
444.476	142.25
444.698	146.25
444.919	127.25
445.14	327.25
445.361	211.25
445.582	139.25
445.803	122.25
446.024	116.25
446.245	133.25
446.466	131.25
446.687	127.25
446.908	129.25
447.129	114.25
447.35	123.25
447.571	134.25
447.792	122.25
448.013	110.25
448.234	122.25
448.455	115.25
448.675	113.25
448.896	129.25
449.117	115.25
449.338	101.25
449.559	125.25
449.779	109.25
450	101.25
450.221	120.25
450.442	121.25
450.662	123.25
450.883	122.25
451.104	113.25
451.324	109.25
451.545	129.25
451.766	121.25
451.986	118.25
452.207	115.25
452.428	102.25
452.648	129.25
452.869	122.25
453.089	121.25
453.31	102.25
453.53	118.25
453.751	106.25
453.971	121.25
454.192	106.25
454.412	121.25
454.633	115.25
454.853	109.25
455.073	98.25
455.294	119.25
455.514	124.25
455.734	116.25
455.955	125.25
456.175	114.25
456.395	99.25
456.616	102.25
456.836	108.25
457.056	114.25
457.276	109.25
457.497	122.25
457.717	113.25
457.937	113.25
458.157	113.25
458.377	123.25
458.598	115.25
458.818	111.25
459.038	121.25
459.258	109.25
459.478	108.25
459.698	122.25
459.918	119.25
460.138	116.25
460.358	132.25
460.578	141.25
460.798	148.25
461.018	124.25
461.238	139.25
461.458	129.25
461.678	129.25
461.898	122.25
462.118	116.25
462.338	135.25
462.558	154.25
462.777	141.25
462.997	144.25
463.217	162.25
463.437	158.25
463.657	153.25
463.876	130.25
464.096	141.25
464.316	151.25
464.536	137.25
464.755	140.25
464.975	133.25
465.195	132.25
465.414	104.25
465.634	131.25
465.854	118.25
466.073	126.25
466.293	138.25
466.512	128.25
466.732	120.25
466.951	124.25
467.171	115.25
467.391	109.25
467.61	116.25
467.829	122.25
468.049	113.25
468.268	120.25
468.488	127.25
468.707	121.25
468.927	119.25
469.146	129.25
469.365	107.25
469.585	120.25
469.804	121.25
470.023	121.25
470.243	118.25
470.462	123.25
470.681	118.25
470.901	119.25
471.12	124.25
471.339	131.25
471.558	105.25
471.777	115.25
471.997	118.25
472.216	144.25
472.435	126.25
472.654	107.25
472.873	113.25
473.092	112.25
473.311	99.25
473.53	128.25
473.749	116.25
473.968	138.25
474.187	122.25
474.406	113.25
474.625	117.25
474.844	115.25
475.063	115.25
475.282	125.25
475.501	108.25
475.72	132.25
475.939	115.25
476.158	114.25
476.377	115.25
476.596	109.25
476.814	133.25
477.033	121.25
477.252	111.25
477.471	110.25
477.69	129.25
477.908	121.25
478.127	124.25
478.346	137.25
478.564	120.25
478.783	116.25
479.002	126.25
479.22	122.25
479.439	137.25
479.658	119.25
479.876	136.25
480.095	120.25
480.313	133.25
480.532	146.25
480.751	142.25
480.969	136.25
481.188	120.25
481.406	140.25
481.624	117.25
481.843	120.25
482.061	125.25
482.28	124.25
482.498	117.25
482.717	135.25
482.935	124.25
483.153	125.25
483.372	138.25
483.59	112.25
483.808	115.25
484.027	135.25
484.245	130.25
484.463	130.25
484.681	135.25
484.9	128.25
485.118	137.25
485.336	124.25
485.554	138.25
485.772	119.25
485.99	133.25
486.209	135.25
486.427	116.25
486.645	148.25
486.863	126.25
487.081	125.25
487.299	129.25
487.517	146.25
487.735	156.25
487.953	139.25
488.171	134.25
488.389	133.25
488.607	131.25
488.825	117.25
489.043	121.25
489.261	126.25
489.479	134.25
489.696	126.25
489.914	114.25
490.132	120.25
490.35	132.25
490.568	114.25
490.786	114.25
491.003	133.25
491.221	122.25
491.439	137.25
491.657	126.25
491.874	120.25
492.092	127.25
492.31	150.25
492.527	127.25
492.745	134.25
492.963	123.25
493.18	129.25
493.398	126.25
493.615	122.25
493.833	136.25
494.05	135.25
494.268	135.25
494.485	145.25
494.703	149.25
494.92	131.25
495.138	130.25
495.355	123.25
495.573	127.25
495.79	131.25
496.008	145.25
496.225	140.25
496.442	124.25
496.66	134.25
496.877	127.25
497.094	141.25
497.312	130.25
497.529	137.25
497.746	136.25
497.963	142.25
498.181	134.25
498.398	165.25
498.615	155.25
498.832	152.25
499.049	170.25
499.267	184.25
499.484	164.25
499.701	189.25
499.918	223.25
500.135	237.25
500.352	253.25
500.569	254.25
500.786	252.25
501.003	215.25
501.22	214.25
501.437	209.25
501.654	181.25
501.871	162.25
502.088	144.25
502.305	164.25
502.522	150.25
502.739	146.25
502.956	141.25
503.172	139.25
503.389	136.25
503.606	137.25
503.823	145.25
504.04	143.25
504.256	144.25
504.473	134.25
504.69	146.25
504.907	155.25
505.123	124.25
505.34	143.25
505.557	126.25
505.773	130.25
505.99	122.25
506.207	128.25
506.423	123.25
506.64	129.25
506.856	128.25
507.073	131.25
507.289	126.25
507.506	123.25
507.722	124.25
