Data from SampD_HRD10591_00081.txt Node
Date: Mon Jan 19 11:41:48 EST 2026
User: Yrep
Spectrometer: HR+D1059
Trigger mode: 0
Integration Time (sec): 3.443000E-1
Scans to average: 1
Electric dark correction enabled: true
Nonlinearity correction enabled: false
Boxcar width: 0
XAxis mode: Wavelengths
Number of Pixels in Spectrum: 2048
>>>>>Begin Spectral Data<<<<<
223.165	-15.31
223.4	-15.31
223.635	-15.31
223.869	-18.31
224.104	-11.31
224.338	-16.31
224.573	-10.31
224.808	-32.31
225.042	-2.31
225.277	-12.31
225.511	3.69
225.746	14.69
225.98	16.69
226.215	19.69
226.449	13.69
226.683	15.69
226.918	12.69
227.152	21.69
227.387	32.69
227.621	38.69
227.856	61.69
228.09	54.69
228.324	50.69
228.559	74.69
228.793	62.69
229.027	74.69
229.262	77.69
229.496	61.69
229.73	82.69
229.964	90.69
230.199	86.69
230.433	89.69
230.667	91.69
230.901	89.69
231.136	83.69
231.37	74.69
231.604	65.69
231.838	84.69
232.072	96.69
232.306	87.69
232.541	72.69
232.775	78.69
233.009	79.69
233.243	79.69
233.477	80.69
233.711	82.69
233.945	99.69
234.179	84.69
234.413	89.69
234.647	79.69
234.881	73.69
235.115	78.69
235.349	93.69
235.583	95.69
235.817	82.69
236.051	95.69
236.285	80.69
236.519	81.69
236.753	85.69
236.987	74.69
237.221	86.69
237.455	82.69
237.689	80.69
237.922	83.69
238.156	80.69
238.39	72.69
238.624	75.69
238.858	93.69
239.091	90.69
239.325	84.69
239.559	86.69
239.793	87.69
240.027	95.69
240.26	89.69
240.494	79.69
240.728	72.69
240.961	67.69
241.195	77.69
241.429	91.69
241.662	72.69
241.896	79.69
242.13	72.69
242.363	84.69
242.597	69.69
242.83	97.69
243.064	87.69
243.298	85.69
243.531	86.69
243.765	89.69
243.998	84.69
244.232	96.69
244.465	89.69
244.699	86.69
244.932	80.69
245.166	79.69
245.399	84.69
245.633	70.69
245.866	85.69
246.099	86.69
246.333	88.69
246.566	94.69
246.8	78.69
247.033	78.69
247.266	90.69
247.5	75.69
247.733	87.69
247.966	86.69
248.2	83.69
248.433	80.69
248.666	90.69
248.899	77.69
249.133	80.69
249.366	107.69
249.599	92.69
249.832	86.69
250.066	88.69
250.299	91.69
250.532	80.69
250.765	77.69
250.998	88.69
251.231	82.69
251.465	98.69
251.698	84.69
251.931	100.69
252.164	89.69
252.397	100.69
252.63	86.69
252.863	87.69
253.096	81.69
253.329	101.69
253.562	89.69
253.795	91.69
254.028	97.69
254.261	83.69
254.494	85.69
254.727	89.69
254.96	94.69
255.193	93.69
255.426	98.69
255.659	90.69
255.892	106.69
256.124	91.69
256.357	82.69
256.59	81.69
256.823	80.69
257.056	83.69
257.289	94.69
257.521	82.69
257.754	76.69
257.987	81.69
258.22	96.69
258.452	99.69
258.685	93.69
258.918	99.69
259.151	79.69
259.383	98.69
259.616	80.69
259.849	89.69
260.081	87.69
260.314	89.69
260.547	100.69
260.779	95.69
261.012	100.69
261.244	78.69
261.477	98.69
261.71	95.69
261.942	98.69
262.175	85.69
262.407	100.69
262.64	104.69
262.872	88.69
263.105	87.69
263.337	97.69
263.57	91.69
263.802	89.69
264.035	82.69
264.267	93.69
264.499	103.69
264.732	105.69
264.964	98.69
265.197	110.69
265.429	94.69
265.661	89.69
265.894	107.69
266.126	92.69
266.358	103.69
266.591	93.69
266.823	91.69
267.055	93.69
267.287	99.69
267.52	86.69
267.752	94.69
267.984	86.69
268.216	94.69
268.448	99.69
268.681	107.69
268.913	97.69
269.145	107.69
269.377	103.69
269.609	96.69
269.841	87.69
270.073	114.69
270.306	90.69
270.538	90.69
270.77	94.69
271.002	94.69
271.234	109.69
271.466	94.69
271.698	93.69
271.93	91.69
272.162	96.69
272.394	111.69
272.626	95.69
272.858	94.69
273.09	95.69
273.322	96.69
273.553	104.69
273.785	113.69
274.017	109.69
274.249	90.69
274.481	93.69
274.713	76.69
274.945	94.69
275.176	110.69
275.408	103.69
275.64	91.69
275.872	86.69
276.104	89.69
276.335	94.69
276.567	99.69
276.799	88.69
277.031	99.69
277.262	113.69
277.494	97.69
277.726	91.69
277.957	106.69
278.189	89.69
278.421	95.69
278.652	96.69
278.884	106.69
279.115	105.69
279.347	103.69
279.579	99.69
279.81	101.69
280.042	103.69
280.273	116.69
280.505	81.69
280.736	105.69
280.968	85.69
281.199	108.69
281.431	99.69
281.662	97.69
281.894	106.69
282.125	106.69
282.356	85.69
282.588	97.69
282.819	98.69
283.051	103.69
283.282	96.69
283.513	115.69
283.745	102.69
283.976	106.69
284.207	116.69
284.439	103.69
284.67	115.69
284.901	108.69
285.132	104.69
285.364	107.69
285.595	115.69
285.826	92.69
286.057	111.69
286.288	112.69
286.52	95.69
286.751	97.69
286.982	111.69
287.213	88.69
287.444	99.69
287.675	105.69
287.906	103.69
288.138	108.69
288.369	111.69
288.6	101.69
288.831	97.69
289.062	89.69
289.293	103.69
289.524	98.69
289.755	99.69
289.986	120.69
290.217	99.69
290.448	105.69
290.679	96.69
290.91	104.69
291.141	101.69
291.371	111.69
291.602	106.69
291.833	110.69
292.064	101.69
292.295	98.69
292.526	101.69
292.757	100.69
292.987	97.69
293.218	103.69
293.449	105.69
293.68	110.69
293.91	103.69
294.141	113.69
294.372	102.69
294.603	100.69
294.833	115.69
295.064	101.69
295.295	111.69
295.525	102.69
295.756	111.69
295.987	107.69
296.217	90.69
296.448	96.69
296.679	106.69
296.909	104.69
297.14	105.69
297.37	108.69
297.601	103.69
297.831	111.69
298.062	101.69
298.292	106.69
298.523	116.69
298.753	113.69
298.984	103.69
299.214	122.69
299.445	102.69
299.675	103.69
299.905	101.69
300.136	112.69
300.366	114.69
300.597	115.69
300.827	104.69
301.057	99.69
301.288	104.69
301.518	107.69
301.748	106.69
301.979	129.69
302.209	99.69
302.439	87.69
302.669	104.69
302.9	114.69
303.13	101.69
303.36	110.69
303.59	104.69
303.82	106.69
304.051	106.69
304.281	110.69
304.511	116.69
304.741	109.69
304.971	105.69
305.201	112.69
305.431	109.69
305.661	100.69
305.891	106.69
306.121	115.69
306.352	114.69
306.582	107.69
306.812	103.69
307.042	90.69
307.272	90.69
307.502	103.69
307.731	101.69
307.961	104.69
308.191	115.69
308.421	108.69
308.651	100.69
308.881	114.69
309.111	99.69
309.341	109.69
309.571	107.69
309.8	104.69
310.03	107.69
310.26	95.69
310.49	96.69
310.72	106.69
310.949	94.69
311.179	102.69
311.409	107.69
311.639	108.69
311.868	105.69
312.098	107.69
312.328	120.69
312.557	100.69
312.787	119.69
313.017	124.69
313.246	126.69
313.476	105.69
313.706	114.69
313.935	104.69
314.165	115.69
314.394	117.69
314.624	102.69
314.853	115.69
315.083	125.69
315.312	122.69
315.542	98.69
315.771	101.69
316.001	110.69
316.23	111.69
316.46	113.69
316.689	116.69
316.919	104.69
317.148	114.69
317.377	109.69
317.607	106.69
317.836	103.69
318.065	102.69
318.295	112.69
318.524	102.69
318.753	105.69
318.983	121.69
319.212	101.69
319.441	112.69
319.67	120.69
319.9	118.69
320.129	117.69
320.358	90.69
320.587	104.69
320.816	113.69
321.046	97.69
321.275	97.69
321.504	106.69
321.733	103.69
321.962	110.69
322.191	104.69
322.42	98.69
322.649	109.69
322.878	112.69
323.108	107.69
323.337	117.69
323.566	119.69
323.795	120.69
324.024	108.69
324.253	100.69
324.482	110.69
324.71	96.69
324.939	106.69
325.168	101.69
325.397	121.69
325.626	117.69
325.855	99.69
326.084	120.69
326.313	118.69
326.542	101.69
326.77	114.69
326.999	110.69
327.228	115.69
327.457	113.69
327.686	112.69
327.914	126.69
328.143	120.69
328.372	118.69
328.6	112.69
328.829	124.69
329.058	109.69
329.287	113.69
329.515	109.69
329.744	98.69
329.972	107.69
330.201	114.69
330.43	104.69
330.658	112.69
330.887	116.69
331.115	117.69
331.344	114.69
331.572	110.69
331.801	106.69
332.03	102.69
332.258	120.69
332.486	102.69
332.715	116.69
332.943	114.69
333.172	128.69
333.4	118.69
333.629	109.69
333.857	110.69
334.085	137.69
334.314	122.69
334.542	123.69
334.771	110.69
334.999	119.69
335.227	117.69
335.455	120.69
335.684	105.69
335.912	100.69
336.14	110.69
336.369	111.69
336.597	118.69
336.825	105.69
337.053	110.69
337.281	104.69
337.51	105.69
337.738	126.69
337.966	101.69
338.194	113.69
338.422	103.69
338.65	129.69
338.878	117.69
339.106	107.69
339.334	117.69
339.562	117.69
339.79	118.69
340.018	89.69
340.246	102.69
340.474	106.69
340.702	103.69
340.93	92.69
341.158	112.69
341.386	105.69
341.614	117.69
341.842	133.69
342.07	105.69
342.298	117.69
342.526	124.69
342.754	115.69
342.981	115.69
343.209	108.69
343.437	135.69
343.665	123.69
343.893	122.69
344.12	114.69
344.348	118.69
344.576	112.69
344.804	108.69
345.031	121.69
345.259	117.69
345.487	121.69
345.714	110.69
345.942	96.69
346.17	116.69
346.397	112.69
346.625	103.69
346.853	96.69
347.08	107.69
347.308	121.69
347.535	115.69
347.763	118.69
347.99	118.69
348.218	130.69
348.445	107.69
348.673	117.69
348.9	120.69
349.128	123.69
349.355	122.69
349.583	117.69
349.81	118.69
350.037	112.69
350.265	120.69
350.492	110.69
350.72	107.69
350.947	100.69
351.174	113.69
351.402	116.69
351.629	112.69
351.856	111.69
352.083	110.69
352.311	102.69
352.538	110.69
352.765	114.69
352.992	117.69
353.22	106.69
353.447	105.69
353.674	110.69
353.901	104.69
354.128	122.69
354.355	109.69
354.583	106.69
354.81	104.69
355.037	114.69
355.264	102.69
355.491	98.69
355.718	107.69
355.945	121.69
356.172	112.69
356.399	122.69
356.626	102.69
356.853	107.69
357.08	117.69
357.307	122.69
357.534	107.69
357.761	105.69
357.988	102.69
358.215	112.69
358.441	113.69
358.668	110.69
358.895	97.69
359.122	100.69
359.349	103.69
359.576	108.69
359.802	132.69
360.029	111.69
360.256	121.69
360.483	99.69
360.709	102.69
360.936	129.69
361.163	100.69
361.39	101.69
361.616	120.69
361.843	111.69
362.07	108.69
362.296	119.69
362.523	107.69
362.749	114.69
362.976	99.69
363.203	114.69
363.429	107.69
363.656	109.69
363.882	109.69
364.109	115.69
364.335	126.69
364.562	106.69
364.788	112.69
365.015	106.69
365.241	118.69
365.468	118.69
365.694	114.69
365.92	103.69
366.147	107.69
366.373	116.69
366.599	113.69
366.826	103.69
367.052	110.69
367.278	112.69
367.505	103.69
367.731	139.69
367.957	110.69
368.184	100.69
368.41	114.69
368.636	113.69
368.862	108.69
369.089	114.69
369.315	109.69
369.541	105.69
369.767	123.69
369.993	115.69
370.219	101.69
370.445	109.69
370.672	106.69
370.898	105.69
371.124	121.69
371.35	95.69
371.576	116.69
371.802	117.69
372.028	120.69
372.254	118.69
372.48	120.69
372.706	113.69
372.932	105.69
373.158	109.69
373.384	113.69
373.61	117.69
373.835	103.69
374.061	109.69
374.287	115.69
374.513	111.69
374.739	111.69
374.965	107.69
375.191	112.69
375.416	128.69
375.642	117.69
375.868	124.69
376.094	126.69
376.319	102.69
376.545	110.69
376.771	100.69
376.997	97.69
377.222	116.69
377.448	122.69
377.674	106.69
377.899	115.69
378.125	110.69
378.35	110.69
378.576	96.69
378.802	111.69
379.027	101.69
379.253	123.69
379.478	106.69
379.704	103.69
379.929	107.69
380.155	116.69
380.38	104.69
380.606	106.69
380.831	109.69
381.057	114.69
381.282	117.69
381.507	118.69
381.733	116.69
381.958	106.69
382.184	103.69
382.409	114.69
382.634	117.69
382.86	117.69
383.085	129.69
383.31	118.69
383.535	126.69
383.761	116.69
383.986	108.69
384.211	121.69
384.436	118.69
384.662	115.69
384.887	118.69
385.112	115.69
385.337	124.69
385.562	127.69
385.787	117.69
386.013	121.69
386.238	141.69
386.463	110.69
386.688	144.69
386.913	129.69
387.138	122.69
387.363	104.69
387.588	126.69
387.813	125.69
388.038	113.69
388.263	142.69
388.488	117.69
388.713	101.69
388.938	98.69
389.163	106.69
389.387	117.69
389.612	114.69
389.837	111.69
390.062	120.69
390.287	134.69
390.512	118.69
390.736	129.69
390.961	122.69
391.186	109.69
391.411	132.69
391.636	114.69
391.86	134.69
392.085	133.69
392.31	109.69
392.534	110.69
392.759	118.69
392.984	123.69
393.208	124.69
393.433	114.69
393.658	135.69
393.882	100.69
394.107	115.69
394.331	137.69
394.556	117.69
394.78	116.69
395.005	119.69
395.229	122.69
395.454	146.69
395.678	136.69
395.903	126.69
396.127	125.69
396.352	115.69
396.576	116.69
396.801	118.69
397.025	123.69
397.249	129.69
397.474	132.69
397.698	114.69
397.922	122.69
398.147	115.69
398.371	118.69
398.595	131.69
398.82	127.69
399.044	112.69
399.268	138.69
399.492	150.69
399.717	167.69
399.941	152.69
400.165	154.69
400.389	142.69
400.613	138.69
400.837	126.69
401.062	133.69
401.286	106.69
401.51	132.69
401.734	125.69
401.958	141.69
402.182	129.69
402.406	135.69
402.63	138.69
402.854	134.69
403.078	137.69
403.302	119.69
403.526	150.69
403.75	132.69
403.974	150.69
404.198	135.69
404.422	129.69
404.645	127.69
404.869	138.69
405.093	132.69
405.317	146.69
405.541	145.69
405.765	141.69
405.988	135.69
406.212	148.69
406.436	131.69
406.66	141.69
406.883	134.69
407.107	128.69
407.331	133.69
407.555	142.69
407.778	137.69
408.002	143.69
408.226	130.69
408.449	133.69
408.673	137.69
408.896	155.69
409.12	141.69
409.344	137.69
409.567	150.69
409.791	135.69
410.014	138.69
410.238	130.69
410.461	134.69
410.685	138.69
410.908	124.69
411.132	144.69
411.355	122.69
411.578	143.69
411.802	138.69
412.025	138.69
412.249	142.69
412.472	125.69
412.695	134.69
412.919	126.69
413.142	125.69
413.365	125.69
413.589	148.69
413.812	118.69
414.035	139.69
414.258	145.69
414.482	146.69
414.705	142.69
414.928	137.69
415.151	127.69
415.374	128.69
415.597	132.69
415.821	142.69
416.044	134.69
416.267	117.69
416.49	122.69
416.713	135.69
416.936	138.69
417.159	111.69
417.382	130.69
417.605	123.69
417.828	134.69
418.051	122.69
418.274	124.69
418.497	131.69
418.72	137.69
418.943	141.69
419.166	133.69
419.389	138.69
419.611	132.69
419.834	133.69
420.057	138.69
420.28	142.69
420.503	100.69
420.726	130.69
420.948	124.69
421.171	130.69
421.394	119.69
421.617	121.69
421.839	126.69
422.062	122.69
422.285	124.69
422.507	133.69
422.73	117.69
422.953	138.69
423.175	131.69
423.398	145.69
423.621	141.69
423.843	133.69
424.066	120.69
424.288	143.69
424.511	126.69
424.733	151.69
424.956	136.69
425.178	121.69
425.401	128.69
425.623	137.69
425.846	111.69
426.068	119.69
426.291	131.69
426.513	125.69
426.735	119.69
426.958	113.69
427.18	119.69
427.402	126.69
427.625	118.69
427.847	111.69
428.069	117.69
428.292	109.69
428.514	111.69
428.736	125.69
428.958	119.69
429.181	127.69
429.403	113.69
429.625	114.69
429.847	122.69
430.069	114.69
430.292	133.69
430.514	115.69
430.736	118.69
430.958	117.69
431.18	126.69
431.402	115.69
431.624	105.69
431.846	115.69
432.068	122.69
432.29	125.69
432.512	130.69
432.734	127.69
432.956	125.69
433.178	134.69
433.4	135.69
433.622	148.69
433.844	108.69
434.066	129.69
434.287	125.69
434.509	119.69
434.731	133.69
434.953	118.69
435.175	123.69
435.397	126.69
435.618	131.69
435.84	137.69
436.062	116.69
436.284	118.69
436.505	121.69
436.727	124.69
436.949	135.69
437.17	121.69
437.392	114.69
437.614	125.69
437.835	122.69
438.057	110.69
438.278	115.69
438.5	125.69
438.721	120.69
438.943	129.69
439.165	132.69
439.386	119.69
439.608	138.69
439.829	127.69
440.05	122.69
440.272	133.69
440.493	137.69
440.715	126.69
440.936	136.69
441.158	137.69
441.379	128.69
441.6	124.69
441.822	125.69
442.043	124.69
442.264	126.69
442.486	121.69
442.707	132.69
442.928	139.69
443.149	136.69
443.371	121.69
443.592	136.69
443.813	136.69
444.034	136.69
444.255	144.69
444.476	125.69
444.698	134.69
444.919	136.69
445.14	389.69
445.361	241.69
445.582	141.69
445.803	127.69
446.024	115.69
446.245	127.69
446.466	142.69
446.687	126.69
446.908	133.69
447.129	134.69
447.35	131.69
447.571	135.69
447.792	118.69
448.013	115.69
448.234	128.69
448.455	115.69
448.675	116.69
448.896	125.69
449.117	127.69
449.338	113.69
449.559	125.69
449.779	123.69
450	116.69
450.221	132.69
450.442	133.69
450.662	116.69
450.883	125.69
451.104	142.69
451.324	122.69
451.545	128.69
451.766	119.69
451.986	116.69
452.207	134.69
452.428	131.69
452.648	114.69
452.869	126.69
453.089	127.69
453.31	114.69
453.53	124.69
453.751	119.69
453.971	129.69
454.192	115.69
454.412	120.69
454.633	116.69
454.853	113.69
455.073	120.69
455.294	115.69
455.514	127.69
455.734	106.69
455.955	114.69
456.175	107.69
456.395	128.69
456.616	118.69
456.836	125.69
457.056	115.69
457.276	120.69
457.497	125.69
457.717	124.69
457.937	105.69
458.157	109.69
458.377	112.69
458.598	118.69
458.818	141.69
459.038	125.69
459.258	117.69
459.478	119.69
459.698	111.69
459.918	129.69
460.138	124.69
460.358	136.69
460.578	150.69
460.798	134.69
461.018	150.69
461.238	144.69
461.458	138.69
461.678	143.69
461.898	141.69
462.118	134.69
462.338	143.69
462.558	145.69
462.777	145.69
462.997	149.69
463.217	161.69
463.437	156.69
463.657	147.69
463.876	144.69
464.096	153.69
464.316	130.69
464.536	138.69
464.755	163.69
464.975	130.69
465.195	138.69
465.414	126.69
465.634	120.69
465.854	128.69
466.073	118.69
466.293	114.69
466.512	119.69
466.732	118.69
466.951	116.69
467.171	124.69
467.391	115.69
467.61	116.69
467.829	124.69
468.049	122.69
468.268	123.69
468.488	115.69
468.707	114.69
468.927	108.69
469.146	118.69
469.365	113.69
469.585	128.69
469.804	115.69
470.023	122.69
470.243	131.69
470.462	130.69
470.681	126.69
470.901	118.69
471.12	125.69
471.339	121.69
471.558	116.69
471.777	126.69
471.997	136.69
472.216	121.69
472.435	97.69
472.654	111.69
472.873	126.69
473.092	128.69
473.311	123.69
473.53	122.69
473.749	125.69
473.968	148.69
474.187	129.69
474.406	113.69
474.625	119.69
474.844	122.69
475.063	118.69
475.282	115.69
475.501	108.69
475.72	133.69
475.939	118.69
476.158	114.69
476.377	119.69
476.596	133.69
476.814	119.69
477.033	118.69
477.252	127.69
477.471	118.69
477.69	128.69
477.908	133.69
478.127	133.69
478.346	125.69
478.564	119.69
478.783	112.69
479.002	136.69
479.22	126.69
479.439	135.69
479.658	142.69
479.876	121.69
480.095	130.69
480.313	131.69
480.532	143.69
480.751	146.69
480.969	120.69
481.188	122.69
481.406	136.69
481.624	141.69
481.843	128.69
482.061	122.69
482.28	128.69
482.498	120.69
482.717	133.69
482.935	119.69
483.153	114.69
483.372	125.69
483.59	122.69
483.808	125.69
484.027	136.69
484.245	122.69
484.463	118.69
484.681	137.69
484.9	134.69
485.118	133.69
485.336	141.69
485.554	123.69
485.772	125.69
485.99	125.69
486.209	118.69
486.427	118.69
486.645	118.69
486.863	119.69
487.081	134.69
487.299	135.69
487.517	148.69
487.735	143.69
487.953	126.69
488.171	133.69
488.389	137.69
488.607	125.69
488.825	125.69
489.043	118.69
489.261	142.69
489.479	128.69
489.696	147.69
489.914	127.69
490.132	141.69
490.35	126.69
490.568	139.69
490.786	127.69
491.003	126.69
491.221	110.69
491.439	136.69
491.657	134.69
491.874	137.69
492.092	127.69
492.31	131.69
492.527	130.69
492.745	140.69
492.963	147.69
493.18	124.69
493.398	137.69
493.615	145.69
493.833	130.69
494.05	145.69
494.268	137.69
494.485	137.69
494.703	127.69
494.92	144.69
495.138	137.69
495.355	143.69
495.573	128.69
495.79	145.69
496.008	133.69
496.225	133.69
496.442	125.69
496.66	143.69
496.877	144.69
497.094	158.69
497.312	134.69
497.529	139.69
497.746	148.69
497.963	136.69
498.181	141.69
498.398	141.69
498.615	135.69
498.832	164.69
499.049	173.69
499.267	173.69
499.484	181.69
499.701	196.69
499.918	205.69
500.135	219.69
500.352	237.69
500.569	240.69
500.786	237.69
501.003	226.69
501.22	200.69
501.437	206.69
501.654	191.69
501.871	179.69
502.088	150.69
502.305	160.69
502.522	149.69
502.739	154.69
502.956	175.69
503.172	141.69
503.389	152.69
503.606	145.69
503.823	132.69
504.04	140.69
504.256	137.69
504.473	122.69
504.69	133.69
504.907	152.69
505.123	127.69
505.34	131.69
505.557	141.69
505.773	135.69
505.99	126.69
