Data from SampD_HRD10591_00068.txt Node
Date: Mon Jan 19 11:41:44 EST 2026
User: Yrep
Spectrometer: HR+D1059
Trigger mode: 0
Integration Time (sec): 3.443000E-1
Scans to average: 1
Electric dark correction enabled: true
Nonlinearity correction enabled: false
Boxcar width: 0
XAxis mode: Wavelengths
Number of Pixels in Spectrum: 2048
>>>>>Begin Spectral Data<<<<<
223.165	-27.56
223.4	-27.56
223.635	-27.56
223.869	-31.56
224.104	-29.56
224.338	-6.56
224.573	-21.56
224.808	-8.56
225.042	6.44
225.277	-8.56
225.511	6.44
225.746	8.44
225.98	10.44
226.215	6.44
226.449	20.44
226.683	12.44
226.918	33.44
227.152	29.44
227.387	35.44
227.621	41.44
227.856	49.44
228.09	28.44
228.324	59.44
228.559	63.44
228.793	50.44
229.027	66.44
229.262	75.44
229.496	66.44
229.73	70.44
229.964	76.44
230.199	78.44
230.433	65.44
230.667	91.44
230.901	78.44
231.136	76.44
231.37	81.44
231.604	78.44
231.838	83.44
232.072	100.44
232.306	76.44
232.541	83.44
232.775	87.44
233.009	93.44
233.243	80.44
233.477	79.44
233.711	88.44
233.945	85.44
234.179	86.44
234.413	74.44
234.647	84.44
234.881	75.44
235.115	70.44
235.349	71.44
235.583	83.44
235.817	87.44
236.051	86.44
236.285	82.44
236.519	79.44
236.753	78.44
236.987	83.44
237.221	72.44
237.455	93.44
237.689	76.44
237.922	85.44
238.156	94.44
238.39	79.44
238.624	75.44
238.858	68.44
239.091	82.44
239.325	84.44
239.559	86.44
239.793	79.44
240.027	79.44
240.26	78.44
240.494	88.44
240.728	80.44
240.961	87.44
241.195	85.44
241.429	96.44
241.662	71.44
241.896	90.44
242.13	70.44
242.363	76.44
242.597	94.44
242.83	99.44
243.064	83.44
243.298	95.44
243.531	80.44
243.765	93.44
243.998	65.44
244.232	93.44
244.465	93.44
244.699	87.44
244.932	80.44
245.166	91.44
245.399	86.44
245.633	93.44
245.866	95.44
246.099	78.44
246.333	74.44
246.566	80.44
246.8	92.44
247.033	102.44
247.266	71.44
247.5	92.44
247.733	94.44
247.966	81.44
248.2	92.44
248.433	87.44
248.666	102.44
248.899	84.44
249.133	88.44
249.366	82.44
249.599	104.44
249.832	92.44
250.066	90.44
250.299	92.44
250.532	86.44
250.765	85.44
250.998	83.44
251.231	84.44
251.465	99.44
251.698	86.44
251.931	90.44
252.164	86.44
252.397	102.44
252.63	95.44
252.863	83.44
253.096	87.44
253.329	106.44
253.562	80.44
253.795	101.44
254.028	97.44
254.261	102.44
254.494	93.44
254.727	103.44
254.96	91.44
255.193	91.44
255.426	107.44
255.659	84.44
255.892	86.44
256.124	90.44
256.357	92.44
256.59	94.44
256.823	111.44
257.056	98.44
257.289	104.44
257.521	96.44
257.754	90.44
257.987	89.44
258.22	99.44
258.452	104.44
258.685	97.44
258.918	120.44
259.151	83.44
259.383	105.44
259.616	84.44
259.849	87.44
260.081	95.44
260.314	86.44
260.547	103.44
260.779	100.44
261.012	94.44
261.244	98.44
261.477	112.44
261.71	96.44
261.942	105.44
262.175	111.44
262.407	108.44
262.64	115.44
262.872	100.44
263.105	107.44
263.337	95.44
263.57	106.44
263.802	108.44
264.035	96.44
264.267	98.44
264.499	107.44
264.732	107.44
264.964	94.44
265.197	119.44
265.429	99.44
265.661	94.44
265.894	104.44
266.126	116.44
266.358	103.44
266.591	100.44
266.823	102.44
267.055	99.44
267.287	105.44
267.52	102.44
267.752	90.44
267.984	101.44
268.216	81.44
268.448	103.44
268.681	107.44
268.913	102.44
269.145	90.44
269.377	97.44
269.609	90.44
269.841	104.44
270.073	105.44
270.306	110.44
270.538	110.44
270.77	96.44
271.002	100.44
271.234	110.44
271.466	121.44
271.698	112.44
271.93	100.44
272.162	101.44
272.394	115.44
272.626	107.44
272.858	110.44
273.09	89.44
273.322	112.44
273.553	116.44
273.785	101.44
274.017	96.44
274.249	104.44
274.481	126.44
274.713	108.44
274.945	116.44
275.176	103.44
275.408	94.44
275.64	113.44
275.872	100.44
276.104	111.44
276.335	108.44
276.567	100.44
276.799	105.44
277.031	106.44
277.262	114.44
277.494	116.44
277.726	119.44
277.957	81.44
278.189	93.44
278.421	114.44
278.652	116.44
278.884	118.44
279.115	113.44
279.347	122.44
279.579	118.44
279.81	104.44
280.042	120.44
280.273	105.44
280.505	112.44
280.736	108.44
280.968	116.44
281.199	120.44
281.431	107.44
281.662	106.44
281.894	111.44
282.125	110.44
282.356	104.44
282.588	120.44
282.819	114.44
283.051	121.44
283.282	112.44
283.513	125.44
283.745	117.44
283.976	114.44
284.207	110.44
284.439	119.44
284.67	111.44
284.901	125.44
285.132	123.44
285.364	131.44
285.595	112.44
285.826	103.44
286.057	122.44
286.288	117.44
286.52	118.44
286.751	127.44
286.982	118.44
287.213	121.44
287.444	121.44
287.675	114.44
287.906	138.44
288.138	121.44
288.369	126.44
288.6	123.44
288.831	129.44
289.062	119.44
289.293	122.44
289.524	119.44
289.755	132.44
289.986	118.44
290.217	119.44
290.448	117.44
290.679	119.44
290.91	117.44
291.141	132.44
291.371	119.44
291.602	132.44
291.833	135.44
292.064	134.44
292.295	123.44
292.526	123.44
292.757	122.44
292.987	119.44
293.218	118.44
293.449	112.44
293.68	135.44
293.91	134.44
294.141	124.44
294.372	114.44
294.603	112.44
294.833	120.44
295.064	133.44
295.295	126.44
295.525	123.44
295.756	108.44
295.987	136.44
296.217	117.44
296.448	113.44
296.679	135.44
296.909	135.44
297.14	117.44
297.37	138.44
297.601	119.44
297.831	120.44
298.062	123.44
298.292	135.44
298.523	126.44
298.753	131.44
298.984	120.44
299.214	118.44
299.445	110.44
299.675	133.44
299.905	117.44
300.136	119.44
300.366	128.44
300.597	133.44
300.827	138.44
301.057	130.44
301.288	121.44
301.518	125.44
301.748	115.44
301.979	174.44
302.209	135.44
302.439	126.44
302.669	118.44
302.9	127.44
303.13	130.44
303.36	142.44
303.59	128.44
303.82	131.44
304.051	132.44
304.281	128.44
304.511	132.44
304.741	135.44
304.971	140.44
305.201	136.44
305.431	123.44
305.661	141.44
305.891	129.44
306.121	128.44
306.352	116.44
306.582	126.44
306.812	124.44
307.042	127.44
307.272	123.44
307.502	115.44
307.731	127.44
307.961	131.44
308.191	123.44
308.421	127.44
308.651	129.44
308.881	127.44
309.111	127.44
309.341	124.44
309.571	129.44
309.8	128.44
310.03	122.44
310.26	125.44
310.49	125.44
310.72	115.44
310.949	127.44
311.179	135.44
311.409	124.44
311.639	146.44
311.868	134.44
312.098	127.44
312.328	140.44
312.557	135.44
312.787	138.44
313.017	137.44
313.246	130.44
313.476	135.44
313.706	114.44
313.935	119.44
314.165	119.44
314.394	125.44
314.624	120.44
314.853	152.44
315.083	127.44
315.312	126.44
315.542	127.44
315.771	137.44
316.001	135.44
316.23	136.44
316.46	134.44
316.689	127.44
316.919	118.44
317.148	139.44
317.377	119.44
317.607	113.44
317.836	135.44
318.065	124.44
318.295	129.44
318.524	123.44
318.753	125.44
318.983	142.44
319.212	133.44
319.441	130.44
319.67	134.44
319.9	123.44
320.129	117.44
320.358	133.44
320.587	132.44
320.816	134.44
321.046	129.44
321.275	139.44
321.504	138.44
321.733	132.44
321.962	133.44
322.191	126.44
322.42	132.44
322.649	138.44
322.878	133.44
323.108	134.44
323.337	136.44
323.566	130.44
323.795	132.44
324.024	134.44
324.253	135.44
324.482	123.44
324.71	139.44
324.939	126.44
325.168	138.44
325.397	139.44
325.626	143.44
325.855	134.44
326.084	125.44
326.313	126.44
326.542	140.44
326.77	126.44
326.999	134.44
327.228	131.44
327.457	144.44
327.686	129.44
327.914	140.44
328.143	149.44
328.372	130.44
328.6	131.44
328.829	139.44
329.058	132.44
329.287	126.44
329.515	135.44
329.744	144.44
329.972	133.44
330.201	140.44
330.43	138.44
330.658	146.44
330.887	128.44
331.115	135.44
331.344	147.44
331.572	150.44
331.801	147.44
332.03	151.44
332.258	140.44
332.486	142.44
332.715	145.44
332.943	149.44
333.172	155.44
333.4	143.44
333.629	164.44
333.857	164.44
334.085	158.44
334.314	164.44
334.542	142.44
334.771	162.44
334.999	150.44
335.227	131.44
335.455	148.44
335.684	144.44
335.912	156.44
336.14	151.44
336.369	143.44
336.597	155.44
336.825	156.44
337.053	155.44
337.281	132.44
337.51	138.44
337.738	143.44
337.966	144.44
338.194	143.44
338.422	146.44
338.65	133.44
338.878	160.44
339.106	145.44
339.334	142.44
339.562	150.44
339.79	145.44
340.018	136.44
340.246	127.44
340.474	138.44
340.702	136.44
340.93	133.44
341.158	133.44
341.386	139.44
341.614	121.44
341.842	138.44
342.07	142.44
342.298	120.44
342.526	139.44
342.754	127.44
342.981	142.44
343.209	145.44
343.437	167.44
343.665	145.44
343.893	152.44
344.12	152.44
344.348	149.44
344.576	146.44
344.804	145.44
345.031	149.44
345.259	143.44
345.487	138.44
345.714	138.44
345.942	120.44
346.17	137.44
346.397	162.44
346.625	162.44
346.853	145.44
347.08	113.44
347.308	152.44
347.535	152.44
347.763	139.44
347.99	149.44
348.218	132.44
348.445	130.44
348.673	144.44
348.9	135.44
349.128	135.44
349.355	137.44
349.583	141.44
349.81	134.44
350.037	130.44
350.265	136.44
350.492	141.44
350.72	144.44
350.947	156.44
351.174	150.44
351.402	156.44
351.629	120.44
351.856	126.44
352.083	143.44
352.311	128.44
352.538	128.44
352.765	139.44
352.992	143.44
353.22	131.44
353.447	141.44
353.674	154.44
353.901	136.44
354.128	127.44
354.355	129.44
354.583	143.44
354.81	131.44
355.037	125.44
355.264	145.44
355.491	138.44
355.718	141.44
355.945	148.44
356.172	135.44
356.399	135.44
356.626	139.44
356.853	141.44
357.08	131.44
357.307	127.44
357.534	146.44
357.761	138.44
357.988	140.44
358.215	131.44
358.441	119.44
358.668	119.44
358.895	145.44
359.122	118.44
359.349	157.44
359.576	125.44
359.802	129.44
360.029	138.44
360.256	132.44
360.483	135.44
360.709	140.44
360.936	133.44
361.163	158.44
361.39	129.44
361.616	127.44
361.843	150.44
362.07	140.44
362.296	144.44
362.523	128.44
362.749	127.44
362.976	126.44
363.203	142.44
363.429	134.44
363.656	130.44
363.882	133.44
364.109	148.44
364.335	157.44
364.562	138.44
364.788	138.44
365.015	146.44
365.241	143.44
365.468	127.44
365.694	124.44
365.92	129.44
366.147	131.44
366.373	139.44
366.599	135.44
366.826	136.44
367.052	135.44
367.278	129.44
367.505	132.44
367.731	167.44
367.957	144.44
368.184	138.44
368.41	139.44
368.636	158.44
368.862	148.44
369.089	138.44
369.315	134.44
369.541	135.44
369.767	140.44
369.993	148.44
370.219	140.44
370.445	124.44
370.672	129.44
370.898	132.44
371.124	124.44
371.35	150.44
371.576	141.44
371.802	126.44
372.028	148.44
372.254	155.44
372.48	144.44
372.706	140.44
372.932	154.44
373.158	128.44
373.384	144.44
373.61	162.44
373.835	145.44
374.061	142.44
374.287	150.44
374.513	155.44
374.739	141.44
374.965	153.44
375.191	152.44
375.416	166.44
375.642	154.44
375.868	162.44
376.094	144.44
376.319	163.44
376.545	152.44
376.771	140.44
376.997	136.44
377.222	140.44
377.448	141.44
377.674	138.44
377.899	150.44
378.125	130.44
378.35	146.44
378.576	128.44
378.802	147.44
379.027	143.44
379.253	159.44
379.478	144.44
379.704	133.44
379.929	131.44
380.155	125.44
380.38	143.44
380.606	140.44
380.831	134.44
381.057	154.44
381.282	143.44
381.507	151.44
381.733	139.44
381.958	149.44
382.184	139.44
382.409	142.44
382.634	158.44
382.86	157.44
383.085	138.44
383.31	151.44
383.535	160.44
383.761	148.44
383.986	150.44
384.211	160.44
384.436	165.44
384.662	144.44
384.887	149.44
385.112	163.44
385.337	152.44
385.562	154.44
385.787	148.44
386.013	163.44
386.238	162.44
386.463	148.44
386.688	182.44
386.913	169.44
387.138	148.44
387.363	144.44
387.588	145.44
387.813	161.44
388.038	147.44
388.263	157.44
388.488	165.44
388.713	168.44
388.938	152.44
389.163	130.44
389.387	158.44
389.612	160.44
389.837	153.44
390.062	150.44
390.287	165.44
390.512	139.44
390.736	146.44
390.961	166.44
391.186	153.44
391.411	162.44
391.636	164.44
391.86	163.44
392.085	169.44
392.31	164.44
392.534	166.44
392.759	163.44
392.984	160.44
393.208	177.44
393.433	176.44
393.658	176.44
393.882	157.44
394.107	168.44
394.331	173.44
394.556	157.44
394.78	163.44
395.005	172.44
395.229	168.44
395.454	180.44
395.678	178.44
395.903	177.44
396.127	171.44
396.352	149.44
396.576	155.44
396.801	146.44
397.025	152.44
397.249	174.44
397.474	180.44
397.698	168.44
397.922	171.44
398.147	168.44
398.371	174.44
398.595	180.44
398.82	169.44
399.044	179.44
399.268	208.44
399.492	238.44
399.717	249.44
399.941	226.44
400.165	227.44
400.389	208.44
400.613	215.44
400.837	183.44
401.062	189.44
401.286	180.44
401.51	172.44
401.734	154.44
401.958	176.44
402.182	182.44
402.406	169.44
402.63	180.44
402.854	194.44
403.078	172.44
403.302	181.44
403.526	197.44
403.75	191.44
403.974	204.44
404.198	199.44
404.422	200.44
404.645	206.44
404.869	199.44
405.093	200.44
405.317	200.44
405.541	202.44
405.765	205.44
405.988	189.44
406.212	195.44
406.436	182.44
406.66	198.44
406.883	217.44
407.107	208.44
407.331	202.44
407.555	203.44
407.778	216.44
408.002	202.44
408.226	197.44
408.449	196.44
408.673	188.44
408.896	198.44
409.12	206.44
409.344	213.44
409.567	206.44
409.791	197.44
410.014	197.44
410.238	205.44
410.461	218.44
410.685	204.44
410.908	191.44
411.132	208.44
411.355	190.44
411.578	204.44
411.802	184.44
412.025	196.44
412.249	198.44
412.472	203.44
412.695	189.44
412.919	197.44
413.142	187.44
413.365	189.44
413.589	199.44
413.812	183.44
414.035	183.44
414.258	187.44
414.482	187.44
414.705	178.44
414.928	191.44
415.151	182.44
415.374	189.44
415.597	209.44
415.821	193.44
416.044	178.44
416.267	187.44
416.49	178.44
416.713	172.44
416.936	193.44
417.159	180.44
417.382	178.44
417.605	171.44
417.828	183.44
418.051	179.44
418.274	178.44
418.497	186.44
418.72	184.44
418.943	177.44
419.166	220.44
419.389	209.44
419.611	205.44
419.834	196.44
420.057	195.44
420.28	189.44
420.503	174.44
420.726	157.44
420.948	185.44
421.171	190.44
421.394	177.44
421.617	191.44
421.839	203.44
422.062	193.44
422.285	186.44
422.507	183.44
422.73	189.44
422.953	168.44
423.175	206.44
423.398	202.44
423.621	200.44
423.843	204.44
424.066	207.44
424.288	179.44
424.511	183.44
424.733	183.44
424.956	192.44
425.178	180.44
425.401	185.44
425.623	167.44
425.846	178.44
426.068	179.44
426.291	168.44
426.513	174.44
426.735	175.44
426.958	182.44
427.18	188.44
427.402	176.44
427.625	184.44
427.847	165.44
428.069	184.44
428.292	166.44
428.514	158.44
428.736	167.44
428.958	168.44
429.181	166.44
429.403	175.44
429.625	167.44
429.847	159.44
430.069	159.44
430.292	178.44
430.514	162.44
430.736	160.44
430.958	158.44
431.18	158.44
431.402	165.44
431.624	168.44
431.846	154.44
432.068	168.44
432.29	182.44
432.512	164.44
432.734	172.44
432.956	169.44
433.178	180.44
433.4	177.44
433.622	188.44
433.844	163.44
434.066	179.44
434.287	177.44
434.509	173.44
434.731	190.44
434.953	192.44
435.175	194.44
435.397	198.44
435.618	167.44
435.84	176.44
436.062	173.44
436.284	154.44
436.505	188.44
436.727	175.44
436.949	148.44
437.17	188.44
437.392	159.44
437.614	170.44
437.835	151.44
438.057	172.44
438.278	155.44
438.5	145.44
438.721	175.44
438.943	165.44
439.165	165.44
439.386	165.44
439.608	175.44
439.829	159.44
440.05	172.44
440.272	168.44
440.493	177.44
440.715	163.44
440.936	176.44
441.158	168.44
441.379	182.44
441.6	191.44
441.822	182.44
442.043	186.44
442.264	196.44
442.486	191.44
442.707	168.44
442.928	188.44
443.149	181.44
443.371	186.44
443.592	175.44
443.813	194.44
444.034	190.44
444.255	192.44
444.476	212.44
444.698	212.44
444.919	195.44
445.14	369.44
445.361	294.44
445.582	206.44
445.803	156.44
446.024	183.44
446.245	187.44
446.466	162.44
446.687	167.44
446.908	174.44
447.129	171.44
447.35	175.44
447.571	169.44
447.792	157.44
448.013	158.44
448.234	175.44
448.455	145.44
448.675	164.44
448.896	169.44
449.117	163.44
449.338	165.44
449.559	173.44
449.779	159.44
450	166.44
450.221	164.44
450.442	135.44
450.662	143.44
450.883	165.44
451.104	158.44
451.324	166.44
451.545	162.44
451.766	140.44
451.986	159.44
452.207	167.44
452.428	156.44
452.648	177.44
452.869	178.44
453.089	162.44
453.31	156.44
453.53	162.44
453.751	151.44
453.971	175.44
454.192	166.44
454.412	154.44
454.633	159.44
454.853	170.44
455.073	158.44
455.294	161.44
455.514	166.44
455.734	143.44
455.955	159.44
456.175	168.44
456.395	163.44
456.616	148.44
456.836	162.44
457.056	163.44
457.276	145.44
457.497	156.44
457.717	158.44
457.937	155.44
458.157	158.44
458.377	142.44
458.598	174.44
458.818	165.44
459.038	148.44
459.258	165.44
459.478	178.44
459.698	190.44
459.918	182.44
460.138	183.44
460.358	202.44
460.578	195.44
460.798	187.44
461.018	193.44
461.238	190.44
461.458	195.44
461.678	184.44
461.898	189.44
462.118	202.44
462.338	198.44
462.558	193.44
462.777	212.44
462.997	210.44
463.217	238.44
463.437	232.44
463.657	212.44
463.876	209.44
464.096	208.44
464.316	195.44
464.536	206.44
464.755	231.44
464.975	196.44
465.195	194.44
465.414	190.44
465.634	190.44
465.854	175.44
466.073	182.44
466.293	174.44
466.512	157.44
466.732	173.44
466.951	186.44
467.171	167.44
467.391	171.44
467.61	162.44
467.829	160.44
468.049	176.44
468.268	175.44
468.488	162.44
468.707	165.44
468.927	161.44
469.146	168.44
469.365	152.44
469.585	159.44
469.804	167.44
470.023	197.44
470.243	162.44
470.462	168.44
470.681	183.44
470.901	182.44
471.12	159.44
471.339	168.44
471.558	180.44
471.777	190.44
471.997	183.44
472.216	175.44
472.435	169.44
472.654	156.44
472.873	167.44
473.092	155.44
473.311	160.44
473.53	172.44
473.749	160.44
473.968	160.44
474.187	173.44
474.406	168.44
474.625	183.44
474.844	172.44
475.063	168.44
475.282	160.44
475.501	154.44
475.72	176.44
475.939	176.44
476.158	164.44
476.377	167.44
476.596	158.44
476.814	147.44
477.033	166.44
477.252	185.44
477.471	166.44
477.69	186.44
477.908	174.44
478.127	185.44
478.346	182.44
478.564	181.44
478.783	186.44
479.002	183.44
479.22	176.44
479.439	191.44
479.658	193.44
479.876	180.44
480.095	190.44
480.313	195.44
480.532	203.44
480.751	189.44
480.969	194.44
481.188	188.44
481.406	175.44
481.624	180.44
481.843	150.44
482.061	176.44
482.28	166.44
482.498	177.44
482.717	168.44
482.935	183.44
483.153	195.44
483.372	184.44
483.59	182.44
483.808	178.44
484.027	195.44
484.245	179.44
484.463	171.44
484.681	219.44
484.9	184.44
485.118	178.44
485.336	173.44
485.554	173.44
485.772	191.44
485.99	197.44
486.209	191.44
486.427	191.44
486.645	187.44
486.863	187.44
487.081	197.44
487.299	188.44
487.517	185.44
487.735	177.44
487.953	199.44
488.171	186.44
488.389	173.44
488.607	184.44
488.825	154.44
489.043	177.44
489.261	191.44
489.479	174.44
489.696	190.44
489.914	183.44
490.132	176.44
490.35	186.44
490.568	174.44
490.786	193.44
491.003	189.44
491.221	183.44
491.439	190.44
491.657	188.44
491.874	206.44
492.092	204.44
492.31	195.44
492.527	193.44
492.745	168.44
492.963	188.44
493.18	188.44
493.398	185.44
493.615	198.44
493.833	204.44
494.05	193.44
494.268	195.44
494.485	187.44
494.703	204.44
494.92	193.44
495.138	204.44
495.355	191.44
495.573	194.44
495.79	189.44
496.008	210.44
496.225	192.44
496.442	198.44
496.66	199.44
496.877	203.44
497.094	210.44
497.312	193.44
497.529	194.44
497.746	210.44
497.963	208.44
498.181	214.44
498.398	210.44
498.615	226.44
498.832	248.44
499.049	256.44
499.267	272.44
499.484	306.44
499.701	319.44
499.918	346.44
500.135	386.44
500.352	432.44
500.569	438.44
500.786	431.44
501.003	391.44
501.22	371.44
501.437	326.44
501.654	292.44
501.871	284.44
502.088	247.44
502.305	259.44
502.522	245.44
502.739	231.44
502.956	227.44
503.172	223.44
503.389	218.44
503.606	211.44
503.823	212.44
504.04	225.44
504.256	209.44
504.473	216.44
504.69	210.44
