Data from SampD_HRD10591_00028.txt Node
Date: Mon Jan 19 11:41:30 EST 2026
User: Yrep
Spectrometer: HR+D1059
Trigger mode: 0
Integration Time (sec): 3.443000E-1
Scans to average: 1
Electric dark correction enabled: true
Nonlinearity correction enabled: false
Boxcar width: 0
XAxis mode: Wavelengths
Number of Pixels in Spectrum: 2048
>>>>>Begin Spectral Data<<<<<
223.165	-31.81
223.4	-31.81
223.635	-31.81
223.869	-29.81
224.104	-26.81
224.338	-13.81
224.573	-18.81
224.808	-3.81
225.042	9.19
225.277	-18.81
225.511	-13.81
225.746	16.19
225.98	14.19
226.215	19.19
226.449	29.19
226.683	25.19
226.918	24.19
227.152	20.19
227.387	32.19
227.621	26.19
227.856	33.19
228.09	53.19
228.324	51.19
228.559	65.19
228.793	55.19
229.027	57.19
229.262	72.19
229.496	72.19
229.73	60.19
229.964	80.19
230.199	77.19
230.433	71.19
230.667	77.19
230.901	85.19
231.136	73.19
231.37	75.19
231.604	76.19
231.838	83.19
232.072	77.19
232.306	74.19
232.541	66.19
232.775	90.19
233.009	79.19
233.243	79.19
233.477	81.19
233.711	72.19
233.945	74.19
234.179	66.19
234.413	90.19
234.647	76.19
234.881	63.19
235.115	91.19
235.349	87.19
235.583	88.19
235.817	78.19
236.051	73.19
236.285	90.19
236.519	94.19
236.753	85.19
236.987	79.19
237.221	77.19
237.455	82.19
237.689	69.19
237.922	81.19
238.156	73.19
238.39	73.19
238.624	79.19
238.858	82.19
239.091	77.19
239.325	77.19
239.559	67.19
239.793	75.19
240.027	89.19
240.26	82.19
240.494	81.19
240.728	91.19
240.961	76.19
241.195	84.19
241.429	74.19
241.662	86.19
241.896	85.19
242.13	82.19
242.363	84.19
242.597	71.19
242.83	79.19
243.064	95.19
243.298	75.19
243.531	79.19
243.765	91.19
243.998	87.19
244.232	95.19
244.465	87.19
244.699	88.19
244.932	77.19
245.166	83.19
245.399	80.19
245.633	78.19
245.866	91.19
246.099	75.19
246.333	89.19
246.566	89.19
246.8	64.19
247.033	90.19
247.266	81.19
247.5	88.19
247.733	75.19
247.966	93.19
248.2	86.19
248.433	73.19
248.666	93.19
248.899	80.19
249.133	82.19
249.366	95.19
249.599	91.19
249.832	98.19
250.066	92.19
250.299	86.19
250.532	91.19
250.765	72.19
250.998	92.19
251.231	64.19
251.465	82.19
251.698	81.19
251.931	103.19
252.164	104.19
252.397	89.19
252.63	85.19
252.863	71.19
253.096	76.19
253.329	81.19
253.562	94.19
253.795	84.19
254.028	86.19
254.261	74.19
254.494	87.19
254.727	95.19
254.96	82.19
255.193	85.19
255.426	91.19
255.659	94.19
255.892	92.19
256.124	105.19
256.357	92.19
256.59	79.19
256.823	75.19
257.056	80.19
257.289	94.19
257.521	91.19
257.754	92.19
257.987	107.19
258.22	96.19
258.452	87.19
258.685	79.19
258.918	98.19
259.151	80.19
259.383	95.19
259.616	76.19
259.849	80.19
260.081	102.19
260.314	107.19
260.547	84.19
260.779	88.19
261.012	101.19
261.244	91.19
261.477	92.19
261.71	85.19
261.942	82.19
262.175	90.19
262.407	93.19
262.64	94.19
262.872	93.19
263.105	110.19
263.337	107.19
263.57	89.19
263.802	91.19
264.035	87.19
264.267	92.19
264.499	95.19
264.732	100.19
264.964	96.19
265.197	88.19
265.429	95.19
265.661	113.19
265.894	94.19
266.126	104.19
266.358	108.19
266.591	103.19
266.823	108.19
267.055	98.19
267.287	102.19
267.52	96.19
267.752	97.19
267.984	104.19
268.216	89.19
268.448	111.19
268.681	91.19
268.913	109.19
269.145	92.19
269.377	88.19
269.609	89.19
269.841	96.19
270.073	104.19
270.306	88.19
270.538	100.19
270.77	83.19
271.002	96.19
271.234	105.19
271.466	93.19
271.698	101.19
271.93	91.19
272.162	122.19
272.394	96.19
272.626	94.19
272.858	93.19
273.09	97.19
273.322	115.19
273.553	98.19
273.785	94.19
274.017	112.19
274.249	101.19
274.481	111.19
274.713	112.19
274.945	87.19
275.176	87.19
275.408	106.19
275.64	95.19
275.872	109.19
276.104	104.19
276.335	91.19
276.567	96.19
276.799	107.19
277.031	101.19
277.262	109.19
277.494	116.19
277.726	110.19
277.957	98.19
278.189	95.19
278.421	81.19
278.652	111.19
278.884	116.19
279.115	96.19
279.347	97.19
279.579	104.19
279.81	98.19
280.042	114.19
280.273	92.19
280.505	117.19
280.736	103.19
280.968	100.19
281.199	111.19
281.431	93.19
281.662	91.19
281.894	110.19
282.125	96.19
282.356	106.19
282.588	115.19
282.819	99.19
283.051	113.19
283.282	101.19
283.513	114.19
283.745	105.19
283.976	113.19
284.207	95.19
284.439	101.19
284.67	95.19
284.901	112.19
285.132	119.19
285.364	113.19
285.595	111.19
285.826	116.19
286.057	111.19
286.288	124.19
286.52	107.19
286.751	120.19
286.982	120.19
287.213	106.19
287.444	123.19
287.675	103.19
287.906	99.19
288.138	115.19
288.369	99.19
288.6	101.19
288.831	121.19
289.062	108.19
289.293	109.19
289.524	110.19
289.755	99.19
289.986	118.19
290.217	126.19
290.448	111.19
290.679	124.19
290.91	133.19
291.141	115.19
291.371	141.19
291.602	125.19
291.833	118.19
292.064	114.19
292.295	111.19
292.526	105.19
292.757	109.19
292.987	105.19
293.218	113.19
293.449	117.19
293.68	123.19
293.91	108.19
294.141	115.19
294.372	99.19
294.603	110.19
294.833	119.19
295.064	122.19
295.295	104.19
295.525	112.19
295.756	118.19
295.987	121.19
296.217	101.19
296.448	107.19
296.679	118.19
296.909	115.19
297.14	136.19
297.37	131.19
297.601	111.19
297.831	119.19
298.062	129.19
298.292	100.19
298.523	117.19
298.753	119.19
298.984	119.19
299.214	132.19
299.445	114.19
299.675	108.19
299.905	120.19
300.136	125.19
300.366	115.19
300.597	133.19
300.827	124.19
301.057	119.19
301.288	115.19
301.518	124.19
301.748	104.19
301.979	145.19
302.209	122.19
302.439	132.19
302.669	121.19
302.9	121.19
303.13	128.19
303.36	119.19
303.59	128.19
303.82	121.19
304.051	126.19
304.281	124.19
304.511	128.19
304.741	113.19
304.971	125.19
305.201	128.19
305.431	132.19
305.661	128.19
305.891	130.19
306.121	121.19
306.352	135.19
306.582	129.19
306.812	112.19
307.042	109.19
307.272	120.19
307.502	108.19
307.731	122.19
307.961	124.19
308.191	121.19
308.421	115.19
308.651	124.19
308.881	139.19
309.111	120.19
309.341	118.19
309.571	118.19
309.8	120.19
310.03	113.19
310.26	119.19
310.49	114.19
310.72	127.19
310.949	122.19
311.179	125.19
311.409	124.19
311.639	123.19
311.868	126.19
312.098	119.19
312.328	126.19
312.557	130.19
312.787	106.19
313.017	124.19
313.246	127.19
313.476	114.19
313.706	125.19
313.935	124.19
314.165	121.19
314.394	127.19
314.624	139.19
314.853	123.19
315.083	119.19
315.312	122.19
315.542	122.19
315.771	114.19
316.001	118.19
316.23	124.19
316.46	120.19
316.689	116.19
316.919	123.19
317.148	115.19
317.377	148.19
317.607	125.19
317.836	122.19
318.065	113.19
318.295	120.19
318.524	122.19
318.753	133.19
318.983	123.19
319.212	116.19
319.441	126.19
319.67	113.19
319.9	119.19
320.129	124.19
320.358	114.19
320.587	121.19
320.816	127.19
321.046	117.19
321.275	125.19
321.504	117.19
321.733	139.19
321.962	128.19
322.191	124.19
322.42	101.19
322.649	114.19
322.878	135.19
323.108	124.19
323.337	141.19
323.566	129.19
323.795	118.19
324.024	128.19
324.253	116.19
324.482	123.19
324.71	122.19
324.939	132.19
325.168	126.19
325.397	131.19
325.626	126.19
325.855	120.19
326.084	127.19
326.313	133.19
326.542	131.19
326.77	124.19
326.999	115.19
327.228	122.19
327.457	115.19
327.686	121.19
327.914	122.19
328.143	120.19
328.372	125.19
328.6	133.19
328.829	126.19
329.058	130.19
329.287	148.19
329.515	130.19
329.744	143.19
329.972	125.19
330.201	140.19
330.43	137.19
330.658	127.19
330.887	129.19
331.115	131.19
331.344	130.19
331.572	140.19
331.801	127.19
332.03	116.19
332.258	130.19
332.486	134.19
332.715	137.19
332.943	129.19
333.172	156.19
333.4	153.19
333.629	162.19
333.857	155.19
334.085	169.19
334.314	156.19
334.542	146.19
334.771	139.19
334.999	136.19
335.227	134.19
335.455	152.19
335.684	158.19
335.912	158.19
336.14	143.19
336.369	141.19
336.597	141.19
336.825	150.19
337.053	130.19
337.281	148.19
337.51	143.19
337.738	137.19
337.966	119.19
338.194	127.19
338.422	128.19
338.65	138.19
338.878	137.19
339.106	143.19
339.334	135.19
339.562	136.19
339.79	124.19
340.018	130.19
340.246	137.19
340.474	115.19
340.702	116.19
340.93	124.19
341.158	117.19
341.386	119.19
341.614	131.19
341.842	120.19
342.07	131.19
342.298	129.19
342.526	144.19
342.754	137.19
342.981	135.19
343.209	130.19
343.437	157.19
343.665	149.19
343.893	154.19
344.12	159.19
344.348	152.19
344.576	121.19
344.804	132.19
345.031	132.19
345.259	130.19
345.487	141.19
345.714	122.19
345.942	126.19
346.17	140.19
346.397	129.19
346.625	128.19
346.853	128.19
347.08	140.19
347.308	126.19
347.535	134.19
347.763	123.19
347.99	132.19
348.218	122.19
348.445	127.19
348.673	132.19
348.9	133.19
349.128	128.19
349.355	115.19
349.583	123.19
349.81	126.19
350.037	120.19
350.265	132.19
350.492	115.19
350.72	124.19
350.947	141.19
351.174	138.19
351.402	125.19
351.629	113.19
351.856	124.19
352.083	127.19
352.311	126.19
352.538	103.19
352.765	126.19
352.992	141.19
353.22	139.19
353.447	127.19
353.674	137.19
353.901	126.19
354.128	124.19
354.355	124.19
354.583	109.19
354.81	135.19
355.037	138.19
355.264	107.19
355.491	122.19
355.718	126.19
355.945	113.19
356.172	120.19
356.399	130.19
356.626	119.19
356.853	130.19
357.08	141.19
357.307	127.19
357.534	122.19
357.761	136.19
357.988	137.19
358.215	139.19
358.441	125.19
358.668	127.19
358.895	117.19
359.122	134.19
359.349	128.19
359.576	120.19
359.802	129.19
360.029	132.19
360.256	131.19
360.483	128.19
360.709	135.19
360.936	151.19
361.163	140.19
361.39	126.19
361.616	123.19
361.843	135.19
362.07	131.19
362.296	120.19
362.523	138.19
362.749	123.19
362.976	117.19
363.203	141.19
363.429	136.19
363.656	130.19
363.882	122.19
364.109	132.19
364.335	136.19
364.562	138.19
364.788	131.19
365.015	135.19
365.241	131.19
365.468	135.19
365.694	134.19
365.92	130.19
366.147	121.19
366.373	113.19
366.599	123.19
366.826	124.19
367.052	135.19
367.278	132.19
367.505	119.19
367.731	143.19
367.957	137.19
368.184	115.19
368.41	123.19
368.636	137.19
368.862	145.19
369.089	119.19
369.315	129.19
369.541	142.19
369.767	145.19
369.993	113.19
370.219	137.19
370.445	130.19
370.672	139.19
370.898	127.19
371.124	139.19
371.35	115.19
371.576	125.19
371.802	131.19
372.028	128.19
372.254	116.19
372.48	136.19
372.706	123.19
372.932	142.19
373.158	139.19
373.384	141.19
373.61	125.19
373.835	116.19
374.061	132.19
374.287	128.19
374.513	140.19
374.739	145.19
374.965	133.19
375.191	135.19
375.416	158.19
375.642	142.19
375.868	139.19
376.094	136.19
376.319	119.19
376.545	128.19
376.771	138.19
376.997	143.19
377.222	120.19
377.448	140.19
377.674	148.19
377.899	129.19
378.125	135.19
378.35	120.19
378.576	123.19
378.802	137.19
379.027	136.19
379.253	139.19
379.478	144.19
379.704	147.19
379.929	132.19
380.155	139.19
380.38	129.19
380.606	149.19
380.831	141.19
381.057	142.19
381.282	138.19
381.507	142.19
381.733	133.19
381.958	129.19
382.184	133.19
382.409	137.19
382.634	155.19
382.86	166.19
383.085	148.19
383.31	141.19
383.535	155.19
383.761	159.19
383.986	160.19
384.211	160.19
384.436	149.19
384.662	161.19
384.887	166.19
385.112	161.19
385.337	159.19
385.562	144.19
385.787	145.19
386.013	170.19
386.238	141.19
386.463	151.19
386.688	175.19
386.913	144.19
387.138	147.19
387.363	151.19
387.588	148.19
387.813	139.19
388.038	170.19
388.263	155.19
388.488	167.19
388.713	158.19
388.938	143.19
389.163	159.19
389.387	149.19
389.612	144.19
389.837	139.19
390.062	146.19
390.287	132.19
390.512	139.19
390.736	151.19
390.961	166.19
391.186	151.19
391.411	154.19
391.636	161.19
391.86	172.19
392.085	171.19
392.31	156.19
392.534	143.19
392.759	167.19
392.984	169.19
393.208	138.19
393.433	175.19
393.658	168.19
393.882	151.19
394.107	159.19
394.331	164.19
394.556	141.19
394.78	143.19
395.005	165.19
395.229	163.19
395.454	170.19
395.678	165.19
395.903	161.19
396.127	153.19
396.352	159.19
396.576	147.19
396.801	149.19
397.025	161.19
397.249	156.19
397.474	172.19
397.698	153.19
397.922	170.19
398.147	144.19
398.371	178.19
398.595	165.19
398.82	183.19
399.044	180.19
399.268	185.19
399.492	205.19
399.717	216.19
399.941	214.19
400.165	187.19
400.389	186.19
400.613	176.19
400.837	171.19
401.062	168.19
401.286	169.19
401.51	169.19
401.734	172.19
401.958	180.19
402.182	173.19
402.406	170.19
402.63	167.19
402.854	189.19
403.078	181.19
403.302	174.19
403.526	179.19
403.75	178.19
403.974	190.19
404.198	181.19
404.422	188.19
404.645	185.19
404.869	176.19
405.093	172.19
405.317	183.19
405.541	191.19
405.765	184.19
405.988	181.19
406.212	174.19
406.436	172.19
406.66	203.19
406.883	165.19
407.107	194.19
407.331	199.19
407.555	208.19
407.778	193.19
408.002	191.19
408.226	199.19
408.449	179.19
408.673	181.19
408.896	170.19
409.12	169.19
409.344	185.19
409.567	186.19
409.791	190.19
410.014	185.19
410.238	184.19
410.461	192.19
410.685	199.19
410.908	187.19
411.132	180.19
411.355	178.19
411.578	185.19
411.802	171.19
412.025	165.19
412.249	183.19
412.472	181.19
412.695	180.19
412.919	162.19
413.142	175.19
413.365	183.19
413.589	190.19
413.812	173.19
414.035	183.19
414.258	185.19
414.482	161.19
414.705	168.19
414.928	172.19
415.151	163.19
415.374	173.19
415.597	176.19
415.821	183.19
416.044	177.19
416.267	180.19
416.49	171.19
416.713	175.19
416.936	175.19
417.159	170.19
417.382	187.19
417.605	174.19
417.828	177.19
418.051	167.19
418.274	176.19
418.497	169.19
418.72	191.19
418.943	184.19
419.166	172.19
419.389	186.19
419.611	191.19
419.834	188.19
420.057	185.19
420.28	174.19
420.503	171.19
420.726	179.19
420.948	166.19
421.171	176.19
421.394	175.19
421.617	156.19
421.839	168.19
422.062	159.19
422.285	171.19
422.507	175.19
422.73	176.19
422.953	181.19
423.175	185.19
423.398	183.19
423.621	187.19
423.843	170.19
424.066	189.19
424.288	175.19
424.511	180.19
424.733	179.19
424.956	177.19
425.178	169.19
425.401	176.19
425.623	180.19
425.846	172.19
426.068	169.19
426.291	185.19
426.513	175.19
426.735	163.19
426.958	164.19
427.18	168.19
427.402	173.19
427.625	170.19
427.847	164.19
428.069	173.19
428.292	165.19
428.514	171.19
428.736	157.19
428.958	175.19
429.181	143.19
429.403	154.19
429.625	170.19
429.847	164.19
430.069	176.19
430.292	177.19
430.514	165.19
430.736	154.19
430.958	163.19
431.18	151.19
431.402	160.19
431.624	163.19
431.846	154.19
432.068	166.19
432.29	153.19
432.512	177.19
432.734	160.19
432.956	157.19
433.178	168.19
433.4	166.19
433.622	185.19
433.844	164.19
434.066	158.19
434.287	162.19
434.509	154.19
434.731	184.19
434.953	183.19
435.175	184.19
435.397	188.19
435.618	153.19
435.84	162.19
436.062	160.19
436.284	171.19
436.505	156.19
436.727	164.19
436.949	160.19
437.17	153.19
437.392	148.19
437.614	149.19
437.835	152.19
438.057	161.19
438.278	149.19
438.5	149.19
438.721	160.19
438.943	161.19
439.165	170.19
439.386	166.19
439.608	173.19
439.829	172.19
440.05	161.19
440.272	164.19
440.493	185.19
440.715	173.19
440.936	172.19
441.158	162.19
441.379	177.19
441.6	177.19
441.822	171.19
442.043	181.19
442.264	174.19
442.486	165.19
442.707	167.19
442.928	180.19
443.149	168.19
443.371	180.19
443.592	159.19
443.813	173.19
444.034	180.19
444.255	168.19
444.476	176.19
444.698	192.19
444.919	203.19
445.14	441.19
445.361	286.19
445.582	171.19
445.803	168.19
446.024	165.19
446.245	177.19
446.466	176.19
446.687	165.19
446.908	159.19
447.129	164.19
447.35	157.19
447.571	158.19
447.792	163.19
448.013	151.19
448.234	164.19
448.455	161.19
448.675	164.19
448.896	143.19
449.117	166.19
449.338	164.19
449.559	156.19
449.779	166.19
450	154.19
450.221	152.19
450.442	140.19
450.662	154.19
450.883	135.19
451.104	157.19
451.324	148.19
451.545	174.19
451.766	159.19
451.986	133.19
452.207	141.19
452.428	154.19
452.648	161.19
452.869	159.19
453.089	159.19
453.31	164.19
453.53	153.19
453.751	142.19
453.971	158.19
454.192	168.19
454.412	155.19
454.633	149.19
454.853	154.19
455.073	164.19
455.294	142.19
455.514	164.19
455.734	130.19
455.955	147.19
456.175	131.19
456.395	147.19
456.616	149.19
456.836	150.19
457.056	148.19
457.276	136.19
457.497	137.19
457.717	147.19
457.937	145.19
458.157	148.19
458.377	165.19
458.598	155.19
458.818	156.19
459.038	170.19
459.258	155.19
459.478	149.19
459.698	166.19
459.918	178.19
460.138	186.19
460.358	174.19
460.578	178.19
460.798	187.19
461.018	185.19
461.238	178.19
461.458	186.19
461.678	183.19
461.898	194.19
462.118	176.19
462.338	188.19
462.558	193.19
462.777	199.19
462.997	213.19
463.217	196.19
463.437	212.19
463.657	209.19
463.876	195.19
464.096	188.19
464.316	195.19
464.536	196.19
464.755	207.19
464.975	199.19
465.195	186.19
465.414	173.19
465.634	166.19
465.854	156.19
466.073	170.19
466.293	160.19
466.512	160.19
466.732	147.19
466.951	154.19
467.171	157.19
467.391	155.19
467.61	166.19
467.829	150.19
468.049	142.19
468.268	167.19
468.488	140.19
468.707	157.19
468.927	167.19
469.146	163.19
469.365	175.19
469.585	175.19
469.804	177.19
470.023	161.19
470.243	177.19
470.462	156.19
470.681	156.19
470.901	168.19
471.12	160.19
471.339	158.19
471.558	176.19
471.777	157.19
471.997	146.19
472.216	161.19
472.435	143.19
472.654	144.19
472.873	157.19
473.092	169.19
473.311	143.19
473.53	150.19
473.749	171.19
473.968	189.19
474.187	152.19
474.406	160.19
474.625	171.19
474.844	149.19
475.063	132.19
475.282	160.19
475.501	161.19
475.72	175.19
475.939	171.19
476.158	152.19
476.377	172.19
476.596	155.19
476.814	154.19
477.033	173.19
477.252	162.19
477.471	139.19
477.69	166.19
477.908	165.19
478.127	184.19
478.346	164.19
478.564	172.19
478.783	167.19
479.002	169.19
479.22	177.19
479.439	193.19
479.658	184.19
479.876	180.19
480.095	175.19
480.313	207.19
480.532	178.19
480.751	169.19
480.969	153.19
481.188	156.19
481.406	174.19
481.624	175.19
481.843	174.19
482.061	174.19
482.28	183.19
482.498	170.19
482.717	158.19
482.935	162.19
483.153	168.19
483.372	171.19
483.59	181.19
483.808	159.19
484.027	156.19
484.245	169.19
484.463	175.19
484.681	178.19
484.9	180.19
485.118	164.19
485.336	167.19
485.554	157.19
485.772	173.19
485.99	168.19
486.209	181.19
486.427	171.19
486.645	163.19
486.863	175.19
487.081	179.19
487.299	163.19
487.517	184.19
487.735	178.19
487.953	171.19
488.171	187.19
488.389	176.19
488.607	157.19
488.825	168.19
489.043	185.19
489.261	183.19
489.479	183.19
489.696	187.19
489.914	182.19
490.132	159.19
490.35	175.19
490.568	178.19
490.786	197.19
491.003	176.19
491.221	168.19
491.439	170.19
491.657	175.19
491.874	196.19
492.092	167.19
492.31	194.19
492.527	186.19
492.745	176.19
492.963	188.19
493.18	193.19
493.398	190.19
493.615	181.19
493.833	178.19
494.05	187.19
494.268	175.19
494.485	190.19
494.703	175.19
494.92	192.19
495.138	178.19
495.355	195.19
495.573	199.19
495.79	185.19
496.008	196.19
496.225	187.19
496.442	186.19
496.66	194.19
496.877	194.19
497.094	195.19
497.312	212.19
497.529	206.19
497.746	201.19
497.963	200.19
498.181	209.19
498.398	209.19
498.615	224.19
498.832	211.19
499.049	236.19
499.267	239.19
499.484	266.19
499.701	316.19
499.918	325.19
500.135	360.19
500.352	403.19
500.569	432.19
500.786	406.19
501.003	357.19
501.22	315.19
501.437	312.19
501.654	280.19
501.871	271.19
502.088	231.19
502.305	238.19
502.522	233.19
502.739	220.19
502.956	222.19
503.172	193.19
503.389	199.19
503.606	183.19
503.823	186.19
504.04	209.19
504.256	203.19
504.473	197.19
504.69	201.19
504.907	208.19
505.123	185.19
505.34	188.19
