Data from SampD_HRD10591_00034.txt Node
Date: Mon Jan 19 11:41:32 EST 2026
User: Yrep
Spectrometer: HR+D1059
Trigger mode: 0
Integration Time (sec): 3.443000E-1
Scans to average: 1
Electric dark correction enabled: true
Nonlinearity correction enabled: false
Boxcar width: 0
XAxis mode: Wavelengths
Number of Pixels in Spectrum: 2048
>>>>>Begin Spectral Data<<<<<
223.165	-28.69
223.4	-28.69
223.635	-28.69
223.869	-22.69
224.104	-18.69
224.338	-8.69
224.573	-11.69
224.808	-12.69
225.042	-17.69
225.277	-4.69
225.511	3.31
225.746	7.31
225.98	-1.69
226.215	5.31
226.449	31.31
226.683	16.31
226.918	25.31
227.152	38.31
227.387	28.31
227.621	47.31
227.856	43.31
228.09	47.31
228.324	49.31
228.559	69.31
228.793	59.31
229.027	62.31
229.262	60.31
229.496	87.31
229.73	61.31
229.964	76.31
230.199	73.31
230.433	67.31
230.667	87.31
230.901	71.31
231.136	84.31
231.37	91.31
231.604	88.31
231.838	86.31
232.072	95.31
232.306	83.31
232.541	73.31
232.775	84.31
233.009	95.31
233.243	77.31
233.477	83.31
233.711	88.31
233.945	91.31
234.179	89.31
234.413	86.31
234.647	72.31
234.881	79.31
235.115	72.31
235.349	84.31
235.583	81.31
235.817	100.31
236.051	93.31
236.285	84.31
236.519	71.31
236.753	97.31
236.987	81.31
237.221	80.31
237.455	97.31
237.689	72.31
237.922	67.31
238.156	68.31
238.39	86.31
238.624	79.31
238.858	75.31
239.091	83.31
239.325	98.31
239.559	87.31
239.793	84.31
240.027	83.31
240.26	84.31
240.494	85.31
240.728	86.31
240.961	75.31
241.195	81.31
241.429	98.31
241.662	70.31
241.896	73.31
242.13	75.31
242.363	93.31
242.597	73.31
242.83	96.31
243.064	86.31
243.298	85.31
243.531	81.31
243.765	76.31
243.998	88.31
244.232	102.31
244.465	92.31
244.699	77.31
244.932	88.31
245.166	95.31
245.399	89.31
245.633	87.31
245.866	84.31
246.099	75.31
246.333	83.31
246.566	91.31
246.8	97.31
247.033	89.31
247.266	80.31
247.5	67.31
247.733	95.31
247.966	83.31
248.2	80.31
248.433	79.31
248.666	82.31
248.899	88.31
249.133	96.31
249.366	99.31
249.599	87.31
249.832	96.31
250.066	81.31
250.299	87.31
250.532	92.31
250.765	87.31
250.998	86.31
251.231	76.31
251.465	109.31
251.698	75.31
251.931	77.31
252.164	84.31
252.397	94.31
252.63	101.31
252.863	82.31
253.096	89.31
253.329	100.31
253.562	86.31
253.795	94.31
254.028	102.31
254.261	79.31
254.494	89.31
254.727	79.31
254.96	77.31
255.193	69.31
255.426	95.31
255.659	88.31
255.892	97.31
256.124	81.31
256.357	71.31
256.59	71.31
256.823	86.31
257.056	101.31
257.289	80.31
257.521	81.31
257.754	98.31
257.987	102.31
258.22	97.31
258.452	96.31
258.685	76.31
258.918	67.31
259.151	84.31
259.383	87.31
259.616	81.31
259.849	98.31
260.081	83.31
260.314	102.31
260.547	100.31
260.779	91.31
261.012	92.31
261.244	91.31
261.477	111.31
261.71	91.31
261.942	92.31
262.175	83.31
262.407	87.31
262.64	91.31
262.872	87.31
263.105	91.31
263.337	102.31
263.57	77.31
263.802	84.31
264.035	99.31
264.267	90.31
264.499	86.31
264.732	101.31
264.964	93.31
265.197	88.31
265.429	89.31
265.661	92.31
265.894	90.31
266.126	97.31
266.358	77.31
266.591	94.31
266.823	81.31
267.055	98.31
267.287	90.31
267.52	85.31
267.752	98.31
267.984	93.31
268.216	95.31
268.448	110.31
268.681	86.31
268.913	102.31
269.145	87.31
269.377	85.31
269.609	87.31
269.841	86.31
270.073	94.31
270.306	97.31
270.538	101.31
270.77	87.31
271.002	89.31
271.234	89.31
271.466	99.31
271.698	102.31
271.93	102.31
272.162	105.31
272.394	96.31
272.626	101.31
272.858	94.31
273.09	108.31
273.322	88.31
273.553	93.31
273.785	101.31
274.017	91.31
274.249	94.31
274.481	92.31
274.713	92.31
274.945	109.31
275.176	75.31
275.408	103.31
275.64	89.31
275.872	93.31
276.104	102.31
276.335	86.31
276.567	98.31
276.799	92.31
277.031	84.31
277.262	85.31
277.494	88.31
277.726	81.31
277.957	91.31
278.189	98.31
278.421	105.31
278.652	92.31
278.884	90.31
279.115	89.31
279.347	97.31
279.579	103.31
279.81	99.31
280.042	97.31
280.273	92.31
280.505	102.31
280.736	96.31
280.968	104.31
281.199	83.31
281.431	90.31
281.662	95.31
281.894	98.31
282.125	111.31
282.356	98.31
282.588	88.31
282.819	96.31
283.051	98.31
283.282	90.31
283.513	101.31
283.745	104.31
283.976	95.31
284.207	92.31
284.439	103.31
284.67	98.31
284.901	103.31
285.132	106.31
285.364	92.31
285.595	98.31
285.826	106.31
286.057	96.31
286.288	104.31
286.52	109.31
286.751	102.31
286.982	104.31
287.213	93.31
287.444	113.31
287.675	112.31
287.906	120.31
288.138	103.31
288.369	112.31
288.6	110.31
288.831	98.31
289.062	111.31
289.293	102.31
289.524	100.31
289.755	90.31
289.986	110.31
290.217	113.31
290.448	102.31
290.679	112.31
290.91	125.31
291.141	94.31
291.371	116.31
291.602	110.31
291.833	109.31
292.064	93.31
292.295	99.31
292.526	89.31
292.757	100.31
292.987	101.31
293.218	109.31
293.449	97.31
293.68	101.31
293.91	97.31
294.141	118.31
294.372	103.31
294.603	102.31
294.833	101.31
295.064	95.31
295.295	109.31
295.525	99.31
295.756	100.31
295.987	113.31
296.217	109.31
296.448	116.31
296.679	111.31
296.909	119.31
297.14	96.31
297.37	94.31
297.601	112.31
297.831	104.31
298.062	110.31
298.292	103.31
298.523	116.31
298.753	116.31
298.984	122.31
299.214	117.31
299.445	100.31
299.675	105.31
299.905	110.31
300.136	105.31
300.366	112.31
300.597	102.31
300.827	102.31
301.057	121.31
301.288	113.31
301.518	105.31
301.748	97.31
301.979	149.31
302.209	109.31
302.439	96.31
302.669	113.31
302.9	107.31
303.13	108.31
303.36	98.31
303.59	111.31
303.82	109.31
304.051	98.31
304.281	112.31
304.511	123.31
304.741	102.31
304.971	105.31
305.201	119.31
305.431	125.31
305.661	102.31
305.891	94.31
306.121	104.31
306.352	99.31
306.582	104.31
306.812	106.31
307.042	112.31
307.272	94.31
307.502	95.31
307.731	106.31
307.961	101.31
308.191	102.31
308.421	100.31
308.651	111.31
308.881	104.31
309.111	121.31
309.341	101.31
309.571	104.31
309.8	92.31
310.03	115.31
310.26	107.31
310.49	99.31
310.72	97.31
310.949	100.31
311.179	107.31
311.409	111.31
311.639	96.31
311.868	119.31
312.098	110.31
312.328	108.31
312.557	119.31
312.787	111.31
313.017	108.31
313.246	109.31
313.476	94.31
313.706	114.31
313.935	109.31
314.165	94.31
314.394	107.31
314.624	98.31
314.853	105.31
315.083	100.31
315.312	136.31
315.542	117.31
315.771	117.31
316.001	104.31
316.23	103.31
316.46	113.31
316.689	104.31
316.919	114.31
317.148	118.31
317.377	109.31
317.607	121.31
317.836	104.31
318.065	104.31
318.295	108.31
318.524	116.31
318.753	103.31
318.983	116.31
319.212	127.31
319.441	99.31
319.67	102.31
319.9	94.31
320.129	104.31
320.358	115.31
320.587	99.31
320.816	105.31
321.046	105.31
321.275	103.31
321.504	101.31
321.733	96.31
321.962	100.31
322.191	111.31
322.42	100.31
322.649	115.31
322.878	103.31
323.108	112.31
323.337	119.31
323.566	117.31
323.795	126.31
324.024	114.31
324.253	94.31
324.482	105.31
324.71	122.31
324.939	112.31
325.168	111.31
325.397	118.31
325.626	110.31
325.855	116.31
326.084	96.31
326.313	104.31
326.542	104.31
326.77	113.31
326.999	111.31
327.228	104.31
327.457	97.31
327.686	119.31
327.914	128.31
328.143	128.31
328.372	105.31
328.6	118.31
328.829	111.31
329.058	116.31
329.287	102.31
329.515	122.31
329.744	127.31
329.972	93.31
330.201	113.31
330.43	104.31
330.658	113.31
330.887	111.31
331.115	115.31
331.344	100.31
331.572	114.31
331.801	109.31
332.03	105.31
332.258	127.31
332.486	116.31
332.715	125.31
332.943	111.31
333.172	123.31
333.4	128.31
333.629	119.31
333.857	117.31
334.085	125.31
334.314	124.31
334.542	135.31
334.771	118.31
334.999	116.31
335.227	124.31
335.455	107.31
335.684	116.31
335.912	114.31
336.14	116.31
336.369	114.31
336.597	111.31
336.825	113.31
337.053	94.31
337.281	109.31
337.51	112.31
337.738	137.31
337.966	111.31
338.194	102.31
338.422	116.31
338.65	117.31
338.878	110.31
339.106	110.31
339.334	132.31
339.562	108.31
339.79	121.31
340.018	110.31
340.246	111.31
340.474	115.31
340.702	123.31
340.93	112.31
341.158	117.31
341.386	112.31
341.614	94.31
341.842	112.31
342.07	124.31
342.298	115.31
342.526	121.31
342.754	104.31
342.981	107.31
343.209	113.31
343.437	143.31
343.665	113.31
343.893	125.31
344.12	124.31
344.348	123.31
344.576	113.31
344.804	101.31
345.031	118.31
345.259	115.31
345.487	120.31
345.714	111.31
345.942	97.31
346.17	118.31
346.397	116.31
346.625	109.31
346.853	124.31
347.08	100.31
347.308	119.31
347.535	105.31
347.763	113.31
347.99	111.31
348.218	125.31
348.445	127.31
348.673	110.31
348.9	112.31
349.128	116.31
349.355	101.31
349.583	111.31
349.81	112.31
350.037	96.31
350.265	102.31
350.492	105.31
350.72	112.31
350.947	111.31
351.174	115.31
351.402	109.31
351.629	96.31
351.856	121.31
352.083	97.31
352.311	129.31
352.538	116.31
352.765	102.31
352.992	115.31
353.22	120.31
353.447	101.31
353.674	114.31
353.901	124.31
354.128	119.31
354.355	113.31
354.583	132.31
354.81	96.31
355.037	113.31
355.264	124.31
355.491	112.31
355.718	103.31
355.945	115.31
356.172	99.31
356.399	108.31
356.626	107.31
356.853	113.31
357.08	117.31
357.307	109.31
357.534	108.31
357.761	101.31
357.988	112.31
358.215	109.31
358.441	117.31
358.668	102.31
358.895	94.31
359.122	115.31
359.349	112.31
359.576	113.31
359.802	116.31
360.029	102.31
360.256	108.31
360.483	104.31
360.709	108.31
360.936	132.31
361.163	121.31
361.39	111.31
361.616	115.31
361.843	120.31
362.07	121.31
362.296	122.31
362.523	111.31
362.749	111.31
362.976	111.31
363.203	119.31
363.429	114.31
363.656	104.31
363.882	108.31
364.109	118.31
364.335	132.31
364.562	109.31
364.788	98.31
365.015	113.31
365.241	118.31
365.468	108.31
365.694	113.31
365.92	97.31
366.147	103.31
366.373	114.31
366.599	102.31
366.826	117.31
367.052	105.31
367.278	97.31
367.505	109.31
367.731	128.31
367.957	115.31
368.184	103.31
368.41	104.31
368.636	114.31
368.862	126.31
369.089	109.31
369.315	116.31
369.541	115.31
369.767	117.31
369.993	111.31
370.219	101.31
370.445	103.31
370.672	105.31
370.898	99.31
371.124	93.31
371.35	113.31
371.576	115.31
371.802	109.31
372.028	113.31
372.254	114.31
372.48	111.31
372.706	115.31
372.932	121.31
373.158	118.31
373.384	131.31
373.61	127.31
373.835	111.31
374.061	107.31
374.287	98.31
374.513	116.31
374.739	94.31
374.965	118.31
375.191	123.31
375.416	108.31
375.642	115.31
375.868	113.31
376.094	108.31
376.319	111.31
376.545	109.31
376.771	112.31
376.997	122.31
377.222	109.31
377.448	114.31
377.674	120.31
377.899	118.31
378.125	112.31
378.35	115.31
378.576	101.31
378.802	109.31
379.027	109.31
379.253	124.31
379.478	109.31
379.704	109.31
379.929	109.31
380.155	95.31
380.38	106.31
380.606	119.31
380.831	114.31
381.057	131.31
381.282	112.31
381.507	131.31
381.733	104.31
381.958	115.31
382.184	106.31
382.409	122.31
382.634	124.31
382.86	104.31
383.085	109.31
383.31	109.31
383.535	108.31
383.761	122.31
383.986	123.31
384.211	108.31
384.436	116.31
384.662	119.31
384.887	106.31
385.112	120.31
385.337	128.31
385.562	117.31
385.787	111.31
386.013	124.31
386.238	121.31
386.463	114.31
386.688	134.31
386.913	116.31
387.138	125.31
387.363	121.31
387.588	124.31
387.813	133.31
388.038	113.31
388.263	109.31
388.488	113.31
388.713	120.31
388.938	120.31
389.163	124.31
389.387	116.31
389.612	125.31
389.837	108.31
390.062	125.31
390.287	120.31
390.512	133.31
390.736	138.31
390.961	124.31
391.186	125.31
391.411	123.31
391.636	124.31
391.86	118.31
392.085	137.31
392.31	123.31
392.534	116.31
392.759	125.31
392.984	103.31
393.208	113.31
393.433	130.31
393.658	140.31
393.882	121.31
394.107	126.31
394.331	119.31
394.556	124.31
394.78	136.31
395.005	124.31
395.229	107.31
395.454	128.31
395.678	123.31
395.903	136.31
396.127	146.31
396.352	118.31
396.576	130.31
396.801	127.31
397.025	127.31
397.249	124.31
397.474	149.31
397.698	124.31
397.922	127.31
398.147	115.31
398.371	136.31
398.595	142.31
398.82	121.31
399.044	136.31
399.268	152.31
399.492	155.31
399.717	159.31
399.941	137.31
400.165	159.31
400.389	136.31
400.613	136.31
400.837	140.31
401.062	131.31
401.286	143.31
401.51	136.31
401.734	133.31
401.958	132.31
402.182	129.31
402.406	144.31
402.63	143.31
402.854	147.31
403.078	157.31
403.302	130.31
403.526	152.31
403.75	144.31
403.974	142.31
404.198	131.31
404.422	141.31
404.645	150.31
404.869	146.31
405.093	130.31
405.317	125.31
405.541	138.31
405.765	147.31
405.988	134.31
406.212	140.31
406.436	128.31
406.66	149.31
406.883	133.31
407.107	144.31
407.331	153.31
407.555	151.31
407.778	142.31
408.002	141.31
408.226	142.31
408.449	144.31
408.673	124.31
408.896	156.31
409.12	148.31
409.344	149.31
409.567	128.31
409.791	154.31
410.014	136.31
410.238	142.31
410.461	127.31
410.685	142.31
410.908	133.31
411.132	137.31
411.355	143.31
411.578	135.31
411.802	127.31
412.025	120.31
412.249	130.31
412.472	126.31
412.695	133.31
412.919	117.31
413.142	138.31
413.365	121.31
413.589	134.31
413.812	129.31
414.035	131.31
414.258	143.31
414.482	116.31
414.705	132.31
414.928	150.31
415.151	132.31
415.374	134.31
415.597	124.31
415.821	127.31
416.044	132.31
416.267	118.31
416.49	127.31
416.713	142.31
416.936	151.31
417.159	128.31
417.382	126.31
417.605	123.31
417.828	139.31
418.051	112.31
418.274	128.31
418.497	136.31
418.72	142.31
418.943	125.31
419.166	134.31
419.389	143.31
419.611	131.31
419.834	142.31
420.057	145.31
420.28	131.31
420.503	142.31
420.726	119.31
420.948	158.31
421.171	120.31
421.394	139.31
421.617	129.31
421.839	140.31
422.062	145.31
422.285	130.31
422.507	130.31
422.73	142.31
422.953	125.31
423.175	114.31
423.398	134.31
423.621	128.31
423.843	143.31
424.066	131.31
424.288	150.31
424.511	135.31
424.733	141.31
424.956	147.31
425.178	121.31
425.401	126.31
425.623	119.31
425.846	119.31
426.068	127.31
426.291	140.31
426.513	125.31
426.735	144.31
426.958	132.31
427.18	137.31
427.402	129.31
427.625	128.31
427.847	118.31
428.069	123.31
428.292	122.31
428.514	127.31
428.736	136.31
428.958	121.31
429.181	121.31
429.403	125.31
429.625	137.31
429.847	129.31
430.069	126.31
430.292	127.31
430.514	120.31
430.736	118.31
430.958	112.31
431.18	108.31
431.402	117.31
431.624	117.31
431.846	117.31
432.068	131.31
432.29	126.31
432.512	134.31
432.734	124.31
432.956	131.31
433.178	143.31
433.4	141.31
433.622	135.31
433.844	129.31
434.066	125.31
434.287	125.31
434.509	123.31
434.731	132.31
434.953	126.31
435.175	127.31
435.397	124.31
435.618	115.31
435.84	136.31
436.062	133.31
436.284	116.31
436.505	116.31
436.727	137.31
436.949	129.31
437.17	134.31
437.392	120.31
437.614	109.31
437.835	110.31
438.057	124.31
438.278	133.31
438.5	124.31
438.721	121.31
438.943	118.31
439.165	126.31
439.386	131.31
439.608	112.31
439.829	128.31
440.05	136.31
440.272	131.31
440.493	117.31
440.715	126.31
440.936	142.31
441.158	131.31
441.379	125.31
441.6	141.31
441.822	119.31
442.043	147.31
442.264	117.31
442.486	114.31
442.707	126.31
442.928	134.31
443.149	127.31
443.371	143.31
443.592	130.31
443.813	125.31
444.034	127.31
444.255	147.31
444.476	130.31
444.698	147.31
444.919	137.31
445.14	395.31
445.361	264.31
445.582	147.31
445.803	119.31
446.024	128.31
446.245	141.31
446.466	138.31
446.687	128.31
446.908	136.31
447.129	123.31
447.35	117.31
447.571	125.31
447.792	135.31
448.013	128.31
448.234	134.31
448.455	123.31
448.675	120.31
448.896	109.31
449.117	131.31
449.338	122.31
449.559	135.31
449.779	118.31
450	114.31
450.221	106.31
450.442	131.31
450.662	116.31
450.883	136.31
451.104	127.31
451.324	125.31
451.545	106.31
451.766	120.31
451.986	129.31
452.207	133.31
452.428	123.31
452.648	116.31
452.869	130.31
453.089	115.31
453.31	115.31
453.53	121.31
453.751	119.31
453.971	113.31
454.192	120.31
454.412	109.31
454.633	105.31
454.853	104.31
455.073	114.31
455.294	119.31
455.514	131.31
455.734	131.31
455.955	118.31
456.175	111.31
456.395	114.31
456.616	123.31
456.836	121.31
457.056	119.31
457.276	123.31
457.497	108.31
457.717	112.31
457.937	114.31
458.157	117.31
458.377	130.31
458.598	115.31
458.818	117.31
459.038	123.31
459.258	120.31
459.478	105.31
459.698	127.31
459.918	139.31
460.138	123.31
460.358	139.31
460.578	143.31
460.798	141.31
461.018	144.31
461.238	124.31
461.458	140.31
461.678	136.31
461.898	140.31
462.118	145.31
462.338	124.31
462.558	143.31
462.777	135.31
462.997	161.31
463.217	169.31
463.437	156.31
463.657	159.31
463.876	136.31
464.096	166.31
464.316	146.31
464.536	141.31
464.755	145.31
464.975	140.31
465.195	143.31
465.414	135.31
465.634	136.31
465.854	123.31
466.073	118.31
466.293	144.31
466.512	131.31
466.732	127.31
466.951	119.31
467.171	139.31
467.391	137.31
467.61	117.31
467.829	122.31
468.049	109.31
468.268	120.31
468.488	123.31
468.707	120.31
468.927	124.31
469.146	129.31
469.365	118.31
469.585	120.31
469.804	129.31
470.023	132.31
470.243	113.31
470.462	124.31
470.681	128.31
470.901	134.31
471.12	118.31
471.339	131.31
471.558	121.31
471.777	120.31
471.997	116.31
472.216	131.31
472.435	107.31
472.654	112.31
472.873	113.31
473.092	130.31
473.311	128.31
473.53	121.31
473.749	124.31
473.968	133.31
474.187	121.31
474.406	119.31
474.625	121.31
474.844	128.31
475.063	119.31
475.282	117.31
475.501	121.31
475.72	130.31
475.939	133.31
476.158	136.31
476.377	123.31
476.596	107.31
476.814	142.31
477.033	129.31
477.252	119.31
477.471	131.31
477.69	123.31
477.908	128.31
478.127	137.31
478.346	148.31
478.564	128.31
478.783	137.31
479.002	132.31
479.22	144.31
479.439	136.31
479.658	149.31
479.876	139.31
480.095	126.31
480.313	141.31
480.532	163.31
480.751	147.31
480.969	124.31
481.188	126.31
481.406	132.31
481.624	126.31
481.843	128.31
482.061	125.31
482.28	124.31
482.498	145.31
482.717	136.31
482.935	124.31
483.153	123.31
483.372	140.31
483.59	141.31
483.808	129.31
484.027	136.31
484.245	127.31
484.463	127.31
484.681	135.31
484.9	137.31
485.118	136.31
485.336	131.31
485.554	129.31
485.772	128.31
485.99	146.31
486.209	132.31
486.427	132.31
486.645	151.31
486.863	135.31
487.081	129.31
487.299	127.31
487.517	132.31
487.735	152.31
487.953	129.31
488.171	131.31
488.389	129.31
488.607	125.31
488.825	150.31
489.043	114.31
489.261	157.31
489.479	126.31
489.696	140.31
489.914	139.31
490.132	127.31
490.35	131.31
490.568	138.31
490.786	140.31
491.003	123.31
491.221	139.31
491.439	138.31
491.657	133.31
491.874	147.31
492.092	140.31
492.31	145.31
492.527	139.31
492.745	134.31
492.963	142.31
493.18	135.31
493.398	144.31
493.615	129.31
493.833	134.31
494.05	130.31
494.268	141.31
494.485	129.31
494.703	144.31
494.92	149.31
495.138	131.31
495.355	144.31
495.573	151.31
495.79	143.31
496.008	137.31
496.225	143.31
496.442	136.31
496.66	145.31
496.877	134.31
497.094	124.31
497.312	125.31
497.529	133.31
497.746	138.31
497.963	135.31
498.181	153.31
498.398	137.31
498.615	175.31
498.832	153.31
499.049	160.31
499.267	173.31
499.484	190.31
499.701	187.31
499.918	224.31
500.135	228.31
500.352	252.31
500.569	257.31
500.786	268.31
501.003	254.31
501.22	234.31
501.437	196.31
501.654	189.31
501.871	187.31
502.088	178.31
502.305	182.31
502.522	178.31
502.739	151.31
502.956	156.31
503.172	133.31
503.389	151.31
503.606	131.31
503.823	164.31
504.04	146.31
504.256	169.31
504.473	153.31
504.69	161.31
504.907	174.31
505.123	147.31
505.34	131.31
505.557	131.31
505.773	120.31
505.99	113.31
506.207	140.31
506.423	146.31
