Data from SampD_HRD10591_00091.txt Node
Date: Mon Jan 19 11:41:52 EST 2026
User: Yrep
Spectrometer: HR+D1059
Trigger mode: 0
Integration Time (sec): 3.443000E-1
Scans to average: 1
Electric dark correction enabled: true
Nonlinearity correction enabled: false
Boxcar width: 0
XAxis mode: Wavelengths
Number of Pixels in Spectrum: 2048
>>>>>Begin Spectral Data<<<<<
223.165	-18.81
223.4	-18.81
223.635	-18.81
223.869	-29.81
224.104	-23.81
224.338	-22.81
224.573	-9.81
224.808	-22.81
225.042	-1.81
225.277	3.19
225.511	-14.81
225.746	4.19
225.98	5.19
226.215	24.19
226.449	24.19
226.683	17.19
226.918	27.19
227.152	39.19
227.387	51.19
227.621	40.19
227.856	43.19
228.09	43.19
228.324	48.19
228.559	46.19
228.793	42.19
229.027	66.19
229.262	72.19
229.496	78.19
229.73	70.19
229.964	86.19
230.199	85.19
230.433	82.19
230.667	84.19
230.901	87.19
231.136	69.19
231.37	73.19
231.604	86.19
231.838	83.19
232.072	81.19
232.306	84.19
232.541	89.19
232.775	93.19
233.009	82.19
233.243	84.19
233.477	69.19
233.711	80.19
233.945	77.19
234.179	87.19
234.413	94.19
234.647	83.19
234.881	89.19
235.115	70.19
235.349	85.19
235.583	75.19
235.817	86.19
236.051	82.19
236.285	91.19
236.519	85.19
236.753	99.19
236.987	87.19
237.221	87.19
237.455	79.19
237.689	89.19
237.922	93.19
238.156	97.19
238.39	84.19
238.624	77.19
238.858	95.19
239.091	82.19
239.325	73.19
239.559	101.19
239.793	93.19
240.027	82.19
240.26	70.19
240.494	87.19
240.728	97.19
240.961	88.19
241.195	71.19
241.429	78.19
241.662	64.19
241.896	82.19
242.13	85.19
242.363	73.19
242.597	94.19
242.83	82.19
243.064	94.19
243.298	88.19
243.531	95.19
243.765	84.19
243.998	93.19
244.232	107.19
244.465	97.19
244.699	72.19
244.932	70.19
245.166	81.19
245.399	90.19
245.633	83.19
245.866	101.19
246.099	80.19
246.333	87.19
246.566	97.19
246.8	91.19
247.033	78.19
247.266	92.19
247.5	76.19
247.733	83.19
247.966	81.19
248.2	85.19
248.433	94.19
248.666	89.19
248.899	104.19
249.133	99.19
249.366	110.19
249.599	77.19
249.832	88.19
250.066	97.19
250.299	104.19
250.532	111.19
250.765	94.19
250.998	97.19
251.231	86.19
251.465	86.19
251.698	94.19
251.931	103.19
252.164	100.19
252.397	86.19
252.63	104.19
252.863	93.19
253.096	91.19
253.329	92.19
253.562	85.19
253.795	103.19
254.028	98.19
254.261	102.19
254.494	103.19
254.727	95.19
254.96	90.19
255.193	85.19
255.426	87.19
255.659	75.19
255.892	100.19
256.124	79.19
256.357	106.19
256.59	93.19
256.823	99.19
257.056	86.19
257.289	78.19
257.521	94.19
257.754	97.19
257.987	110.19
258.22	102.19
258.452	103.19
258.685	94.19
258.918	88.19
259.151	87.19
259.383	91.19
259.616	89.19
259.849	96.19
260.081	107.19
260.314	107.19
260.547	97.19
260.779	90.19
261.012	99.19
261.244	102.19
261.477	96.19
261.71	91.19
261.942	95.19
262.175	99.19
262.407	83.19
262.64	81.19
262.872	92.19
263.105	93.19
263.337	104.19
263.57	99.19
263.802	108.19
264.035	95.19
264.267	90.19
264.499	106.19
264.732	109.19
264.964	106.19
265.197	95.19
265.429	109.19
265.661	89.19
265.894	92.19
266.126	122.19
266.358	103.19
266.591	104.19
266.823	100.19
267.055	87.19
267.287	91.19
267.52	101.19
267.752	100.19
267.984	102.19
268.216	95.19
268.448	112.19
268.681	112.19
268.913	129.19
269.145	99.19
269.377	97.19
269.609	82.19
269.841	112.19
270.073	95.19
270.306	102.19
270.538	93.19
270.77	92.19
271.002	96.19
271.234	109.19
271.466	119.19
271.698	107.19
271.93	100.19
272.162	123.19
272.394	108.19
272.626	121.19
272.858	104.19
273.09	100.19
273.322	101.19
273.553	96.19
273.785	99.19
274.017	102.19
274.249	110.19
274.481	104.19
274.713	115.19
274.945	113.19
275.176	98.19
275.408	122.19
275.64	103.19
275.872	121.19
276.104	123.19
276.335	110.19
276.567	98.19
276.799	104.19
277.031	111.19
277.262	96.19
277.494	117.19
277.726	105.19
277.957	108.19
278.189	119.19
278.421	111.19
278.652	103.19
278.884	120.19
279.115	116.19
279.347	112.19
279.579	97.19
279.81	104.19
280.042	109.19
280.273	105.19
280.505	126.19
280.736	105.19
280.968	105.19
281.199	108.19
281.431	115.19
281.662	111.19
281.894	103.19
282.125	115.19
282.356	127.19
282.588	121.19
282.819	111.19
283.051	113.19
283.282	103.19
283.513	115.19
283.745	105.19
283.976	127.19
284.207	108.19
284.439	112.19
284.67	112.19
284.901	130.19
285.132	130.19
285.364	115.19
285.595	109.19
285.826	126.19
286.057	117.19
286.288	114.19
286.52	115.19
286.751	116.19
286.982	114.19
287.213	122.19
287.444	129.19
287.675	120.19
287.906	128.19
288.138	124.19
288.369	112.19
288.6	118.19
288.831	132.19
289.062	114.19
289.293	123.19
289.524	117.19
289.755	118.19
289.986	117.19
290.217	137.19
290.448	113.19
290.679	114.19
290.91	124.19
291.141	117.19
291.371	127.19
291.602	137.19
291.833	126.19
292.064	136.19
292.295	110.19
292.526	109.19
292.757	123.19
292.987	126.19
293.218	130.19
293.449	129.19
293.68	125.19
293.91	118.19
294.141	136.19
294.372	118.19
294.603	123.19
294.833	132.19
295.064	118.19
295.295	124.19
295.525	115.19
295.756	132.19
295.987	126.19
296.217	121.19
296.448	128.19
296.679	112.19
296.909	128.19
297.14	128.19
297.37	123.19
297.601	132.19
297.831	117.19
298.062	129.19
298.292	121.19
298.523	144.19
298.753	118.19
298.984	139.19
299.214	122.19
299.445	118.19
299.675	129.19
299.905	126.19
300.136	113.19
300.366	122.19
300.597	122.19
300.827	125.19
301.057	125.19
301.288	116.19
301.518	131.19
301.748	139.19
301.979	171.19
302.209	132.19
302.439	126.19
302.669	126.19
302.9	132.19
303.13	112.19
303.36	114.19
303.59	118.19
303.82	128.19
304.051	132.19
304.281	132.19
304.511	144.19
304.741	136.19
304.971	125.19
305.201	118.19
305.431	132.19
305.661	134.19
305.891	123.19
306.121	130.19
306.352	132.19
306.582	105.19
306.812	133.19
307.042	133.19
307.272	126.19
307.502	128.19
307.731	134.19
307.961	127.19
308.191	126.19
308.421	124.19
308.651	134.19
308.881	130.19
309.111	142.19
309.341	123.19
309.571	133.19
309.8	138.19
310.03	117.19
310.26	112.19
310.49	116.19
310.72	124.19
310.949	127.19
311.179	129.19
311.409	129.19
311.639	122.19
311.868	110.19
312.098	124.19
312.328	129.19
312.557	129.19
312.787	119.19
313.017	120.19
313.246	128.19
313.476	121.19
313.706	126.19
313.935	149.19
314.165	141.19
314.394	141.19
314.624	127.19
314.853	132.19
315.083	124.19
315.312	131.19
315.542	127.19
315.771	134.19
316.001	128.19
316.23	126.19
316.46	130.19
316.689	134.19
316.919	136.19
317.148	115.19
317.377	154.19
317.607	136.19
317.836	133.19
318.065	129.19
318.295	127.19
318.524	134.19
318.753	139.19
318.983	136.19
319.212	119.19
319.441	140.19
319.67	129.19
319.9	106.19
320.129	136.19
320.358	122.19
320.587	124.19
320.816	134.19
321.046	135.19
321.275	116.19
321.504	133.19
321.733	125.19
321.962	130.19
322.191	115.19
322.42	114.19
322.649	128.19
322.878	126.19
323.108	125.19
323.337	120.19
323.566	133.19
323.795	137.19
324.024	150.19
324.253	133.19
324.482	134.19
324.71	122.19
324.939	144.19
325.168	118.19
325.397	119.19
325.626	119.19
325.855	139.19
326.084	154.19
326.313	148.19
326.542	125.19
326.77	140.19
326.999	126.19
327.228	139.19
327.457	148.19
327.686	132.19
327.914	152.19
328.143	139.19
328.372	137.19
328.6	138.19
328.829	136.19
329.058	139.19
329.287	129.19
329.515	136.19
329.744	143.19
329.972	120.19
330.201	149.19
330.43	147.19
330.658	146.19
330.887	147.19
331.115	151.19
331.344	147.19
331.572	141.19
331.801	132.19
332.03	147.19
332.258	143.19
332.486	146.19
332.715	180.19
332.943	155.19
333.172	167.19
333.4	164.19
333.629	176.19
333.857	165.19
334.085	163.19
334.314	165.19
334.542	149.19
334.771	139.19
334.999	146.19
335.227	149.19
335.455	146.19
335.684	162.19
335.912	164.19
336.14	143.19
336.369	133.19
336.597	161.19
336.825	143.19
337.053	159.19
337.281	150.19
337.51	140.19
337.738	153.19
337.966	143.19
338.194	156.19
338.422	135.19
338.65	155.19
338.878	150.19
339.106	147.19
339.334	166.19
339.562	133.19
339.79	143.19
340.018	135.19
340.246	128.19
340.474	136.19
340.702	129.19
340.93	141.19
341.158	137.19
341.386	142.19
341.614	141.19
341.842	143.19
342.07	126.19
342.298	132.19
342.526	132.19
342.754	132.19
342.981	133.19
343.209	135.19
343.437	176.19
343.665	151.19
343.893	147.19
344.12	160.19
344.348	157.19
344.576	137.19
344.804	131.19
345.031	144.19
345.259	149.19
345.487	156.19
345.714	125.19
345.942	143.19
346.17	143.19
346.397	129.19
346.625	140.19
346.853	134.19
347.08	135.19
347.308	135.19
347.535	143.19
347.763	127.19
347.99	149.19
348.218	127.19
348.445	141.19
348.673	149.19
348.9	138.19
349.128	143.19
349.355	142.19
349.583	138.19
349.81	120.19
350.037	137.19
350.265	132.19
350.492	151.19
350.72	130.19
350.947	134.19
351.174	131.19
351.402	114.19
351.629	123.19
351.856	142.19
352.083	139.19
352.311	140.19
352.538	148.19
352.765	154.19
352.992	148.19
353.22	139.19
353.447	136.19
353.674	129.19
353.901	144.19
354.128	116.19
354.355	127.19
354.583	139.19
354.81	136.19
355.037	141.19
355.264	133.19
355.491	135.19
355.718	140.19
355.945	147.19
356.172	127.19
356.399	130.19
356.626	160.19
356.853	143.19
357.08	132.19
357.307	153.19
357.534	139.19
357.761	122.19
357.988	149.19
358.215	132.19
358.441	129.19
358.668	134.19
358.895	126.19
359.122	132.19
359.349	138.19
359.576	126.19
359.802	136.19
360.029	140.19
360.256	134.19
360.483	124.19
360.709	127.19
360.936	141.19
361.163	146.19
361.39	126.19
361.616	133.19
361.843	139.19
362.07	142.19
362.296	142.19
362.523	125.19
362.749	135.19
362.976	148.19
363.203	138.19
363.429	121.19
363.656	139.19
363.882	144.19
364.109	146.19
364.335	153.19
364.562	128.19
364.788	132.19
365.015	143.19
365.241	130.19
365.468	152.19
365.694	131.19
365.92	125.19
366.147	121.19
366.373	143.19
366.599	137.19
366.826	129.19
367.052	142.19
367.278	137.19
367.505	157.19
367.731	155.19
367.957	145.19
368.184	140.19
368.41	152.19
368.636	139.19
368.862	147.19
369.089	144.19
369.315	139.19
369.541	136.19
369.767	124.19
369.993	125.19
370.219	148.19
370.445	144.19
370.672	145.19
370.898	143.19
371.124	143.19
371.35	130.19
371.576	135.19
371.802	132.19
372.028	143.19
372.254	139.19
372.48	143.19
372.706	158.19
372.932	133.19
373.158	143.19
373.384	157.19
373.61	142.19
373.835	138.19
374.061	155.19
374.287	149.19
374.513	155.19
374.739	155.19
374.965	136.19
375.191	158.19
375.416	153.19
375.642	152.19
375.868	134.19
376.094	152.19
376.319	137.19
376.545	156.19
376.771	138.19
376.997	144.19
377.222	140.19
377.448	135.19
377.674	137.19
377.899	140.19
378.125	141.19
378.35	141.19
378.576	142.19
378.802	141.19
379.027	142.19
379.253	150.19
379.478	127.19
379.704	140.19
379.929	139.19
380.155	154.19
380.38	146.19
380.606	140.19
380.831	145.19
381.057	141.19
381.282	143.19
381.507	130.19
381.733	155.19
381.958	155.19
382.184	159.19
382.409	145.19
382.634	161.19
382.86	143.19
383.085	173.19
383.31	151.19
383.535	172.19
383.761	167.19
383.986	167.19
384.211	150.19
384.436	153.19
384.662	155.19
384.887	161.19
385.112	163.19
385.337	163.19
385.562	153.19
385.787	155.19
386.013	159.19
386.238	159.19
386.463	163.19
386.688	187.19
386.913	171.19
387.138	162.19
387.363	158.19
387.588	160.19
387.813	163.19
388.038	151.19
388.263	177.19
388.488	147.19
388.713	150.19
388.938	145.19
389.163	154.19
389.387	151.19
389.612	159.19
389.837	153.19
390.062	150.19
390.287	149.19
390.512	153.19
390.736	161.19
390.961	165.19
391.186	174.19
391.411	165.19
391.636	164.19
391.86	155.19
392.085	167.19
392.31	163.19
392.534	159.19
392.759	169.19
392.984	168.19
393.208	168.19
393.433	166.19
393.658	179.19
393.882	168.19
394.107	159.19
394.331	184.19
394.556	164.19
394.78	179.19
395.005	162.19
395.229	170.19
395.454	178.19
395.678	169.19
395.903	176.19
396.127	167.19
396.352	154.19
396.576	168.19
396.801	160.19
397.025	176.19
397.249	165.19
397.474	179.19
397.698	180.19
397.922	167.19
398.147	172.19
398.371	170.19
398.595	185.19
398.82	208.19
399.044	205.19
399.268	225.19
399.492	232.19
399.717	241.19
399.941	225.19
400.165	203.19
400.389	200.19
400.613	187.19
400.837	185.19
401.062	197.19
401.286	180.19
401.51	175.19
401.734	185.19
401.958	194.19
402.182	180.19
402.406	184.19
402.63	193.19
402.854	191.19
403.078	189.19
403.302	200.19
403.526	194.19
403.75	218.19
403.974	201.19
404.198	205.19
404.422	207.19
404.645	196.19
404.869	211.19
405.093	208.19
405.317	200.19
405.541	196.19
405.765	184.19
405.988	187.19
406.212	192.19
406.436	195.19
406.66	192.19
406.883	198.19
407.107	216.19
407.331	220.19
407.555	205.19
407.778	217.19
408.002	208.19
408.226	195.19
408.449	196.19
408.673	190.19
408.896	184.19
409.12	190.19
409.344	197.19
409.567	205.19
409.791	219.19
410.014	207.19
410.238	213.19
410.461	191.19
410.685	207.19
410.908	167.19
411.132	197.19
411.355	189.19
411.578	190.19
411.802	193.19
412.025	183.19
412.249	182.19
412.472	181.19
412.695	180.19
412.919	183.19
413.142	200.19
413.365	190.19
413.589	184.19
413.812	192.19
414.035	198.19
414.258	181.19
414.482	168.19
414.705	185.19
414.928	185.19
415.151	188.19
415.374	173.19
415.597	147.19
415.821	180.19
416.044	169.19
416.267	181.19
416.49	181.19
416.713	173.19
416.936	186.19
417.159	197.19
417.382	185.19
417.605	173.19
417.828	184.19
418.051	194.19
418.274	183.19
418.497	194.19
418.72	189.19
418.943	194.19
419.166	198.19
419.389	210.19
419.611	191.19
419.834	190.19
420.057	205.19
420.28	169.19
420.503	174.19
420.726	166.19
420.948	178.19
421.171	193.19
421.394	193.19
421.617	201.19
421.839	180.19
422.062	180.19
422.285	182.19
422.507	195.19
422.73	172.19
422.953	181.19
423.175	194.19
423.398	190.19
423.621	186.19
423.843	196.19
424.066	204.19
424.288	187.19
424.511	187.19
424.733	169.19
424.956	179.19
425.178	197.19
425.401	173.19
425.623	188.19
425.846	161.19
426.068	168.19
426.291	179.19
426.513	179.19
426.735	178.19
426.958	192.19
427.18	168.19
427.402	168.19
427.625	169.19
427.847	174.19
428.069	195.19
428.292	178.19
428.514	175.19
428.736	164.19
428.958	168.19
429.181	180.19
429.403	173.19
429.625	172.19
429.847	159.19
430.069	159.19
430.292	169.19
430.514	178.19
430.736	179.19
430.958	177.19
431.18	176.19
431.402	175.19
431.624	164.19
431.846	163.19
432.068	171.19
432.29	167.19
432.512	175.19
432.734	176.19
432.956	186.19
433.178	164.19
433.4	173.19
433.622	184.19
433.844	167.19
434.066	167.19
434.287	156.19
434.509	177.19
434.731	187.19
434.953	175.19
435.175	188.19
435.397	195.19
435.618	169.19
435.84	176.19
436.062	159.19
436.284	158.19
436.505	158.19
436.727	184.19
436.949	177.19
437.17	184.19
437.392	170.19
437.614	190.19
437.835	154.19
438.057	182.19
438.278	173.19
438.5	159.19
438.721	185.19
438.943	170.19
439.165	173.19
439.386	167.19
439.608	203.19
439.829	179.19
440.05	192.19
440.272	179.19
440.493	167.19
440.715	166.19
440.936	182.19
441.158	183.19
441.379	175.19
441.6	204.19
441.822	185.19
442.043	192.19
442.264	198.19
442.486	184.19
442.707	186.19
442.928	193.19
443.149	190.19
443.371	199.19
443.592	198.19
443.813	197.19
444.034	185.19
444.255	202.19
444.476	207.19
444.698	208.19
444.919	227.19
445.14	460.19
445.361	311.19
445.582	219.19
445.803	177.19
446.024	187.19
446.245	182.19
446.466	190.19
446.687	171.19
446.908	166.19
447.129	167.19
447.35	161.19
447.571	172.19
447.792	163.19
448.013	173.19
448.234	176.19
448.455	179.19
448.675	179.19
448.896	166.19
449.117	167.19
449.338	159.19
449.559	160.19
449.779	148.19
450	173.19
450.221	149.19
450.442	169.19
450.662	161.19
450.883	167.19
451.104	183.19
451.324	164.19
451.545	179.19
451.766	169.19
451.986	159.19
452.207	173.19
452.428	162.19
452.648	166.19
452.869	170.19
453.089	171.19
453.31	146.19
453.53	172.19
453.751	161.19
453.971	147.19
454.192	162.19
454.412	153.19
454.633	170.19
454.853	169.19
455.073	150.19
455.294	167.19
455.514	151.19
455.734	172.19
455.955	165.19
456.175	163.19
456.395	163.19
456.616	145.19
456.836	160.19
457.056	141.19
457.276	159.19
457.497	158.19
457.717	155.19
457.937	133.19
458.157	158.19
458.377	165.19
458.598	152.19
458.818	150.19
459.038	168.19
459.258	167.19
459.478	177.19
459.698	173.19
459.918	189.19
460.138	185.19
460.358	195.19
460.578	206.19
460.798	200.19
461.018	199.19
461.238	185.19
461.458	189.19
461.678	189.19
461.898	182.19
462.118	203.19
462.338	196.19
462.558	207.19
462.777	221.19
462.997	220.19
463.217	224.19
463.437	229.19
463.657	215.19
463.876	203.19
464.096	207.19
464.316	200.19
464.536	219.19
464.755	196.19
464.975	200.19
465.195	182.19
465.414	195.19
465.634	175.19
465.854	168.19
466.073	165.19
466.293	176.19
466.512	183.19
466.732	175.19
466.951	170.19
467.171	162.19
467.391	153.19
467.61	164.19
467.829	143.19
468.049	153.19
468.268	163.19
468.488	179.19
468.707	174.19
468.927	169.19
469.146	155.19
469.365	160.19
469.585	161.19
469.804	163.19
470.023	168.19
470.243	164.19
470.462	181.19
470.681	163.19
470.901	171.19
471.12	167.19
471.339	174.19
471.558	160.19
471.777	175.19
471.997	153.19
472.216	178.19
472.435	178.19
472.654	178.19
472.873	167.19
473.092	157.19
473.311	175.19
473.53	163.19
473.749	161.19
473.968	182.19
474.187	181.19
474.406	176.19
474.625	169.19
474.844	174.19
475.063	178.19
475.282	169.19
475.501	173.19
475.72	164.19
475.939	144.19
476.158	178.19
476.377	163.19
476.596	160.19
476.814	178.19
477.033	172.19
477.252	155.19
477.471	166.19
477.69	183.19
477.908	187.19
478.127	188.19
478.346	166.19
478.564	179.19
478.783	181.19
479.002	193.19
479.22	206.19
479.439	185.19
479.658	186.19
479.876	184.19
480.095	170.19
480.313	206.19
480.532	206.19
480.751	196.19
480.969	191.19
481.188	194.19
481.406	184.19
481.624	175.19
481.843	175.19
482.061	175.19
482.28	181.19
482.498	169.19
482.717	176.19
482.935	185.19
483.153	176.19
483.372	177.19
483.59	183.19
483.808	159.19
484.027	166.19
484.245	180.19
484.463	182.19
484.681	196.19
484.9	177.19
485.118	184.19
485.336	176.19
485.554	181.19
485.772	166.19
485.99	189.19
486.209	195.19
486.427	181.19
486.645	183.19
486.863	188.19
487.081	194.19
487.299	185.19
487.517	186.19
487.735	187.19
487.953	177.19
488.171	200.19
488.389	183.19
488.607	180.19
488.825	179.19
489.043	173.19
489.261	183.19
489.479	194.19
489.696	187.19
489.914	183.19
490.132	188.19
490.35	184.19
490.568	192.19
490.786	188.19
491.003	173.19
491.221	191.19
491.439	197.19
491.657	195.19
491.874	188.19
492.092	182.19
492.31	195.19
492.527	174.19
492.745	179.19
492.963	201.19
493.18	194.19
493.398	187.19
493.615	199.19
493.833	183.19
494.05	181.19
494.268	201.19
494.485	190.19
494.703	179.19
494.92	180.19
495.138	196.19
495.355	180.19
495.573	191.19
495.79	208.19
496.008	208.19
496.225	184.19
496.442	192.19
496.66	222.19
496.877	205.19
497.094	228.19
497.312	199.19
497.529	200.19
497.746	197.19
497.963	229.19
498.181	214.19
498.398	219.19
498.615	240.19
498.832	241.19
499.049	247.19
499.267	277.19
499.484	284.19
499.701	318.19
499.918	347.19
500.135	380.19
500.352	398.19
500.569	414.19
500.786	428.19
501.003	379.19
501.22	346.19
501.437	307.19
501.654	285.19
501.871	280.19
502.088	243.19
502.305	252.19
502.522	221.19
502.739	224.19
502.956	230.19
503.172	219.19
503.389	200.19
503.606	208.19
503.823	207.19
504.04	224.19
504.256	216.19
504.473	215.19
504.69	222.19
