Data from SampD_HRD10591_00100.txt Node
Date: Mon Jan 19 11:41:55 EST 2026
User: Yrep
Spectrometer: HR+D1059
Trigger mode: 0
Integration Time (sec): 3.443000E-1
Scans to average: 1
Electric dark correction enabled: true
Nonlinearity correction enabled: false
Boxcar width: 0
XAxis mode: Wavelengths
Number of Pixels in Spectrum: 2048
>>>>>Begin Spectral Data<<<<<
223.165	-7.56
223.4	-7.56
223.635	-7.56
223.869	-21.56
224.104	-33.56
224.338	-9.56
224.573	-5.56
224.808	-19.56
225.042	2.44
225.277	4.44
225.511	-9.56
225.746	2.44
225.98	-2.56
226.215	18.44
226.449	9.44
226.683	23.44
226.918	13.44
227.152	35.44
227.387	46.44
227.621	37.44
227.856	39.44
228.09	45.44
228.324	51.44
228.559	66.44
228.793	67.44
229.027	67.44
229.262	83.44
229.496	62.44
229.73	71.44
229.964	72.44
230.199	81.44
230.433	68.44
230.667	75.44
230.901	66.44
231.136	79.44
231.37	101.44
231.604	84.44
231.838	81.44
232.072	84.44
232.306	86.44
232.541	84.44
232.775	87.44
233.009	87.44
233.243	92.44
233.477	89.44
233.711	93.44
233.945	89.44
234.179	87.44
234.413	97.44
234.647	75.44
234.881	82.44
235.115	77.44
235.349	93.44
235.583	81.44
235.817	81.44
236.051	97.44
236.285	91.44
236.519	81.44
236.753	82.44
236.987	83.44
237.221	84.44
237.455	82.44
237.689	83.44
237.922	85.44
238.156	75.44
238.39	76.44
238.624	81.44
238.858	85.44
239.091	81.44
239.325	78.44
239.559	89.44
239.793	75.44
240.027	103.44
240.26	88.44
240.494	92.44
240.728	77.44
240.961	77.44
241.195	85.44
241.429	85.44
241.662	81.44
241.896	84.44
242.13	76.44
242.363	85.44
242.597	78.44
242.83	82.44
243.064	82.44
243.298	96.44
243.531	98.44
243.765	87.44
243.998	77.44
244.232	95.44
244.465	93.44
244.699	83.44
244.932	90.44
245.166	84.44
245.399	84.44
245.633	94.44
245.866	86.44
246.099	85.44
246.333	86.44
246.566	92.44
246.8	76.44
247.033	86.44
247.266	88.44
247.5	94.44
247.733	87.44
247.966	95.44
248.2	98.44
248.433	103.44
248.666	95.44
248.899	80.44
249.133	91.44
249.366	105.44
249.599	92.44
249.832	81.44
250.066	95.44
250.299	94.44
250.532	91.44
250.765	82.44
250.998	84.44
251.231	104.44
251.465	85.44
251.698	78.44
251.931	88.44
252.164	105.44
252.397	100.44
252.63	99.44
252.863	91.44
253.096	81.44
253.329	88.44
253.562	71.44
253.795	96.44
254.028	93.44
254.261	102.44
254.494	93.44
254.727	104.44
254.96	97.44
255.193	96.44
255.426	80.44
255.659	84.44
255.892	104.44
256.124	92.44
256.357	92.44
256.59	95.44
256.823	94.44
257.056	96.44
257.289	102.44
257.521	84.44
257.754	93.44
257.987	102.44
258.22	104.44
258.452	96.44
258.685	91.44
258.918	90.44
259.151	83.44
259.383	101.44
259.616	88.44
259.849	94.44
260.081	106.44
260.314	95.44
260.547	111.44
260.779	91.44
261.012	98.44
261.244	97.44
261.477	107.44
261.71	101.44
261.942	101.44
262.175	107.44
262.407	105.44
262.64	98.44
262.872	104.44
263.105	87.44
263.337	131.44
263.57	107.44
263.802	101.44
264.035	114.44
264.267	96.44
264.499	111.44
264.732	109.44
264.964	99.44
265.197	98.44
265.429	97.44
265.661	107.44
265.894	103.44
266.126	97.44
266.358	102.44
266.591	102.44
266.823	108.44
267.055	100.44
267.287	94.44
267.52	110.44
267.752	101.44
267.984	97.44
268.216	94.44
268.448	99.44
268.681	104.44
268.913	103.44
269.145	85.44
269.377	102.44
269.609	102.44
269.841	113.44
270.073	103.44
270.306	99.44
270.538	102.44
270.77	104.44
271.002	112.44
271.234	103.44
271.466	95.44
271.698	99.44
271.93	123.44
272.162	109.44
272.394	103.44
272.626	109.44
272.858	96.44
273.09	117.44
273.322	107.44
273.553	104.44
273.785	118.44
274.017	105.44
274.249	99.44
274.481	99.44
274.713	107.44
274.945	110.44
275.176	96.44
275.408	127.44
275.64	102.44
275.872	104.44
276.104	118.44
276.335	117.44
276.567	125.44
276.799	119.44
277.031	95.44
277.262	114.44
277.494	106.44
277.726	97.44
277.957	102.44
278.189	111.44
278.421	111.44
278.652	103.44
278.884	117.44
279.115	117.44
279.347	101.44
279.579	114.44
279.81	104.44
280.042	114.44
280.273	112.44
280.505	108.44
280.736	115.44
280.968	119.44
281.199	113.44
281.431	107.44
281.662	112.44
281.894	103.44
282.125	102.44
282.356	89.44
282.588	109.44
282.819	121.44
283.051	113.44
283.282	105.44
283.513	112.44
283.745	124.44
283.976	106.44
284.207	102.44
284.439	123.44
284.67	111.44
284.901	116.44
285.132	113.44
285.364	102.44
285.595	117.44
285.826	106.44
286.057	109.44
286.288	109.44
286.52	120.44
286.751	114.44
286.982	112.44
287.213	125.44
287.444	114.44
287.675	114.44
287.906	105.44
288.138	123.44
288.369	110.44
288.6	118.44
288.831	107.44
289.062	105.44
289.293	106.44
289.524	129.44
289.755	115.44
289.986	124.44
290.217	125.44
290.448	126.44
290.679	127.44
290.91	112.44
291.141	107.44
291.371	123.44
291.602	109.44
291.833	129.44
292.064	122.44
292.295	117.44
292.526	117.44
292.757	135.44
292.987	123.44
293.218	113.44
293.449	122.44
293.68	124.44
293.91	119.44
294.141	131.44
294.372	106.44
294.603	111.44
294.833	119.44
295.064	121.44
295.295	108.44
295.525	119.44
295.756	111.44
295.987	105.44
296.217	111.44
296.448	113.44
296.679	124.44
296.909	115.44
297.14	131.44
297.37	125.44
297.601	135.44
297.831	101.44
298.062	114.44
298.292	118.44
298.523	125.44
298.753	120.44
298.984	108.44
299.214	136.44
299.445	125.44
299.675	110.44
299.905	121.44
300.136	113.44
300.366	131.44
300.597	127.44
300.827	121.44
301.057	133.44
301.288	122.44
301.518	128.44
301.748	119.44
301.979	165.44
302.209	117.44
302.439	108.44
302.669	132.44
302.9	123.44
303.13	133.44
303.36	112.44
303.59	131.44
303.82	138.44
304.051	129.44
304.281	136.44
304.511	131.44
304.741	130.44
304.971	118.44
305.201	128.44
305.431	143.44
305.661	121.44
305.891	132.44
306.121	126.44
306.352	119.44
306.582	113.44
306.812	116.44
307.042	132.44
307.272	103.44
307.502	132.44
307.731	119.44
307.961	128.44
308.191	142.44
308.421	111.44
308.651	118.44
308.881	123.44
309.111	120.44
309.341	124.44
309.571	124.44
309.8	116.44
310.03	126.44
310.26	135.44
310.49	117.44
310.72	108.44
310.949	108.44
311.179	116.44
311.409	121.44
311.639	119.44
311.868	126.44
312.098	121.44
312.328	129.44
312.557	119.44
312.787	123.44
313.017	123.44
313.246	134.44
313.476	135.44
313.706	123.44
313.935	118.44
314.165	128.44
314.394	121.44
314.624	133.44
314.853	125.44
315.083	132.44
315.312	132.44
315.542	128.44
315.771	141.44
316.001	112.44
316.23	100.44
316.46	121.44
316.689	127.44
316.919	116.44
317.148	110.44
317.377	130.44
317.607	131.44
317.836	119.44
318.065	134.44
318.295	131.44
318.524	127.44
318.753	126.44
318.983	122.44
319.212	144.44
319.441	139.44
319.67	128.44
319.9	119.44
320.129	122.44
320.358	121.44
320.587	124.44
320.816	132.44
321.046	126.44
321.275	116.44
321.504	128.44
321.733	140.44
321.962	118.44
322.191	106.44
322.42	117.44
322.649	117.44
322.878	126.44
323.108	133.44
323.337	130.44
323.566	128.44
323.795	126.44
324.024	118.44
324.253	126.44
324.482	124.44
324.71	142.44
324.939	147.44
325.168	111.44
325.397	132.44
325.626	125.44
325.855	127.44
326.084	133.44
326.313	142.44
326.542	130.44
326.77	125.44
326.999	125.44
327.228	143.44
327.457	124.44
327.686	129.44
327.914	123.44
328.143	160.44
328.372	132.44
328.6	139.44
328.829	111.44
329.058	136.44
329.287	131.44
329.515	126.44
329.744	144.44
329.972	119.44
330.201	133.44
330.43	123.44
330.658	120.44
330.887	121.44
331.115	139.44
331.344	120.44
331.572	148.44
331.801	116.44
332.03	129.44
332.258	139.44
332.486	141.44
332.715	148.44
332.943	141.44
333.172	160.44
333.4	142.44
333.629	161.44
333.857	158.44
334.085	145.44
334.314	153.44
334.542	133.44
334.771	158.44
334.999	159.44
335.227	145.44
335.455	144.44
335.684	152.44
335.912	142.44
336.14	143.44
336.369	152.44
336.597	147.44
336.825	149.44
337.053	144.44
337.281	137.44
337.51	157.44
337.738	132.44
337.966	123.44
338.194	145.44
338.422	130.44
338.65	139.44
338.878	139.44
339.106	133.44
339.334	153.44
339.562	144.44
339.79	132.44
340.018	134.44
340.246	126.44
340.474	140.44
340.702	135.44
340.93	146.44
341.158	141.44
341.386	126.44
341.614	139.44
341.842	117.44
342.07	135.44
342.298	125.44
342.526	129.44
342.754	143.44
342.981	133.44
343.209	146.44
343.437	163.44
343.665	144.44
343.893	162.44
344.12	161.44
344.348	145.44
344.576	137.44
344.804	132.44
345.031	138.44
345.259	136.44
345.487	129.44
345.714	123.44
345.942	131.44
346.17	131.44
346.397	133.44
346.625	132.44
346.853	126.44
347.08	147.44
347.308	132.44
347.535	148.44
347.763	131.44
347.99	136.44
348.218	137.44
348.445	133.44
348.673	142.44
348.9	157.44
349.128	126.44
349.355	142.44
349.583	136.44
349.81	134.44
350.037	141.44
350.265	143.44
350.492	132.44
350.72	123.44
350.947	135.44
351.174	136.44
351.402	133.44
351.629	140.44
351.856	124.44
352.083	125.44
352.311	131.44
352.538	122.44
352.765	126.44
352.992	140.44
353.22	120.44
353.447	123.44
353.674	152.44
353.901	137.44
354.128	136.44
354.355	127.44
354.583	134.44
354.81	137.44
355.037	143.44
355.264	139.44
355.491	134.44
355.718	117.44
355.945	137.44
356.172	115.44
356.399	124.44
356.626	135.44
356.853	127.44
357.08	128.44
357.307	132.44
357.534	143.44
357.761	125.44
357.988	136.44
358.215	133.44
358.441	130.44
358.668	145.44
358.895	132.44
359.122	134.44
359.349	138.44
359.576	124.44
359.802	131.44
360.029	123.44
360.256	132.44
360.483	143.44
360.709	119.44
360.936	131.44
361.163	139.44
361.39	133.44
361.616	132.44
361.843	129.44
362.07	126.44
362.296	147.44
362.523	130.44
362.749	132.44
362.976	134.44
363.203	136.44
363.429	117.44
363.656	127.44
363.882	131.44
364.109	137.44
364.335	135.44
364.562	133.44
364.788	124.44
365.015	133.44
365.241	143.44
365.468	137.44
365.694	128.44
365.92	136.44
366.147	125.44
366.373	132.44
366.599	116.44
366.826	134.44
367.052	119.44
367.278	129.44
367.505	127.44
367.731	147.44
367.957	133.44
368.184	135.44
368.41	134.44
368.636	139.44
368.862	116.44
369.089	145.44
369.315	130.44
369.541	135.44
369.767	128.44
369.993	145.44
370.219	128.44
370.445	134.44
370.672	138.44
370.898	129.44
371.124	139.44
371.35	149.44
371.576	140.44
371.802	121.44
372.028	141.44
372.254	151.44
372.48	153.44
372.706	128.44
372.932	137.44
373.158	142.44
373.384	139.44
373.61	152.44
373.835	145.44
374.061	154.44
374.287	156.44
374.513	137.44
374.739	143.44
374.965	146.44
375.191	142.44
375.416	142.44
375.642	148.44
375.868	150.44
376.094	139.44
376.319	132.44
376.545	127.44
376.771	128.44
376.997	127.44
377.222	125.44
377.448	148.44
377.674	132.44
377.899	132.44
378.125	136.44
378.35	145.44
378.576	144.44
378.802	135.44
379.027	134.44
379.253	136.44
379.478	134.44
379.704	146.44
379.929	132.44
380.155	134.44
380.38	135.44
380.606	113.44
380.831	128.44
381.057	143.44
381.282	141.44
381.507	143.44
381.733	152.44
381.958	139.44
382.184	133.44
382.409	159.44
382.634	144.44
382.86	153.44
383.085	145.44
383.31	139.44
383.535	149.44
383.761	148.44
383.986	165.44
384.211	133.44
384.436	122.44
384.662	161.44
384.887	162.44
385.112	143.44
385.337	126.44
385.562	157.44
385.787	146.44
386.013	150.44
386.238	146.44
386.463	142.44
386.688	185.44
386.913	151.44
387.138	142.44
387.363	141.44
387.588	167.44
387.813	146.44
388.038	147.44
388.263	153.44
388.488	152.44
388.713	140.44
388.938	136.44
389.163	139.44
389.387	153.44
389.612	149.44
389.837	157.44
390.062	182.44
390.287	140.44
390.512	156.44
390.736	146.44
390.961	145.44
391.186	157.44
391.411	148.44
391.636	152.44
391.86	152.44
392.085	179.44
392.31	154.44
392.534	168.44
392.759	146.44
392.984	152.44
393.208	134.44
393.433	175.44
393.658	175.44
393.882	161.44
394.107	160.44
394.331	162.44
394.556	159.44
394.78	161.44
395.005	154.44
395.229	172.44
395.454	165.44
395.678	158.44
395.903	163.44
396.127	157.44
396.352	173.44
396.576	143.44
396.801	161.44
397.025	164.44
397.249	166.44
397.474	156.44
397.698	164.44
397.922	157.44
398.147	169.44
398.371	177.44
398.595	175.44
398.82	162.44
399.044	182.44
399.268	197.44
399.492	216.44
399.717	237.44
399.941	221.44
400.165	197.44
400.389	186.44
400.613	189.44
400.837	164.44
401.062	169.44
401.286	188.44
401.51	164.44
401.734	179.44
401.958	184.44
402.182	186.44
402.406	180.44
402.63	161.44
402.854	193.44
403.078	176.44
403.302	184.44
403.526	191.44
403.75	197.44
403.974	181.44
404.198	182.44
404.422	177.44
404.645	184.44
404.869	191.44
405.093	182.44
405.317	180.44
405.541	193.44
405.765	191.44
405.988	189.44
406.212	177.44
406.436	179.44
406.66	196.44
406.883	180.44
407.107	205.44
407.331	200.44
407.555	209.44
407.778	189.44
408.002	188.44
408.226	181.44
408.449	195.44
408.673	198.44
408.896	175.44
409.12	185.44
409.344	195.44
409.567	174.44
409.791	188.44
410.014	185.44
410.238	183.44
410.461	209.44
410.685	170.44
410.908	189.44
411.132	195.44
411.355	182.44
411.578	184.44
411.802	184.44
412.025	170.44
412.249	163.44
412.472	179.44
412.695	162.44
412.919	175.44
413.142	178.44
413.365	184.44
413.589	177.44
413.812	173.44
414.035	177.44
414.258	177.44
414.482	179.44
414.705	183.44
414.928	162.44
415.151	180.44
415.374	168.44
415.597	175.44
415.821	181.44
416.044	161.44
416.267	159.44
416.49	188.44
416.713	162.44
416.936	180.44
417.159	181.44
417.382	163.44
417.605	166.44
417.828	189.44
418.051	167.44
418.274	179.44
418.497	178.44
418.72	169.44
418.943	169.44
419.166	193.44
419.389	177.44
419.611	192.44
419.834	181.44
420.057	196.44
420.28	172.44
420.503	167.44
420.726	165.44
420.948	170.44
421.171	179.44
421.394	179.44
421.617	164.44
421.839	166.44
422.062	155.44
422.285	186.44
422.507	173.44
422.73	179.44
422.953	175.44
423.175	168.44
423.398	192.44
423.621	182.44
423.843	178.44
424.066	190.44
424.288	172.44
424.511	180.44
424.733	190.44
424.956	169.44
425.178	184.44
425.401	169.44
425.623	169.44
425.846	183.44
426.068	176.44
426.291	169.44
426.513	174.44
426.735	173.44
426.958	157.44
427.18	175.44
427.402	178.44
427.625	161.44
427.847	151.44
428.069	160.44
428.292	164.44
428.514	166.44
428.736	168.44
428.958	165.44
429.181	164.44
429.403	155.44
429.625	154.44
429.847	159.44
430.069	169.44
430.292	168.44
430.514	154.44
430.736	163.44
430.958	175.44
431.18	140.44
431.402	159.44
431.624	169.44
431.846	159.44
432.068	166.44
432.29	161.44
432.512	154.44
432.734	161.44
432.956	176.44
433.178	169.44
433.4	173.44
433.622	177.44
433.844	166.44
434.066	160.44
434.287	178.44
434.509	170.44
434.731	162.44
434.953	185.44
435.175	172.44
435.397	182.44
435.618	173.44
435.84	153.44
436.062	161.44
436.284	155.44
436.505	157.44
436.727	153.44
436.949	156.44
437.17	167.44
437.392	155.44
437.614	169.44
437.835	150.44
438.057	135.44
438.278	148.44
438.5	156.44
438.721	168.44
438.943	136.44
439.165	166.44
439.386	167.44
439.608	160.44
439.829	155.44
440.05	166.44
440.272	168.44
440.493	172.44
440.715	176.44
440.936	179.44
441.158	174.44
441.379	161.44
441.6	184.44
441.822	167.44
442.043	175.44
442.264	168.44
442.486	167.44
442.707	166.44
442.928	181.44
443.149	169.44
443.371	195.44
443.592	163.44
443.813	185.44
444.034	166.44
444.255	187.44
444.476	183.44
444.698	199.44
444.919	194.44
445.14	454.44
445.361	317.44
445.582	177.44
445.803	156.44
446.024	176.44
446.245	179.44
446.466	159.44
446.687	163.44
446.908	168.44
447.129	183.44
447.35	163.44
447.571	153.44
447.792	142.44
448.013	157.44
448.234	155.44
448.455	163.44
448.675	166.44
448.896	162.44
449.117	153.44
449.338	160.44
449.559	156.44
449.779	151.44
450	145.44
450.221	151.44
450.442	149.44
450.662	166.44
450.883	161.44
451.104	152.44
451.324	167.44
451.545	163.44
451.766	165.44
451.986	151.44
452.207	157.44
452.428	166.44
452.648	154.44
452.869	152.44
453.089	163.44
453.31	154.44
453.53	142.44
453.751	139.44
453.971	134.44
454.192	134.44
454.412	150.44
454.633	156.44
454.853	165.44
455.073	136.44
455.294	153.44
455.514	138.44
455.734	136.44
455.955	150.44
456.175	130.44
456.395	133.44
456.616	155.44
456.836	159.44
457.056	141.44
457.276	137.44
457.497	136.44
457.717	148.44
457.937	140.44
458.157	138.44
458.377	144.44
458.598	169.44
458.818	164.44
459.038	154.44
459.258	158.44
459.478	163.44
459.698	149.44
459.918	169.44
460.138	174.44
460.358	165.44
460.578	189.44
460.798	180.44
461.018	181.44
461.238	171.44
461.458	183.44
461.678	181.44
461.898	199.44
462.118	193.44
462.338	188.44
462.558	184.44
462.777	187.44
462.997	214.44
463.217	223.44
463.437	206.44
463.657	198.44
463.876	175.44
464.096	203.44
464.316	194.44
464.536	192.44
464.755	177.44
464.975	195.44
465.195	192.44
465.414	173.44
465.634	168.44
465.854	181.44
466.073	171.44
466.293	147.44
466.512	154.44
466.732	158.44
466.951	163.44
467.171	132.44
467.391	157.44
467.61	152.44
467.829	175.44
468.049	146.44
468.268	148.44
468.488	136.44
468.707	139.44
468.927	168.44
469.146	165.44
469.365	164.44
469.585	166.44
469.804	156.44
470.023	160.44
470.243	160.44
470.462	158.44
470.681	145.44
470.901	161.44
471.12	173.44
471.339	161.44
471.558	147.44
471.777	153.44
471.997	168.44
472.216	180.44
472.435	140.44
472.654	145.44
472.873	165.44
473.092	152.44
473.311	161.44
473.53	177.44
473.749	147.44
473.968	174.44
474.187	167.44
474.406	149.44
474.625	160.44
474.844	162.44
475.063	160.44
475.282	160.44
475.501	149.44
475.72	182.44
475.939	163.44
476.158	173.44
476.377	152.44
476.596	151.44
476.814	156.44
477.033	162.44
477.252	171.44
477.471	177.44
477.69	170.44
477.908	182.44
478.127	184.44
478.346	180.44
478.564	177.44
478.783	164.44
479.002	183.44
479.22	179.44
479.439	165.44
479.658	169.44
479.876	176.44
480.095	171.44
480.313	193.44
480.532	194.44
480.751	202.44
480.969	159.44
481.188	168.44
481.406	168.44
481.624	165.44
481.843	164.44
482.061	169.44
482.28	164.44
482.498	172.44
482.717	179.44
482.935	175.44
483.153	179.44
483.372	174.44
483.59	170.44
483.808	155.44
484.027	171.44
484.245	158.44
484.463	168.44
484.681	167.44
484.9	163.44
485.118	170.44
485.336	171.44
485.554	160.44
485.772	165.44
485.99	169.44
486.209	170.44
486.427	156.44
486.645	186.44
486.863	168.44
487.081	160.44
487.299	176.44
487.517	188.44
487.735	182.44
487.953	170.44
488.171	177.44
488.389	171.44
488.607	176.44
488.825	174.44
489.043	164.44
489.261	169.44
489.479	174.44
489.696	177.44
489.914	177.44
490.132	159.44
490.35	170.44
490.568	183.44
490.786	168.44
491.003	166.44
491.221	176.44
491.439	179.44
491.657	172.44
491.874	175.44
492.092	180.44
492.31	171.44
492.527	198.44
492.745	185.44
492.963	186.44
493.18	184.44
493.398	177.44
493.615	189.44
493.833	183.44
494.05	196.44
494.268	188.44
494.485	172.44
494.703	204.44
494.92	189.44
495.138	183.44
495.355	193.44
495.573	191.44
495.79	178.44
496.008	182.44
496.225	193.44
496.442	195.44
496.66	204.44
496.877	189.44
497.094	196.44
497.312	190.44
497.529	181.44
497.746	187.44
497.963	204.44
498.181	211.44
498.398	204.44
498.615	219.44
498.832	221.44
499.049	221.44
499.267	264.44
499.484	283.44
499.701	310.44
499.918	332.44
500.135	343.44
500.352	406.44
500.569	401.44
500.786	389.44
501.003	369.44
501.22	317.44
501.437	297.44
501.654	277.44
501.871	257.44
502.088	243.44
502.305	251.44
502.522	232.44
502.739	232.44
502.956	214.44
503.172	215.44
503.389	198.44
503.606	197.44
503.823	188.44
504.04	196.44
504.256	202.44
504.473	208.44
504.69	211.44
504.907	202.44
