Data from SampD_HRD10591_00093.txt Node
Date: Mon Jan 19 11:41:53 EST 2026
User: Yrep
Spectrometer: HR+D1059
Trigger mode: 0
Integration Time (sec): 3.443000E-1
Scans to average: 1
Electric dark correction enabled: true
Nonlinearity correction enabled: false
Boxcar width: 0
XAxis mode: Wavelengths
Number of Pixels in Spectrum: 2048
>>>>>Begin Spectral Data<<<<<
223.165	-23.69
223.4	-23.69
223.635	-23.69
223.869	-26.69
224.104	-33.69
224.338	-13.69
224.573	-21.69
224.808	-26.69
225.042	-1.69
225.277	-11.69
225.511	13.31
225.746	18.31
225.98	16.31
226.215	13.31
226.449	9.31
226.683	22.31
226.918	28.31
227.152	38.31
227.387	28.31
227.621	31.31
227.856	63.31
228.09	60.31
228.324	60.31
228.559	39.31
228.793	54.31
229.027	73.31
229.262	82.31
229.496	72.31
229.73	76.31
229.964	77.31
230.199	73.31
230.433	77.31
230.667	99.31
230.901	74.31
231.136	85.31
231.37	93.31
231.604	80.31
231.838	99.31
232.072	95.31
232.306	87.31
232.541	78.31
232.775	82.31
233.009	79.31
233.243	80.31
233.477	94.31
233.711	80.31
233.945	89.31
234.179	83.31
234.413	92.31
234.647	99.31
234.881	89.31
235.115	84.31
235.349	82.31
235.583	90.31
235.817	82.31
236.051	87.31
236.285	85.31
236.519	93.31
236.753	88.31
236.987	92.31
237.221	72.31
237.455	93.31
237.689	72.31
237.922	81.31
238.156	88.31
238.39	80.31
238.624	73.31
238.858	81.31
239.091	80.31
239.325	78.31
239.559	89.31
239.793	85.31
240.027	92.31
240.26	83.31
240.494	88.31
240.728	76.31
240.961	80.31
241.195	78.31
241.429	82.31
241.662	72.31
241.896	87.31
242.13	85.31
242.363	90.31
242.597	89.31
242.83	91.31
243.064	78.31
243.298	81.31
243.531	81.31
243.765	105.31
243.998	84.31
244.232	91.31
244.465	102.31
244.699	89.31
244.932	82.31
245.166	100.31
245.399	101.31
245.633	94.31
245.866	85.31
246.099	101.31
246.333	88.31
246.566	86.31
246.8	73.31
247.033	82.31
247.266	88.31
247.5	70.31
247.733	85.31
247.966	90.31
248.2	85.31
248.433	98.31
248.666	87.31
248.899	100.31
249.133	84.31
249.366	93.31
249.599	105.31
249.832	113.31
250.066	88.31
250.299	100.31
250.532	92.31
250.765	87.31
250.998	89.31
251.231	100.31
251.465	84.31
251.698	72.31
251.931	89.31
252.164	103.31
252.397	81.31
252.63	86.31
252.863	85.31
253.096	100.31
253.329	98.31
253.562	83.31
253.795	106.31
254.028	89.31
254.261	87.31
254.494	100.31
254.727	98.31
254.96	92.31
255.193	86.31
255.426	80.31
255.659	88.31
255.892	101.31
256.124	107.31
256.357	108.31
256.59	102.31
256.823	98.31
257.056	100.31
257.289	99.31
257.521	87.31
257.754	110.31
257.987	117.31
258.22	103.31
258.452	101.31
258.685	95.31
258.918	94.31
259.151	82.31
259.383	101.31
259.616	94.31
259.849	102.31
260.081	104.31
260.314	113.31
260.547	101.31
260.779	100.31
261.012	109.31
261.244	87.31
261.477	104.31
261.71	84.31
261.942	86.31
262.175	107.31
262.407	84.31
262.64	85.31
262.872	112.31
263.105	100.31
263.337	113.31
263.57	97.31
263.802	98.31
264.035	105.31
264.267	105.31
264.499	108.31
264.732	103.31
264.964	101.31
265.197	100.31
265.429	101.31
265.661	109.31
265.894	106.31
266.126	100.31
266.358	112.31
266.591	96.31
266.823	102.31
267.055	99.31
267.287	96.31
267.52	94.31
267.752	111.31
267.984	88.31
268.216	114.31
268.448	115.31
268.681	116.31
268.913	105.31
269.145	109.31
269.377	119.31
269.609	99.31
269.841	100.31
270.073	100.31
270.306	105.31
270.538	116.31
270.77	111.31
271.002	97.31
271.234	125.31
271.466	112.31
271.698	119.31
271.93	103.31
272.162	117.31
272.394	112.31
272.626	123.31
272.858	96.31
273.09	110.31
273.322	98.31
273.553	101.31
273.785	108.31
274.017	115.31
274.249	104.31
274.481	113.31
274.713	102.31
274.945	99.31
275.176	99.31
275.408	111.31
275.64	119.31
275.872	93.31
276.104	107.31
276.335	111.31
276.567	111.31
276.799	112.31
277.031	101.31
277.262	102.31
277.494	106.31
277.726	110.31
277.957	109.31
278.189	102.31
278.421	102.31
278.652	115.31
278.884	100.31
279.115	111.31
279.347	118.31
279.579	102.31
279.81	113.31
280.042	104.31
280.273	120.31
280.505	112.31
280.736	123.31
280.968	135.31
281.199	114.31
281.431	105.31
281.662	111.31
281.894	110.31
282.125	127.31
282.356	124.31
282.588	114.31
282.819	102.31
283.051	124.31
283.282	109.31
283.513	125.31
283.745	112.31
283.976	116.31
284.207	106.31
284.439	130.31
284.67	118.31
284.901	114.31
285.132	122.31
285.364	119.31
285.595	124.31
285.826	119.31
286.057	108.31
286.288	117.31
286.52	123.31
286.751	112.31
286.982	138.31
287.213	121.31
287.444	126.31
287.675	111.31
287.906	116.31
288.138	124.31
288.369	119.31
288.6	129.31
288.831	125.31
289.062	133.31
289.293	121.31
289.524	120.31
289.755	117.31
289.986	111.31
290.217	116.31
290.448	122.31
290.679	125.31
290.91	126.31
291.141	127.31
291.371	131.31
291.602	99.31
291.833	127.31
292.064	115.31
292.295	112.31
292.526	111.31
292.757	130.31
292.987	127.31
293.218	111.31
293.449	115.31
293.68	125.31
293.91	121.31
294.141	134.31
294.372	105.31
294.603	121.31
294.833	126.31
295.064	124.31
295.295	116.31
295.525	109.31
295.756	123.31
295.987	118.31
296.217	114.31
296.448	124.31
296.679	121.31
296.909	119.31
297.14	127.31
297.37	118.31
297.601	128.31
297.831	106.31
298.062	132.31
298.292	127.31
298.523	132.31
298.753	127.31
298.984	118.31
299.214	124.31
299.445	124.31
299.675	132.31
299.905	120.31
300.136	127.31
300.366	132.31
300.597	125.31
300.827	126.31
301.057	129.31
301.288	119.31
301.518	124.31
301.748	138.31
301.979	175.31
302.209	121.31
302.439	127.31
302.669	125.31
302.9	126.31
303.13	119.31
303.36	129.31
303.59	130.31
303.82	124.31
304.051	129.31
304.281	142.31
304.511	131.31
304.741	118.31
304.971	116.31
305.201	144.31
305.431	136.31
305.661	113.31
305.891	111.31
306.121	133.31
306.352	132.31
306.582	127.31
306.812	129.31
307.042	145.31
307.272	131.31
307.502	113.31
307.731	133.31
307.961	124.31
308.191	129.31
308.421	131.31
308.651	129.31
308.881	131.31
309.111	116.31
309.341	125.31
309.571	121.31
309.8	129.31
310.03	132.31
310.26	136.31
310.49	131.31
310.72	128.31
310.949	115.31
311.179	133.31
311.409	118.31
311.639	117.31
311.868	133.31
312.098	127.31
312.328	136.31
312.557	143.31
312.787	120.31
313.017	140.31
313.246	140.31
313.476	117.31
313.706	124.31
313.935	145.31
314.165	116.31
314.394	137.31
314.624	136.31
314.853	143.31
315.083	135.31
315.312	151.31
315.542	142.31
315.771	132.31
316.001	143.31
316.23	137.31
316.46	131.31
316.689	140.31
316.919	125.31
317.148	145.31
317.377	140.31
317.607	134.31
317.836	138.31
318.065	141.31
318.295	133.31
318.524	126.31
318.753	138.31
318.983	122.31
319.212	152.31
319.441	143.31
319.67	132.31
319.9	136.31
320.129	129.31
320.358	136.31
320.587	134.31
320.816	126.31
321.046	125.31
321.275	137.31
321.504	131.31
321.733	135.31
321.962	132.31
322.191	133.31
322.42	129.31
322.649	149.31
322.878	142.31
323.108	137.31
323.337	121.31
323.566	144.31
323.795	134.31
324.024	135.31
324.253	139.31
324.482	119.31
324.71	133.31
324.939	156.31
325.168	145.31
325.397	128.31
325.626	148.31
325.855	147.31
326.084	135.31
326.313	157.31
326.542	144.31
326.77	122.31
326.999	134.31
327.228	119.31
327.457	137.31
327.686	128.31
327.914	144.31
328.143	138.31
328.372	134.31
328.6	145.31
328.829	130.31
329.058	134.31
329.287	124.31
329.515	133.31
329.744	147.31
329.972	147.31
330.201	126.31
330.43	136.31
330.658	140.31
330.887	144.31
331.115	145.31
331.344	137.31
331.572	148.31
331.801	142.31
332.03	151.31
332.258	144.31
332.486	144.31
332.715	163.31
332.943	129.31
333.172	164.31
333.4	168.31
333.629	169.31
333.857	156.31
334.085	165.31
334.314	168.31
334.542	144.31
334.771	162.31
334.999	162.31
335.227	150.31
335.455	137.31
335.684	159.31
335.912	157.31
336.14	154.31
336.369	157.31
336.597	154.31
336.825	161.31
337.053	132.31
337.281	141.31
337.51	164.31
337.738	144.31
337.966	133.31
338.194	129.31
338.422	146.31
338.65	159.31
338.878	150.31
339.106	144.31
339.334	151.31
339.562	150.31
339.79	132.31
340.018	156.31
340.246	137.31
340.474	152.31
340.702	137.31
340.93	162.31
341.158	140.31
341.386	137.31
341.614	148.31
341.842	137.31
342.07	131.31
342.298	144.31
342.526	144.31
342.754	144.31
342.981	149.31
343.209	126.31
343.437	172.31
343.665	174.31
343.893	169.31
344.12	173.31
344.348	151.31
344.576	135.31
344.804	138.31
345.031	130.31
345.259	142.31
345.487	146.31
345.714	133.31
345.942	135.31
346.17	136.31
346.397	145.31
346.625	130.31
346.853	146.31
347.08	146.31
347.308	140.31
347.535	153.31
347.763	156.31
347.99	134.31
348.218	136.31
348.445	137.31
348.673	145.31
348.9	146.31
349.128	133.31
349.355	138.31
349.583	131.31
349.81	130.31
350.037	131.31
350.265	143.31
350.492	144.31
350.72	132.31
350.947	121.31
351.174	143.31
351.402	130.31
351.629	134.31
351.856	136.31
352.083	129.31
352.311	155.31
352.538	143.31
352.765	140.31
352.992	164.31
353.22	125.31
353.447	125.31
353.674	117.31
353.901	150.31
354.128	152.31
354.355	132.31
354.583	113.31
354.81	117.31
355.037	137.31
355.264	146.31
355.491	154.31
355.718	140.31
355.945	132.31
356.172	142.31
356.399	125.31
356.626	135.31
356.853	152.31
357.08	132.31
357.307	134.31
357.534	140.31
357.761	136.31
357.988	144.31
358.215	149.31
358.441	138.31
358.668	137.31
358.895	137.31
359.122	142.31
359.349	120.31
359.576	132.31
359.802	128.31
360.029	140.31
360.256	125.31
360.483	138.31
360.709	116.31
360.936	157.31
361.163	131.31
361.39	131.31
361.616	131.31
361.843	134.31
362.07	145.31
362.296	150.31
362.523	136.31
362.749	141.31
362.976	129.31
363.203	159.31
363.429	143.31
363.656	137.31
363.882	142.31
364.109	142.31
364.335	145.31
364.562	135.31
364.788	138.31
365.015	141.31
365.241	132.31
365.468	136.31
365.694	132.31
365.92	141.31
366.147	149.31
366.373	151.31
366.599	135.31
366.826	143.31
367.052	141.31
367.278	150.31
367.505	136.31
367.731	159.31
367.957	142.31
368.184	130.31
368.41	148.31
368.636	143.31
368.862	137.31
369.089	169.31
369.315	128.31
369.541	151.31
369.767	134.31
369.993	153.31
370.219	144.31
370.445	144.31
370.672	135.31
370.898	132.31
371.124	130.31
371.35	136.31
371.576	134.31
371.802	135.31
372.028	155.31
372.254	161.31
372.48	148.31
372.706	150.31
372.932	141.31
373.158	136.31
373.384	152.31
373.61	147.31
373.835	155.31
374.061	158.31
374.287	157.31
374.513	142.31
374.739	137.31
374.965	142.31
375.191	144.31
375.416	152.31
375.642	158.31
375.868	158.31
376.094	130.31
376.319	146.31
376.545	149.31
376.771	137.31
376.997	157.31
377.222	150.31
377.448	153.31
377.674	152.31
377.899	146.31
378.125	157.31
378.35	145.31
378.576	150.31
378.802	150.31
379.027	144.31
379.253	143.31
379.478	133.31
379.704	150.31
379.929	140.31
380.155	133.31
380.38	134.31
380.606	154.31
380.831	154.31
381.057	145.31
381.282	158.31
381.507	152.31
381.733	150.31
381.958	138.31
382.184	145.31
382.409	143.31
382.634	152.31
382.86	152.31
383.085	142.31
383.31	144.31
383.535	161.31
383.761	163.31
383.986	168.31
384.211	159.31
384.436	158.31
384.662	170.31
384.887	160.31
385.112	148.31
385.337	166.31
385.562	178.31
385.787	166.31
386.013	163.31
386.238	152.31
386.463	165.31
386.688	184.31
386.913	158.31
387.138	158.31
387.363	162.31
387.588	167.31
387.813	164.31
388.038	158.31
388.263	157.31
388.488	142.31
388.713	147.31
388.938	162.31
389.163	175.31
389.387	170.31
389.612	160.31
389.837	150.31
390.062	163.31
390.287	162.31
390.512	153.31
390.736	149.31
390.961	162.31
391.186	144.31
391.411	156.31
391.636	162.31
391.86	164.31
392.085	163.31
392.31	166.31
392.534	186.31
392.759	172.31
392.984	160.31
393.208	168.31
393.433	170.31
393.658	196.31
393.882	174.31
394.107	170.31
394.331	162.31
394.556	175.31
394.78	164.31
395.005	164.31
395.229	182.31
395.454	181.31
395.678	171.31
395.903	178.31
396.127	183.31
396.352	175.31
396.576	149.31
396.801	158.31
397.025	180.31
397.249	169.31
397.474	166.31
397.698	167.31
397.922	168.31
398.147	178.31
398.371	172.31
398.595	181.31
398.82	180.31
399.044	194.31
399.268	211.31
399.492	245.31
399.717	265.31
399.941	229.31
400.165	217.31
400.389	209.31
400.613	183.31
400.837	183.31
401.062	162.31
401.286	185.31
401.51	170.31
401.734	188.31
401.958	184.31
402.182	182.31
402.406	184.31
402.63	178.31
402.854	191.31
403.078	199.31
403.302	196.31
403.526	200.31
403.75	206.31
403.974	210.31
404.198	218.31
404.422	198.31
404.645	194.31
404.869	198.31
405.093	199.31
405.317	185.31
405.541	201.31
405.765	185.31
405.988	201.31
406.212	199.31
406.436	186.31
406.66	201.31
406.883	210.31
407.107	196.31
407.331	219.31
407.555	221.31
407.778	203.31
408.002	206.31
408.226	215.31
408.449	202.31
408.673	198.31
408.896	211.31
409.12	190.31
409.344	206.31
409.567	204.31
409.791	208.31
410.014	205.31
410.238	204.31
410.461	193.31
410.685	197.31
410.908	197.31
411.132	192.31
411.355	182.31
411.578	201.31
411.802	190.31
412.025	182.31
412.249	169.31
412.472	182.31
412.695	192.31
412.919	183.31
413.142	179.31
413.365	185.31
413.589	188.31
413.812	190.31
414.035	197.31
414.258	191.31
414.482	178.31
414.705	198.31
414.928	192.31
415.151	200.31
415.374	195.31
415.597	182.31
415.821	190.31
416.044	182.31
416.267	179.31
416.49	189.31
416.713	183.31
416.936	192.31
417.159	180.31
417.382	185.31
417.605	167.31
417.828	193.31
418.051	177.31
418.274	197.31
418.497	190.31
418.72	185.31
418.943	184.31
419.166	192.31
419.389	210.31
419.611	210.31
419.834	200.31
420.057	212.31
420.28	184.31
420.503	177.31
420.726	186.31
420.948	182.31
421.171	174.31
421.394	208.31
421.617	182.31
421.839	185.31
422.062	204.31
422.285	182.31
422.507	183.31
422.73	189.31
422.953	175.31
423.175	204.31
423.398	201.31
423.621	197.31
423.843	196.31
424.066	200.31
424.288	181.31
424.511	194.31
424.733	194.31
424.956	188.31
425.178	182.31
425.401	197.31
425.623	192.31
425.846	184.31
426.068	187.31
426.291	186.31
426.513	178.31
426.735	179.31
426.958	188.31
427.18	174.31
427.402	173.31
427.625	176.31
427.847	167.31
428.069	181.31
428.292	156.31
428.514	167.31
428.736	180.31
428.958	177.31
429.181	172.31
429.403	181.31
429.625	168.31
429.847	165.31
430.069	160.31
430.292	180.31
430.514	158.31
430.736	167.31
430.958	172.31
431.18	168.31
431.402	176.31
431.624	175.31
431.846	168.31
432.068	169.31
432.29	184.31
432.512	168.31
432.734	187.31
432.956	174.31
433.178	179.31
433.4	163.31
433.622	187.31
433.844	173.31
434.066	175.31
434.287	175.31
434.509	181.31
434.731	188.31
434.953	174.31
435.175	188.31
435.397	200.31
435.618	179.31
435.84	183.31
436.062	164.31
436.284	182.31
436.505	167.31
436.727	181.31
436.949	172.31
437.17	168.31
437.392	156.31
437.614	183.31
437.835	167.31
438.057	164.31
438.278	169.31
438.5	177.31
438.721	156.31
438.943	173.31
439.165	178.31
439.386	177.31
439.608	198.31
439.829	174.31
440.05	166.31
440.272	174.31
440.493	182.31
440.715	169.31
440.936	186.31
441.158	182.31
441.379	200.31
441.6	195.31
441.822	195.31
442.043	173.31
442.264	180.31
442.486	194.31
442.707	190.31
442.928	189.31
443.149	196.31
443.371	188.31
443.592	194.31
443.813	183.31
444.034	192.31
444.255	207.31
444.476	210.31
444.698	226.31
444.919	211.31
445.14	471.31
445.361	326.31
445.582	208.31
445.803	180.31
446.024	182.31
446.245	179.31
446.466	204.31
446.687	175.31
446.908	188.31
447.129	166.31
447.35	168.31
447.571	163.31
447.792	163.31
448.013	159.31
448.234	185.31
448.455	164.31
448.675	150.31
448.896	161.31
449.117	165.31
449.338	164.31
449.559	176.31
449.779	190.31
450	175.31
450.221	151.31
450.442	166.31
450.662	179.31
450.883	178.31
451.104	170.31
451.324	177.31
451.545	166.31
451.766	160.31
451.986	138.31
452.207	170.31
452.428	180.31
452.648	163.31
452.869	181.31
453.089	167.31
453.31	156.31
453.53	154.31
453.751	164.31
453.971	158.31
454.192	156.31
454.412	157.31
454.633	153.31
454.853	162.31
455.073	164.31
455.294	173.31
455.514	171.31
455.734	149.31
455.955	158.31
456.175	164.31
456.395	159.31
456.616	177.31
456.836	158.31
457.056	146.31
457.276	144.31
457.497	152.31
457.717	159.31
457.937	155.31
458.157	157.31
458.377	170.31
458.598	154.31
458.818	171.31
459.038	160.31
459.258	177.31
459.478	164.31
459.698	199.31
459.918	202.31
460.138	204.31
460.358	189.31
460.578	196.31
460.798	200.31
461.018	191.31
461.238	192.31
461.458	192.31
461.678	206.31
461.898	183.31
462.118	190.31
462.338	210.31
462.558	204.31
462.777	222.31
462.997	233.31
463.217	242.31
463.437	232.31
463.657	205.31
463.876	214.31
464.096	196.31
464.316	207.31
464.536	200.31
464.755	218.31
464.975	199.31
465.195	194.31
465.414	189.31
465.634	165.31
465.854	195.31
466.073	166.31
466.293	186.31
466.512	174.31
466.732	157.31
466.951	177.31
467.171	177.31
467.391	175.31
467.61	161.31
467.829	167.31
468.049	176.31
468.268	175.31
468.488	174.31
468.707	169.31
468.927	164.31
469.146	153.31
469.365	186.31
469.585	176.31
469.804	183.31
470.023	154.31
470.243	169.31
470.462	180.31
470.681	190.31
470.901	170.31
471.12	176.31
471.339	174.31
471.558	169.31
471.777	178.31
471.997	162.31
472.216	174.31
472.435	172.31
472.654	168.31
472.873	170.31
473.092	154.31
473.311	151.31
473.53	166.31
473.749	170.31
473.968	166.31
474.187	170.31
474.406	175.31
474.625	170.31
474.844	168.31
475.063	166.31
475.282	174.31
475.501	171.31
475.72	179.31
475.939	169.31
476.158	163.31
476.377	178.31
476.596	168.31
476.814	178.31
477.033	178.31
477.252	180.31
477.471	195.31
477.69	195.31
477.908	195.31
478.127	193.31
478.346	189.31
478.564	180.31
478.783	180.31
479.002	194.31
479.22	210.31
479.439	190.31
479.658	181.31
479.876	184.31
480.095	185.31
480.313	200.31
480.532	210.31
480.751	201.31
480.969	192.31
481.188	192.31
481.406	181.31
481.624	169.31
481.843	180.31
482.061	172.31
482.28	184.31
482.498	151.31
482.717	175.31
482.935	171.31
483.153	183.31
483.372	180.31
483.59	176.31
483.808	165.31
484.027	177.31
484.245	190.31
484.463	183.31
484.681	190.31
484.9	166.31
485.118	191.31
485.336	179.31
485.554	181.31
485.772	192.31
485.99	192.31
486.209	195.31
486.427	168.31
486.645	186.31
486.863	180.31
487.081	193.31
487.299	183.31
487.517	199.31
487.735	195.31
487.953	199.31
488.171	196.31
488.389	194.31
488.607	181.31
488.825	184.31
489.043	183.31
489.261	177.31
489.479	195.31
489.696	188.31
489.914	190.31
490.132	180.31
490.35	191.31
490.568	179.31
490.786	205.31
491.003	174.31
491.221	181.31
491.439	188.31
491.657	192.31
491.874	205.31
492.092	192.31
492.31	208.31
492.527	198.31
492.745	198.31
492.963	201.31
493.18	206.31
493.398	196.31
493.615	191.31
493.833	189.31
494.05	205.31
494.268	190.31
494.485	180.31
494.703	191.31
494.92	188.31
495.138	195.31
495.355	203.31
495.573	192.31
495.79	196.31
496.008	202.31
496.225	206.31
496.442	198.31
496.66	204.31
496.877	217.31
497.094	200.31
497.312	204.31
497.529	206.31
497.746	213.31
497.963	209.31
498.181	204.31
498.398	216.31
498.615	232.31
498.832	238.31
499.049	274.31
499.267	272.31
499.484	309.31
499.701	342.31
499.918	346.31
500.135	388.31
500.352	427.31
500.569	434.31
500.786	431.31
501.003	392.31
501.22	340.31
501.437	324.31
501.654	276.31
501.871	296.31
502.088	266.31
502.305	247.31
502.522	210.31
502.739	237.31
502.956	223.31
503.172	209.31
503.389	214.31
503.606	197.31
503.823	207.31
504.04	207.31
504.256	219.31
504.473	218.31
