Data from SampD_HRD10591_00069.txt Node
Date: Mon Jan 19 11:41:44 EST 2026
User: Yrep
Spectrometer: HR+D1059
Trigger mode: 0
Integration Time (sec): 3.443000E-1
Scans to average: 1
Electric dark correction enabled: true
Nonlinearity correction enabled: false
Boxcar width: 0
XAxis mode: Wavelengths
Number of Pixels in Spectrum: 2048
>>>>>Begin Spectral Data<<<<<
223.165	-30.56
223.4	-30.56
223.635	-30.56
223.869	-19.56
224.104	-31.56
224.338	-12.56
224.573	0.44
224.808	-17.56
225.042	-8.56
225.277	-1.56
225.511	9.44
225.746	4.44
225.98	17.44
226.215	9.44
226.449	20.44
226.683	25.44
226.918	26.44
227.152	8.44
227.387	42.44
227.621	48.44
227.856	62.44
228.09	41.44
228.324	58.44
228.559	66.44
228.793	68.44
229.027	81.44
229.262	65.44
229.496	88.44
229.73	82.44
229.964	88.44
230.199	81.44
230.433	77.44
230.667	81.44
230.901	91.44
231.136	109.44
231.37	89.44
231.604	100.44
231.838	101.44
232.072	87.44
232.306	98.44
232.541	92.44
232.775	82.44
233.009	92.44
233.243	93.44
233.477	74.44
233.711	87.44
233.945	100.44
234.179	105.44
234.413	109.44
234.647	74.44
234.881	91.44
235.115	98.44
235.349	90.44
235.583	90.44
235.817	80.44
236.051	68.44
236.285	84.44
236.519	94.44
236.753	86.44
236.987	85.44
237.221	94.44
237.455	93.44
237.689	77.44
237.922	82.44
238.156	82.44
238.39	85.44
238.624	99.44
238.858	101.44
239.091	76.44
239.325	85.44
239.559	88.44
239.793	83.44
240.027	84.44
240.26	91.44
240.494	95.44
240.728	88.44
240.961	92.44
241.195	98.44
241.429	96.44
241.662	62.44
241.896	83.44
242.13	78.44
242.363	84.44
242.597	84.44
242.83	84.44
243.064	89.44
243.298	87.44
243.531	77.44
243.765	88.44
243.998	90.44
244.232	100.44
244.465	85.44
244.699	92.44
244.932	91.44
245.166	99.44
245.399	90.44
245.633	88.44
245.866	86.44
246.099	80.44
246.333	89.44
246.566	104.44
246.8	94.44
247.033	103.44
247.266	95.44
247.5	89.44
247.733	96.44
247.966	79.44
248.2	90.44
248.433	91.44
248.666	100.44
248.899	101.44
249.133	89.44
249.366	95.44
249.599	93.44
249.832	95.44
250.066	101.44
250.299	98.44
250.532	110.44
250.765	92.44
250.998	86.44
251.231	103.44
251.465	97.44
251.698	97.44
251.931	89.44
252.164	104.44
252.397	89.44
252.63	98.44
252.863	107.44
253.096	96.44
253.329	116.44
253.562	93.44
253.795	109.44
254.028	102.44
254.261	97.44
254.494	104.44
254.727	102.44
254.96	105.44
255.193	93.44
255.426	102.44
255.659	97.44
255.892	118.44
256.124	98.44
256.357	99.44
256.59	101.44
256.823	92.44
257.056	102.44
257.289	100.44
257.521	102.44
257.754	97.44
257.987	86.44
258.22	100.44
258.452	86.44
258.685	102.44
258.918	102.44
259.151	99.44
259.383	104.44
259.616	103.44
259.849	117.44
260.081	108.44
260.314	115.44
260.547	114.44
260.779	87.44
261.012	105.44
261.244	101.44
261.477	113.44
261.71	96.44
261.942	104.44
262.175	117.44
262.407	106.44
262.64	102.44
262.872	114.44
263.105	111.44
263.337	115.44
263.57	106.44
263.802	116.44
264.035	98.44
264.267	94.44
264.499	89.44
264.732	105.44
264.964	109.44
265.197	118.44
265.429	105.44
265.661	111.44
265.894	105.44
266.126	108.44
266.358	102.44
266.591	114.44
266.823	107.44
267.055	104.44
267.287	93.44
267.52	103.44
267.752	106.44
267.984	107.44
268.216	103.44
268.448	115.44
268.681	101.44
268.913	122.44
269.145	108.44
269.377	105.44
269.609	98.44
269.841	108.44
270.073	107.44
270.306	118.44
270.538	109.44
270.77	108.44
271.002	104.44
271.234	113.44
271.466	106.44
271.698	105.44
271.93	104.44
272.162	117.44
272.394	120.44
272.626	104.44
272.858	101.44
273.09	112.44
273.322	99.44
273.553	106.44
273.785	112.44
274.017	110.44
274.249	104.44
274.481	117.44
274.713	102.44
274.945	128.44
275.176	102.44
275.408	126.44
275.64	110.44
275.872	104.44
276.104	121.44
276.335	109.44
276.567	116.44
276.799	110.44
277.031	106.44
277.262	107.44
277.494	117.44
277.726	103.44
277.957	104.44
278.189	111.44
278.421	105.44
278.652	116.44
278.884	110.44
279.115	110.44
279.347	107.44
279.579	112.44
279.81	116.44
280.042	104.44
280.273	104.44
280.505	114.44
280.736	105.44
280.968	117.44
281.199	124.44
281.431	114.44
281.662	113.44
281.894	123.44
282.125	140.44
282.356	115.44
282.588	128.44
282.819	113.44
283.051	118.44
283.282	118.44
283.513	124.44
283.745	112.44
283.976	117.44
284.207	115.44
284.439	116.44
284.67	122.44
284.901	127.44
285.132	111.44
285.364	107.44
285.595	116.44
285.826	118.44
286.057	117.44
286.288	108.44
286.52	113.44
286.751	116.44
286.982	133.44
287.213	112.44
287.444	124.44
287.675	120.44
287.906	116.44
288.138	121.44
288.369	114.44
288.6	105.44
288.831	125.44
289.062	129.44
289.293	117.44
289.524	121.44
289.755	125.44
289.986	128.44
290.217	131.44
290.448	134.44
290.679	125.44
290.91	139.44
291.141	118.44
291.371	123.44
291.602	124.44
291.833	117.44
292.064	102.44
292.295	114.44
292.526	112.44
292.757	131.44
292.987	125.44
293.218	106.44
293.449	125.44
293.68	120.44
293.91	119.44
294.141	129.44
294.372	130.44
294.603	124.44
294.833	107.44
295.064	121.44
295.295	118.44
295.525	121.44
295.756	121.44
295.987	127.44
296.217	130.44
296.448	120.44
296.679	120.44
296.909	130.44
297.14	126.44
297.37	122.44
297.601	124.44
297.831	124.44
298.062	134.44
298.292	110.44
298.523	115.44
298.753	141.44
298.984	127.44
299.214	114.44
299.445	118.44
299.675	116.44
299.905	124.44
300.136	133.44
300.366	127.44
300.597	133.44
300.827	130.44
301.057	123.44
301.288	122.44
301.518	118.44
301.748	122.44
301.979	167.44
302.209	132.44
302.439	118.44
302.669	123.44
302.9	128.44
303.13	131.44
303.36	137.44
303.59	124.44
303.82	124.44
304.051	123.44
304.281	119.44
304.511	125.44
304.741	129.44
304.971	120.44
305.201	132.44
305.431	132.44
305.661	132.44
305.891	123.44
306.121	138.44
306.352	128.44
306.582	132.44
306.812	111.44
307.042	124.44
307.272	141.44
307.502	120.44
307.731	120.44
307.961	132.44
308.191	123.44
308.421	125.44
308.651	137.44
308.881	129.44
309.111	138.44
309.341	118.44
309.571	144.44
309.8	124.44
310.03	115.44
310.26	133.44
310.49	131.44
310.72	120.44
310.949	128.44
311.179	128.44
311.409	126.44
311.639	122.44
311.868	124.44
312.098	140.44
312.328	129.44
312.557	137.44
312.787	128.44
313.017	148.44
313.246	126.44
313.476	122.44
313.706	125.44
313.935	134.44
314.165	134.44
314.394	122.44
314.624	136.44
314.853	133.44
315.083	128.44
315.312	136.44
315.542	129.44
315.771	129.44
316.001	141.44
316.23	138.44
316.46	132.44
316.689	121.44
316.919	126.44
317.148	138.44
317.377	131.44
317.607	124.44
317.836	133.44
318.065	132.44
318.295	135.44
318.524	124.44
318.753	138.44
318.983	137.44
319.212	135.44
319.441	132.44
319.67	129.44
319.9	138.44
320.129	131.44
320.358	139.44
320.587	138.44
320.816	141.44
321.046	133.44
321.275	130.44
321.504	129.44
321.733	136.44
321.962	124.44
322.191	123.44
322.42	133.44
322.649	134.44
322.878	142.44
323.108	138.44
323.337	120.44
323.566	142.44
323.795	139.44
324.024	138.44
324.253	125.44
324.482	142.44
324.71	123.44
324.939	142.44
325.168	123.44
325.397	148.44
325.626	121.44
325.855	135.44
326.084	126.44
326.313	146.44
326.542	144.44
326.77	140.44
326.999	133.44
327.228	154.44
327.457	131.44
327.686	119.44
327.914	118.44
328.143	140.44
328.372	144.44
328.6	128.44
328.829	121.44
329.058	131.44
329.287	144.44
329.515	129.44
329.744	146.44
329.972	121.44
330.201	133.44
330.43	147.44
330.658	152.44
330.887	150.44
331.115	154.44
331.344	138.44
331.572	137.44
331.801	143.44
332.03	148.44
332.258	151.44
332.486	160.44
332.715	156.44
332.943	141.44
333.172	161.44
333.4	145.44
333.629	153.44
333.857	158.44
334.085	139.44
334.314	155.44
334.542	157.44
334.771	148.44
334.999	162.44
335.227	156.44
335.455	154.44
335.684	148.44
335.912	120.44
336.14	131.44
336.369	149.44
336.597	137.44
336.825	140.44
337.053	136.44
337.281	159.44
337.51	134.44
337.738	153.44
337.966	146.44
338.194	125.44
338.422	131.44
338.65	156.44
338.878	163.44
339.106	144.44
339.334	152.44
339.562	140.44
339.79	121.44
340.018	122.44
340.246	130.44
340.474	137.44
340.702	146.44
340.93	149.44
341.158	118.44
341.386	136.44
341.614	137.44
341.842	143.44
342.07	136.44
342.298	150.44
342.526	150.44
342.754	144.44
342.981	147.44
343.209	147.44
343.437	161.44
343.665	152.44
343.893	146.44
344.12	152.44
344.348	136.44
344.576	138.44
344.804	144.44
345.031	145.44
345.259	138.44
345.487	144.44
345.714	148.44
345.942	146.44
346.17	146.44
346.397	137.44
346.625	132.44
346.853	136.44
347.08	140.44
347.308	136.44
347.535	133.44
347.763	153.44
347.99	143.44
348.218	145.44
348.445	141.44
348.673	139.44
348.9	145.44
349.128	136.44
349.355	136.44
349.583	132.44
349.81	138.44
350.037	131.44
350.265	136.44
350.492	133.44
350.72	120.44
350.947	133.44
351.174	148.44
351.402	132.44
351.629	122.44
351.856	159.44
352.083	131.44
352.311	140.44
352.538	141.44
352.765	135.44
352.992	158.44
353.22	126.44
353.447	127.44
353.674	122.44
353.901	134.44
354.128	137.44
354.355	122.44
354.583	125.44
354.81	132.44
355.037	150.44
355.264	141.44
355.491	137.44
355.718	125.44
355.945	135.44
356.172	134.44
356.399	140.44
356.626	145.44
356.853	144.44
357.08	120.44
357.307	134.44
357.534	132.44
357.761	147.44
357.988	136.44
358.215	141.44
358.441	134.44
358.668	130.44
358.895	143.44
359.122	138.44
359.349	131.44
359.576	134.44
359.802	136.44
360.029	144.44
360.256	146.44
360.483	133.44
360.709	134.44
360.936	131.44
361.163	132.44
361.39	136.44
361.616	132.44
361.843	120.44
362.07	140.44
362.296	134.44
362.523	134.44
362.749	138.44
362.976	133.44
363.203	146.44
363.429	146.44
363.656	150.44
363.882	124.44
364.109	137.44
364.335	134.44
364.562	144.44
364.788	145.44
365.015	126.44
365.241	130.44
365.468	134.44
365.694	114.44
365.92	130.44
366.147	145.44
366.373	140.44
366.599	140.44
366.826	131.44
367.052	137.44
367.278	137.44
367.505	132.44
367.731	151.44
367.957	124.44
368.184	134.44
368.41	125.44
368.636	133.44
368.862	147.44
369.089	142.44
369.315	124.44
369.541	125.44
369.767	135.44
369.993	143.44
370.219	136.44
370.445	129.44
370.672	119.44
370.898	124.44
371.124	133.44
371.35	128.44
371.576	139.44
371.802	128.44
372.028	159.44
372.254	143.44
372.48	134.44
372.706	129.44
372.932	154.44
373.158	137.44
373.384	166.44
373.61	137.44
373.835	141.44
374.061	137.44
374.287	152.44
374.513	168.44
374.739	164.44
374.965	142.44
375.191	153.44
375.416	135.44
375.642	153.44
375.868	165.44
376.094	147.44
376.319	136.44
376.545	140.44
376.771	141.44
376.997	140.44
377.222	148.44
377.448	146.44
377.674	132.44
377.899	148.44
378.125	139.44
378.35	133.44
378.576	147.44
378.802	149.44
379.027	127.44
379.253	142.44
379.478	133.44
379.704	136.44
379.929	124.44
380.155	137.44
380.38	138.44
380.606	149.44
380.831	168.44
381.057	162.44
381.282	149.44
381.507	137.44
381.733	143.44
381.958	145.44
382.184	150.44
382.409	134.44
382.634	150.44
382.86	136.44
383.085	154.44
383.31	130.44
383.535	158.44
383.761	152.44
383.986	158.44
384.211	163.44
384.436	144.44
384.662	159.44
384.887	158.44
385.112	160.44
385.337	140.44
385.562	156.44
385.787	142.44
386.013	168.44
386.238	165.44
386.463	142.44
386.688	182.44
386.913	164.44
387.138	161.44
387.363	165.44
387.588	163.44
387.813	139.44
388.038	159.44
388.263	164.44
388.488	149.44
388.713	159.44
388.938	145.44
389.163	138.44
389.387	158.44
389.612	134.44
389.837	182.44
390.062	160.44
390.287	156.44
390.512	146.44
390.736	136.44
390.961	154.44
391.186	168.44
391.411	159.44
391.636	168.44
391.86	171.44
392.085	167.44
392.31	158.44
392.534	148.44
392.759	165.44
392.984	173.44
393.208	174.44
393.433	172.44
393.658	164.44
393.882	154.44
394.107	148.44
394.331	176.44
394.556	154.44
394.78	168.44
395.005	181.44
395.229	150.44
395.454	165.44
395.678	170.44
395.903	175.44
396.127	174.44
396.352	161.44
396.576	145.44
396.801	168.44
397.025	145.44
397.249	156.44
397.474	162.44
397.698	172.44
397.922	165.44
398.147	156.44
398.371	177.44
398.595	180.44
398.82	165.44
399.044	186.44
399.268	208.44
399.492	234.44
399.717	247.44
399.941	218.44
400.165	216.44
400.389	214.44
400.613	204.44
400.837	184.44
401.062	184.44
401.286	182.44
401.51	167.44
401.734	173.44
401.958	175.44
402.182	194.44
402.406	181.44
402.63	185.44
402.854	191.44
403.078	206.44
403.302	199.44
403.526	184.44
403.75	198.44
403.974	192.44
404.198	181.44
404.422	201.44
404.645	184.44
404.869	199.44
405.093	204.44
405.317	176.44
405.541	166.44
405.765	165.44
405.988	177.44
406.212	196.44
406.436	191.44
406.66	180.44
406.883	189.44
407.107	196.44
407.331	199.44
407.555	199.44
407.778	210.44
408.002	184.44
408.226	194.44
408.449	192.44
408.673	196.44
408.896	192.44
409.12	196.44
409.344	209.44
409.567	184.44
409.791	180.44
410.014	197.44
410.238	197.44
410.461	179.44
410.685	196.44
410.908	181.44
411.132	176.44
411.355	182.44
411.578	194.44
411.802	204.44
412.025	182.44
412.249	181.44
412.472	180.44
412.695	204.44
412.919	185.44
413.142	168.44
413.365	167.44
413.589	162.44
413.812	167.44
414.035	181.44
414.258	166.44
414.482	171.44
414.705	192.44
414.928	194.44
415.151	184.44
415.374	182.44
415.597	180.44
415.821	172.44
416.044	169.44
416.267	176.44
416.49	160.44
416.713	186.44
416.936	180.44
417.159	182.44
417.382	169.44
417.605	174.44
417.828	187.44
418.051	180.44
418.274	176.44
418.497	194.44
418.72	197.44
418.943	183.44
419.166	196.44
419.389	192.44
419.611	188.44
419.834	185.44
420.057	200.44
420.28	186.44
420.503	177.44
420.726	178.44
420.948	188.44
421.171	198.44
421.394	172.44
421.617	175.44
421.839	173.44
422.062	178.44
422.285	174.44
422.507	184.44
422.73	179.44
422.953	182.44
423.175	184.44
423.398	168.44
423.621	191.44
423.843	187.44
424.066	178.44
424.288	175.44
424.511	179.44
424.733	185.44
424.956	195.44
425.178	197.44
425.401	173.44
425.623	181.44
425.846	166.44
426.068	172.44
426.291	172.44
426.513	174.44
426.735	192.44
426.958	171.44
427.18	161.44
427.402	178.44
427.625	187.44
427.847	164.44
428.069	171.44
428.292	165.44
428.514	170.44
428.736	171.44
428.958	172.44
429.181	168.44
429.403	180.44
429.625	165.44
429.847	173.44
430.069	165.44
430.292	178.44
430.514	164.44
430.736	163.44
430.958	164.44
431.18	160.44
431.402	171.44
431.624	162.44
431.846	153.44
432.068	179.44
432.29	165.44
432.512	172.44
432.734	169.44
432.956	175.44
433.178	173.44
433.4	162.44
433.622	169.44
433.844	172.44
434.066	166.44
434.287	164.44
434.509	174.44
434.731	184.44
434.953	182.44
435.175	166.44
435.397	174.44
435.618	181.44
435.84	166.44
436.062	175.44
436.284	166.44
436.505	168.44
436.727	178.44
436.949	173.44
437.17	161.44
437.392	178.44
437.614	180.44
437.835	147.44
438.057	164.44
438.278	156.44
438.5	160.44
438.721	183.44
438.943	164.44
439.165	167.44
439.386	164.44
439.608	174.44
439.829	169.44
440.05	173.44
440.272	171.44
440.493	175.44
440.715	172.44
440.936	170.44
441.158	181.44
441.379	187.44
441.6	177.44
441.822	178.44
442.043	175.44
442.264	186.44
442.486	170.44
442.707	174.44
442.928	177.44
443.149	182.44
443.371	180.44
443.592	164.44
443.813	174.44
444.034	182.44
444.255	187.44
444.476	192.44
444.698	177.44
444.919	208.44
445.14	406.44
445.361	278.44
445.582	193.44
445.803	168.44
446.024	176.44
446.245	163.44
446.466	191.44
446.687	164.44
446.908	169.44
447.129	167.44
447.35	170.44
447.571	164.44
447.792	158.44
448.013	152.44
448.234	156.44
448.455	170.44
448.675	149.44
448.896	154.44
449.117	160.44
449.338	154.44
449.559	162.44
449.779	153.44
450	168.44
450.221	171.44
450.442	186.44
450.662	159.44
450.883	160.44
451.104	167.44
451.324	185.44
451.545	172.44
451.766	172.44
451.986	176.44
452.207	184.44
452.428	166.44
452.648	173.44
452.869	155.44
453.089	150.44
453.31	148.44
453.53	163.44
453.751	165.44
453.971	173.44
454.192	169.44
454.412	161.44
454.633	156.44
454.853	154.44
455.073	162.44
455.294	162.44
455.514	164.44
455.734	151.44
455.955	157.44
456.175	163.44
456.395	128.44
456.616	149.44
456.836	150.44
457.056	146.44
457.276	154.44
457.497	153.44
457.717	157.44
457.937	139.44
458.157	149.44
458.377	147.44
458.598	166.44
458.818	150.44
459.038	155.44
459.258	165.44
459.478	167.44
459.698	152.44
459.918	178.44
460.138	179.44
460.358	165.44
460.578	181.44
460.798	184.44
461.018	168.44
461.238	177.44
461.458	198.44
461.678	184.44
461.898	182.44
462.118	206.44
462.338	210.44
462.558	182.44
462.777	190.44
462.997	220.44
463.217	229.44
463.437	227.44
463.657	213.44
463.876	199.44
464.096	197.44
464.316	203.44
464.536	187.44
464.755	196.44
464.975	184.44
465.195	188.44
465.414	198.44
465.634	176.44
465.854	177.44
466.073	172.44
466.293	175.44
466.512	165.44
466.732	157.44
466.951	179.44
467.171	169.44
467.391	150.44
467.61	160.44
467.829	155.44
468.049	161.44
468.268	146.44
468.488	138.44
468.707	166.44
468.927	158.44
469.146	161.44
469.365	170.44
469.585	162.44
469.804	169.44
470.023	169.44
470.243	169.44
470.462	169.44
470.681	174.44
470.901	177.44
471.12	168.44
471.339	165.44
471.558	177.44
471.777	174.44
471.997	170.44
472.216	154.44
472.435	156.44
472.654	158.44
472.873	177.44
473.092	168.44
473.311	158.44
473.53	151.44
473.749	153.44
473.968	158.44
474.187	165.44
474.406	164.44
474.625	165.44
474.844	148.44
475.063	144.44
475.282	157.44
475.501	153.44
475.72	174.44
475.939	151.44
476.158	172.44
476.377	146.44
476.596	164.44
476.814	151.44
477.033	162.44
477.252	178.44
477.471	170.44
477.69	180.44
477.908	176.44
478.127	186.44
478.346	174.44
478.564	176.44
478.783	171.44
479.002	179.44
479.22	180.44
479.439	182.44
479.658	176.44
479.876	190.44
480.095	192.44
480.313	195.44
480.532	194.44
480.751	174.44
480.969	174.44
481.188	179.44
481.406	173.44
481.624	178.44
481.843	164.44
482.061	172.44
482.28	170.44
482.498	171.44
482.717	176.44
482.935	167.44
483.153	170.44
483.372	169.44
483.59	174.44
483.808	161.44
484.027	193.44
484.245	192.44
484.463	171.44
484.681	183.44
484.9	175.44
485.118	169.44
485.336	169.44
485.554	176.44
485.772	170.44
485.99	181.44
486.209	188.44
486.427	187.44
486.645	183.44
486.863	185.44
487.081	177.44
487.299	188.44
487.517	193.44
487.735	188.44
487.953	194.44
488.171	180.44
488.389	173.44
488.607	192.44
488.825	196.44
489.043	175.44
489.261	168.44
489.479	171.44
489.696	172.44
489.914	189.44
490.132	172.44
490.35	180.44
490.568	172.44
490.786	190.44
491.003	190.44
491.221	186.44
491.439	179.44
491.657	190.44
491.874	197.44
492.092	185.44
492.31	193.44
492.527	183.44
492.745	193.44
492.963	191.44
493.18	198.44
493.398	171.44
493.615	179.44
493.833	199.44
494.05	198.44
494.268	208.44
494.485	192.44
494.703	189.44
494.92	183.44
495.138	178.44
495.355	189.44
495.573	201.44
495.79	184.44
496.008	186.44
496.225	199.44
496.442	194.44
496.66	187.44
496.877	224.44
497.094	200.44
497.312	205.44
497.529	212.44
497.746	200.44
497.963	203.44
498.181	201.44
498.398	218.44
498.615	226.44
498.832	231.44
499.049	248.44
499.267	271.44
499.484	268.44
499.701	304.44
499.918	329.44
500.135	373.44
500.352	400.44
500.569	397.44
500.786	420.44
501.003	372.44
501.22	312.44
501.437	296.44
501.654	279.44
501.871	282.44
502.088	249.44
502.305	250.44
502.522	236.44
502.739	225.44
502.956	202.44
503.172	205.44
503.389	212.44
503.606	203.44
503.823	193.44
504.04	204.44
504.256	194.44
