Data from SampD_HRD10591_00021.txt Node
Date: Mon Jan 19 11:41:28 EST 2026
User: Yrep
Spectrometer: HR+D1059
Trigger mode: 0
Integration Time (sec): 3.443000E-1
Scans to average: 1
Electric dark correction enabled: true
Nonlinearity correction enabled: false
Boxcar width: 0
XAxis mode: Wavelengths
Number of Pixels in Spectrum: 2048
>>>>>Begin Spectral Data<<<<<
223.165	-16.12
223.4	-16.12
223.635	-16.12
223.869	-21.12
224.104	-27.12
224.338	-13.12
224.573	-6.12
224.808	-23.12
225.042	-14.12
225.277	4.88
225.511	-9.12
225.746	8.88
225.98	6.88
226.215	10.88
226.449	17.88
226.683	25.88
226.918	40.88
227.152	13.88
227.387	33.88
227.621	38.88
227.856	45.88
228.09	51.88
228.324	42.88
228.559	38.88
228.793	63.88
229.027	68.88
229.262	69.88
229.496	80.88
229.73	69.88
229.964	89.88
230.199	83.88
230.433	85.88
230.667	77.88
230.901	79.88
231.136	75.88
231.37	90.88
231.604	80.88
231.838	80.88
232.072	82.88
232.306	88.88
232.541	77.88
232.775	72.88
233.009	88.88
233.243	77.88
233.477	86.88
233.711	81.88
233.945	80.88
234.179	79.88
234.413	91.88
234.647	80.88
234.881	80.88
235.115	86.88
235.349	76.88
235.583	91.88
235.817	74.88
236.051	95.88
236.285	82.88
236.519	76.88
236.753	87.88
236.987	65.88
237.221	86.88
237.455	76.88
237.689	85.88
237.922	90.88
238.156	89.88
238.39	80.88
238.624	92.88
238.858	76.88
239.091	72.88
239.325	63.88
239.559	79.88
239.793	73.88
240.027	92.88
240.26	81.88
240.494	88.88
240.728	75.88
240.961	75.88
241.195	90.88
241.429	86.88
241.662	81.88
241.896	80.88
242.13	93.88
242.363	88.88
242.597	76.88
242.83	90.88
243.064	89.88
243.298	84.88
243.531	93.88
243.765	85.88
243.998	73.88
244.232	91.88
244.465	90.88
244.699	75.88
244.932	88.88
245.166	88.88
245.399	84.88
245.633	80.88
245.866	90.88
246.099	81.88
246.333	68.88
246.566	89.88
246.8	94.88
247.033	90.88
247.266	80.88
247.5	82.88
247.733	78.88
247.966	98.88
248.2	79.88
248.433	74.88
248.666	88.88
248.899	81.88
249.133	97.88
249.366	91.88
249.599	101.88
249.832	78.88
250.066	95.88
250.299	82.88
250.532	90.88
250.765	84.88
250.998	96.88
251.231	97.88
251.465	97.88
251.698	100.88
251.931	96.88
252.164	89.88
252.397	92.88
252.63	100.88
252.863	100.88
253.096	84.88
253.329	89.88
253.562	87.88
253.795	96.88
254.028	113.88
254.261	102.88
254.494	101.88
254.727	105.88
254.96	88.88
255.193	94.88
255.426	83.88
255.659	82.88
255.892	100.88
256.124	98.88
256.357	103.88
256.59	89.88
256.823	93.88
257.056	86.88
257.289	98.88
257.521	99.88
257.754	105.88
257.987	101.88
258.22	106.88
258.452	102.88
258.685	106.88
258.918	84.88
259.151	99.88
259.383	92.88
259.616	84.88
259.849	92.88
260.081	104.88
260.314	92.88
260.547	105.88
260.779	94.88
261.012	102.88
261.244	100.88
261.477	111.88
261.71	82.88
261.942	110.88
262.175	102.88
262.407	96.88
262.64	91.88
262.872	108.88
263.105	98.88
263.337	112.88
263.57	100.88
263.802	103.88
264.035	112.88
264.267	108.88
264.499	99.88
264.732	108.88
264.964	85.88
265.197	78.88
265.429	85.88
265.661	80.88
265.894	111.88
266.126	100.88
266.358	98.88
266.591	102.88
266.823	110.88
267.055	104.88
267.287	100.88
267.52	104.88
267.752	97.88
267.984	102.88
268.216	97.88
268.448	115.88
268.681	109.88
268.913	112.88
269.145	106.88
269.377	88.88
269.609	85.88
269.841	107.88
270.073	108.88
270.306	101.88
270.538	118.88
270.77	117.88
271.002	106.88
271.234	106.88
271.466	106.88
271.698	105.88
271.93	109.88
272.162	91.88
272.394	109.88
272.626	111.88
272.858	118.88
273.09	122.88
273.322	126.88
273.553	102.88
273.785	116.88
274.017	108.88
274.249	105.88
274.481	109.88
274.713	109.88
274.945	112.88
275.176	107.88
275.408	110.88
275.64	100.88
275.872	110.88
276.104	111.88
276.335	105.88
276.567	99.88
276.799	102.88
277.031	112.88
277.262	106.88
277.494	114.88
277.726	106.88
277.957	112.88
278.189	100.88
278.421	108.88
278.652	111.88
278.884	121.88
279.115	105.88
279.347	89.88
279.579	113.88
279.81	114.88
280.042	106.88
280.273	101.88
280.505	112.88
280.736	115.88
280.968	120.88
281.199	110.88
281.431	116.88
281.662	120.88
281.894	119.88
282.125	120.88
282.356	113.88
282.588	111.88
282.819	107.88
283.051	112.88
283.282	110.88
283.513	120.88
283.745	119.88
283.976	107.88
284.207	123.88
284.439	110.88
284.67	120.88
284.901	115.88
285.132	116.88
285.364	120.88
285.595	122.88
285.826	117.88
286.057	115.88
286.288	121.88
286.52	129.88
286.751	113.88
286.982	127.88
287.213	123.88
287.444	112.88
287.675	119.88
287.906	117.88
288.138	118.88
288.369	112.88
288.6	105.88
288.831	117.88
289.062	131.88
289.293	112.88
289.524	132.88
289.755	124.88
289.986	127.88
290.217	121.88
290.448	123.88
290.679	134.88
290.91	113.88
291.141	108.88
291.371	124.88
291.602	130.88
291.833	102.88
292.064	143.88
292.295	133.88
292.526	128.88
292.757	120.88
292.987	118.88
293.218	114.88
293.449	125.88
293.68	114.88
293.91	126.88
294.141	116.88
294.372	123.88
294.603	127.88
294.833	122.88
295.064	115.88
295.295	133.88
295.525	121.88
295.756	131.88
295.987	113.88
296.217	120.88
296.448	120.88
296.679	122.88
296.909	128.88
297.14	137.88
297.37	127.88
297.601	129.88
297.831	129.88
298.062	128.88
298.292	121.88
298.523	140.88
298.753	124.88
298.984	122.88
299.214	122.88
299.445	136.88
299.675	139.88
299.905	139.88
300.136	133.88
300.366	129.88
300.597	120.88
300.827	129.88
301.057	136.88
301.288	133.88
301.518	130.88
301.748	133.88
301.979	155.88
302.209	141.88
302.439	116.88
302.669	136.88
302.9	123.88
303.13	132.88
303.36	136.88
303.59	129.88
303.82	124.88
304.051	125.88
304.281	117.88
304.511	130.88
304.741	118.88
304.971	129.88
305.201	128.88
305.431	131.88
305.661	133.88
305.891	129.88
306.121	134.88
306.352	139.88
306.582	126.88
306.812	132.88
307.042	134.88
307.272	122.88
307.502	140.88
307.731	129.88
307.961	136.88
308.191	131.88
308.421	134.88
308.651	152.88
308.881	156.88
309.111	129.88
309.341	115.88
309.571	127.88
309.8	113.88
310.03	122.88
310.26	144.88
310.49	125.88
310.72	141.88
310.949	120.88
311.179	129.88
311.409	138.88
311.639	120.88
311.868	142.88
312.098	153.88
312.328	134.88
312.557	140.88
312.787	131.88
313.017	132.88
313.246	136.88
313.476	125.88
313.706	127.88
313.935	133.88
314.165	122.88
314.394	126.88
314.624	120.88
314.853	114.88
315.083	137.88
315.312	141.88
315.542	138.88
315.771	131.88
316.001	133.88
316.23	140.88
316.46	133.88
316.689	134.88
316.919	130.88
317.148	138.88
317.377	131.88
317.607	126.88
317.836	126.88
318.065	134.88
318.295	129.88
318.524	143.88
318.753	151.88
318.983	126.88
319.212	130.88
319.441	138.88
319.67	140.88
319.9	120.88
320.129	144.88
320.358	138.88
320.587	157.88
320.816	124.88
321.046	136.88
321.275	137.88
321.504	133.88
321.733	133.88
321.962	133.88
322.191	126.88
322.42	138.88
322.649	130.88
322.878	142.88
323.108	122.88
323.337	131.88
323.566	131.88
323.795	130.88
324.024	137.88
324.253	142.88
324.482	146.88
324.71	139.88
324.939	120.88
325.168	127.88
325.397	145.88
325.626	150.88
325.855	140.88
326.084	152.88
326.313	145.88
326.542	146.88
326.77	155.88
326.999	133.88
327.228	146.88
327.457	145.88
327.686	147.88
327.914	142.88
328.143	155.88
328.372	147.88
328.6	132.88
328.829	132.88
329.058	144.88
329.287	125.88
329.515	155.88
329.744	150.88
329.972	137.88
330.201	147.88
330.43	126.88
330.658	138.88
330.887	133.88
331.115	148.88
331.344	153.88
331.572	168.88
331.801	168.88
332.03	136.88
332.258	151.88
332.486	145.88
332.715	148.88
332.943	160.88
333.172	155.88
333.4	169.88
333.629	165.88
333.857	156.88
334.085	172.88
334.314	154.88
334.542	160.88
334.771	154.88
334.999	180.88
335.227	144.88
335.455	169.88
335.684	162.88
335.912	146.88
336.14	157.88
336.369	145.88
336.597	136.88
336.825	148.88
337.053	155.88
337.281	153.88
337.51	151.88
337.738	142.88
337.966	156.88
338.194	146.88
338.422	133.88
338.65	150.88
338.878	169.88
339.106	138.88
339.334	143.88
339.562	141.88
339.79	132.88
340.018	134.88
340.246	142.88
340.474	136.88
340.702	154.88
340.93	131.88
341.158	143.88
341.386	136.88
341.614	150.88
341.842	133.88
342.07	153.88
342.298	147.88
342.526	134.88
342.754	150.88
342.981	158.88
343.209	153.88
343.437	178.88
343.665	159.88
343.893	160.88
344.12	172.88
344.348	155.88
344.576	140.88
344.804	168.88
345.031	158.88
345.259	151.88
345.487	154.88
345.714	144.88
345.942	137.88
346.17	130.88
346.397	145.88
346.625	159.88
346.853	141.88
347.08	132.88
347.308	132.88
347.535	158.88
347.763	137.88
347.99	148.88
348.218	151.88
348.445	140.88
348.673	145.88
348.9	139.88
349.128	145.88
349.355	139.88
349.583	139.88
349.81	127.88
350.037	145.88
350.265	138.88
350.492	144.88
350.72	121.88
350.947	135.88
351.174	152.88
351.402	136.88
351.629	138.88
351.856	152.88
352.083	141.88
352.311	131.88
352.538	143.88
352.765	154.88
352.992	146.88
353.22	158.88
353.447	127.88
353.674	149.88
353.901	170.88
354.128	139.88
354.355	136.88
354.583	139.88
354.81	142.88
355.037	126.88
355.264	141.88
355.491	143.88
355.718	143.88
355.945	141.88
356.172	146.88
356.399	133.88
356.626	129.88
356.853	135.88
357.08	139.88
357.307	155.88
357.534	129.88
357.761	138.88
357.988	154.88
358.215	143.88
358.441	131.88
358.668	127.88
358.895	151.88
359.122	150.88
359.349	138.88
359.576	130.88
359.802	136.88
360.029	129.88
360.256	134.88
360.483	132.88
360.709	138.88
360.936	136.88
361.163	149.88
361.39	133.88
361.616	141.88
361.843	139.88
362.07	128.88
362.296	139.88
362.523	141.88
362.749	125.88
362.976	141.88
363.203	146.88
363.429	138.88
363.656	144.88
363.882	139.88
364.109	141.88
364.335	126.88
364.562	130.88
364.788	132.88
365.015	142.88
365.241	148.88
365.468	152.88
365.694	121.88
365.92	140.88
366.147	138.88
366.373	123.88
366.599	120.88
366.826	118.88
367.052	122.88
367.278	144.88
367.505	132.88
367.731	146.88
367.957	141.88
368.184	144.88
368.41	137.88
368.636	134.88
368.862	144.88
369.089	141.88
369.315	127.88
369.541	149.88
369.767	164.88
369.993	126.88
370.219	154.88
370.445	142.88
370.672	143.88
370.898	141.88
371.124	145.88
371.35	160.88
371.576	148.88
371.802	132.88
372.028	157.88
372.254	138.88
372.48	154.88
372.706	138.88
372.932	133.88
373.158	138.88
373.384	141.88
373.61	137.88
373.835	160.88
374.061	162.88
374.287	151.88
374.513	148.88
374.739	149.88
374.965	139.88
375.191	132.88
375.416	152.88
375.642	156.88
375.868	155.88
376.094	134.88
376.319	150.88
376.545	160.88
376.771	148.88
376.997	133.88
377.222	147.88
377.448	163.88
377.674	146.88
377.899	147.88
378.125	138.88
378.35	140.88
378.576	148.88
378.802	124.88
379.027	131.88
379.253	155.88
379.478	143.88
379.704	140.88
379.929	140.88
380.155	141.88
380.38	117.88
380.606	145.88
380.831	172.88
381.057	165.88
381.282	156.88
381.507	153.88
381.733	166.88
381.958	154.88
382.184	146.88
382.409	138.88
382.634	172.88
382.86	138.88
383.085	160.88
383.31	155.88
383.535	170.88
383.761	166.88
383.986	165.88
384.211	159.88
384.436	156.88
384.662	155.88
384.887	173.88
385.112	166.88
385.337	179.88
385.562	156.88
385.787	146.88
386.013	156.88
386.238	163.88
386.463	161.88
386.688	200.88
386.913	162.88
387.138	160.88
387.363	162.88
387.588	169.88
387.813	158.88
388.038	153.88
388.263	166.88
388.488	153.88
388.713	160.88
388.938	160.88
389.163	154.88
389.387	157.88
389.612	163.88
389.837	138.88
390.062	164.88
390.287	165.88
390.512	164.88
390.736	151.88
390.961	159.88
391.186	167.88
391.411	168.88
391.636	202.88
391.86	187.88
392.085	184.88
392.31	177.88
392.534	183.88
392.759	158.88
392.984	172.88
393.208	173.88
393.433	172.88
393.658	165.88
393.882	172.88
394.107	166.88
394.331	160.88
394.556	173.88
394.78	177.88
395.005	179.88
395.229	171.88
395.454	171.88
395.678	156.88
395.903	179.88
396.127	175.88
396.352	160.88
396.576	167.88
396.801	177.88
397.025	169.88
397.249	184.88
397.474	184.88
397.698	174.88
397.922	185.88
398.147	166.88
398.371	180.88
398.595	180.88
398.82	184.88
399.044	205.88
399.268	216.88
399.492	241.88
399.717	260.88
399.941	239.88
400.165	231.88
400.389	213.88
400.613	197.88
400.837	184.88
401.062	183.88
401.286	188.88
401.51	189.88
401.734	173.88
401.958	201.88
402.182	191.88
402.406	189.88
402.63	190.88
402.854	214.88
403.078	220.88
403.302	212.88
403.526	210.88
403.75	229.88
403.974	210.88
404.198	225.88
404.422	215.88
404.645	203.88
404.869	200.88
405.093	222.88
405.317	200.88
405.541	219.88
405.765	202.88
405.988	197.88
406.212	196.88
406.436	207.88
406.66	197.88
406.883	211.88
407.107	217.88
407.331	226.88
407.555	225.88
407.778	235.88
408.002	220.88
408.226	214.88
408.449	215.88
408.673	219.88
408.896	235.88
409.12	216.88
409.344	203.88
409.567	200.88
409.791	209.88
410.014	203.88
410.238	177.88
410.461	198.88
410.685	201.88
410.908	197.88
411.132	217.88
411.355	208.88
411.578	195.88
411.802	198.88
412.025	203.88
412.249	194.88
412.472	196.88
412.695	188.88
412.919	188.88
413.142	180.88
413.365	178.88
413.589	200.88
413.812	196.88
414.035	204.88
414.258	193.88
414.482	185.88
414.705	189.88
414.928	206.88
415.151	183.88
415.374	196.88
415.597	203.88
415.821	185.88
416.044	176.88
416.267	189.88
416.49	180.88
416.713	181.88
416.936	180.88
417.159	193.88
417.382	182.88
417.605	185.88
417.828	203.88
418.051	186.88
418.274	184.88
418.497	189.88
418.72	188.88
418.943	187.88
419.166	199.88
419.389	209.88
419.611	202.88
419.834	202.88
420.057	206.88
420.28	203.88
420.503	198.88
420.726	192.88
420.948	194.88
421.171	193.88
421.394	207.88
421.617	194.88
421.839	181.88
422.062	202.88
422.285	181.88
422.507	193.88
422.73	196.88
422.953	188.88
423.175	203.88
423.398	176.88
423.621	201.88
423.843	204.88
424.066	203.88
424.288	195.88
424.511	184.88
424.733	186.88
424.956	189.88
425.178	193.88
425.401	203.88
425.623	180.88
425.846	183.88
426.068	194.88
426.291	201.88
426.513	177.88
426.735	174.88
426.958	186.88
427.18	178.88
427.402	186.88
427.625	181.88
427.847	176.88
428.069	164.88
428.292	184.88
428.514	174.88
428.736	176.88
428.958	178.88
429.181	189.88
429.403	180.88
429.625	175.88
429.847	176.88
430.069	177.88
430.292	189.88
430.514	175.88
430.736	167.88
430.958	186.88
431.18	180.88
431.402	191.88
431.624	180.88
431.846	170.88
432.068	176.88
432.29	185.88
432.512	186.88
432.734	172.88
432.956	211.88
433.178	200.88
433.4	189.88
433.622	188.88
433.844	192.88
434.066	183.88
434.287	177.88
434.509	203.88
434.731	176.88
434.953	216.88
435.175	179.88
435.397	194.88
435.618	189.88
435.84	180.88
436.062	174.88
436.284	178.88
436.505	185.88
436.727	180.88
436.949	181.88
437.17	153.88
437.392	168.88
437.614	155.88
437.835	166.88
438.057	179.88
438.278	164.88
438.5	171.88
438.721	154.88
438.943	187.88
439.165	171.88
439.386	181.88
439.608	175.88
439.829	180.88
440.05	180.88
440.272	170.88
440.493	164.88
440.715	168.88
440.936	186.88
441.158	198.88
441.379	200.88
441.6	185.88
441.822	196.88
442.043	192.88
442.264	196.88
442.486	206.88
442.707	180.88
442.928	191.88
443.149	191.88
443.371	194.88
443.592	202.88
443.813	205.88
444.034	197.88
444.255	220.88
444.476	213.88
444.698	232.88
444.919	220.88
445.14	459.88
445.361	319.88
445.582	187.88
445.803	186.88
446.024	180.88
446.245	189.88
446.466	193.88
446.687	171.88
446.908	178.88
447.129	181.88
447.35	156.88
447.571	173.88
447.792	171.88
448.013	175.88
448.234	171.88
448.455	164.88
448.675	174.88
448.896	155.88
449.117	170.88
449.338	155.88
449.559	182.88
449.779	179.88
450	179.88
450.221	169.88
450.442	172.88
450.662	171.88
450.883	176.88
451.104	188.88
451.324	152.88
451.545	166.88
451.766	178.88
451.986	157.88
452.207	171.88
452.428	192.88
452.648	178.88
452.869	175.88
453.089	172.88
453.31	161.88
453.53	162.88
453.751	165.88
453.971	178.88
454.192	168.88
454.412	168.88
454.633	157.88
454.853	165.88
455.073	162.88
455.294	150.88
455.514	162.88
455.734	170.88
455.955	163.88
456.175	163.88
456.395	167.88
456.616	159.88
456.836	148.88
457.056	167.88
457.276	150.88
457.497	162.88
457.717	158.88
457.937	160.88
458.157	162.88
458.377	157.88
458.598	162.88
458.818	179.88
459.038	180.88
459.258	180.88
459.478	173.88
459.698	184.88
459.918	192.88
460.138	190.88
460.358	185.88
460.578	199.88
460.798	205.88
461.018	198.88
461.238	200.88
461.458	206.88
461.678	200.88
461.898	217.88
462.118	212.88
462.338	209.88
462.558	201.88
462.777	219.88
462.997	242.88
463.217	238.88
463.437	251.88
463.657	227.88
463.876	224.88
464.096	222.88
464.316	228.88
464.536	228.88
464.755	205.88
464.975	190.88
465.195	209.88
465.414	194.88
465.634	179.88
465.854	186.88
466.073	180.88
466.293	180.88
466.512	170.88
466.732	181.88
466.951	177.88
467.171	170.88
467.391	173.88
467.61	180.88
467.829	179.88
468.049	175.88
468.268	176.88
468.488	164.88
468.707	160.88
468.927	171.88
469.146	164.88
469.365	180.88
469.585	174.88
469.804	184.88
470.023	172.88
470.243	181.88
470.462	191.88
470.681	189.88
470.901	185.88
471.12	186.88
471.339	181.88
471.558	173.88
471.777	168.88
471.997	186.88
472.216	168.88
472.435	172.88
472.654	178.88
472.873	182.88
473.092	165.88
473.311	161.88
473.53	165.88
473.749	176.88
473.968	188.88
474.187	166.88
474.406	158.88
474.625	170.88
474.844	152.88
475.063	180.88
475.282	172.88
475.501	163.88
475.72	182.88
475.939	143.88
476.158	165.88
476.377	184.88
476.596	177.88
476.814	178.88
477.033	176.88
477.252	187.88
477.471	181.88
477.69	195.88
477.908	186.88
478.127	204.88
478.346	186.88
478.564	189.88
478.783	172.88
479.002	193.88
479.22	208.88
479.439	205.88
479.658	194.88
479.876	181.88
480.095	187.88
480.313	216.88
480.532	201.88
480.751	206.88
480.969	189.88
481.188	185.88
481.406	192.88
481.624	178.88
481.843	188.88
482.061	182.88
482.28	188.88
482.498	192.88
482.717	195.88
482.935	178.88
483.153	186.88
483.372	201.88
483.59	192.88
483.808	179.88
484.027	201.88
484.245	179.88
484.463	179.88
484.681	181.88
484.9	178.88
485.118	189.88
485.336	194.88
485.554	196.88
485.772	184.88
485.99	182.88
486.209	186.88
486.427	211.88
486.645	198.88
486.863	195.88
487.081	205.88
487.299	205.88
487.517	189.88
487.735	196.88
487.953	189.88
488.171	205.88
488.389	198.88
488.607	195.88
488.825	195.88
489.043	177.88
489.261	183.88
489.479	202.88
489.696	192.88
489.914	185.88
490.132	175.88
490.35	194.88
490.568	171.88
490.786	183.88
491.003	195.88
491.221	200.88
491.439	179.88
491.657	190.88
491.874	197.88
492.092	210.88
492.31	196.88
492.527	196.88
492.745	204.88
492.963	206.88
493.18	194.88
493.398	216.88
493.615	216.88
493.833	204.88
494.05	197.88
494.268	196.88
494.485	206.88
494.703	218.88
494.92	216.88
495.138	209.88
495.355	202.88
495.573	214.88
495.79	194.88
496.008	200.88
496.225	204.88
496.442	204.88
496.66	221.88
496.877	206.88
497.094	214.88
497.312	227.88
497.529	209.88
497.746	222.88
497.963	226.88
498.181	222.88
498.398	249.88
498.615	245.88
498.832	255.88
499.049	277.88
499.267	288.88
499.484	315.88
499.701	346.88
499.918	366.88
500.135	434.88
500.352	474.88
500.569	470.88
500.786	460.88
501.003	383.88
501.22	371.88
501.437	353.88
501.654	295.88
501.871	290.88
502.088	295.88
502.305	256.88
502.522	247.88
502.739	250.88
502.956	256.88
503.172	227.88
503.389	224.88
503.606	211.88
503.823	224.88
504.04	227.88
504.256	235.88
504.473	218.88
504.69	222.88
