Data from SampD_HRD10591_00044.txt Node
Date: Mon Jan 19 11:41:36 EST 2026
User: Yrep
Spectrometer: HR+D1059
Trigger mode: 0
Integration Time (sec): 3.443000E-1
Scans to average: 1
Electric dark correction enabled: true
Nonlinearity correction enabled: false
Boxcar width: 0
XAxis mode: Wavelengths
Number of Pixels in Spectrum: 2048
>>>>>Begin Spectral Data<<<<<
223.165	-23.81
223.4	-23.81
223.635	-23.81
223.869	-11.81
224.104	-12.81
224.338	-7.81
224.573	-15.81
224.808	-13.81
225.042	1.19
225.277	0.19
225.511	-20.81
225.746	-2.81
225.98	9.19
226.215	-1.81
226.449	21.19
226.683	18.19
226.918	23.19
227.152	38.19
227.387	25.19
227.621	45.19
227.856	50.19
228.09	53.19
228.324	68.19
228.559	70.19
228.793	73.19
229.027	64.19
229.262	73.19
229.496	71.19
229.73	73.19
229.964	68.19
230.199	84.19
230.433	89.19
230.667	90.19
230.901	85.19
231.136	83.19
231.37	74.19
231.604	86.19
231.838	86.19
232.072	91.19
232.306	81.19
232.541	88.19
232.775	82.19
233.009	93.19
233.243	78.19
233.477	93.19
233.711	95.19
233.945	82.19
234.179	83.19
234.413	85.19
234.647	88.19
234.881	93.19
235.115	102.19
235.349	92.19
235.583	78.19
235.817	85.19
236.051	81.19
236.285	66.19
236.519	82.19
236.753	93.19
236.987	77.19
237.221	89.19
237.455	88.19
237.689	86.19
237.922	78.19
238.156	76.19
238.39	90.19
238.624	69.19
238.858	85.19
239.091	94.19
239.325	87.19
239.559	79.19
239.793	82.19
240.027	102.19
240.26	74.19
240.494	92.19
240.728	92.19
240.961	72.19
241.195	88.19
241.429	87.19
241.662	97.19
241.896	70.19
242.13	85.19
242.363	98.19
242.597	72.19
242.83	91.19
243.064	92.19
243.298	83.19
243.531	87.19
243.765	97.19
243.998	84.19
244.232	103.19
244.465	87.19
244.699	94.19
244.932	94.19
245.166	100.19
245.399	100.19
245.633	92.19
245.866	96.19
246.099	101.19
246.333	102.19
246.566	95.19
246.8	89.19
247.033	86.19
247.266	86.19
247.5	83.19
247.733	97.19
247.966	90.19
248.2	80.19
248.433	94.19
248.666	78.19
248.899	85.19
249.133	98.19
249.366	106.19
249.599	74.19
249.832	85.19
250.066	109.19
250.299	101.19
250.532	105.19
250.765	103.19
250.998	110.19
251.231	94.19
251.465	95.19
251.698	101.19
251.931	71.19
252.164	92.19
252.397	96.19
252.63	89.19
252.863	90.19
253.096	89.19
253.329	113.19
253.562	105.19
253.795	97.19
254.028	87.19
254.261	84.19
254.494	90.19
254.727	111.19
254.96	101.19
255.193	103.19
255.426	90.19
255.659	106.19
255.892	106.19
256.124	105.19
256.357	93.19
256.59	117.19
256.823	94.19
257.056	108.19
257.289	111.19
257.521	103.19
257.754	91.19
257.987	98.19
258.22	95.19
258.452	104.19
258.685	103.19
258.918	92.19
259.151	93.19
259.383	98.19
259.616	94.19
259.849	100.19
260.081	102.19
260.314	113.19
260.547	103.19
260.779	96.19
261.012	98.19
261.244	105.19
261.477	125.19
261.71	93.19
261.942	95.19
262.175	105.19
262.407	94.19
262.64	87.19
262.872	90.19
263.105	103.19
263.337	119.19
263.57	96.19
263.802	98.19
264.035	95.19
264.267	101.19
264.499	121.19
264.732	110.19
264.964	112.19
265.197	95.19
265.429	117.19
265.661	103.19
265.894	119.19
266.126	112.19
266.358	104.19
266.591	100.19
266.823	117.19
267.055	112.19
267.287	96.19
267.52	98.19
267.752	92.19
267.984	102.19
268.216	110.19
268.448	105.19
268.681	98.19
268.913	104.19
269.145	103.19
269.377	97.19
269.609	112.19
269.841	103.19
270.073	103.19
270.306	118.19
270.538	113.19
270.77	100.19
271.002	104.19
271.234	95.19
271.466	115.19
271.698	102.19
271.93	96.19
272.162	113.19
272.394	104.19
272.626	103.19
272.858	95.19
273.09	118.19
273.322	112.19
273.553	116.19
273.785	98.19
274.017	105.19
274.249	126.19
274.481	98.19
274.713	103.19
274.945	98.19
275.176	105.19
275.408	120.19
275.64	126.19
275.872	108.19
276.104	106.19
276.335	110.19
276.567	110.19
276.799	103.19
277.031	108.19
277.262	107.19
277.494	109.19
277.726	120.19
277.957	112.19
278.189	105.19
278.421	88.19
278.652	106.19
278.884	110.19
279.115	114.19
279.347	103.19
279.579	124.19
279.81	130.19
280.042	113.19
280.273	112.19
280.505	96.19
280.736	114.19
280.968	120.19
281.199	113.19
281.431	123.19
281.662	118.19
281.894	119.19
282.125	103.19
282.356	121.19
282.588	113.19
282.819	99.19
283.051	100.19
283.282	98.19
283.513	143.19
283.745	112.19
283.976	117.19
284.207	120.19
284.439	127.19
284.67	105.19
284.901	104.19
285.132	122.19
285.364	112.19
285.595	124.19
285.826	118.19
286.057	118.19
286.288	105.19
286.52	116.19
286.751	105.19
286.982	110.19
287.213	119.19
287.444	128.19
287.675	109.19
287.906	121.19
288.138	114.19
288.369	118.19
288.6	115.19
288.831	105.19
289.062	126.19
289.293	117.19
289.524	118.19
289.755	121.19
289.986	125.19
290.217	124.19
290.448	116.19
290.679	117.19
290.91	108.19
291.141	117.19
291.371	118.19
291.602	118.19
291.833	104.19
292.064	125.19
292.295	122.19
292.526	120.19
292.757	131.19
292.987	114.19
293.218	127.19
293.449	119.19
293.68	116.19
293.91	124.19
294.141	126.19
294.372	114.19
294.603	112.19
294.833	129.19
295.064	122.19
295.295	112.19
295.525	134.19
295.756	127.19
295.987	127.19
296.217	112.19
296.448	140.19
296.679	112.19
296.909	132.19
297.14	117.19
297.37	112.19
297.601	122.19
297.831	118.19
298.062	117.19
298.292	124.19
298.523	133.19
298.753	132.19
298.984	119.19
299.214	132.19
299.445	118.19
299.675	111.19
299.905	120.19
300.136	111.19
300.366	115.19
300.597	146.19
300.827	127.19
301.057	132.19
301.288	124.19
301.518	110.19
301.748	128.19
301.979	161.19
302.209	127.19
302.439	146.19
302.669	119.19
302.9	124.19
303.13	130.19
303.36	124.19
303.59	132.19
303.82	137.19
304.051	117.19
304.281	128.19
304.511	124.19
304.741	127.19
304.971	125.19
305.201	117.19
305.431	128.19
305.661	130.19
305.891	117.19
306.121	124.19
306.352	144.19
306.582	134.19
306.812	129.19
307.042	127.19
307.272	127.19
307.502	125.19
307.731	125.19
307.961	122.19
308.191	124.19
308.421	148.19
308.651	123.19
308.881	110.19
309.111	129.19
309.341	123.19
309.571	146.19
309.8	137.19
310.03	119.19
310.26	123.19
310.49	120.19
310.72	131.19
310.949	129.19
311.179	132.19
311.409	125.19
311.639	119.19
311.868	122.19
312.098	121.19
312.328	118.19
312.557	127.19
312.787	131.19
313.017	147.19
313.246	137.19
313.476	122.19
313.706	145.19
313.935	125.19
314.165	132.19
314.394	126.19
314.624	119.19
314.853	121.19
315.083	146.19
315.312	129.19
315.542	133.19
315.771	139.19
316.001	129.19
316.23	119.19
316.46	120.19
316.689	123.19
316.919	133.19
317.148	132.19
317.377	133.19
317.607	135.19
317.836	128.19
318.065	142.19
318.295	126.19
318.524	131.19
318.753	118.19
318.983	132.19
319.212	124.19
319.441	138.19
319.67	119.19
319.9	135.19
320.129	126.19
320.358	124.19
320.587	119.19
320.816	126.19
321.046	133.19
321.275	123.19
321.504	132.19
321.733	124.19
321.962	133.19
322.191	143.19
322.42	118.19
322.649	140.19
322.878	124.19
323.108	130.19
323.337	142.19
323.566	138.19
323.795	128.19
324.024	140.19
324.253	130.19
324.482	125.19
324.71	130.19
324.939	135.19
325.168	126.19
325.397	122.19
325.626	133.19
325.855	111.19
326.084	133.19
326.313	133.19
326.542	147.19
326.77	136.19
326.999	137.19
327.228	137.19
327.457	138.19
327.686	141.19
327.914	118.19
328.143	121.19
328.372	129.19
328.6	144.19
328.829	145.19
329.058	132.19
329.287	144.19
329.515	144.19
329.744	133.19
329.972	121.19
330.201	130.19
330.43	140.19
330.658	136.19
330.887	147.19
331.115	160.19
331.344	139.19
331.572	148.19
331.801	131.19
332.03	156.19
332.258	140.19
332.486	142.19
332.715	166.19
332.943	165.19
333.172	168.19
333.4	137.19
333.629	158.19
333.857	158.19
334.085	163.19
334.314	160.19
334.542	148.19
334.771	149.19
334.999	117.19
335.227	131.19
335.455	162.19
335.684	172.19
335.912	153.19
336.14	131.19
336.369	136.19
336.597	148.19
336.825	146.19
337.053	162.19
337.281	153.19
337.51	137.19
337.738	133.19
337.966	140.19
338.194	141.19
338.422	137.19
338.65	136.19
338.878	143.19
339.106	125.19
339.334	149.19
339.562	138.19
339.79	135.19
340.018	126.19
340.246	126.19
340.474	136.19
340.702	135.19
340.93	132.19
341.158	134.19
341.386	150.19
341.614	133.19
341.842	126.19
342.07	135.19
342.298	131.19
342.526	123.19
342.754	153.19
342.981	135.19
343.209	147.19
343.437	174.19
343.665	145.19
343.893	159.19
344.12	167.19
344.348	153.19
344.576	151.19
344.804	144.19
345.031	137.19
345.259	156.19
345.487	168.19
345.714	115.19
345.942	123.19
346.17	146.19
346.397	135.19
346.625	126.19
346.853	145.19
347.08	135.19
347.308	157.19
347.535	144.19
347.763	125.19
347.99	142.19
348.218	146.19
348.445	131.19
348.673	110.19
348.9	110.19
349.128	157.19
349.355	134.19
349.583	128.19
349.81	142.19
350.037	132.19
350.265	132.19
350.492	136.19
350.72	134.19
350.947	133.19
351.174	135.19
351.402	112.19
351.629	134.19
351.856	141.19
352.083	134.19
352.311	136.19
352.538	129.19
352.765	134.19
352.992	158.19
353.22	138.19
353.447	132.19
353.674	150.19
353.901	126.19
354.128	143.19
354.355	118.19
354.583	138.19
354.81	133.19
355.037	141.19
355.264	127.19
355.491	132.19
355.718	124.19
355.945	142.19
356.172	140.19
356.399	121.19
356.626	142.19
356.853	142.19
357.08	127.19
357.307	122.19
357.534	141.19
357.761	141.19
357.988	153.19
358.215	139.19
358.441	134.19
358.668	141.19
358.895	131.19
359.122	128.19
359.349	123.19
359.576	131.19
359.802	140.19
360.029	129.19
360.256	135.19
360.483	138.19
360.709	134.19
360.936	145.19
361.163	140.19
361.39	146.19
361.616	161.19
361.843	139.19
362.07	133.19
362.296	124.19
362.523	129.19
362.749	134.19
362.976	129.19
363.203	157.19
363.429	150.19
363.656	138.19
363.882	124.19
364.109	135.19
364.335	140.19
364.562	138.19
364.788	146.19
365.015	144.19
365.241	130.19
365.468	129.19
365.694	122.19
365.92	131.19
366.147	135.19
366.373	121.19
366.599	135.19
366.826	127.19
367.052	137.19
367.278	141.19
367.505	144.19
367.731	161.19
367.957	138.19
368.184	135.19
368.41	134.19
368.636	153.19
368.862	145.19
369.089	126.19
369.315	128.19
369.541	132.19
369.767	158.19
369.993	146.19
370.219	140.19
370.445	138.19
370.672	153.19
370.898	140.19
371.124	131.19
371.35	133.19
371.576	146.19
371.802	147.19
372.028	136.19
372.254	143.19
372.48	127.19
372.706	146.19
372.932	140.19
373.158	144.19
373.384	148.19
373.61	166.19
373.835	142.19
374.061	130.19
374.287	142.19
374.513	154.19
374.739	133.19
374.965	144.19
375.191	146.19
375.416	144.19
375.642	141.19
375.868	137.19
376.094	155.19
376.319	143.19
376.545	143.19
376.771	147.19
376.997	152.19
377.222	125.19
377.448	124.19
377.674	136.19
377.899	141.19
378.125	137.19
378.35	134.19
378.576	124.19
378.802	145.19
379.027	142.19
379.253	148.19
379.478	140.19
379.704	137.19
379.929	130.19
380.155	128.19
380.38	136.19
380.606	132.19
380.831	147.19
381.057	164.19
381.282	154.19
381.507	130.19
381.733	150.19
381.958	139.19
382.184	127.19
382.409	143.19
382.634	155.19
382.86	127.19
383.085	132.19
383.31	162.19
383.535	160.19
383.761	144.19
383.986	157.19
384.211	144.19
384.436	140.19
384.662	163.19
384.887	163.19
385.112	160.19
385.337	148.19
385.562	153.19
385.787	160.19
386.013	176.19
386.238	147.19
386.463	158.19
386.688	193.19
386.913	160.19
387.138	152.19
387.363	157.19
387.588	175.19
387.813	151.19
388.038	157.19
388.263	167.19
388.488	134.19
388.713	152.19
388.938	150.19
389.163	161.19
389.387	152.19
389.612	157.19
389.837	151.19
390.062	162.19
390.287	153.19
390.512	156.19
390.736	142.19
390.961	133.19
391.186	142.19
391.411	156.19
391.636	178.19
391.86	156.19
392.085	153.19
392.31	166.19
392.534	169.19
392.759	165.19
392.984	171.19
393.208	163.19
393.433	160.19
393.658	167.19
393.882	136.19
394.107	166.19
394.331	162.19
394.556	157.19
394.78	164.19
395.005	167.19
395.229	147.19
395.454	172.19
395.678	166.19
395.903	172.19
396.127	184.19
396.352	157.19
396.576	160.19
396.801	166.19
397.025	147.19
397.249	150.19
397.474	170.19
397.698	178.19
397.922	161.19
398.147	171.19
398.371	168.19
398.595	185.19
398.82	178.19
399.044	181.19
399.268	179.19
399.492	227.19
399.717	246.19
399.941	199.19
400.165	214.19
400.389	201.19
400.613	185.19
400.837	166.19
401.062	173.19
401.286	181.19
401.51	167.19
401.734	165.19
401.958	173.19
402.182	182.19
402.406	187.19
402.63	178.19
402.854	180.19
403.078	186.19
403.302	179.19
403.526	177.19
403.75	174.19
403.974	201.19
404.198	182.19
404.422	175.19
404.645	188.19
404.869	186.19
405.093	191.19
405.317	185.19
405.541	184.19
405.765	190.19
405.988	190.19
406.212	177.19
406.436	181.19
406.66	211.19
406.883	206.19
407.107	210.19
407.331	207.19
407.555	207.19
407.778	185.19
408.002	189.19
408.226	188.19
408.449	192.19
408.673	189.19
408.896	197.19
409.12	200.19
409.344	200.19
409.567	189.19
409.791	188.19
410.014	193.19
410.238	187.19
410.461	197.19
410.685	200.19
410.908	181.19
411.132	210.19
411.355	182.19
411.578	170.19
411.802	192.19
412.025	168.19
412.249	180.19
412.472	177.19
412.695	176.19
412.919	167.19
413.142	196.19
413.365	177.19
413.589	186.19
413.812	185.19
414.035	178.19
414.258	167.19
414.482	181.19
414.705	178.19
414.928	190.19
415.151	193.19
415.374	180.19
415.597	184.19
415.821	177.19
416.044	188.19
416.267	186.19
416.49	191.19
416.713	173.19
416.936	171.19
417.159	188.19
417.382	168.19
417.605	173.19
417.828	178.19
418.051	165.19
418.274	174.19
418.497	170.19
418.72	174.19
418.943	184.19
419.166	167.19
419.389	194.19
419.611	210.19
419.834	194.19
420.057	185.19
420.28	189.19
420.503	184.19
420.726	170.19
420.948	160.19
421.171	177.19
421.394	181.19
421.617	179.19
421.839	167.19
422.062	176.19
422.285	190.19
422.507	181.19
422.73	184.19
422.953	170.19
423.175	194.19
423.398	186.19
423.621	170.19
423.843	184.19
424.066	187.19
424.288	182.19
424.511	191.19
424.733	193.19
424.956	177.19
425.178	186.19
425.401	171.19
425.623	176.19
425.846	170.19
426.068	165.19
426.291	174.19
426.513	198.19
426.735	179.19
426.958	167.19
427.18	177.19
427.402	159.19
427.625	173.19
427.847	172.19
428.069	187.19
428.292	170.19
428.514	175.19
428.736	164.19
428.958	152.19
429.181	170.19
429.403	153.19
429.625	180.19
429.847	162.19
430.069	180.19
430.292	170.19
430.514	168.19
430.736	167.19
430.958	159.19
431.18	149.19
431.402	162.19
431.624	171.19
431.846	159.19
432.068	165.19
432.29	162.19
432.512	161.19
432.734	178.19
432.956	177.19
433.178	171.19
433.4	161.19
433.622	174.19
433.844	171.19
434.066	176.19
434.287	157.19
434.509	168.19
434.731	174.19
434.953	166.19
435.175	185.19
435.397	199.19
435.618	173.19
435.84	167.19
436.062	160.19
436.284	161.19
436.505	160.19
436.727	170.19
436.949	180.19
437.17	169.19
437.392	156.19
437.614	169.19
437.835	150.19
438.057	169.19
438.278	166.19
438.5	166.19
438.721	181.19
438.943	176.19
439.165	165.19
439.386	164.19
439.608	181.19
439.829	178.19
440.05	167.19
440.272	179.19
440.493	182.19
440.715	177.19
440.936	176.19
441.158	168.19
441.379	165.19
441.6	170.19
441.822	174.19
442.043	189.19
442.264	163.19
442.486	178.19
442.707	183.19
442.928	179.19
443.149	181.19
443.371	193.19
443.592	185.19
443.813	175.19
444.034	174.19
444.255	197.19
444.476	198.19
444.698	201.19
444.919	211.19
445.14	432.19
445.361	286.19
445.582	184.19
445.803	180.19
446.024	177.19
446.245	190.19
446.466	184.19
446.687	154.19
446.908	168.19
447.129	162.19
447.35	174.19
447.571	169.19
447.792	154.19
448.013	166.19
448.234	176.19
448.455	164.19
448.675	166.19
448.896	165.19
449.117	149.19
449.338	169.19
449.559	153.19
449.779	147.19
450	172.19
450.221	157.19
450.442	164.19
450.662	157.19
450.883	157.19
451.104	161.19
451.324	149.19
451.545	146.19
451.766	156.19
451.986	164.19
452.207	172.19
452.428	161.19
452.648	161.19
452.869	151.19
453.089	166.19
453.31	140.19
453.53	148.19
453.751	154.19
453.971	159.19
454.192	147.19
454.412	142.19
454.633	134.19
454.853	164.19
455.073	146.19
455.294	149.19
455.514	168.19
455.734	156.19
455.955	144.19
456.175	150.19
456.395	156.19
456.616	156.19
456.836	150.19
457.056	154.19
457.276	146.19
457.497	145.19
457.717	161.19
457.937	157.19
458.157	154.19
458.377	151.19
458.598	170.19
458.818	160.19
459.038	162.19
459.258	170.19
459.478	160.19
459.698	165.19
459.918	177.19
460.138	176.19
460.358	173.19
460.578	194.19
460.798	197.19
461.018	180.19
461.238	166.19
461.458	187.19
461.678	185.19
461.898	196.19
462.118	192.19
462.338	212.19
462.558	209.19
462.777	218.19
462.997	226.19
463.217	240.19
463.437	213.19
463.657	208.19
463.876	193.19
464.096	196.19
464.316	207.19
464.536	200.19
464.755	207.19
464.975	208.19
465.195	187.19
465.414	189.19
465.634	180.19
465.854	164.19
466.073	181.19
466.293	151.19
466.512	158.19
466.732	166.19
466.951	156.19
467.171	166.19
467.391	172.19
467.61	167.19
467.829	152.19
468.049	168.19
468.268	165.19
468.488	146.19
468.707	153.19
468.927	151.19
469.146	154.19
469.365	161.19
469.585	178.19
469.804	161.19
470.023	171.19
470.243	159.19
470.462	163.19
470.681	177.19
470.901	160.19
471.12	142.19
471.339	153.19
471.558	162.19
471.777	154.19
471.997	172.19
472.216	163.19
472.435	156.19
472.654	165.19
472.873	174.19
473.092	169.19
473.311	147.19
473.53	151.19
473.749	162.19
473.968	173.19
474.187	158.19
474.406	152.19
474.625	169.19
474.844	160.19
475.063	161.19
475.282	157.19
475.501	169.19
475.72	157.19
475.939	164.19
476.158	164.19
476.377	157.19
476.596	170.19
476.814	162.19
477.033	176.19
477.252	164.19
477.471	178.19
477.69	176.19
477.908	182.19
478.127	181.19
478.346	182.19
478.564	184.19
478.783	162.19
479.002	190.19
479.22	182.19
479.439	183.19
479.658	180.19
479.876	175.19
480.095	190.19
480.313	192.19
480.532	200.19
480.751	195.19
480.969	180.19
481.188	176.19
481.406	177.19
481.624	165.19
481.843	153.19
482.061	170.19
482.28	167.19
482.498	178.19
482.717	152.19
482.935	176.19
483.153	164.19
483.372	173.19
483.59	167.19
483.808	172.19
484.027	196.19
484.245	175.19
484.463	174.19
484.681	195.19
484.9	183.19
485.118	178.19
485.336	157.19
485.554	174.19
485.772	171.19
485.99	188.19
486.209	177.19
486.427	181.19
486.645	197.19
486.863	183.19
487.081	190.19
487.299	188.19
487.517	194.19
487.735	167.19
487.953	168.19
488.171	179.19
488.389	188.19
488.607	171.19
488.825	181.19
489.043	167.19
489.261	192.19
489.479	168.19
489.696	172.19
489.914	174.19
490.132	177.19
490.35	185.19
490.568	178.19
490.786	183.19
491.003	184.19
491.221	181.19
491.439	187.19
491.657	168.19
491.874	188.19
492.092	197.19
492.31	192.19
492.527	184.19
492.745	189.19
492.963	196.19
493.18	192.19
493.398	194.19
493.615	191.19
493.833	192.19
494.05	186.19
494.268	194.19
494.485	190.19
494.703	188.19
494.92	201.19
495.138	183.19
495.355	196.19
495.573	198.19
495.79	179.19
496.008	181.19
496.225	187.19
496.442	188.19
496.66	199.19
496.877	189.19
497.094	211.19
497.312	199.19
497.529	208.19
497.746	210.19
497.963	212.19
498.181	208.19
498.398	231.19
498.615	211.19
498.832	242.19
499.049	247.19
499.267	258.19
499.484	279.19
499.701	306.19
499.918	335.19
500.135	369.19
500.352	392.19
500.569	426.19
500.786	426.19
501.003	362.19
501.22	346.19
501.437	304.19
501.654	283.19
501.871	266.19
502.088	255.19
502.305	262.19
502.522	234.19
502.739	227.19
502.956	212.19
503.172	209.19
503.389	213.19
503.606	195.19
503.823	204.19
504.04	208.19
504.256	208.19
504.473	206.19
