Data from SampD_HRD10591_00058.txt Node
Date: Mon Jan 19 11:41:41 EST 2026
User: Yrep
Spectrometer: HR+D1059
Trigger mode: 0
Integration Time (sec): 3.443000E-1
Scans to average: 1
Electric dark correction enabled: true
Nonlinearity correction enabled: false
Boxcar width: 0
XAxis mode: Wavelengths
Number of Pixels in Spectrum: 2048
>>>>>Begin Spectral Data<<<<<
223.165	-22.69
223.4	-22.69
223.635	-22.69
223.869	-8.69
224.104	-22.69
224.338	-11.69
224.573	-22.69
224.808	-8.69
225.042	-6.69
225.277	-10.69
225.511	-5.69
225.746	1.31
225.98	18.31
226.215	13.31
226.449	25.31
226.683	13.31
226.918	17.31
227.152	31.31
227.387	41.31
227.621	41.31
227.856	56.31
228.09	67.31
228.324	46.31
228.559	72.31
228.793	56.31
229.027	65.31
229.262	66.31
229.496	63.31
229.73	62.31
229.964	87.31
230.199	72.31
230.433	87.31
230.667	81.31
230.901	75.31
231.136	68.31
231.37	90.31
231.604	91.31
231.838	91.31
232.072	86.31
232.306	92.31
232.541	83.31
232.775	94.31
233.009	83.31
233.243	98.31
233.477	93.31
233.711	77.31
233.945	81.31
234.179	84.31
234.413	97.31
234.647	88.31
234.881	101.31
235.115	85.31
235.349	84.31
235.583	92.31
235.817	82.31
236.051	85.31
236.285	85.31
236.519	82.31
236.753	95.31
236.987	84.31
237.221	71.31
237.455	85.31
237.689	76.31
237.922	88.31
238.156	92.31
238.39	81.31
238.624	83.31
238.858	88.31
239.091	85.31
239.325	71.31
239.559	91.31
239.793	101.31
240.027	98.31
240.26	71.31
240.494	88.31
240.728	88.31
240.961	85.31
241.195	96.31
241.429	88.31
241.662	79.31
241.896	69.31
242.13	84.31
242.363	92.31
242.597	85.31
242.83	91.31
243.064	86.31
243.298	81.31
243.531	92.31
243.765	86.31
243.998	95.31
244.232	99.31
244.465	76.31
244.699	85.31
244.932	89.31
245.166	87.31
245.399	92.31
245.633	81.31
245.866	92.31
246.099	84.31
246.333	89.31
246.566	80.31
246.8	89.31
247.033	90.31
247.266	96.31
247.5	92.31
247.733	88.31
247.966	96.31
248.2	82.31
248.433	75.31
248.666	92.31
248.899	86.31
249.133	96.31
249.366	107.31
249.599	97.31
249.832	77.31
250.066	87.31
250.299	100.31
250.532	92.31
250.765	94.31
250.998	82.31
251.231	85.31
251.465	104.31
251.698	74.31
251.931	93.31
252.164	101.31
252.397	109.31
252.63	111.31
252.863	79.31
253.096	93.31
253.329	87.31
253.562	91.31
253.795	98.31
254.028	102.31
254.261	112.31
254.494	113.31
254.727	98.31
254.96	91.31
255.193	92.31
255.426	97.31
255.659	93.31
255.892	121.31
256.124	95.31
256.357	81.31
256.59	94.31
256.823	81.31
257.056	106.31
257.289	105.31
257.521	93.31
257.754	95.31
257.987	90.31
258.22	101.31
258.452	101.31
258.685	98.31
258.918	90.31
259.151	104.31
259.383	102.31
259.616	97.31
259.849	94.31
260.081	109.31
260.314	103.31
260.547	91.31
260.779	97.31
261.012	102.31
261.244	103.31
261.477	105.31
261.71	110.31
261.942	95.31
262.175	89.31
262.407	93.31
262.64	96.31
262.872	102.31
263.105	108.31
263.337	93.31
263.57	96.31
263.802	93.31
264.035	108.31
264.267	102.31
264.499	91.31
264.732	98.31
264.964	109.31
265.197	97.31
265.429	103.31
265.661	102.31
265.894	99.31
266.126	109.31
266.358	94.31
266.591	115.31
266.823	96.31
267.055	109.31
267.287	100.31
267.52	96.31
267.752	119.31
267.984	101.31
268.216	109.31
268.448	118.31
268.681	98.31
268.913	115.31
269.145	97.31
269.377	110.31
269.609	93.31
269.841	101.31
270.073	96.31
270.306	104.31
270.538	103.31
270.77	103.31
271.002	111.31
271.234	106.31
271.466	101.31
271.698	93.31
271.93	97.31
272.162	112.31
272.394	96.31
272.626	115.31
272.858	102.31
273.09	103.31
273.322	113.31
273.553	110.31
273.785	80.31
274.017	123.31
274.249	107.31
274.481	115.31
274.713	108.31
274.945	110.31
275.176	105.31
275.408	101.31
275.64	109.31
275.872	95.31
276.104	104.31
276.335	104.31
276.567	108.31
276.799	107.31
277.031	106.31
277.262	112.31
277.494	105.31
277.726	120.31
277.957	118.31
278.189	117.31
278.421	98.31
278.652	103.31
278.884	101.31
279.115	111.31
279.347	104.31
279.579	120.31
279.81	117.31
280.042	116.31
280.273	98.31
280.505	99.31
280.736	104.31
280.968	113.31
281.199	128.31
281.431	105.31
281.662	99.31
281.894	119.31
282.125	110.31
282.356	124.31
282.588	109.31
282.819	116.31
283.051	111.31
283.282	120.31
283.513	123.31
283.745	123.31
283.976	118.31
284.207	105.31
284.439	125.31
284.67	118.31
284.901	107.31
285.132	113.31
285.364	99.31
285.595	108.31
285.826	129.31
286.057	120.31
286.288	117.31
286.52	120.31
286.751	116.31
286.982	120.31
287.213	117.31
287.444	104.31
287.675	120.31
287.906	131.31
288.138	115.31
288.369	122.31
288.6	126.31
288.831	133.31
289.062	122.31
289.293	117.31
289.524	121.31
289.755	124.31
289.986	118.31
290.217	117.31
290.448	147.31
290.679	120.31
290.91	113.31
291.141	110.31
291.371	117.31
291.602	113.31
291.833	116.31
292.064	121.31
292.295	125.31
292.526	105.31
292.757	135.31
292.987	118.31
293.218	112.31
293.449	108.31
293.68	124.31
293.91	107.31
294.141	126.31
294.372	108.31
294.603	122.31
294.833	124.31
295.064	134.31
295.295	107.31
295.525	120.31
295.756	131.31
295.987	123.31
296.217	118.31
296.448	136.31
296.679	106.31
296.909	136.31
297.14	128.31
297.37	135.31
297.601	113.31
297.831	125.31
298.062	142.31
298.292	143.31
298.523	128.31
298.753	116.31
298.984	118.31
299.214	132.31
299.445	126.31
299.675	128.31
299.905	122.31
300.136	133.31
300.366	127.31
300.597	125.31
300.827	127.31
301.057	128.31
301.288	136.31
301.518	133.31
301.748	123.31
301.979	168.31
302.209	121.31
302.439	132.31
302.669	121.31
302.9	134.31
303.13	136.31
303.36	115.31
303.59	107.31
303.82	131.31
304.051	114.31
304.281	133.31
304.511	138.31
304.741	132.31
304.971	125.31
305.201	135.31
305.431	128.31
305.661	127.31
305.891	110.31
306.121	132.31
306.352	120.31
306.582	120.31
306.812	116.31
307.042	120.31
307.272	120.31
307.502	113.31
307.731	133.31
307.961	112.31
308.191	120.31
308.421	139.31
308.651	123.31
308.881	123.31
309.111	123.31
309.341	116.31
309.571	115.31
309.8	124.31
310.03	129.31
310.26	129.31
310.49	131.31
310.72	132.31
310.949	118.31
311.179	129.31
311.409	132.31
311.639	133.31
311.868	139.31
312.098	125.31
312.328	135.31
312.557	121.31
312.787	139.31
313.017	137.31
313.246	130.31
313.476	119.31
313.706	132.31
313.935	126.31
314.165	113.31
314.394	140.31
314.624	132.31
314.853	133.31
315.083	135.31
315.312	121.31
315.542	133.31
315.771	136.31
316.001	134.31
316.23	125.31
316.46	132.31
316.689	115.31
316.919	120.31
317.148	127.31
317.377	141.31
317.607	134.31
317.836	130.31
318.065	128.31
318.295	125.31
318.524	132.31
318.753	142.31
318.983	121.31
319.212	134.31
319.441	124.31
319.67	137.31
319.9	133.31
320.129	144.31
320.358	128.31
320.587	132.31
320.816	134.31
321.046	129.31
321.275	145.31
321.504	128.31
321.733	110.31
321.962	124.31
322.191	131.31
322.42	133.31
322.649	140.31
322.878	132.31
323.108	117.31
323.337	128.31
323.566	143.31
323.795	112.31
324.024	124.31
324.253	144.31
324.482	123.31
324.71	126.31
324.939	135.31
325.168	129.31
325.397	139.31
325.626	137.31
325.855	132.31
326.084	128.31
326.313	131.31
326.542	135.31
326.77	139.31
326.999	148.31
327.228	124.31
327.457	136.31
327.686	139.31
327.914	136.31
328.143	135.31
328.372	133.31
328.6	131.31
328.829	137.31
329.058	135.31
329.287	143.31
329.515	125.31
329.744	141.31
329.972	135.31
330.201	136.31
330.43	127.31
330.658	141.31
330.887	150.31
331.115	161.31
331.344	135.31
331.572	133.31
331.801	139.31
332.03	155.31
332.258	132.31
332.486	133.31
332.715	159.31
332.943	149.31
333.172	159.31
333.4	139.31
333.629	154.31
333.857	157.31
334.085	168.31
334.314	159.31
334.542	154.31
334.771	136.31
334.999	147.31
335.227	160.31
335.455	149.31
335.684	165.31
335.912	139.31
336.14	136.31
336.369	137.31
336.597	169.31
336.825	147.31
337.053	143.31
337.281	143.31
337.51	146.31
337.738	134.31
337.966	159.31
338.194	130.31
338.422	160.31
338.65	145.31
338.878	148.31
339.106	144.31
339.334	155.31
339.562	146.31
339.79	129.31
340.018	144.31
340.246	128.31
340.474	128.31
340.702	134.31
340.93	153.31
341.158	134.31
341.386	135.31
341.614	148.31
341.842	139.31
342.07	152.31
342.298	141.31
342.526	158.31
342.754	132.31
342.981	149.31
343.209	132.31
343.437	166.31
343.665	150.31
343.893	150.31
344.12	169.31
344.348	147.31
344.576	140.31
344.804	141.31
345.031	144.31
345.259	131.31
345.487	129.31
345.714	139.31
345.942	136.31
346.17	155.31
346.397	143.31
346.625	130.31
346.853	131.31
347.08	133.31
347.308	141.31
347.535	144.31
347.763	153.31
347.99	122.31
348.218	138.31
348.445	133.31
348.673	130.31
348.9	145.31
349.128	159.31
349.355	120.31
349.583	140.31
349.81	140.31
350.037	114.31
350.265	144.31
350.492	133.31
350.72	134.31
350.947	132.31
351.174	153.31
351.402	125.31
351.629	136.31
351.856	141.31
352.083	145.31
352.311	139.31
352.538	124.31
352.765	126.31
352.992	148.31
353.22	130.31
353.447	116.31
353.674	129.31
353.901	130.31
354.128	136.31
354.355	148.31
354.583	147.31
354.81	149.31
355.037	129.31
355.264	146.31
355.491	132.31
355.718	135.31
355.945	156.31
356.172	126.31
356.399	141.31
356.626	143.31
356.853	146.31
357.08	144.31
357.307	136.31
357.534	133.31
357.761	129.31
357.988	137.31
358.215	144.31
358.441	125.31
358.668	129.31
358.895	144.31
359.122	136.31
359.349	136.31
359.576	125.31
359.802	132.31
360.029	135.31
360.256	114.31
360.483	133.31
360.709	131.31
360.936	166.31
361.163	133.31
361.39	136.31
361.616	136.31
361.843	145.31
362.07	123.31
362.296	130.31
362.523	125.31
362.749	127.31
362.976	133.31
363.203	142.31
363.429	139.31
363.656	143.31
363.882	133.31
364.109	132.31
364.335	127.31
364.562	141.31
364.788	127.31
365.015	145.31
365.241	148.31
365.468	136.31
365.694	136.31
365.92	131.31
366.147	139.31
366.373	136.31
366.599	145.31
366.826	136.31
367.052	139.31
367.278	127.31
367.505	127.31
367.731	148.31
367.957	141.31
368.184	144.31
368.41	132.31
368.636	130.31
368.862	151.31
369.089	137.31
369.315	129.31
369.541	144.31
369.767	142.31
369.993	140.31
370.219	134.31
370.445	146.31
370.672	144.31
370.898	137.31
371.124	137.31
371.35	139.31
371.576	144.31
371.802	138.31
372.028	140.31
372.254	139.31
372.48	152.31
372.706	150.31
372.932	143.31
373.158	154.31
373.384	147.31
373.61	141.31
373.835	128.31
374.061	146.31
374.287	141.31
374.513	145.31
374.739	166.31
374.965	147.31
375.191	163.31
375.416	144.31
375.642	154.31
375.868	153.31
376.094	133.31
376.319	136.31
376.545	144.31
376.771	134.31
376.997	149.31
377.222	117.31
377.448	136.31
377.674	133.31
377.899	139.31
378.125	134.31
378.35	141.31
378.576	151.31
378.802	137.31
379.027	144.31
379.253	147.31
379.478	150.31
379.704	113.31
379.929	149.31
380.155	139.31
380.38	130.31
380.606	141.31
380.831	139.31
381.057	146.31
381.282	133.31
381.507	133.31
381.733	129.31
381.958	140.31
382.184	145.31
382.409	154.31
382.634	172.31
382.86	154.31
383.085	157.31
383.31	169.31
383.535	149.31
383.761	149.31
383.986	140.31
384.211	132.31
384.436	153.31
384.662	159.31
384.887	166.31
385.112	148.31
385.337	143.31
385.562	168.31
385.787	158.31
386.013	163.31
386.238	161.31
386.463	162.31
386.688	180.31
386.913	159.31
387.138	163.31
387.363	160.31
387.588	159.31
387.813	157.31
388.038	167.31
388.263	168.31
388.488	153.31
388.713	147.31
388.938	173.31
389.163	161.31
389.387	165.31
389.612	161.31
389.837	160.31
390.062	168.31
390.287	144.31
390.512	147.31
390.736	138.31
390.961	154.31
391.186	162.31
391.411	163.31
391.636	156.31
391.86	161.31
392.085	178.31
392.31	183.31
392.534	165.31
392.759	175.31
392.984	155.31
393.208	174.31
393.433	191.31
393.658	167.31
393.882	151.31
394.107	143.31
394.331	156.31
394.556	162.31
394.78	172.31
395.005	167.31
395.229	170.31
395.454	178.31
395.678	174.31
395.903	196.31
396.127	176.31
396.352	168.31
396.576	158.31
396.801	167.31
397.025	169.31
397.249	182.31
397.474	169.31
397.698	182.31
397.922	175.31
398.147	175.31
398.371	173.31
398.595	173.31
398.82	187.31
399.044	186.31
399.268	211.31
399.492	224.31
399.717	235.31
399.941	219.31
400.165	221.31
400.389	218.31
400.613	191.31
400.837	187.31
401.062	182.31
401.286	172.31
401.51	189.31
401.734	180.31
401.958	174.31
402.182	196.31
402.406	183.31
402.63	182.31
402.854	187.31
403.078	209.31
403.302	195.31
403.526	209.31
403.75	203.31
403.974	216.31
404.198	193.31
404.422	215.31
404.645	191.31
404.869	183.31
405.093	195.31
405.317	183.31
405.541	163.31
405.765	194.31
405.988	187.31
406.212	198.31
406.436	203.31
406.66	216.31
406.883	207.31
407.107	218.31
407.331	209.31
407.555	220.31
407.778	208.31
408.002	221.31
408.226	199.31
408.449	203.31
408.673	198.31
408.896	203.31
409.12	184.31
409.344	208.31
409.567	168.31
409.791	212.31
410.014	189.31
410.238	196.31
410.461	211.31
410.685	185.31
410.908	175.31
411.132	179.31
411.355	190.31
411.578	192.31
411.802	167.31
412.025	195.31
412.249	179.31
412.472	182.31
412.695	185.31
412.919	176.31
413.142	188.31
413.365	207.31
413.589	175.31
413.812	189.31
414.035	189.31
414.258	188.31
414.482	188.31
414.705	184.31
414.928	190.31
415.151	186.31
415.374	177.31
415.597	179.31
415.821	196.31
416.044	192.31
416.267	174.31
416.49	186.31
416.713	191.31
416.936	167.31
417.159	179.31
417.382	185.31
417.605	180.31
417.828	187.31
418.051	177.31
418.274	197.31
418.497	177.31
418.72	191.31
418.943	187.31
419.166	185.31
419.389	190.31
419.611	182.31
419.834	192.31
420.057	169.31
420.28	189.31
420.503	172.31
420.726	177.31
420.948	174.31
421.171	176.31
421.394	182.31
421.617	179.31
421.839	173.31
422.062	188.31
422.285	173.31
422.507	172.31
422.73	172.31
422.953	184.31
423.175	191.31
423.398	188.31
423.621	189.31
423.843	183.31
424.066	202.31
424.288	198.31
424.511	194.31
424.733	190.31
424.956	177.31
425.178	196.31
425.401	191.31
425.623	181.31
425.846	179.31
426.068	174.31
426.291	177.31
426.513	191.31
426.735	187.31
426.958	181.31
427.18	165.31
427.402	177.31
427.625	161.31
427.847	173.31
428.069	163.31
428.292	168.31
428.514	169.31
428.736	160.31
428.958	155.31
429.181	161.31
429.403	156.31
429.625	172.31
429.847	162.31
430.069	183.31
430.292	178.31
430.514	173.31
430.736	147.31
430.958	169.31
431.18	149.31
431.402	177.31
431.624	166.31
431.846	167.31
432.068	175.31
432.29	184.31
432.512	180.31
432.734	152.31
432.956	177.31
433.178	179.31
433.4	176.31
433.622	193.31
433.844	177.31
434.066	167.31
434.287	165.31
434.509	175.31
434.731	193.31
434.953	169.31
435.175	163.31
435.397	166.31
435.618	165.31
435.84	168.31
436.062	162.31
436.284	165.31
436.505	176.31
436.727	175.31
436.949	180.31
437.17	175.31
437.392	181.31
437.614	172.31
437.835	143.31
438.057	162.31
438.278	152.31
438.5	158.31
438.721	185.31
438.943	186.31
439.165	174.31
439.386	169.31
439.608	171.31
439.829	161.31
440.05	180.31
440.272	182.31
440.493	170.31
440.715	169.31
440.936	175.31
441.158	186.31
441.379	181.31
441.6	193.31
441.822	188.31
442.043	184.31
442.264	173.31
442.486	169.31
442.707	188.31
442.928	179.31
443.149	172.31
443.371	197.31
443.592	180.31
443.813	187.31
444.034	185.31
444.255	210.31
444.476	206.31
444.698	213.31
444.919	203.31
445.14	456.31
445.361	295.31
445.582	198.31
445.803	176.31
446.024	179.31
446.245	194.31
446.466	193.31
446.687	169.31
446.908	174.31
447.129	159.31
447.35	157.31
447.571	171.31
447.792	156.31
448.013	160.31
448.234	163.31
448.455	173.31
448.675	149.31
448.896	164.31
449.117	171.31
449.338	173.31
449.559	151.31
449.779	168.31
450	162.31
450.221	161.31
450.442	174.31
450.662	176.31
450.883	159.31
451.104	180.31
451.324	151.31
451.545	165.31
451.766	160.31
451.986	164.31
452.207	153.31
452.428	146.31
452.648	162.31
452.869	166.31
453.089	165.31
453.31	159.31
453.53	164.31
453.751	151.31
453.971	159.31
454.192	146.31
454.412	160.31
454.633	157.31
454.853	168.31
455.073	142.31
455.294	168.31
455.514	164.31
455.734	148.31
455.955	149.31
456.175	149.31
456.395	157.31
456.616	143.31
456.836	147.31
457.056	152.31
457.276	161.31
457.497	162.31
457.717	133.31
457.937	139.31
458.157	153.31
458.377	147.31
458.598	160.31
458.818	159.31
459.038	164.31
459.258	178.31
459.478	175.31
459.698	172.31
459.918	181.31
460.138	189.31
460.358	175.31
460.578	190.31
460.798	189.31
461.018	179.31
461.238	195.31
461.458	200.31
461.678	186.31
461.898	196.31
462.118	204.31
462.338	209.31
462.558	196.31
462.777	214.31
462.997	224.31
463.217	216.31
463.437	231.31
463.657	200.31
463.876	205.31
464.096	213.31
464.316	213.31
464.536	193.31
464.755	208.31
464.975	201.31
465.195	195.31
465.414	189.31
465.634	176.31
465.854	157.31
466.073	165.31
466.293	166.31
466.512	168.31
466.732	159.31
466.951	170.31
467.171	165.31
467.391	152.31
467.61	157.31
467.829	161.31
468.049	166.31
468.268	156.31
468.488	157.31
468.707	169.31
468.927	164.31
469.146	156.31
469.365	160.31
469.585	172.31
469.804	181.31
470.023	168.31
470.243	174.31
470.462	167.31
470.681	167.31
470.901	175.31
471.12	166.31
471.339	168.31
471.558	177.31
471.777	162.31
471.997	154.31
472.216	170.31
472.435	160.31
472.654	168.31
472.873	162.31
473.092	152.31
473.311	164.31
473.53	169.31
473.749	167.31
473.968	178.31
474.187	152.31
474.406	147.31
474.625	152.31
474.844	175.31
475.063	158.31
475.282	156.31
475.501	142.31
475.72	175.31
475.939	162.31
476.158	156.31
476.377	181.31
476.596	162.31
476.814	170.31
477.033	173.31
477.252	169.31
477.471	161.31
477.69	169.31
477.908	159.31
478.127	179.31
478.346	173.31
478.564	180.31
478.783	191.31
479.002	182.31
479.22	188.31
479.439	189.31
479.658	189.31
479.876	180.31
480.095	167.31
480.313	186.31
480.532	187.31
480.751	196.31
480.969	185.31
481.188	162.31
481.406	172.31
481.624	186.31
481.843	177.31
482.061	169.31
482.28	176.31
482.498	164.31
482.717	153.31
482.935	179.31
483.153	173.31
483.372	175.31
483.59	197.31
483.808	180.31
484.027	168.31
484.245	181.31
484.463	161.31
484.681	175.31
484.9	195.31
485.118	189.31
485.336	178.31
485.554	187.31
485.772	159.31
485.99	182.31
486.209	185.31
486.427	180.31
486.645	181.31
486.863	178.31
487.081	171.31
487.299	190.31
487.517	169.31
487.735	175.31
487.953	197.31
488.171	193.31
488.389	201.31
488.607	177.31
488.825	182.31
489.043	177.31
489.261	173.31
489.479	187.31
489.696	175.31
489.914	179.31
490.132	179.31
490.35	188.31
490.568	176.31
490.786	195.31
491.003	163.31
491.221	193.31
491.439	191.31
491.657	177.31
491.874	183.31
492.092	194.31
492.31	192.31
492.527	184.31
492.745	181.31
492.963	190.31
493.18	188.31
493.398	184.31
493.615	189.31
493.833	190.31
494.05	206.31
494.268	192.31
494.485	179.31
494.703	191.31
494.92	192.31
495.138	196.31
495.355	196.31
495.573	197.31
495.79	193.31
496.008	193.31
496.225	208.31
496.442	189.31
496.66	214.31
496.877	199.31
497.094	198.31
497.312	190.31
497.529	204.31
497.746	218.31
497.963	209.31
498.181	208.31
498.398	223.31
498.615	224.31
498.832	224.31
499.049	246.31
499.267	268.31
499.484	283.31
499.701	310.31
499.918	328.31
500.135	381.31
500.352	435.31
500.569	428.31
500.786	407.31
501.003	372.31
501.22	347.31
501.437	313.31
501.654	287.31
501.871	268.31
502.088	252.31
502.305	258.31
502.522	245.31
502.739	235.31
502.956	205.31
503.172	208.31
503.389	233.31
503.606	204.31
503.823	209.31
504.04	222.31
504.256	223.31
504.473	207.31
504.69	227.31
