Data from SampD_HRD10591_00088.txt Node
Date: Mon Jan 19 11:41:51 EST 2026
User: Yrep
Spectrometer: HR+D1059
Trigger mode: 0
Integration Time (sec): 3.443000E-1
Scans to average: 1
Electric dark correction enabled: true
Nonlinearity correction enabled: false
Boxcar width: 0
XAxis mode: Wavelengths
Number of Pixels in Spectrum: 2048
>>>>>Begin Spectral Data<<<<<
223.165	-11.88
223.4	-11.88
223.635	-11.88
223.869	-7.88
224.104	-27.88
224.338	-11.88
224.573	-24.88
224.808	-18.88
225.042	5.12
225.277	-19.88
225.511	-2.88
225.746	11.12
225.98	8.12
226.215	12.12
226.449	18.12
226.683	28.12
226.918	20.12
227.152	23.12
227.387	43.12
227.621	40.12
227.856	55.12
228.09	53.12
228.324	40.12
228.559	56.12
228.793	44.12
229.027	82.12
229.262	53.12
229.496	58.12
229.73	63.12
229.964	66.12
230.199	73.12
230.433	79.12
230.667	83.12
230.901	85.12
231.136	82.12
231.37	77.12
231.604	87.12
231.838	91.12
232.072	79.12
232.306	82.12
232.541	94.12
232.775	77.12
233.009	94.12
233.243	74.12
233.477	91.12
233.711	90.12
233.945	87.12
234.179	69.12
234.413	83.12
234.647	79.12
234.881	84.12
235.115	73.12
235.349	87.12
235.583	83.12
235.817	80.12
236.051	62.12
236.285	74.12
236.519	89.12
236.753	76.12
236.987	68.12
237.221	68.12
237.455	89.12
237.689	91.12
237.922	96.12
238.156	77.12
238.39	67.12
238.624	77.12
238.858	83.12
239.091	75.12
239.325	83.12
239.559	84.12
239.793	89.12
240.027	94.12
240.26	95.12
240.494	82.12
240.728	67.12
240.961	81.12
241.195	79.12
241.429	80.12
241.662	79.12
241.896	85.12
242.13	93.12
242.363	74.12
242.597	85.12
242.83	92.12
243.064	93.12
243.298	79.12
243.531	70.12
243.765	81.12
243.998	77.12
244.232	89.12
244.465	75.12
244.699	71.12
244.932	73.12
245.166	71.12
245.399	87.12
245.633	84.12
245.866	99.12
246.099	81.12
246.333	79.12
246.566	75.12
246.8	86.12
247.033	72.12
247.266	90.12
247.5	90.12
247.733	82.12
247.966	77.12
248.2	82.12
248.433	78.12
248.666	83.12
248.899	82.12
249.133	81.12
249.366	93.12
249.599	86.12
249.832	67.12
250.066	90.12
250.299	92.12
250.532	86.12
250.765	87.12
250.998	78.12
251.231	83.12
251.465	107.12
251.698	86.12
251.931	85.12
252.164	83.12
252.397	78.12
252.63	74.12
252.863	79.12
253.096	76.12
253.329	96.12
253.562	83.12
253.795	93.12
254.028	87.12
254.261	96.12
254.494	95.12
254.727	83.12
254.96	89.12
255.193	95.12
255.426	96.12
255.659	76.12
255.892	90.12
256.124	75.12
256.357	95.12
256.59	85.12
256.823	63.12
257.056	83.12
257.289	102.12
257.521	86.12
257.754	99.12
257.987	98.12
258.22	94.12
258.452	96.12
258.685	98.12
258.918	78.12
259.151	95.12
259.383	78.12
259.616	85.12
259.849	98.12
260.081	98.12
260.314	97.12
260.547	73.12
260.779	79.12
261.012	90.12
261.244	84.12
261.477	84.12
261.71	81.12
261.942	69.12
262.175	95.12
262.407	98.12
262.64	91.12
262.872	82.12
263.105	92.12
263.337	95.12
263.57	74.12
263.802	81.12
264.035	100.12
264.267	97.12
264.499	92.12
264.732	94.12
264.964	101.12
265.197	99.12
265.429	96.12
265.661	94.12
265.894	89.12
266.126	102.12
266.358	79.12
266.591	99.12
266.823	70.12
267.055	79.12
267.287	100.12
267.52	94.12
267.752	97.12
267.984	103.12
268.216	97.12
268.448	88.12
268.681	108.12
268.913	88.12
269.145	81.12
269.377	104.12
269.609	77.12
269.841	101.12
270.073	86.12
270.306	102.12
270.538	105.12
270.77	103.12
271.002	89.12
271.234	95.12
271.466	89.12
271.698	87.12
271.93	84.12
272.162	89.12
272.394	98.12
272.626	92.12
272.858	86.12
273.09	93.12
273.322	95.12
273.553	97.12
273.785	94.12
274.017	93.12
274.249	108.12
274.481	96.12
274.713	89.12
274.945	101.12
275.176	89.12
275.408	95.12
275.64	95.12
275.872	98.12
276.104	104.12
276.335	94.12
276.567	105.12
276.799	99.12
277.031	87.12
277.262	106.12
277.494	107.12
277.726	109.12
277.957	90.12
278.189	89.12
278.421	101.12
278.652	87.12
278.884	82.12
279.115	98.12
279.347	100.12
279.579	82.12
279.81	82.12
280.042	107.12
280.273	93.12
280.505	95.12
280.736	100.12
280.968	102.12
281.199	102.12
281.431	92.12
281.662	95.12
281.894	106.12
282.125	94.12
282.356	93.12
282.588	85.12
282.819	102.12
283.051	102.12
283.282	85.12
283.513	102.12
283.745	93.12
283.976	94.12
284.207	93.12
284.439	101.12
284.67	99.12
284.901	99.12
285.132	100.12
285.364	90.12
285.595	104.12
285.826	85.12
286.057	116.12
286.288	97.12
286.52	114.12
286.751	112.12
286.982	101.12
287.213	92.12
287.444	100.12
287.675	116.12
287.906	121.12
288.138	103.12
288.369	109.12
288.6	109.12
288.831	89.12
289.062	109.12
289.293	95.12
289.524	112.12
289.755	94.12
289.986	111.12
290.217	100.12
290.448	107.12
290.679	117.12
290.91	110.12
291.141	93.12
291.371	101.12
291.602	101.12
291.833	112.12
292.064	115.12
292.295	94.12
292.526	103.12
292.757	106.12
292.987	101.12
293.218	115.12
293.449	82.12
293.68	83.12
293.91	106.12
294.141	116.12
294.372	101.12
294.603	104.12
294.833	108.12
295.064	89.12
295.295	117.12
295.525	102.12
295.756	105.12
295.987	100.12
296.217	107.12
296.448	87.12
296.679	103.12
296.909	101.12
297.14	102.12
297.37	111.12
297.601	106.12
297.831	92.12
298.062	101.12
298.292	110.12
298.523	115.12
298.753	89.12
298.984	103.12
299.214	115.12
299.445	125.12
299.675	104.12
299.905	98.12
300.136	100.12
300.366	95.12
300.597	121.12
300.827	112.12
301.057	118.12
301.288	106.12
301.518	101.12
301.748	111.12
301.979	142.12
302.209	115.12
302.439	103.12
302.669	92.12
302.9	98.12
303.13	118.12
303.36	113.12
303.59	107.12
303.82	110.12
304.051	111.12
304.281	121.12
304.511	117.12
304.741	109.12
304.971	97.12
305.201	108.12
305.431	102.12
305.661	118.12
305.891	92.12
306.121	118.12
306.352	103.12
306.582	85.12
306.812	110.12
307.042	127.12
307.272	97.12
307.502	110.12
307.731	116.12
307.961	126.12
308.191	110.12
308.421	107.12
308.651	101.12
308.881	108.12
309.111	95.12
309.341	108.12
309.571	123.12
309.8	103.12
310.03	96.12
310.26	98.12
310.49	112.12
310.72	110.12
310.949	100.12
311.179	112.12
311.409	107.12
311.639	101.12
311.868	107.12
312.098	114.12
312.328	101.12
312.557	118.12
312.787	111.12
313.017	101.12
313.246	116.12
313.476	119.12
313.706	97.12
313.935	110.12
314.165	94.12
314.394	115.12
314.624	117.12
314.853	115.12
315.083	115.12
315.312	128.12
315.542	108.12
315.771	108.12
316.001	97.12
316.23	109.12
316.46	97.12
316.689	117.12
316.919	109.12
317.148	110.12
317.377	115.12
317.607	112.12
317.836	105.12
318.065	103.12
318.295	101.12
318.524	114.12
318.753	96.12
318.983	111.12
319.212	111.12
319.441	99.12
319.67	102.12
319.9	104.12
320.129	99.12
320.358	109.12
320.587	98.12
320.816	103.12
321.046	99.12
321.275	125.12
321.504	105.12
321.733	103.12
321.962	112.12
322.191	109.12
322.42	99.12
322.649	114.12
322.878	110.12
323.108	107.12
323.337	110.12
323.566	119.12
323.795	108.12
324.024	113.12
324.253	113.12
324.482	106.12
324.71	106.12
324.939	109.12
325.168	108.12
325.397	109.12
325.626	109.12
325.855	95.12
326.084	106.12
326.313	120.12
326.542	116.12
326.77	99.12
326.999	113.12
327.228	120.12
327.457	115.12
327.686	119.12
327.914	98.12
328.143	104.12
328.372	115.12
328.6	115.12
328.829	106.12
329.058	105.12
329.287	103.12
329.515	122.12
329.744	110.12
329.972	97.12
330.201	103.12
330.43	126.12
330.658	113.12
330.887	121.12
331.115	126.12
331.344	112.12
331.572	115.12
331.801	124.12
332.03	116.12
332.258	105.12
332.486	112.12
332.715	119.12
332.943	113.12
333.172	122.12
333.4	131.12
333.629	134.12
333.857	126.12
334.085	124.12
334.314	119.12
334.542	113.12
334.771	117.12
334.999	125.12
335.227	117.12
335.455	117.12
335.684	126.12
335.912	137.12
336.14	114.12
336.369	108.12
336.597	126.12
336.825	115.12
337.053	116.12
337.281	101.12
337.51	117.12
337.738	113.12
337.966	109.12
338.194	94.12
338.422	95.12
338.65	126.12
338.878	123.12
339.106	120.12
339.334	127.12
339.562	99.12
339.79	102.12
340.018	123.12
340.246	103.12
340.474	104.12
340.702	107.12
340.93	124.12
341.158	115.12
341.386	101.12
341.614	108.12
341.842	132.12
342.07	111.12
342.298	113.12
342.526	114.12
342.754	117.12
342.981	126.12
343.209	122.12
343.437	134.12
343.665	116.12
343.893	127.12
344.12	150.12
344.348	123.12
344.576	117.12
344.804	112.12
345.031	121.12
345.259	123.12
345.487	113.12
345.714	109.12
345.942	100.12
346.17	112.12
346.397	114.12
346.625	122.12
346.853	108.12
347.08	115.12
347.308	114.12
347.535	122.12
347.763	103.12
347.99	117.12
348.218	116.12
348.445	114.12
348.673	112.12
348.9	110.12
349.128	131.12
349.355	109.12
349.583	114.12
349.81	118.12
350.037	113.12
350.265	94.12
350.492	121.12
350.72	106.12
350.947	107.12
351.174	111.12
351.402	118.12
351.629	113.12
351.856	132.12
352.083	116.12
352.311	118.12
352.538	111.12
352.765	103.12
352.992	118.12
353.22	113.12
353.447	109.12
353.674	110.12
353.901	121.12
354.128	116.12
354.355	105.12
354.583	124.12
354.81	121.12
355.037	127.12
355.264	106.12
355.491	117.12
355.718	117.12
355.945	118.12
356.172	106.12
356.399	115.12
356.626	109.12
356.853	108.12
357.08	96.12
357.307	101.12
357.534	110.12
357.761	106.12
357.988	104.12
358.215	126.12
358.441	108.12
358.668	106.12
358.895	108.12
359.122	100.12
359.349	90.12
359.576	106.12
359.802	109.12
360.029	109.12
360.256	100.12
360.483	112.12
360.709	114.12
360.936	117.12
361.163	115.12
361.39	111.12
361.616	110.12
361.843	91.12
362.07	109.12
362.296	113.12
362.523	114.12
362.749	117.12
362.976	93.12
363.203	116.12
363.429	117.12
363.656	115.12
363.882	97.12
364.109	106.12
364.335	121.12
364.562	117.12
364.788	98.12
365.015	118.12
365.241	102.12
365.468	121.12
365.694	118.12
365.92	110.12
366.147	107.12
366.373	96.12
366.599	113.12
366.826	109.12
367.052	112.12
367.278	120.12
367.505	114.12
367.731	132.12
367.957	122.12
368.184	108.12
368.41	106.12
368.636	101.12
368.862	115.12
369.089	100.12
369.315	117.12
369.541	130.12
369.767	122.12
369.993	117.12
370.219	107.12
370.445	100.12
370.672	104.12
370.898	112.12
371.124	120.12
371.35	116.12
371.576	111.12
371.802	108.12
372.028	110.12
372.254	122.12
372.48	117.12
372.706	118.12
372.932	117.12
373.158	110.12
373.384	122.12
373.61	117.12
373.835	124.12
374.061	111.12
374.287	114.12
374.513	114.12
374.739	111.12
374.965	113.12
375.191	118.12
375.416	111.12
375.642	119.12
375.868	126.12
376.094	121.12
376.319	116.12
376.545	113.12
376.771	109.12
376.997	114.12
377.222	117.12
377.448	129.12
377.674	110.12
377.899	128.12
378.125	128.12
378.35	100.12
378.576	105.12
378.802	116.12
379.027	119.12
379.253	102.12
379.478	107.12
379.704	100.12
379.929	115.12
380.155	135.12
380.38	97.12
380.606	101.12
380.831	109.12
381.057	121.12
381.282	114.12
381.507	123.12
381.733	102.12
381.958	126.12
382.184	117.12
382.409	114.12
382.634	121.12
382.86	118.12
383.085	124.12
383.31	127.12
383.535	119.12
383.761	129.12
383.986	114.12
384.211	116.12
384.436	114.12
384.662	125.12
384.887	113.12
385.112	98.12
385.337	135.12
385.562	119.12
385.787	126.12
386.013	142.12
386.238	124.12
386.463	126.12
386.688	156.12
386.913	124.12
387.138	117.12
387.363	113.12
387.588	146.12
387.813	130.12
388.038	118.12
388.263	106.12
388.488	125.12
388.713	121.12
388.938	145.12
389.163	121.12
389.387	118.12
389.612	126.12
389.837	111.12
390.062	121.12
390.287	129.12
390.512	126.12
390.736	126.12
390.961	133.12
391.186	118.12
391.411	128.12
391.636	135.12
391.86	130.12
392.085	125.12
392.31	123.12
392.534	118.12
392.759	124.12
392.984	124.12
393.208	113.12
393.433	135.12
393.658	129.12
393.882	119.12
394.107	131.12
394.331	125.12
394.556	123.12
394.78	125.12
395.005	131.12
395.229	132.12
395.454	138.12
395.678	125.12
395.903	139.12
396.127	139.12
396.352	129.12
396.576	137.12
396.801	115.12
397.025	128.12
397.249	121.12
397.474	141.12
397.698	138.12
397.922	116.12
398.147	137.12
398.371	134.12
398.595	137.12
398.82	133.12
399.044	153.12
399.268	148.12
399.492	179.12
399.717	171.12
399.941	149.12
400.165	159.12
400.389	159.12
400.613	147.12
400.837	141.12
401.062	128.12
401.286	147.12
401.51	138.12
401.734	126.12
401.958	139.12
402.182	118.12
402.406	137.12
402.63	145.12
402.854	148.12
403.078	135.12
403.302	131.12
403.526	140.12
403.75	158.12
403.974	156.12
404.198	148.12
404.422	138.12
404.645	133.12
404.869	147.12
405.093	143.12
405.317	156.12
405.541	143.12
405.765	147.12
405.988	142.12
406.212	139.12
406.436	134.12
406.66	155.12
406.883	155.12
407.107	167.12
407.331	158.12
407.555	153.12
407.778	149.12
408.002	147.12
408.226	145.12
408.449	151.12
408.673	141.12
408.896	144.12
409.12	137.12
409.344	143.12
409.567	153.12
409.791	141.12
410.014	127.12
410.238	128.12
410.461	146.12
410.685	135.12
410.908	125.12
411.132	144.12
411.355	143.12
411.578	151.12
411.802	130.12
412.025	134.12
412.249	144.12
412.472	130.12
412.695	134.12
412.919	150.12
413.142	147.12
413.365	133.12
413.589	145.12
413.812	136.12
414.035	138.12
414.258	146.12
414.482	155.12
414.705	141.12
414.928	134.12
415.151	139.12
415.374	133.12
415.597	140.12
415.821	141.12
416.044	143.12
416.267	130.12
416.49	145.12
416.713	127.12
416.936	145.12
417.159	119.12
417.382	124.12
417.605	129.12
417.828	150.12
418.051	135.12
418.274	148.12
418.497	163.12
418.72	145.12
418.943	149.12
419.166	142.12
419.389	151.12
419.611	133.12
419.834	158.12
420.057	147.12
420.28	131.12
420.503	141.12
420.726	124.12
420.948	150.12
421.171	139.12
421.394	138.12
421.617	130.12
421.839	127.12
422.062	142.12
422.285	132.12
422.507	142.12
422.73	151.12
422.953	132.12
423.175	145.12
423.398	140.12
423.621	154.12
423.843	137.12
424.066	138.12
424.288	145.12
424.511	148.12
424.733	141.12
424.956	124.12
425.178	142.12
425.401	136.12
425.623	132.12
425.846	125.12
426.068	123.12
426.291	123.12
426.513	140.12
426.735	131.12
426.958	131.12
427.18	142.12
427.402	141.12
427.625	125.12
427.847	127.12
428.069	137.12
428.292	132.12
428.514	128.12
428.736	122.12
428.958	131.12
429.181	127.12
429.403	132.12
429.625	129.12
429.847	125.12
430.069	126.12
430.292	119.12
430.514	121.12
430.736	131.12
430.958	135.12
431.18	123.12
431.402	131.12
431.624	126.12
431.846	139.12
432.068	123.12
432.29	124.12
432.512	130.12
432.734	128.12
432.956	129.12
433.178	125.12
433.4	135.12
433.622	133.12
433.844	146.12
434.066	144.12
434.287	127.12
434.509	123.12
434.731	137.12
434.953	138.12
435.175	153.12
435.397	145.12
435.618	135.12
435.84	132.12
436.062	140.12
436.284	128.12
436.505	107.12
436.727	131.12
436.949	114.12
437.17	115.12
437.392	117.12
437.614	111.12
437.835	118.12
438.057	130.12
438.278	137.12
438.5	132.12
438.721	131.12
438.943	149.12
439.165	139.12
439.386	128.12
439.608	135.12
439.829	135.12
440.05	131.12
440.272	142.12
440.493	141.12
440.715	146.12
440.936	140.12
441.158	139.12
441.379	131.12
441.6	126.12
441.822	144.12
442.043	139.12
442.264	133.12
442.486	143.12
442.707	131.12
442.928	137.12
443.149	142.12
443.371	145.12
443.592	144.12
443.813	125.12
444.034	141.12
444.255	159.12
444.476	151.12
444.698	160.12
444.919	146.12
445.14	371.12
445.361	251.12
445.582	158.12
445.803	121.12
446.024	152.12
446.245	138.12
446.466	144.12
446.687	138.12
446.908	122.12
447.129	146.12
447.35	122.12
447.571	141.12
447.792	118.12
448.013	131.12
448.234	132.12
448.455	117.12
448.675	116.12
448.896	121.12
449.117	133.12
449.338	112.12
449.559	133.12
449.779	112.12
450	142.12
450.221	121.12
450.442	129.12
450.662	119.12
450.883	122.12
451.104	140.12
451.324	130.12
451.545	123.12
451.766	134.12
451.986	125.12
452.207	124.12
452.428	119.12
452.648	118.12
452.869	125.12
453.089	113.12
453.31	141.12
453.53	113.12
453.751	129.12
453.971	121.12
454.192	124.12
454.412	133.12
454.633	124.12
454.853	126.12
455.073	141.12
455.294	116.12
455.514	113.12
455.734	119.12
455.955	109.12
456.175	122.12
456.395	121.12
456.616	125.12
456.836	121.12
457.056	124.12
457.276	121.12
457.497	129.12
457.717	118.12
457.937	111.12
458.157	114.12
458.377	119.12
458.598	125.12
458.818	121.12
459.038	123.12
459.258	123.12
459.478	139.12
459.698	122.12
459.918	127.12
460.138	137.12
460.358	139.12
460.578	157.12
460.798	123.12
461.018	130.12
461.238	138.12
461.458	132.12
461.678	143.12
461.898	163.12
462.118	165.12
462.338	153.12
462.558	143.12
462.777	161.12
462.997	160.12
463.217	168.12
463.437	153.12
463.657	150.12
463.876	149.12
464.096	150.12
464.316	162.12
464.536	156.12
464.755	144.12
464.975	158.12
465.195	150.12
465.414	128.12
465.634	134.12
465.854	145.12
466.073	129.12
466.293	126.12
466.512	122.12
466.732	128.12
466.951	109.12
467.171	127.12
467.391	135.12
467.61	131.12
467.829	132.12
468.049	127.12
468.268	131.12
468.488	109.12
468.707	114.12
468.927	130.12
469.146	121.12
469.365	139.12
469.585	130.12
469.804	121.12
470.023	133.12
470.243	111.12
470.462	131.12
470.681	130.12
470.901	141.12
471.12	122.12
471.339	137.12
471.558	128.12
471.777	130.12
471.997	118.12
472.216	131.12
472.435	127.12
472.654	117.12
472.873	130.12
473.092	128.12
473.311	108.12
473.53	116.12
473.749	134.12
473.968	131.12
474.187	122.12
474.406	101.12
474.625	119.12
474.844	110.12
475.063	103.12
475.282	137.12
475.501	121.12
475.72	144.12
475.939	121.12
476.158	137.12
476.377	122.12
476.596	127.12
476.814	130.12
477.033	122.12
477.252	125.12
477.471	139.12
477.69	132.12
477.908	131.12
478.127	143.12
478.346	128.12
478.564	136.12
478.783	127.12
479.002	144.12
479.22	120.12
479.439	141.12
479.658	156.12
479.876	128.12
480.095	138.12
480.313	158.12
480.532	155.12
480.751	146.12
480.969	146.12
481.188	142.12
481.406	156.12
481.624	149.12
481.843	131.12
482.061	139.12
482.28	142.12
482.498	139.12
482.717	131.12
482.935	150.12
483.153	138.12
483.372	136.12
483.59	131.12
483.808	114.12
484.027	122.12
484.245	133.12
484.463	130.12
484.681	166.12
484.9	151.12
485.118	145.12
485.336	140.12
485.554	126.12
485.772	137.12
485.99	155.12
486.209	161.12
486.427	133.12
486.645	126.12
486.863	143.12
487.081	138.12
487.299	140.12
487.517	137.12
487.735	140.12
487.953	139.12
488.171	148.12
488.389	125.12
488.607	131.12
488.825	145.12
489.043	135.12
489.261	143.12
489.479	133.12
489.696	145.12
489.914	132.12
490.132	134.12
490.35	154.12
490.568	126.12
490.786	130.12
491.003	143.12
491.221	141.12
491.439	154.12
491.657	123.12
491.874	144.12
492.092	131.12
492.31	141.12
492.527	145.12
492.745	140.12
492.963	154.12
493.18	130.12
493.398	151.12
493.615	139.12
493.833	139.12
494.05	141.12
494.268	150.12
494.485	145.12
494.703	151.12
494.92	148.12
495.138	153.12
495.355	150.12
495.573	142.12
495.79	134.12
496.008	144.12
496.225	138.12
496.442	156.12
496.66	163.12
496.877	153.12
497.094	167.12
497.312	162.12
497.529	156.12
497.746	158.12
497.963	155.12
498.181	153.12
498.398	161.12
498.615	168.12
498.832	182.12
499.049	168.12
499.267	185.12
499.484	217.12
499.701	216.12
499.918	222.12
500.135	253.12
500.352	282.12
500.569	281.12
500.786	292.12
501.003	256.12
501.22	229.12
501.437	217.12
501.654	214.12
501.871	190.12
502.088	150.12
502.305	181.12
502.522	179.12
502.739	164.12
502.956	165.12
503.172	171.12
503.389	150.12
503.606	143.12
503.823	164.12
504.04	149.12
504.256	162.12
504.473	162.12
504.69	156.12
504.907	162.12
505.123	143.12
505.34	142.12
505.557	117.12
505.773	146.12
505.99	157.12
506.207	137.12
506.423	126.12
