Data from SampD_HRD10591_00003.txt Node
Date: Mon Jan 19 11:41:22 EST 2026
User: Yrep
Spectrometer: HR+D1059
Trigger mode: 0
Integration Time (sec): 3.443000E-1
Scans to average: 1
Electric dark correction enabled: true
Nonlinearity correction enabled: false
Boxcar width: 0
XAxis mode: Wavelengths
Number of Pixels in Spectrum: 2048
>>>>>Begin Spectral Data<<<<<
223.165	-26.5
223.4	-26.5
223.635	-26.5
223.869	-27.5
224.104	-21.5
224.338	-14.5
224.573	-9.5
224.808	-11.5
225.042	-10.5
225.277	-0.5
225.511	-10.5
225.746	16.5
225.98	6.5
226.215	0.5
226.449	25.5
226.683	21.5
226.918	20.5
227.152	41.5
227.387	26.5
227.621	25.5
227.856	52.5
228.09	37.5
228.324	48.5
228.559	49.5
228.793	60.5
229.027	61.5
229.262	56.5
229.496	61.5
229.73	71.5
229.964	82.5
230.199	73.5
230.433	75.5
230.667	82.5
230.901	73.5
231.136	63.5
231.37	65.5
231.604	76.5
231.838	82.5
232.072	78.5
232.306	83.5
232.541	72.5
232.775	89.5
233.009	77.5
233.243	69.5
233.477	79.5
233.711	80.5
233.945	69.5
234.179	80.5
234.413	94.5
234.647	87.5
234.881	89.5
235.115	85.5
235.349	61.5
235.583	72.5
235.817	87.5
236.051	89.5
236.285	68.5
236.519	78.5
236.753	78.5
236.987	72.5
237.221	65.5
237.455	71.5
237.689	65.5
237.922	89.5
238.156	84.5
238.39	76.5
238.624	76.5
238.858	74.5
239.091	84.5
239.325	63.5
239.559	78.5
239.793	78.5
240.027	101.5
240.26	72.5
240.494	79.5
240.728	78.5
240.961	70.5
241.195	80.5
241.429	70.5
241.662	74.5
241.896	99.5
242.13	90.5
242.363	76.5
242.597	76.5
242.83	80.5
243.064	81.5
243.298	73.5
243.531	76.5
243.765	64.5
243.998	67.5
244.232	89.5
244.465	80.5
244.699	72.5
244.932	90.5
245.166	86.5
245.399	73.5
245.633	76.5
245.866	73.5
246.099	74.5
246.333	93.5
246.566	71.5
246.8	79.5
247.033	82.5
247.266	89.5
247.5	71.5
247.733	67.5
247.966	85.5
248.2	87.5
248.433	82.5
248.666	96.5
248.899	87.5
249.133	77.5
249.366	93.5
249.599	79.5
249.832	84.5
250.066	88.5
250.299	76.5
250.532	91.5
250.765	83.5
250.998	76.5
251.231	84.5
251.465	76.5
251.698	82.5
251.931	78.5
252.164	81.5
252.397	88.5
252.63	89.5
252.863	85.5
253.096	89.5
253.329	92.5
253.562	104.5
253.795	90.5
254.028	85.5
254.261	86.5
254.494	86.5
254.727	93.5
254.96	73.5
255.193	73.5
255.426	90.5
255.659	75.5
255.892	83.5
256.124	96.5
256.357	96.5
256.59	89.5
256.823	89.5
257.056	87.5
257.289	86.5
257.521	89.5
257.754	90.5
257.987	82.5
258.22	115.5
258.452	87.5
258.685	93.5
258.918	86.5
259.151	89.5
259.383	84.5
259.616	84.5
259.849	71.5
260.081	95.5
260.314	81.5
260.547	80.5
260.779	98.5
261.012	93.5
261.244	81.5
261.477	92.5
261.71	85.5
261.942	101.5
262.175	87.5
262.407	91.5
262.64	87.5
262.872	91.5
263.105	98.5
263.337	92.5
263.57	86.5
263.802	98.5
264.035	80.5
264.267	98.5
264.499	97.5
264.732	89.5
264.964	82.5
265.197	90.5
265.429	103.5
265.661	95.5
265.894	95.5
266.126	113.5
266.358	100.5
266.591	97.5
266.823	88.5
267.055	96.5
267.287	94.5
267.52	94.5
267.752	97.5
267.984	99.5
268.216	84.5
268.448	105.5
268.681	93.5
268.913	102.5
269.145	90.5
269.377	93.5
269.609	89.5
269.841	93.5
270.073	98.5
270.306	89.5
270.538	89.5
270.77	101.5
271.002	111.5
271.234	107.5
271.466	101.5
271.698	95.5
271.93	97.5
272.162	87.5
272.394	96.5
272.626	106.5
272.858	95.5
273.09	108.5
273.322	96.5
273.553	100.5
273.785	108.5
274.017	96.5
274.249	96.5
274.481	95.5
274.713	91.5
274.945	114.5
275.176	101.5
275.408	97.5
275.64	105.5
275.872	97.5
276.104	98.5
276.335	101.5
276.567	103.5
276.799	98.5
277.031	94.5
277.262	106.5
277.494	97.5
277.726	99.5
277.957	97.5
278.189	105.5
278.421	99.5
278.652	104.5
278.884	111.5
279.115	97.5
279.347	117.5
279.579	97.5
279.81	97.5
280.042	110.5
280.273	108.5
280.505	91.5
280.736	91.5
280.968	102.5
281.199	113.5
281.431	116.5
281.662	119.5
281.894	101.5
282.125	112.5
282.356	116.5
282.588	105.5
282.819	117.5
283.051	96.5
283.282	116.5
283.513	100.5
283.745	120.5
283.976	112.5
284.207	98.5
284.439	98.5
284.67	102.5
284.901	116.5
285.132	118.5
285.364	106.5
285.595	112.5
285.826	104.5
286.057	108.5
286.288	94.5
286.52	115.5
286.751	103.5
286.982	119.5
287.213	101.5
287.444	116.5
287.675	112.5
287.906	136.5
288.138	103.5
288.369	108.5
288.6	106.5
288.831	110.5
289.062	118.5
289.293	113.5
289.524	112.5
289.755	120.5
289.986	108.5
290.217	106.5
290.448	113.5
290.679	105.5
290.91	102.5
291.141	109.5
291.371	124.5
291.602	115.5
291.833	112.5
292.064	114.5
292.295	125.5
292.526	108.5
292.757	113.5
292.987	100.5
293.218	104.5
293.449	114.5
293.68	100.5
293.91	110.5
294.141	121.5
294.372	106.5
294.603	108.5
294.833	107.5
295.064	113.5
295.295	105.5
295.525	109.5
295.756	115.5
295.987	107.5
296.217	111.5
296.448	105.5
296.679	112.5
296.909	145.5
297.14	118.5
297.37	135.5
297.601	134.5
297.831	112.5
298.062	110.5
298.292	110.5
298.523	114.5
298.753	112.5
298.984	121.5
299.214	111.5
299.445	118.5
299.675	127.5
299.905	118.5
300.136	123.5
300.366	110.5
300.597	120.5
300.827	111.5
301.057	119.5
301.288	122.5
301.518	129.5
301.748	127.5
301.979	171.5
302.209	140.5
302.439	127.5
302.669	116.5
302.9	126.5
303.13	117.5
303.36	123.5
303.59	103.5
303.82	127.5
304.051	120.5
304.281	124.5
304.511	126.5
304.741	130.5
304.971	120.5
305.201	126.5
305.431	124.5
305.661	120.5
305.891	118.5
306.121	116.5
306.352	124.5
306.582	111.5
306.812	118.5
307.042	123.5
307.272	117.5
307.502	116.5
307.731	114.5
307.961	122.5
308.191	114.5
308.421	117.5
308.651	127.5
308.881	122.5
309.111	114.5
309.341	108.5
309.571	112.5
309.8	103.5
310.03	129.5
310.26	123.5
310.49	114.5
310.72	131.5
310.949	120.5
311.179	108.5
311.409	117.5
311.639	112.5
311.868	116.5
312.098	128.5
312.328	137.5
312.557	132.5
312.787	116.5
313.017	127.5
313.246	116.5
313.476	117.5
313.706	137.5
313.935	120.5
314.165	109.5
314.394	134.5
314.624	121.5
314.853	129.5
315.083	122.5
315.312	125.5
315.542	126.5
315.771	112.5
316.001	128.5
316.23	116.5
316.46	116.5
316.689	123.5
316.919	116.5
317.148	133.5
317.377	126.5
317.607	128.5
317.836	119.5
318.065	114.5
318.295	126.5
318.524	134.5
318.753	120.5
318.983	110.5
319.212	123.5
319.441	120.5
319.67	136.5
319.9	126.5
320.129	129.5
320.358	122.5
320.587	126.5
320.816	123.5
321.046	113.5
321.275	127.5
321.504	114.5
321.733	107.5
321.962	110.5
322.191	124.5
322.42	124.5
322.649	132.5
322.878	118.5
323.108	110.5
323.337	113.5
323.566	117.5
323.795	127.5
324.024	126.5
324.253	121.5
324.482	130.5
324.71	119.5
324.939	135.5
325.168	116.5
325.397	140.5
325.626	107.5
325.855	121.5
326.084	121.5
326.313	130.5
326.542	114.5
326.77	127.5
326.999	115.5
327.228	115.5
327.457	118.5
327.686	127.5
327.914	124.5
328.143	149.5
328.372	126.5
328.6	134.5
328.829	116.5
329.058	126.5
329.287	110.5
329.515	118.5
329.744	130.5
329.972	132.5
330.201	130.5
330.43	132.5
330.658	133.5
330.887	115.5
331.115	128.5
331.344	106.5
331.572	124.5
331.801	144.5
332.03	141.5
332.258	118.5
332.486	129.5
332.715	138.5
332.943	161.5
333.172	156.5
333.4	152.5
333.629	135.5
333.857	157.5
334.085	150.5
334.314	162.5
334.542	120.5
334.771	153.5
334.999	147.5
335.227	137.5
335.455	140.5
335.684	155.5
335.912	133.5
336.14	129.5
336.369	134.5
336.597	129.5
336.825	150.5
337.053	141.5
337.281	145.5
337.51	137.5
337.738	150.5
337.966	134.5
338.194	130.5
338.422	129.5
338.65	139.5
338.878	131.5
339.106	139.5
339.334	129.5
339.562	125.5
339.79	121.5
340.018	126.5
340.246	114.5
340.474	126.5
340.702	129.5
340.93	134.5
341.158	129.5
341.386	133.5
341.614	135.5
341.842	119.5
342.07	127.5
342.298	124.5
342.526	118.5
342.754	135.5
342.981	125.5
343.209	129.5
343.437	161.5
343.665	142.5
343.893	149.5
344.12	173.5
344.348	155.5
344.576	136.5
344.804	107.5
345.031	130.5
345.259	113.5
345.487	128.5
345.714	110.5
345.942	119.5
346.17	135.5
346.397	134.5
346.625	141.5
346.853	133.5
347.08	121.5
347.308	132.5
347.535	130.5
347.763	122.5
347.99	122.5
348.218	129.5
348.445	140.5
348.673	122.5
348.9	123.5
349.128	132.5
349.355	116.5
349.583	120.5
349.81	124.5
350.037	134.5
350.265	122.5
350.492	116.5
350.72	113.5
350.947	118.5
351.174	129.5
351.402	136.5
351.629	106.5
351.856	135.5
352.083	102.5
352.311	127.5
352.538	113.5
352.765	126.5
352.992	128.5
353.22	136.5
353.447	124.5
353.674	124.5
353.901	136.5
354.128	146.5
354.355	132.5
354.583	124.5
354.81	133.5
355.037	150.5
355.264	135.5
355.491	120.5
355.718	111.5
355.945	120.5
356.172	132.5
356.399	128.5
356.626	119.5
356.853	147.5
357.08	136.5
357.307	128.5
357.534	126.5
357.761	140.5
357.988	134.5
358.215	136.5
358.441	115.5
358.668	136.5
358.895	138.5
359.122	125.5
359.349	134.5
359.576	124.5
359.802	122.5
360.029	135.5
360.256	134.5
360.483	126.5
360.709	138.5
360.936	132.5
361.163	112.5
361.39	137.5
361.616	119.5
361.843	134.5
362.07	126.5
362.296	118.5
362.523	119.5
362.749	124.5
362.976	120.5
363.203	128.5
363.429	139.5
363.656	125.5
363.882	124.5
364.109	133.5
364.335	127.5
364.562	128.5
364.788	107.5
365.015	142.5
365.241	122.5
365.468	133.5
365.694	118.5
365.92	128.5
366.147	129.5
366.373	125.5
366.599	129.5
366.826	135.5
367.052	126.5
367.278	133.5
367.505	124.5
367.731	148.5
367.957	119.5
368.184	132.5
368.41	132.5
368.636	136.5
368.862	139.5
369.089	130.5
369.315	117.5
369.541	137.5
369.767	142.5
369.993	139.5
370.219	123.5
370.445	120.5
370.672	135.5
370.898	132.5
371.124	138.5
371.35	123.5
371.576	128.5
371.802	124.5
372.028	128.5
372.254	131.5
372.48	138.5
372.706	144.5
372.932	140.5
373.158	132.5
373.384	136.5
373.61	136.5
373.835	138.5
374.061	146.5
374.287	142.5
374.513	133.5
374.739	144.5
374.965	144.5
375.191	139.5
375.416	128.5
375.642	148.5
375.868	142.5
376.094	137.5
376.319	135.5
376.545	127.5
376.771	134.5
376.997	131.5
377.222	132.5
377.448	136.5
377.674	126.5
377.899	130.5
378.125	128.5
378.35	156.5
378.576	122.5
378.802	126.5
379.027	136.5
379.253	132.5
379.478	127.5
379.704	137.5
379.929	145.5
380.155	137.5
380.38	120.5
380.606	145.5
380.831	132.5
381.057	138.5
381.282	148.5
381.507	146.5
381.733	142.5
381.958	127.5
382.184	147.5
382.409	144.5
382.634	164.5
382.86	144.5
383.085	136.5
383.31	141.5
383.535	156.5
383.761	149.5
383.986	155.5
384.211	157.5
384.436	140.5
384.662	147.5
384.887	148.5
385.112	145.5
385.337	156.5
385.562	136.5
385.787	159.5
386.013	143.5
386.238	156.5
386.463	151.5
386.688	199.5
386.913	161.5
387.138	142.5
387.363	141.5
387.588	157.5
387.813	157.5
388.038	167.5
388.263	148.5
388.488	153.5
388.713	152.5
388.938	145.5
389.163	134.5
389.387	154.5
389.612	133.5
389.837	144.5
390.062	152.5
390.287	149.5
390.512	139.5
390.736	145.5
390.961	138.5
391.186	154.5
391.411	152.5
391.636	150.5
391.86	160.5
392.085	170.5
392.31	163.5
392.534	148.5
392.759	167.5
392.984	164.5
393.208	173.5
393.433	212.5
393.658	154.5
393.882	152.5
394.107	156.5
394.331	162.5
394.556	152.5
394.78	159.5
395.005	159.5
395.229	139.5
395.454	165.5
395.678	163.5
395.903	166.5
396.127	152.5
396.352	168.5
396.576	176.5
396.801	175.5
397.025	172.5
397.249	175.5
397.474	176.5
397.698	161.5
397.922	156.5
398.147	165.5
398.371	150.5
398.595	168.5
398.82	173.5
399.044	174.5
399.268	188.5
399.492	215.5
399.717	229.5
399.941	220.5
400.165	207.5
400.389	168.5
400.613	182.5
400.837	157.5
401.062	149.5
401.286	177.5
401.51	166.5
401.734	177.5
401.958	178.5
402.182	170.5
402.406	172.5
402.63	184.5
402.854	171.5
403.078	162.5
403.302	181.5
403.526	199.5
403.75	194.5
403.974	182.5
404.198	204.5
404.422	187.5
404.645	196.5
404.869	197.5
405.093	183.5
405.317	174.5
405.541	174.5
405.765	188.5
405.988	188.5
406.212	181.5
406.436	183.5
406.66	195.5
406.883	173.5
407.107	205.5
407.331	196.5
407.555	203.5
407.778	192.5
408.002	198.5
408.226	200.5
408.449	181.5
408.673	184.5
408.896	184.5
409.12	175.5
409.344	190.5
409.567	176.5
409.791	169.5
410.014	185.5
410.238	190.5
410.461	183.5
410.685	164.5
410.908	172.5
411.132	198.5
411.355	187.5
411.578	189.5
411.802	197.5
412.025	183.5
412.249	183.5
412.472	169.5
412.695	171.5
412.919	158.5
413.142	175.5
413.365	173.5
413.589	157.5
413.812	144.5
414.035	188.5
414.258	169.5
414.482	169.5
414.705	156.5
414.928	168.5
415.151	167.5
415.374	173.5
415.597	171.5
415.821	167.5
416.044	181.5
416.267	177.5
416.49	176.5
416.713	160.5
416.936	170.5
417.159	175.5
417.382	161.5
417.605	178.5
417.828	175.5
418.051	175.5
418.274	172.5
418.497	171.5
418.72	175.5
418.943	184.5
419.166	182.5
419.389	202.5
419.611	184.5
419.834	171.5
420.057	177.5
420.28	172.5
420.503	191.5
420.726	176.5
420.948	157.5
421.171	179.5
421.394	184.5
421.617	161.5
421.839	176.5
422.062	172.5
422.285	176.5
422.507	177.5
422.73	198.5
422.953	171.5
423.175	182.5
423.398	172.5
423.621	183.5
423.843	184.5
424.066	189.5
424.288	180.5
424.511	183.5
424.733	190.5
424.956	177.5
425.178	166.5
425.401	172.5
425.623	175.5
425.846	172.5
426.068	176.5
426.291	169.5
426.513	170.5
426.735	170.5
426.958	166.5
427.18	164.5
427.402	177.5
427.625	149.5
427.847	138.5
428.069	156.5
428.292	159.5
428.514	168.5
428.736	158.5
428.958	168.5
429.181	159.5
429.403	170.5
429.625	160.5
429.847	144.5
430.069	160.5
430.292	153.5
430.514	153.5
430.736	157.5
430.958	172.5
431.18	148.5
431.402	175.5
431.624	154.5
431.846	152.5
432.068	158.5
432.29	175.5
432.512	168.5
432.734	161.5
432.956	155.5
433.178	164.5
433.4	151.5
433.622	162.5
433.844	167.5
434.066	171.5
434.287	150.5
434.509	159.5
434.731	165.5
434.953	164.5
435.175	179.5
435.397	170.5
435.618	158.5
435.84	162.5
436.062	161.5
436.284	173.5
436.505	142.5
436.727	144.5
436.949	162.5
437.17	143.5
437.392	161.5
437.614	146.5
437.835	148.5
438.057	142.5
438.278	146.5
438.5	157.5
438.721	166.5
438.943	166.5
439.165	161.5
439.386	161.5
439.608	174.5
439.829	172.5
440.05	160.5
440.272	166.5
440.493	162.5
440.715	165.5
440.936	172.5
441.158	189.5
441.379	172.5
441.6	158.5
441.822	174.5
442.043	165.5
442.264	166.5
442.486	162.5
442.707	168.5
442.928	174.5
443.149	160.5
443.371	182.5
443.592	183.5
443.813	174.5
444.034	184.5
444.255	188.5
444.476	198.5
444.698	194.5
444.919	201.5
445.14	468.5
445.361	308.5
445.582	183.5
445.803	180.5
446.024	199.5
446.245	172.5
446.466	147.5
446.687	161.5
446.908	159.5
447.129	164.5
447.35	156.5
447.571	160.5
447.792	153.5
448.013	144.5
448.234	141.5
448.455	139.5
448.675	160.5
448.896	137.5
449.117	140.5
449.338	147.5
449.559	156.5
449.779	160.5
450	150.5
450.221	168.5
450.442	151.5
450.662	154.5
450.883	155.5
451.104	162.5
451.324	145.5
451.545	150.5
451.766	155.5
451.986	154.5
452.207	154.5
452.428	162.5
452.648	154.5
452.869	135.5
453.089	138.5
453.31	146.5
453.53	163.5
453.751	152.5
453.971	148.5
454.192	155.5
454.412	139.5
454.633	155.5
454.853	148.5
455.073	147.5
455.294	148.5
455.514	150.5
455.734	143.5
455.955	162.5
456.175	157.5
456.395	153.5
456.616	139.5
456.836	147.5
457.056	149.5
457.276	129.5
457.497	158.5
457.717	150.5
457.937	135.5
458.157	144.5
458.377	152.5
458.598	138.5
458.818	142.5
459.038	139.5
459.258	170.5
459.478	172.5
459.698	149.5
459.918	166.5
460.138	172.5
460.358	184.5
460.578	175.5
460.798	172.5
461.018	176.5
461.238	181.5
461.458	186.5
461.678	169.5
461.898	167.5
462.118	172.5
462.338	208.5
462.558	202.5
462.777	201.5
462.997	205.5
463.217	202.5
463.437	200.5
463.657	198.5
463.876	168.5
464.096	202.5
464.316	193.5
464.536	187.5
464.755	186.5
464.975	180.5
465.195	191.5
465.414	172.5
465.634	162.5
465.854	161.5
466.073	149.5
466.293	168.5
466.512	153.5
466.732	156.5
466.951	157.5
467.171	160.5
467.391	154.5
467.61	166.5
467.829	160.5
468.049	162.5
468.268	162.5
468.488	166.5
468.707	147.5
468.927	169.5
469.146	148.5
469.365	166.5
469.585	160.5
469.804	152.5
470.023	167.5
470.243	177.5
470.462	160.5
470.681	154.5
470.901	160.5
471.12	177.5
471.339	157.5
471.558	164.5
471.777	162.5
471.997	169.5
472.216	160.5
472.435	152.5
472.654	141.5
472.873	166.5
473.092	169.5
473.311	158.5
473.53	145.5
473.749	135.5
473.968	165.5
474.187	144.5
474.406	160.5
474.625	164.5
474.844	155.5
475.063	152.5
475.282	157.5
475.501	162.5
475.72	170.5
475.939	153.5
476.158	161.5
476.377	155.5
476.596	161.5
476.814	168.5
477.033	150.5
477.252	157.5
477.471	161.5
477.69	182.5
477.908	168.5
478.127	187.5
478.346	179.5
478.564	162.5
478.783	182.5
479.002	174.5
479.22	193.5
479.439	172.5
479.658	158.5
479.876	184.5
480.095	177.5
480.313	195.5
480.532	187.5
480.751	178.5
480.969	165.5
481.188	159.5
481.406	171.5
481.624	163.5
481.843	172.5
482.061	150.5
482.28	161.5
482.498	167.5
482.717	163.5
482.935	167.5
483.153	170.5
483.372	179.5
483.59	179.5
483.808	170.5
484.027	183.5
484.245	166.5
484.463	160.5
484.681	181.5
484.9	169.5
485.118	160.5
485.336	167.5
485.554	172.5
485.772	161.5
485.99	176.5
486.209	186.5
486.427	163.5
486.645	181.5
486.863	160.5
487.081	164.5
487.299	168.5
487.517	183.5
487.735	176.5
487.953	183.5
488.171	169.5
488.389	175.5
488.607	155.5
488.825	154.5
489.043	167.5
489.261	168.5
489.479	164.5
489.696	184.5
489.914	166.5
490.132	181.5
490.35	169.5
490.568	186.5
490.786	191.5
491.003	164.5
491.221	176.5
491.439	176.5
491.657	186.5
491.874	181.5
492.092	178.5
492.31	166.5
492.527	175.5
492.745	175.5
492.963	167.5
493.18	169.5
493.398	159.5
493.615	180.5
493.833	181.5
494.05	187.5
494.268	183.5
494.485	182.5
494.703	181.5
494.92	175.5
495.138	172.5
495.355	174.5
495.573	199.5
495.79	196.5
496.008	197.5
496.225	199.5
496.442	187.5
496.66	192.5
496.877	210.5
497.094	199.5
497.312	186.5
497.529	171.5
497.746	183.5
497.963	204.5
498.181	206.5
498.398	196.5
498.615	219.5
498.832	201.5
499.049	246.5
499.267	270.5
499.484	278.5
499.701	289.5
499.918	349.5
500.135	372.5
500.352	410.5
500.569	413.5
500.786	406.5
501.003	354.5
501.22	342.5
501.437	298.5
501.654	293.5
501.871	249.5
502.088	232.5
502.305	232.5
502.522	233.5
502.739	206.5
502.956	224.5
503.172	205.5
503.389	183.5
503.606	181.5
503.823	180.5
504.04	210.5
504.256	206.5
504.473	200.5
504.69	207.5
504.907	200.5
505.123	190.5
505.34	170.5
505.557	174.5
505.773	175.5
505.99	174.5
506.207	158.5
506.423	171.5
506.64	167.5
506.856	167.5
507.073	168.5
507.289	176.5
507.506	170.5
507.722	173.5
507.939	158.5
508.155	157.5
508.372	185.5
508.588	164.5
508.805	162.5
509.021	157.5
509.238	159.5
509.454	167.5
509.67	158.5
509.887	166.5
510.103	155.5
510.319	151.5
510.536	165.5
510.752	171.5
510.968	161.5
511.184	155.5
511.401	153.5
511.617	152.5
511.833	139.5
512.049	146.5
512.265	157.5
512.481	159.5
512.698	156.5
512.914	150.5
513.13	166.5
513.346	156.5
513.562	151.5
513.778	182.5
513.994	151.5
514.21	152.5
514.426	173.5
514.642	182.5
514.858	178.5
515.074	159.5
515.29	163.5
515.506	136.5
515.721	160.5
515.937	175.5
516.153	161.5
516.369	168.5
516.585	167.5
516.801	171.5
517.016	172.5
517.232	188.5
517.448	189.5
517.664	201.5
517.879	202.5
518.095	202.5
518.311	200.5
518.527	185.5
518.742	187.5
518.958	191.5
519.173	164.5
519.389	166.5
519.605	160.5
519.82	168.5
520.036	166.5
520.251	165.5
520.467	153.5
520.682	158.5
520.898	158.5
521.113	149.5
521.329	162.5
521.544	143.5
521.76	164.5
521.975	150.5
522.19	159.5
522.406	156.5
522.621	153.5
522.836	153.5
523.052	153.5
523.267	155.5
523.482	160.5
