Data from SampD_HRD10591_00018.txt Node
Date: Mon Jan 19 11:41:27 EST 2026
User: Yrep
Spectrometer: HR+D1059
Trigger mode: 0
Integration Time (sec): 3.443000E-1
Scans to average: 1
Electric dark correction enabled: true
Nonlinearity correction enabled: false
Boxcar width: 0
XAxis mode: Wavelengths
Number of Pixels in Spectrum: 2048
>>>>>Begin Spectral Data<<<<<
223.165	-26.94
223.4	-26.94
223.635	-26.94
223.869	-20.94
224.104	-25.94
224.338	-15.94
224.573	-6.94
224.808	-18.94
225.042	7.06
225.277	-6.94
225.511	-6.94
225.746	-12.94
225.98	16.06
226.215	20.06
226.449	19.06
226.683	25.06
226.918	29.06
227.152	26.06
227.387	37.06
227.621	50.06
227.856	40.06
228.09	40.06
228.324	41.06
228.559	58.06
228.793	63.06
229.027	76.06
229.262	68.06
229.496	76.06
229.73	70.06
229.964	76.06
230.199	78.06
230.433	73.06
230.667	81.06
230.901	88.06
231.136	88.06
231.37	83.06
231.604	83.06
231.838	98.06
232.072	91.06
232.306	93.06
232.541	73.06
232.775	85.06
233.009	86.06
233.243	88.06
233.477	92.06
233.711	73.06
233.945	88.06
234.179	104.06
234.413	72.06
234.647	79.06
234.881	87.06
235.115	88.06
235.349	89.06
235.583	92.06
235.817	81.06
236.051	97.06
236.285	94.06
236.519	78.06
236.753	90.06
236.987	76.06
237.221	85.06
237.455	82.06
237.689	89.06
237.922	87.06
238.156	87.06
238.39	66.06
238.624	71.06
238.858	79.06
239.091	78.06
239.325	85.06
239.559	98.06
239.793	89.06
240.027	91.06
240.26	100.06
240.494	86.06
240.728	89.06
240.961	85.06
241.195	104.06
241.429	85.06
241.662	86.06
241.896	86.06
242.13	86.06
242.363	82.06
242.597	92.06
242.83	80.06
243.064	88.06
243.298	101.06
243.531	97.06
243.765	97.06
243.998	80.06
244.232	94.06
244.465	95.06
244.699	81.06
244.932	85.06
245.166	98.06
245.399	95.06
245.633	91.06
245.866	95.06
246.099	92.06
246.333	115.06
246.566	79.06
246.8	96.06
247.033	78.06
247.266	86.06
247.5	92.06
247.733	99.06
247.966	86.06
248.2	94.06
248.433	97.06
248.666	103.06
248.899	83.06
249.133	76.06
249.366	101.06
249.599	100.06
249.832	88.06
250.066	97.06
250.299	98.06
250.532	106.06
250.765	100.06
250.998	106.06
251.231	93.06
251.465	110.06
251.698	86.06
251.931	98.06
252.164	94.06
252.397	103.06
252.63	83.06
252.863	95.06
253.096	77.06
253.329	109.06
253.562	102.06
253.795	85.06
254.028	96.06
254.261	88.06
254.494	104.06
254.727	103.06
254.96	95.06
255.193	90.06
255.426	87.06
255.659	92.06
255.892	94.06
256.124	93.06
256.357	102.06
256.59	97.06
256.823	89.06
257.056	89.06
257.289	94.06
257.521	103.06
257.754	93.06
257.987	95.06
258.22	106.06
258.452	100.06
258.685	104.06
258.918	92.06
259.151	99.06
259.383	100.06
259.616	97.06
259.849	98.06
260.081	106.06
260.314	90.06
260.547	97.06
260.779	107.06
261.012	102.06
261.244	92.06
261.477	116.06
261.71	79.06
261.942	117.06
262.175	111.06
262.407	97.06
262.64	93.06
262.872	96.06
263.105	105.06
263.337	117.06
263.57	111.06
263.802	103.06
264.035	96.06
264.267	105.06
264.499	105.06
264.732	106.06
264.964	102.06
265.197	94.06
265.429	102.06
265.661	104.06
265.894	102.06
266.126	106.06
266.358	97.06
266.591	109.06
266.823	100.06
267.055	124.06
267.287	111.06
267.52	101.06
267.752	110.06
267.984	114.06
268.216	93.06
268.448	100.06
268.681	100.06
268.913	116.06
269.145	107.06
269.377	117.06
269.609	104.06
269.841	95.06
270.073	92.06
270.306	113.06
270.538	101.06
270.77	114.06
271.002	118.06
271.234	100.06
271.466	116.06
271.698	104.06
271.93	113.06
272.162	117.06
272.394	112.06
272.626	108.06
272.858	112.06
273.09	117.06
273.322	109.06
273.553	111.06
273.785	108.06
274.017	100.06
274.249	114.06
274.481	98.06
274.713	109.06
274.945	102.06
275.176	112.06
275.408	106.06
275.64	96.06
275.872	118.06
276.104	117.06
276.335	117.06
276.567	111.06
276.799	115.06
277.031	115.06
277.262	106.06
277.494	98.06
277.726	120.06
277.957	113.06
278.189	116.06
278.421	111.06
278.652	109.06
278.884	111.06
279.115	126.06
279.347	102.06
279.579	115.06
279.81	115.06
280.042	112.06
280.273	115.06
280.505	103.06
280.736	104.06
280.968	117.06
281.199	113.06
281.431	114.06
281.662	125.06
281.894	117.06
282.125	112.06
282.356	109.06
282.588	110.06
282.819	114.06
283.051	118.06
283.282	112.06
283.513	101.06
283.745	118.06
283.976	121.06
284.207	119.06
284.439	118.06
284.67	121.06
284.901	135.06
285.132	116.06
285.364	128.06
285.595	118.06
285.826	104.06
286.057	122.06
286.288	124.06
286.52	119.06
286.751	115.06
286.982	125.06
287.213	119.06
287.444	124.06
287.675	106.06
287.906	136.06
288.138	116.06
288.369	130.06
288.6	125.06
288.831	120.06
289.062	131.06
289.293	116.06
289.524	127.06
289.755	116.06
289.986	124.06
290.217	141.06
290.448	127.06
290.679	121.06
290.91	132.06
291.141	121.06
291.371	112.06
291.602	129.06
291.833	117.06
292.064	121.06
292.295	136.06
292.526	129.06
292.757	127.06
292.987	140.06
293.218	134.06
293.449	110.06
293.68	133.06
293.91	124.06
294.141	125.06
294.372	121.06
294.603	114.06
294.833	142.06
295.064	137.06
295.295	114.06
295.525	130.06
295.756	124.06
295.987	127.06
296.217	119.06
296.448	125.06
296.679	121.06
296.909	125.06
297.14	132.06
297.37	148.06
297.601	128.06
297.831	108.06
298.062	128.06
298.292	122.06
298.523	129.06
298.753	140.06
298.984	131.06
299.214	145.06
299.445	126.06
299.675	131.06
299.905	124.06
300.136	126.06
300.366	119.06
300.597	140.06
300.827	128.06
301.057	127.06
301.288	131.06
301.518	127.06
301.748	114.06
301.979	169.06
302.209	141.06
302.439	137.06
302.669	120.06
302.9	144.06
303.13	144.06
303.36	127.06
303.59	117.06
303.82	125.06
304.051	132.06
304.281	146.06
304.511	144.06
304.741	127.06
304.971	126.06
305.201	124.06
305.431	143.06
305.661	121.06
305.891	114.06
306.121	131.06
306.352	123.06
306.582	131.06
306.812	121.06
307.042	130.06
307.272	128.06
307.502	113.06
307.731	128.06
307.961	117.06
308.191	126.06
308.421	127.06
308.651	108.06
308.881	121.06
309.111	123.06
309.341	115.06
309.571	125.06
309.8	131.06
310.03	116.06
310.26	127.06
310.49	119.06
310.72	112.06
310.949	129.06
311.179	126.06
311.409	142.06
311.639	137.06
311.868	148.06
312.098	150.06
312.328	139.06
312.557	136.06
312.787	121.06
313.017	142.06
313.246	156.06
313.476	128.06
313.706	131.06
313.935	137.06
314.165	158.06
314.394	142.06
314.624	133.06
314.853	112.06
315.083	125.06
315.312	144.06
315.542	143.06
315.771	130.06
316.001	131.06
316.23	135.06
316.46	125.06
316.689	132.06
316.919	129.06
317.148	149.06
317.377	116.06
317.607	135.06
317.836	132.06
318.065	130.06
318.295	130.06
318.524	132.06
318.753	135.06
318.983	147.06
319.212	128.06
319.441	127.06
319.67	140.06
319.9	139.06
320.129	151.06
320.358	137.06
320.587	130.06
320.816	127.06
321.046	142.06
321.275	150.06
321.504	128.06
321.733	125.06
321.962	132.06
322.191	137.06
322.42	138.06
322.649	133.06
322.878	144.06
323.108	137.06
323.337	136.06
323.566	130.06
323.795	145.06
324.024	160.06
324.253	136.06
324.482	145.06
324.71	137.06
324.939	139.06
325.168	127.06
325.397	134.06
325.626	135.06
325.855	116.06
326.084	146.06
326.313	127.06
326.542	133.06
326.77	140.06
326.999	134.06
327.228	133.06
327.457	130.06
327.686	133.06
327.914	151.06
328.143	141.06
328.372	146.06
328.6	151.06
328.829	150.06
329.058	131.06
329.287	133.06
329.515	141.06
329.744	146.06
329.972	134.06
330.201	133.06
330.43	135.06
330.658	117.06
330.887	126.06
331.115	135.06
331.344	146.06
331.572	161.06
331.801	151.06
332.03	149.06
332.258	138.06
332.486	142.06
332.715	167.06
332.943	158.06
333.172	176.06
333.4	162.06
333.629	170.06
333.857	155.06
334.085	179.06
334.314	171.06
334.542	156.06
334.771	181.06
334.999	162.06
335.227	165.06
335.455	174.06
335.684	156.06
335.912	170.06
336.14	155.06
336.369	147.06
336.597	144.06
336.825	138.06
337.053	144.06
337.281	132.06
337.51	136.06
337.738	166.06
337.966	154.06
338.194	162.06
338.422	145.06
338.65	141.06
338.878	163.06
339.106	151.06
339.334	148.06
339.562	144.06
339.79	151.06
340.018	138.06
340.246	150.06
340.474	153.06
340.702	154.06
340.93	131.06
341.158	148.06
341.386	143.06
341.614	141.06
341.842	137.06
342.07	122.06
342.298	152.06
342.526	132.06
342.754	143.06
342.981	131.06
343.209	147.06
343.437	173.06
343.665	154.06
343.893	168.06
344.12	151.06
344.348	156.06
344.576	161.06
344.804	161.06
345.031	146.06
345.259	154.06
345.487	165.06
345.714	141.06
345.942	141.06
346.17	150.06
346.397	127.06
346.625	145.06
346.853	138.06
347.08	137.06
347.308	141.06
347.535	131.06
347.763	141.06
347.99	137.06
348.218	155.06
348.445	138.06
348.673	131.06
348.9	150.06
349.128	156.06
349.355	140.06
349.583	132.06
349.81	148.06
350.037	139.06
350.265	147.06
350.492	145.06
350.72	138.06
350.947	132.06
351.174	133.06
351.402	162.06
351.629	147.06
351.856	130.06
352.083	134.06
352.311	147.06
352.538	127.06
352.765	125.06
352.992	133.06
353.22	144.06
353.447	144.06
353.674	151.06
353.901	144.06
354.128	145.06
354.355	129.06
354.583	149.06
354.81	137.06
355.037	150.06
355.264	158.06
355.491	141.06
355.718	147.06
355.945	150.06
356.172	147.06
356.399	136.06
356.626	140.06
356.853	125.06
357.08	136.06
357.307	143.06
357.534	144.06
357.761	138.06
357.988	136.06
358.215	154.06
358.441	137.06
358.668	134.06
358.895	157.06
359.122	147.06
359.349	146.06
359.576	147.06
359.802	153.06
360.029	132.06
360.256	133.06
360.483	129.06
360.709	135.06
360.936	142.06
361.163	141.06
361.39	135.06
361.616	154.06
361.843	146.06
362.07	144.06
362.296	142.06
362.523	134.06
362.749	147.06
362.976	142.06
363.203	160.06
363.429	140.06
363.656	152.06
363.882	141.06
364.109	141.06
364.335	158.06
364.562	140.06
364.788	146.06
365.015	132.06
365.241	140.06
365.468	154.06
365.694	140.06
365.92	149.06
366.147	138.06
366.373	124.06
366.599	151.06
366.826	140.06
367.052	132.06
367.278	154.06
367.505	148.06
367.731	150.06
367.957	137.06
368.184	132.06
368.41	133.06
368.636	142.06
368.862	142.06
369.089	148.06
369.315	138.06
369.541	141.06
369.767	159.06
369.993	133.06
370.219	140.06
370.445	141.06
370.672	149.06
370.898	132.06
371.124	148.06
371.35	149.06
371.576	154.06
371.802	140.06
372.028	148.06
372.254	147.06
372.48	142.06
372.706	150.06
372.932	143.06
373.158	154.06
373.384	164.06
373.61	140.06
373.835	150.06
374.061	148.06
374.287	156.06
374.513	143.06
374.739	165.06
374.965	153.06
375.191	143.06
375.416	157.06
375.642	149.06
375.868	157.06
376.094	153.06
376.319	134.06
376.545	143.06
376.771	161.06
376.997	153.06
377.222	144.06
377.448	157.06
377.674	127.06
377.899	160.06
378.125	156.06
378.35	146.06
378.576	152.06
378.802	160.06
379.027	148.06
379.253	158.06
379.478	133.06
379.704	144.06
379.929	154.06
380.155	133.06
380.38	131.06
380.606	142.06
380.831	148.06
381.057	139.06
381.282	156.06
381.507	161.06
381.733	143.06
381.958	146.06
382.184	147.06
382.409	165.06
382.634	161.06
382.86	163.06
383.085	166.06
383.31	135.06
383.535	170.06
383.761	161.06
383.986	148.06
384.211	169.06
384.436	158.06
384.662	167.06
384.887	171.06
385.112	180.06
385.337	168.06
385.562	144.06
385.787	167.06
386.013	171.06
386.238	178.06
386.463	166.06
386.688	197.06
386.913	161.06
387.138	151.06
387.363	153.06
387.588	181.06
387.813	152.06
388.038	176.06
388.263	169.06
388.488	156.06
388.713	153.06
388.938	155.06
389.163	175.06
389.387	164.06
389.612	146.06
389.837	170.06
390.062	168.06
390.287	157.06
390.512	166.06
390.736	177.06
390.961	147.06
391.186	172.06
391.411	159.06
391.636	180.06
391.86	182.06
392.085	174.06
392.31	181.06
392.534	180.06
392.759	156.06
392.984	176.06
393.208	176.06
393.433	183.06
393.658	190.06
393.882	161.06
394.107	169.06
394.331	183.06
394.556	166.06
394.78	176.06
395.005	160.06
395.229	167.06
395.454	192.06
395.678	170.06
395.903	168.06
396.127	171.06
396.352	161.06
396.576	180.06
396.801	153.06
397.025	166.06
397.249	181.06
397.474	176.06
397.698	174.06
397.922	166.06
398.147	187.06
398.371	189.06
398.595	198.06
398.82	188.06
399.044	209.06
399.268	224.06
399.492	238.06
399.717	251.06
399.941	223.06
400.165	220.06
400.389	200.06
400.613	197.06
400.837	182.06
401.062	202.06
401.286	189.06
401.51	202.06
401.734	190.06
401.958	188.06
402.182	189.06
402.406	179.06
402.63	192.06
402.854	192.06
403.078	198.06
403.302	213.06
403.526	206.06
403.75	221.06
403.974	220.06
404.198	205.06
404.422	212.06
404.645	214.06
404.869	207.06
405.093	203.06
405.317	204.06
405.541	199.06
405.765	196.06
405.988	210.06
406.212	204.06
406.436	204.06
406.66	200.06
406.883	197.06
407.107	223.06
407.331	224.06
407.555	229.06
407.778	213.06
408.002	230.06
408.226	212.06
408.449	216.06
408.673	201.06
408.896	204.06
409.12	207.06
409.344	211.06
409.567	195.06
409.791	214.06
410.014	215.06
410.238	198.06
410.461	199.06
410.685	198.06
410.908	202.06
411.132	187.06
411.355	177.06
411.578	192.06
411.802	175.06
412.025	195.06
412.249	204.06
412.472	204.06
412.695	195.06
412.919	195.06
413.142	184.06
413.365	202.06
413.589	195.06
413.812	201.06
414.035	189.06
414.258	192.06
414.482	197.06
414.705	190.06
414.928	205.06
415.151	193.06
415.374	195.06
415.597	196.06
415.821	188.06
416.044	187.06
416.267	199.06
416.49	182.06
416.713	190.06
416.936	194.06
417.159	185.06
417.382	202.06
417.605	181.06
417.828	202.06
418.051	193.06
418.274	203.06
418.497	197.06
418.72	199.06
418.943	200.06
419.166	208.06
419.389	223.06
419.611	186.06
419.834	193.06
420.057	200.06
420.28	193.06
420.503	200.06
420.726	189.06
420.948	182.06
421.171	183.06
421.394	196.06
421.617	202.06
421.839	196.06
422.062	204.06
422.285	184.06
422.507	194.06
422.73	202.06
422.953	210.06
423.175	192.06
423.398	197.06
423.621	196.06
423.843	209.06
424.066	213.06
424.288	193.06
424.511	199.06
424.733	206.06
424.956	202.06
425.178	201.06
425.401	198.06
425.623	201.06
425.846	188.06
426.068	177.06
426.291	193.06
426.513	181.06
426.735	187.06
426.958	176.06
427.18	197.06
427.402	177.06
427.625	177.06
427.847	161.06
428.069	177.06
428.292	176.06
428.514	182.06
428.736	169.06
428.958	179.06
429.181	165.06
429.403	167.06
429.625	169.06
429.847	161.06
430.069	185.06
430.292	188.06
430.514	158.06
430.736	180.06
430.958	174.06
431.18	182.06
431.402	182.06
431.624	182.06
431.846	179.06
432.068	192.06
432.29	186.06
432.512	185.06
432.734	185.06
432.956	205.06
433.178	188.06
433.4	181.06
433.622	180.06
433.844	196.06
434.066	192.06
434.287	187.06
434.509	181.06
434.731	193.06
434.953	196.06
435.175	197.06
435.397	180.06
435.618	184.06
435.84	176.06
436.062	161.06
436.284	189.06
436.505	188.06
436.727	178.06
436.949	190.06
437.17	192.06
437.392	165.06
437.614	180.06
437.835	171.06
438.057	155.06
438.278	168.06
438.5	173.06
438.721	180.06
438.943	178.06
439.165	167.06
439.386	169.06
439.608	186.06
439.829	176.06
440.05	180.06
440.272	174.06
440.493	202.06
440.715	192.06
440.936	189.06
441.158	200.06
441.379	180.06
441.6	185.06
441.822	200.06
442.043	193.06
442.264	190.06
442.486	199.06
442.707	183.06
442.928	178.06
443.149	184.06
443.371	197.06
443.592	188.06
443.813	184.06
444.034	201.06
444.255	215.06
444.476	206.06
444.698	220.06
444.919	200.06
445.14	461.06
445.361	306.06
445.582	206.06
445.803	176.06
446.024	195.06
446.245	187.06
446.466	169.06
446.687	170.06
446.908	186.06
447.129	197.06
447.35	180.06
447.571	182.06
447.792	174.06
448.013	167.06
448.234	179.06
448.455	165.06
448.675	171.06
448.896	175.06
449.117	170.06
449.338	174.06
449.559	171.06
449.779	173.06
450	150.06
450.221	153.06
450.442	168.06
450.662	181.06
450.883	176.06
451.104	173.06
451.324	175.06
451.545	179.06
451.766	164.06
451.986	165.06
452.207	184.06
452.428	176.06
452.648	179.06
452.869	162.06
453.089	169.06
453.31	156.06
453.53	166.06
453.751	175.06
453.971	154.06
454.192	150.06
454.412	154.06
454.633	141.06
454.853	170.06
455.073	160.06
455.294	163.06
455.514	149.06
455.734	145.06
455.955	176.06
456.175	163.06
456.395	144.06
456.616	158.06
456.836	161.06
457.056	160.06
457.276	157.06
457.497	163.06
457.717	166.06
457.937	163.06
458.157	173.06
458.377	168.06
458.598	168.06
458.818	178.06
459.038	186.06
459.258	186.06
459.478	181.06
459.698	188.06
459.918	179.06
460.138	192.06
460.358	204.06
460.578	196.06
460.798	222.06
461.018	196.06
461.238	183.06
461.458	211.06
461.678	187.06
461.898	209.06
462.118	220.06
462.338	214.06
462.558	221.06
462.777	230.06
462.997	243.06
463.217	250.06
463.437	222.06
463.657	230.06
463.876	228.06
464.096	220.06
464.316	213.06
464.536	227.06
464.755	215.06
464.975	211.06
465.195	205.06
465.414	194.06
465.634	188.06
465.854	180.06
466.073	188.06
466.293	186.06
466.512	188.06
466.732	170.06
466.951	169.06
467.171	184.06
467.391	168.06
467.61	183.06
467.829	164.06
468.049	164.06
468.268	179.06
468.488	168.06
468.707	189.06
468.927	168.06
469.146	169.06
469.365	163.06
469.585	188.06
469.804	177.06
470.023	182.06
470.243	176.06
470.462	180.06
470.681	193.06
470.901	189.06
471.12	161.06
471.339	168.06
471.558	183.06
471.777	176.06
471.997	177.06
472.216	167.06
472.435	171.06
472.654	160.06
472.873	166.06
473.092	182.06
473.311	165.06
473.53	165.06
473.749	169.06
473.968	181.06
474.187	177.06
474.406	174.06
474.625	173.06
474.844	167.06
475.063	169.06
475.282	177.06
475.501	158.06
475.72	167.06
475.939	167.06
476.158	166.06
476.377	166.06
476.596	175.06
476.814	186.06
477.033	182.06
477.252	177.06
477.471	165.06
477.69	182.06
477.908	195.06
478.127	193.06
478.346	189.06
478.564	208.06
478.783	201.06
479.002	190.06
479.22	189.06
479.439	199.06
479.658	179.06
479.876	200.06
480.095	195.06
480.313	197.06
480.532	197.06
480.751	208.06
480.969	173.06
481.188	176.06
481.406	184.06
481.624	196.06
481.843	183.06
482.061	183.06
482.28	172.06
482.498	173.06
482.717	189.06
482.935	194.06
483.153	160.06
483.372	174.06
483.59	174.06
483.808	190.06
484.027	189.06
484.245	182.06
484.463	176.06
484.681	213.06
484.9	169.06
485.118	192.06
485.336	173.06
485.554	195.06
485.772	201.06
485.99	205.06
486.209	192.06
486.427	185.06
486.645	201.06
486.863	205.06
487.081	198.06
487.299	190.06
487.517	194.06
487.735	205.06
487.953	198.06
488.171	189.06
488.389	185.06
488.607	197.06
488.825	194.06
489.043	188.06
489.261	194.06
489.479	194.06
489.696	193.06
489.914	188.06
490.132	195.06
490.35	183.06
490.568	181.06
490.786	184.06
491.003	200.06
491.221	181.06
491.439	211.06
491.657	188.06
491.874	204.06
492.092	197.06
492.31	204.06
492.527	191.06
492.745	204.06
492.963	208.06
493.18	208.06
493.398	204.06
493.615	192.06
493.833	204.06
494.05	204.06
494.268	208.06
494.485	190.06
494.703	212.06
494.92	206.06
495.138	198.06
495.355	212.06
495.573	205.06
495.79	189.06
496.008	208.06
496.225	224.06
496.442	208.06
496.66	216.06
496.877	205.06
497.094	214.06
497.312	190.06
497.529	219.06
497.746	222.06
497.963	221.06
498.181	224.06
498.398	228.06
498.615	251.06
498.832	270.06
499.049	275.06
499.267	289.06
499.484	324.06
499.701	330.06
499.918	354.06
500.135	409.06
500.352	446.06
500.569	455.06
500.786	448.06
501.003	410.06
501.22	362.06
501.437	310.06
501.654	290.06
501.871	272.06
502.088	257.06
502.305	255.06
502.522	229.06
502.739	233.06
502.956	223.06
503.172	239.06
503.389	215.06
503.606	216.06
503.823	211.06
504.04	209.06
504.256	226.06
504.473	223.06
