Data from SampD_HRD10591_00019.txt Node
Date: Mon Jan 19 11:41:27 EST 2026
User: Yrep
Spectrometer: HR+D1059
Trigger mode: 0
Integration Time (sec): 3.443000E-1
Scans to average: 1
Electric dark correction enabled: true
Nonlinearity correction enabled: false
Boxcar width: 0
XAxis mode: Wavelengths
Number of Pixels in Spectrum: 2048
>>>>>Begin Spectral Data<<<<<
223.165	-28.56
223.4	-28.56
223.635	-28.56
223.869	-20.56
224.104	-26.56
224.338	-15.56
224.573	-17.56
224.808	-13.56
225.042	-8.56
225.277	-0.56
225.511	4.44
225.746	9.44
225.98	19.44
226.215	18.44
226.449	6.44
226.683	12.44
226.918	19.44
227.152	41.44
227.387	31.44
227.621	48.44
227.856	51.44
228.09	65.44
228.324	55.44
228.559	53.44
228.793	65.44
229.027	83.44
229.262	76.44
229.496	73.44
229.73	64.44
229.964	65.44
230.199	70.44
230.433	57.44
230.667	72.44
230.901	85.44
231.136	77.44
231.37	79.44
231.604	83.44
231.838	78.44
232.072	95.44
232.306	93.44
232.541	91.44
232.775	85.44
233.009	96.44
233.243	77.44
233.477	79.44
233.711	82.44
233.945	84.44
234.179	100.44
234.413	97.44
234.647	66.44
234.881	70.44
235.115	82.44
235.349	80.44
235.583	98.44
235.817	80.44
236.051	70.44
236.285	71.44
236.519	84.44
236.753	87.44
236.987	76.44
237.221	82.44
237.455	76.44
237.689	93.44
237.922	80.44
238.156	79.44
238.39	92.44
238.624	86.44
238.858	84.44
239.091	77.44
239.325	90.44
239.559	67.44
239.793	78.44
240.027	84.44
240.26	77.44
240.494	79.44
240.728	75.44
240.961	88.44
241.195	82.44
241.429	86.44
241.662	84.44
241.896	77.44
242.13	84.44
242.363	61.44
242.597	67.44
242.83	82.44
243.064	83.44
243.298	79.44
243.531	79.44
243.765	84.44
243.998	79.44
244.232	95.44
244.465	92.44
244.699	74.44
244.932	78.44
245.166	77.44
245.399	87.44
245.633	90.44
245.866	84.44
246.099	79.44
246.333	92.44
246.566	68.44
246.8	86.44
247.033	83.44
247.266	90.44
247.5	90.44
247.733	81.44
247.966	85.44
248.2	81.44
248.433	80.44
248.666	94.44
248.899	82.44
249.133	86.44
249.366	106.44
249.599	88.44
249.832	93.44
250.066	99.44
250.299	68.44
250.532	92.44
250.765	86.44
250.998	74.44
251.231	103.44
251.465	85.44
251.698	90.44
251.931	89.44
252.164	92.44
252.397	79.44
252.63	98.44
252.863	89.44
253.096	79.44
253.329	93.44
253.562	84.44
253.795	89.44
254.028	110.44
254.261	108.44
254.494	90.44
254.727	89.44
254.96	83.44
255.193	99.44
255.426	95.44
255.659	109.44
255.892	97.44
256.124	91.44
256.357	90.44
256.59	90.44
256.823	94.44
257.056	94.44
257.289	79.44
257.521	89.44
257.754	112.44
257.987	75.44
258.22	103.44
258.452	92.44
258.685	90.44
258.918	103.44
259.151	84.44
259.383	94.44
259.616	80.44
259.849	95.44
260.081	90.44
260.314	92.44
260.547	94.44
260.779	103.44
261.012	117.44
261.244	90.44
261.477	88.44
261.71	95.44
261.942	93.44
262.175	109.44
262.407	92.44
262.64	73.44
262.872	100.44
263.105	103.44
263.337	81.44
263.57	86.44
263.802	100.44
264.035	91.44
264.267	84.44
264.499	85.44
264.732	101.44
264.964	100.44
265.197	108.44
265.429	96.44
265.661	109.44
265.894	110.44
266.126	90.44
266.358	90.44
266.591	86.44
266.823	87.44
267.055	96.44
267.287	100.44
267.52	90.44
267.752	106.44
267.984	107.44
268.216	98.44
268.448	107.44
268.681	105.44
268.913	93.44
269.145	90.44
269.377	84.44
269.609	104.44
269.841	102.44
270.073	84.44
270.306	82.44
270.538	99.44
270.77	102.44
271.002	114.44
271.234	108.44
271.466	101.44
271.698	91.44
271.93	102.44
272.162	103.44
272.394	111.44
272.626	98.44
272.858	93.44
273.09	105.44
273.322	102.44
273.553	111.44
273.785	100.44
274.017	114.44
274.249	94.44
274.481	92.44
274.713	92.44
274.945	94.44
275.176	98.44
275.408	126.44
275.64	92.44
275.872	103.44
276.104	120.44
276.335	108.44
276.567	109.44
276.799	90.44
277.031	98.44
277.262	106.44
277.494	108.44
277.726	101.44
277.957	107.44
278.189	108.44
278.421	124.44
278.652	90.44
278.884	120.44
279.115	113.44
279.347	101.44
279.579	109.44
279.81	101.44
280.042	117.44
280.273	100.44
280.505	105.44
280.736	97.44
280.968	113.44
281.199	104.44
281.431	116.44
281.662	108.44
281.894	115.44
282.125	103.44
282.356	95.44
282.588	108.44
282.819	95.44
283.051	107.44
283.282	109.44
283.513	110.44
283.745	104.44
283.976	102.44
284.207	111.44
284.439	113.44
284.67	126.44
284.901	111.44
285.132	115.44
285.364	104.44
285.595	99.44
285.826	111.44
286.057	102.44
286.288	99.44
286.52	123.44
286.751	116.44
286.982	129.44
287.213	112.44
287.444	117.44
287.675	119.44
287.906	108.44
288.138	99.44
288.369	87.44
288.6	112.44
288.831	101.44
289.062	98.44
289.293	103.44
289.524	118.44
289.755	121.44
289.986	101.44
290.217	118.44
290.448	105.44
290.679	115.44
290.91	103.44
291.141	110.44
291.371	126.44
291.602	114.44
291.833	107.44
292.064	115.44
292.295	114.44
292.526	112.44
292.757	109.44
292.987	119.44
293.218	114.44
293.449	110.44
293.68	122.44
293.91	105.44
294.141	94.44
294.372	121.44
294.603	109.44
294.833	107.44
295.064	118.44
295.295	118.44
295.525	111.44
295.756	123.44
295.987	122.44
296.217	114.44
296.448	123.44
296.679	114.44
296.909	118.44
297.14	116.44
297.37	132.44
297.601	115.44
297.831	114.44
298.062	134.44
298.292	123.44
298.523	130.44
298.753	121.44
298.984	114.44
299.214	123.44
299.445	122.44
299.675	109.44
299.905	125.44
300.136	114.44
300.366	114.44
300.597	121.44
300.827	109.44
301.057	115.44
301.288	132.44
301.518	118.44
301.748	115.44
301.979	165.44
302.209	119.44
302.439	111.44
302.669	123.44
302.9	125.44
303.13	132.44
303.36	116.44
303.59	115.44
303.82	110.44
304.051	120.44
304.281	123.44
304.511	125.44
304.741	121.44
304.971	111.44
305.201	125.44
305.431	121.44
305.661	113.44
305.891	120.44
306.121	122.44
306.352	117.44
306.582	113.44
306.812	113.44
307.042	117.44
307.272	108.44
307.502	118.44
307.731	126.44
307.961	103.44
308.191	107.44
308.421	126.44
308.651	110.44
308.881	122.44
309.111	116.44
309.341	114.44
309.571	109.44
309.8	126.44
310.03	129.44
310.26	110.44
310.49	110.44
310.72	102.44
310.949	116.44
311.179	115.44
311.409	110.44
311.639	118.44
311.868	120.44
312.098	124.44
312.328	127.44
312.557	123.44
312.787	111.44
313.017	116.44
313.246	130.44
313.476	108.44
313.706	111.44
313.935	129.44
314.165	117.44
314.394	121.44
314.624	126.44
314.853	108.44
315.083	121.44
315.312	123.44
315.542	114.44
315.771	125.44
316.001	139.44
316.23	138.44
316.46	124.44
316.689	106.44
316.919	109.44
317.148	125.44
317.377	113.44
317.607	134.44
317.836	109.44
318.065	124.44
318.295	129.44
318.524	123.44
318.753	125.44
318.983	113.44
319.212	124.44
319.441	115.44
319.67	122.44
319.9	117.44
320.129	124.44
320.358	117.44
320.587	128.44
320.816	120.44
321.046	120.44
321.275	128.44
321.504	128.44
321.733	113.44
321.962	128.44
322.191	121.44
322.42	115.44
322.649	121.44
322.878	112.44
323.108	118.44
323.337	122.44
323.566	122.44
323.795	123.44
324.024	118.44
324.253	122.44
324.482	122.44
324.71	132.44
324.939	137.44
325.168	128.44
325.397	118.44
325.626	145.44
325.855	123.44
326.084	125.44
326.313	140.44
326.542	113.44
326.77	129.44
326.999	121.44
327.228	127.44
327.457	141.44
327.686	126.44
327.914	141.44
328.143	151.44
328.372	117.44
328.6	113.44
328.829	116.44
329.058	130.44
329.287	134.44
329.515	121.44
329.744	127.44
329.972	135.44
330.201	126.44
330.43	114.44
330.658	130.44
330.887	131.44
331.115	124.44
331.344	128.44
331.572	138.44
331.801	134.44
332.03	137.44
332.258	153.44
332.486	138.44
332.715	137.44
332.943	134.44
333.172	153.44
333.4	138.44
333.629	171.44
333.857	131.44
334.085	159.44
334.314	163.44
334.542	137.44
334.771	149.44
334.999	146.44
335.227	139.44
335.455	130.44
335.684	134.44
335.912	147.44
336.14	142.44
336.369	143.44
336.597	120.44
336.825	132.44
337.053	125.44
337.281	125.44
337.51	110.44
337.738	132.44
337.966	138.44
338.194	132.44
338.422	139.44
338.65	137.44
338.878	139.44
339.106	126.44
339.334	135.44
339.562	124.44
339.79	134.44
340.018	122.44
340.246	136.44
340.474	120.44
340.702	135.44
340.93	145.44
341.158	121.44
341.386	117.44
341.614	112.44
341.842	131.44
342.07	129.44
342.298	126.44
342.526	127.44
342.754	116.44
342.981	124.44
343.209	132.44
343.437	166.44
343.665	139.44
343.893	134.44
344.12	149.44
344.348	138.44
344.576	132.44
344.804	123.44
345.031	138.44
345.259	115.44
345.487	126.44
345.714	119.44
345.942	119.44
346.17	124.44
346.397	130.44
346.625	145.44
346.853	114.44
347.08	140.44
347.308	119.44
347.535	131.44
347.763	140.44
347.99	133.44
348.218	141.44
348.445	131.44
348.673	130.44
348.9	131.44
349.128	140.44
349.355	119.44
349.583	126.44
349.81	137.44
350.037	124.44
350.265	133.44
350.492	109.44
350.72	123.44
350.947	122.44
351.174	115.44
351.402	122.44
351.629	118.44
351.856	128.44
352.083	125.44
352.311	139.44
352.538	127.44
352.765	125.44
352.992	143.44
353.22	123.44
353.447	130.44
353.674	131.44
353.901	140.44
354.128	129.44
354.355	123.44
354.583	124.44
354.81	130.44
355.037	119.44
355.264	120.44
355.491	130.44
355.718	130.44
355.945	130.44
356.172	114.44
356.399	132.44
356.626	122.44
356.853	116.44
357.08	123.44
357.307	135.44
357.534	137.44
357.761	124.44
357.988	121.44
358.215	133.44
358.441	134.44
358.668	126.44
358.895	121.44
359.122	115.44
359.349	122.44
359.576	123.44
359.802	130.44
360.029	135.44
360.256	125.44
360.483	115.44
360.709	115.44
360.936	149.44
361.163	120.44
361.39	124.44
361.616	131.44
361.843	124.44
362.07	137.44
362.296	125.44
362.523	116.44
362.749	121.44
362.976	119.44
363.203	136.44
363.429	124.44
363.656	128.44
363.882	115.44
364.109	144.44
364.335	142.44
364.562	130.44
364.788	140.44
365.015	131.44
365.241	126.44
365.468	134.44
365.694	121.44
365.92	139.44
366.147	112.44
366.373	111.44
366.599	125.44
366.826	122.44
367.052	122.44
367.278	137.44
367.505	121.44
367.731	140.44
367.957	128.44
368.184	122.44
368.41	128.44
368.636	133.44
368.862	122.44
369.089	138.44
369.315	125.44
369.541	137.44
369.767	125.44
369.993	139.44
370.219	140.44
370.445	137.44
370.672	132.44
370.898	128.44
371.124	138.44
371.35	140.44
371.576	135.44
371.802	130.44
372.028	143.44
372.254	127.44
372.48	122.44
372.706	134.44
372.932	132.44
373.158	142.44
373.384	138.44
373.61	140.44
373.835	129.44
374.061	146.44
374.287	118.44
374.513	141.44
374.739	134.44
374.965	157.44
375.191	129.44
375.416	132.44
375.642	121.44
375.868	137.44
376.094	136.44
376.319	142.44
376.545	114.44
376.771	139.44
376.997	129.44
377.222	137.44
377.448	140.44
377.674	118.44
377.899	136.44
378.125	130.44
378.35	129.44
378.576	138.44
378.802	126.44
379.027	135.44
379.253	133.44
379.478	148.44
379.704	132.44
379.929	147.44
380.155	134.44
380.38	126.44
380.606	126.44
380.831	129.44
381.057	137.44
381.282	128.44
381.507	143.44
381.733	142.44
381.958	139.44
382.184	127.44
382.409	127.44
382.634	132.44
382.86	133.44
383.085	134.44
383.31	159.44
383.535	136.44
383.761	143.44
383.986	158.44
384.211	134.44
384.436	156.44
384.662	153.44
384.887	157.44
385.112	140.44
385.337	158.44
385.562	153.44
385.787	155.44
386.013	159.44
386.238	153.44
386.463	153.44
386.688	163.44
386.913	145.44
387.138	154.44
387.363	150.44
387.588	165.44
387.813	154.44
388.038	149.44
388.263	161.44
388.488	142.44
388.713	145.44
388.938	152.44
389.163	144.44
389.387	138.44
389.612	129.44
389.837	138.44
390.062	140.44
390.287	141.44
390.512	148.44
390.736	165.44
390.961	145.44
391.186	156.44
391.411	149.44
391.636	164.44
391.86	153.44
392.085	155.44
392.31	159.44
392.534	150.44
392.759	144.44
392.984	155.44
393.208	155.44
393.433	173.44
393.658	163.44
393.882	164.44
394.107	158.44
394.331	157.44
394.556	156.44
394.78	151.44
395.005	156.44
395.229	140.44
395.454	153.44
395.678	157.44
395.903	147.44
396.127	153.44
396.352	160.44
396.576	150.44
396.801	156.44
397.025	166.44
397.249	167.44
397.474	163.44
397.698	153.44
397.922	158.44
398.147	167.44
398.371	165.44
398.595	164.44
398.82	151.44
399.044	178.44
399.268	194.44
399.492	210.44
399.717	221.44
399.941	205.44
400.165	193.44
400.389	193.44
400.613	174.44
400.837	159.44
401.062	170.44
401.286	173.44
401.51	165.44
401.734	168.44
401.958	174.44
402.182	165.44
402.406	165.44
402.63	174.44
402.854	164.44
403.078	185.44
403.302	179.44
403.526	201.44
403.75	194.44
403.974	181.44
404.198	171.44
404.422	180.44
404.645	187.44
404.869	177.44
405.093	177.44
405.317	188.44
405.541	176.44
405.765	176.44
405.988	178.44
406.212	182.44
406.436	171.44
406.66	190.44
406.883	179.44
407.107	181.44
407.331	189.44
407.555	195.44
407.778	205.44
408.002	191.44
408.226	191.44
408.449	182.44
408.673	182.44
408.896	183.44
409.12	186.44
409.344	179.44
409.567	158.44
409.791	181.44
410.014	190.44
410.238	176.44
410.461	184.44
410.685	178.44
410.908	161.44
411.132	179.44
411.355	175.44
411.578	176.44
411.802	172.44
412.025	179.44
412.249	166.44
412.472	157.44
412.695	160.44
412.919	157.44
413.142	162.44
413.365	167.44
413.589	171.44
413.812	168.44
414.035	189.44
414.258	166.44
414.482	170.44
414.705	173.44
414.928	181.44
415.151	158.44
415.374	160.44
415.597	180.44
415.821	142.44
416.044	163.44
416.267	158.44
416.49	165.44
416.713	167.44
416.936	173.44
417.159	169.44
417.382	162.44
417.605	169.44
417.828	162.44
418.051	179.44
418.274	195.44
418.497	182.44
418.72	176.44
418.943	197.44
419.166	175.44
419.389	188.44
419.611	177.44
419.834	195.44
420.057	186.44
420.28	186.44
420.503	168.44
420.726	171.44
420.948	164.44
421.171	170.44
421.394	171.44
421.617	164.44
421.839	179.44
422.062	177.44
422.285	173.44
422.507	160.44
422.73	187.44
422.953	157.44
423.175	169.44
423.398	180.44
423.621	194.44
423.843	168.44
424.066	158.44
424.288	178.44
424.511	162.44
424.733	149.44
424.956	183.44
425.178	176.44
425.401	167.44
425.623	153.44
425.846	164.44
426.068	159.44
426.291	162.44
426.513	160.44
426.735	172.44
426.958	157.44
427.18	149.44
427.402	156.44
427.625	162.44
427.847	155.44
428.069	163.44
428.292	156.44
428.514	163.44
428.736	164.44
428.958	156.44
429.181	151.44
429.403	158.44
429.625	158.44
429.847	161.44
430.069	173.44
430.292	160.44
430.514	163.44
430.736	159.44
430.958	155.44
431.18	141.44
431.402	167.44
431.624	143.44
431.846	173.44
432.068	161.44
432.29	166.44
432.512	156.44
432.734	153.44
432.956	162.44
433.178	153.44
433.4	168.44
433.622	157.44
433.844	159.44
434.066	163.44
434.287	160.44
434.509	156.44
434.731	171.44
434.953	160.44
435.175	161.44
435.397	167.44
435.618	172.44
435.84	161.44
436.062	151.44
436.284	148.44
436.505	143.44
436.727	164.44
436.949	157.44
437.17	153.44
437.392	160.44
437.614	176.44
437.835	141.44
438.057	140.44
438.278	154.44
438.5	148.44
438.721	153.44
438.943	157.44
439.165	136.44
439.386	163.44
439.608	168.44
439.829	150.44
440.05	155.44
440.272	150.44
440.493	157.44
440.715	160.44
440.936	159.44
441.158	174.44
441.379	173.44
441.6	155.44
441.822	164.44
442.043	146.44
442.264	163.44
442.486	175.44
442.707	165.44
442.928	172.44
443.149	155.44
443.371	181.44
443.592	177.44
443.813	172.44
444.034	173.44
444.255	182.44
444.476	169.44
444.698	204.44
444.919	192.44
445.14	452.44
445.361	271.44
445.582	150.44
445.803	140.44
446.024	181.44
446.245	159.44
446.466	160.44
446.687	161.44
446.908	165.44
447.129	172.44
447.35	166.44
447.571	157.44
447.792	162.44
448.013	150.44
448.234	166.44
448.455	155.44
448.675	150.44
448.896	163.44
449.117	175.44
449.338	154.44
449.559	162.44
449.779	155.44
450	156.44
450.221	160.44
450.442	149.44
450.662	156.44
450.883	154.44
451.104	180.44
451.324	153.44
451.545	157.44
451.766	147.44
451.986	144.44
452.207	171.44
452.428	159.44
452.648	159.44
452.869	154.44
453.089	141.44
453.31	153.44
453.53	157.44
453.751	158.44
453.971	130.44
454.192	140.44
454.412	154.44
454.633	145.44
454.853	135.44
455.073	142.44
455.294	163.44
455.514	134.44
455.734	163.44
455.955	145.44
456.175	146.44
456.395	142.44
456.616	140.44
456.836	132.44
457.056	144.44
457.276	137.44
457.497	143.44
457.717	153.44
457.937	131.44
458.157	146.44
458.377	136.44
458.598	154.44
458.818	155.44
459.038	142.44
459.258	149.44
459.478	159.44
459.698	154.44
459.918	161.44
460.138	168.44
460.358	180.44
460.578	177.44
460.798	177.44
461.018	180.44
461.238	180.44
461.458	170.44
461.678	177.44
461.898	171.44
462.118	183.44
462.338	185.44
462.558	190.44
462.777	185.44
462.997	215.44
463.217	211.44
463.437	201.44
463.657	200.44
463.876	181.44
464.096	183.44
464.316	190.44
464.536	194.44
464.755	191.44
464.975	175.44
465.195	178.44
465.414	165.44
465.634	155.44
465.854	150.44
466.073	158.44
466.293	148.44
466.512	149.44
466.732	156.44
466.951	167.44
467.171	167.44
467.391	166.44
467.61	153.44
467.829	146.44
468.049	147.44
468.268	157.44
468.488	151.44
468.707	133.44
468.927	138.44
469.146	143.44
469.365	166.44
469.585	165.44
469.804	161.44
470.023	157.44
470.243	149.44
470.462	150.44
470.681	166.44
470.901	164.44
471.12	165.44
471.339	141.44
471.558	164.44
471.777	165.44
471.997	157.44
472.216	163.44
472.435	155.44
472.654	139.44
472.873	154.44
473.092	146.44
473.311	149.44
473.53	147.44
473.749	159.44
473.968	141.44
474.187	154.44
474.406	144.44
474.625	158.44
474.844	148.44
475.063	125.44
475.282	169.44
475.501	139.44
475.72	150.44
475.939	137.44
476.158	142.44
476.377	140.44
476.596	151.44
476.814	142.44
477.033	172.44
477.252	165.44
477.471	165.44
477.69	173.44
477.908	144.44
478.127	176.44
478.346	181.44
478.564	174.44
478.783	158.44
479.002	149.44
479.22	162.44
479.439	185.44
479.658	155.44
479.876	164.44
480.095	172.44
480.313	173.44
480.532	187.44
480.751	175.44
480.969	181.44
481.188	175.44
481.406	167.44
481.624	148.44
481.843	163.44
482.061	160.44
482.28	158.44
482.498	167.44
482.717	160.44
482.935	161.44
483.153	154.44
483.372	165.44
483.59	173.44
483.808	150.44
484.027	182.44
484.245	168.44
484.463	162.44
484.681	187.44
484.9	169.44
485.118	172.44
485.336	168.44
485.554	155.44
485.772	157.44
485.99	151.44
486.209	161.44
486.427	165.44
486.645	173.44
486.863	162.44
487.081	155.44
487.299	163.44
487.517	173.44
487.735	181.44
487.953	160.44
488.171	177.44
488.389	180.44
488.607	160.44
488.825	152.44
489.043	177.44
489.261	167.44
489.479	165.44
489.696	185.44
489.914	169.44
490.132	185.44
490.35	176.44
490.568	166.44
490.786	170.44
491.003	165.44
491.221	178.44
491.439	175.44
491.657	178.44
491.874	188.44
492.092	178.44
492.31	187.44
492.527	169.44
492.745	171.44
492.963	176.44
493.18	190.44
493.398	184.44
493.615	179.44
493.833	163.44
494.05	174.44
494.268	182.44
494.485	184.44
494.703	195.44
494.92	173.44
495.138	168.44
495.355	192.44
495.573	185.44
495.79	178.44
496.008	177.44
496.225	181.44
496.442	174.44
496.66	197.44
496.877	189.44
497.094	196.44
497.312	186.44
497.529	181.44
497.746	195.44
497.963	189.44
498.181	197.44
498.398	167.44
498.615	214.44
498.832	206.44
499.049	231.44
499.267	254.44
499.484	258.44
499.701	291.44
499.918	319.44
500.135	340.44
500.352	381.44
500.569	390.44
500.786	386.44
501.003	339.44
501.22	302.44
501.437	294.44
501.654	258.44
501.871	231.44
502.088	220.44
502.305	225.44
502.522	213.44
502.739	213.44
502.956	211.44
503.172	201.44
503.389	181.44
503.606	198.44
503.823	193.44
504.04	201.44
504.256	189.44
504.473	187.44
504.69	197.44
504.907	199.44
505.123	179.44
