Data from SampD_HRD10591_00086.txt Node
Date: Mon Jan 19 11:41:50 EST 2026
User: Yrep
Spectrometer: HR+D1059
Trigger mode: 0
Integration Time (sec): 3.443000E-1
Scans to average: 1
Electric dark correction enabled: true
Nonlinearity correction enabled: false
Boxcar width: 0
XAxis mode: Wavelengths
Number of Pixels in Spectrum: 2048
>>>>>Begin Spectral Data<<<<<
223.165	-15
223.4	-15
223.635	-15
223.869	-38
224.104	-22
224.338	-20
224.573	-14
224.808	-8
225.042	3
225.277	-13
225.511	2
225.746	11
225.98	12
226.215	19
226.449	19
226.683	16
226.918	16
227.152	32
227.387	46
227.621	47
227.856	54
228.09	56
228.324	57
228.559	55
228.793	66
229.027	70
229.262	71
229.496	65
229.73	83
229.964	87
230.199	88
230.433	74
230.667	88
230.901	80
231.136	79
231.37	76
231.604	77
231.838	95
232.072	79
232.306	85
232.541	85
232.775	104
233.009	98
233.243	77
233.477	78
233.711	94
233.945	92
234.179	82
234.413	80
234.647	77
234.881	98
235.115	70
235.349	86
235.583	81
235.817	80
236.051	82
236.285	84
236.519	81
236.753	91
236.987	76
237.221	75
237.455	88
237.689	89
237.922	95
238.156	90
238.39	82
238.624	81
238.858	85
239.091	89
239.325	91
239.559	80
239.793	96
240.027	99
240.26	84
240.494	95
240.728	61
240.961	95
241.195	90
241.429	96
241.662	73
241.896	99
242.13	96
242.363	83
242.597	74
242.83	92
243.064	94
243.298	90
243.531	89
243.765	88
243.998	88
244.232	94
244.465	96
244.699	93
244.932	94
245.166	98
245.399	75
245.633	94
245.866	92
246.099	76
246.333	97
246.566	99
246.8	89
247.033	83
247.266	85
247.5	90
247.733	84
247.966	88
248.2	88
248.433	88
248.666	80
248.899	92
249.133	106
249.366	104
249.599	92
249.832	86
250.066	106
250.299	89
250.532	101
250.765	84
250.998	82
251.231	93
251.465	103
251.698	91
251.931	94
252.164	95
252.397	98
252.63	97
252.863	91
253.096	93
253.329	111
253.562	92
253.795	86
254.028	93
254.261	94
254.494	102
254.727	102
254.96	112
255.193	96
255.426	85
255.659	88
255.892	103
256.124	96
256.357	96
256.59	109
256.823	96
257.056	94
257.289	93
257.521	103
257.754	102
257.987	90
258.22	103
258.452	97
258.685	84
258.918	101
259.151	82
259.383	104
259.616	95
259.849	98
260.081	94
260.314	97
260.547	105
260.779	97
261.012	99
261.244	88
261.477	121
261.71	106
261.942	97
262.175	98
262.407	96
262.64	101
262.872	109
263.105	105
263.337	94
263.57	97
263.802	102
264.035	118
264.267	95
264.499	110
264.732	113
264.964	104
265.197	105
265.429	97
265.661	112
265.894	100
266.126	105
266.358	102
266.591	126
266.823	106
267.055	105
267.287	103
267.52	100
267.752	103
267.984	123
268.216	111
268.448	121
268.681	107
268.913	118
269.145	107
269.377	94
269.609	111
269.841	107
270.073	109
270.306	100
270.538	95
270.77	105
271.002	107
271.234	112
271.466	109
271.698	114
271.93	110
272.162	101
272.394	115
272.626	88
272.858	103
273.09	119
273.322	115
273.553	98
273.785	114
274.017	110
274.249	118
274.481	103
274.713	101
274.945	112
275.176	106
275.408	110
275.64	92
275.872	105
276.104	125
276.335	104
276.567	114
276.799	108
277.031	105
277.262	97
277.494	113
277.726	121
277.957	105
278.189	107
278.421	109
278.652	103
278.884	119
279.115	123
279.347	134
279.579	105
279.81	102
280.042	111
280.273	129
280.505	90
280.736	99
280.968	100
281.199	101
281.431	119
281.662	127
281.894	109
282.125	117
282.356	124
282.588	126
282.819	129
283.051	124
283.282	107
283.513	117
283.745	130
283.976	121
284.207	110
284.439	117
284.67	118
284.901	114
285.132	123
285.364	115
285.595	121
285.826	116
286.057	111
286.288	117
286.52	120
286.751	117
286.982	131
287.213	129
287.444	110
287.675	127
287.906	126
288.138	99
288.369	109
288.6	128
288.831	99
289.062	119
289.293	115
289.524	118
289.755	125
289.986	122
290.217	114
290.448	120
290.679	127
290.91	128
291.141	119
291.371	127
291.602	122
291.833	119
292.064	111
292.295	122
292.526	109
292.757	120
292.987	117
293.218	123
293.449	129
293.68	118
293.91	115
294.141	127
294.372	112
294.603	126
294.833	126
295.064	134
295.295	116
295.525	116
295.756	121
295.987	130
296.217	131
296.448	138
296.679	125
296.909	121
297.14	142
297.37	122
297.601	111
297.831	128
298.062	130
298.292	117
298.523	134
298.753	124
298.984	125
299.214	121
299.445	134
299.675	132
299.905	129
300.136	118
300.366	125
300.597	130
300.827	136
301.057	125
301.288	140
301.518	135
301.748	143
301.979	167
302.209	133
302.439	126
302.669	123
302.9	129
303.13	129
303.36	126
303.59	125
303.82	134
304.051	135
304.281	125
304.511	126
304.741	126
304.971	125
305.201	130
305.431	128
305.661	141
305.891	115
306.121	135
306.352	125
306.582	129
306.812	128
307.042	113
307.272	124
307.502	121
307.731	129
307.961	137
308.191	123
308.421	125
308.651	136
308.881	144
309.111	128
309.341	114
309.571	125
309.8	120
310.03	140
310.26	141
310.49	113
310.72	137
310.949	113
311.179	125
311.409	123
311.639	116
311.868	162
312.098	137
312.328	137
312.557	148
312.787	133
313.017	111
313.246	127
313.476	125
313.706	127
313.935	145
314.165	126
314.394	135
314.624	149
314.853	122
315.083	131
315.312	110
315.542	120
315.771	130
316.001	123
316.23	129
316.46	133
316.689	118
316.919	127
317.148	146
317.377	137
317.607	136
317.836	140
318.065	128
318.295	128
318.524	134
318.753	133
318.983	124
319.212	127
319.441	126
319.67	124
319.9	130
320.129	133
320.358	122
320.587	118
320.816	139
321.046	135
321.275	145
321.504	122
321.733	132
321.962	137
322.191	127
322.42	109
322.649	133
322.878	149
323.108	138
323.337	149
323.566	126
323.795	129
324.024	152
324.253	142
324.482	125
324.71	120
324.939	136
325.168	142
325.397	124
325.626	127
325.855	145
326.084	129
326.313	145
326.542	134
326.77	136
326.999	128
327.228	124
327.457	130
327.686	133
327.914	142
328.143	141
328.372	134
328.6	134
328.829	127
329.058	134
329.287	136
329.515	133
329.744	134
329.972	130
330.201	128
330.43	142
330.658	121
330.887	137
331.115	145
331.344	147
331.572	142
331.801	147
332.03	137
332.258	155
332.486	162
332.715	134
332.943	139
333.172	152
333.4	159
333.629	161
333.857	148
334.085	162
334.314	153
334.542	161
334.771	167
334.999	135
335.227	146
335.455	164
335.684	167
335.912	145
336.14	145
336.369	156
336.597	144
336.825	150
337.053	153
337.281	143
337.51	145
337.738	143
337.966	141
338.194	135
338.422	142
338.65	147
338.878	135
339.106	160
339.334	148
339.562	142
339.79	146
340.018	136
340.246	141
340.474	133
340.702	148
340.93	133
341.158	146
341.386	150
341.614	124
341.842	124
342.07	127
342.298	130
342.526	145
342.754	136
342.981	132
343.209	133
343.437	164
343.665	138
343.893	146
344.12	141
344.348	135
344.576	140
344.804	140
345.031	148
345.259	144
345.487	137
345.714	120
345.942	141
346.17	137
346.397	138
346.625	144
346.853	130
347.08	127
347.308	148
347.535	144
347.763	129
347.99	145
348.218	140
348.445	119
348.673	133
348.9	139
349.128	147
349.355	134
349.583	135
349.81	142
350.037	129
350.265	132
350.492	135
350.72	137
350.947	145
351.174	143
351.402	140
351.629	128
351.856	128
352.083	116
352.311	135
352.538	119
352.765	129
352.992	158
353.22	146
353.447	128
353.674	138
353.901	136
354.128	143
354.355	144
354.583	131
354.81	140
355.037	132
355.264	144
355.491	124
355.718	137
355.945	143
356.172	126
356.399	138
356.626	128
356.853	131
357.08	135
357.307	143
357.534	132
357.761	130
357.988	124
358.215	137
358.441	128
358.668	142
358.895	140
359.122	132
359.349	143
359.576	128
359.802	125
360.029	127
360.256	141
360.483	120
360.709	137
360.936	130
361.163	137
361.39	145
361.616	127
361.843	130
362.07	131
362.296	140
362.523	132
362.749	135
362.976	148
363.203	156
363.429	118
363.656	142
363.882	148
364.109	147
364.335	136
364.562	152
364.788	126
365.015	137
365.241	143
365.468	153
365.694	133
365.92	128
366.147	133
366.373	129
366.599	124
366.826	132
367.052	134
367.278	144
367.505	134
367.731	158
367.957	121
368.184	142
368.41	134
368.636	132
368.862	136
369.089	134
369.315	136
369.541	141
369.767	137
369.993	147
370.219	130
370.445	145
370.672	148
370.898	141
371.124	131
371.35	129
371.576	139
371.802	131
372.028	145
372.254	149
372.48	144
372.706	129
372.932	144
373.158	145
373.384	145
373.61	137
373.835	144
374.061	133
374.287	149
374.513	141
374.739	141
374.965	149
375.191	153
375.416	135
375.642	143
375.868	154
376.094	144
376.319	133
376.545	137
376.771	142
376.997	156
377.222	140
377.448	133
377.674	140
377.899	140
378.125	133
378.35	150
378.576	143
378.802	137
379.027	144
379.253	152
379.478	147
379.704	148
379.929	142
380.155	140
380.38	135
380.606	134
380.831	120
381.057	154
381.282	131
381.507	130
381.733	146
381.958	142
382.184	143
382.409	150
382.634	158
382.86	136
383.085	134
383.31	142
383.535	152
383.761	158
383.986	166
384.211	155
384.436	146
384.662	160
384.887	161
385.112	160
385.337	160
385.562	153
385.787	164
386.013	169
386.238	143
386.463	151
386.688	188
386.913	142
387.138	145
387.363	146
387.588	156
387.813	162
388.038	164
388.263	159
388.488	149
388.713	140
388.938	146
389.163	162
389.387	162
389.612	152
389.837	150
390.062	149
390.287	165
390.512	154
390.736	175
390.961	164
391.186	178
391.411	160
391.636	164
391.86	170
392.085	170
392.31	157
392.534	152
392.759	156
392.984	179
393.208	177
393.433	176
393.658	148
393.882	149
394.107	156
394.331	162
394.556	174
394.78	162
395.005	160
395.229	159
395.454	163
395.678	185
395.903	174
396.127	176
396.352	168
396.576	157
396.801	160
397.025	145
397.249	172
397.474	162
397.698	157
397.922	166
398.147	159
398.371	178
398.595	180
398.82	186
399.044	194
399.268	196
399.492	218
399.717	237
399.941	214
400.165	218
400.389	199
400.613	189
400.837	194
401.062	185
401.286	184
401.51	184
401.734	167
401.958	167
402.182	169
402.406	157
402.63	199
402.854	182
403.078	172
403.302	173
403.526	190
403.75	201
403.974	197
404.198	180
404.422	188
404.645	195
404.869	184
405.093	206
405.317	196
405.541	194
405.765	190
405.988	185
406.212	169
406.436	185
406.66	195
406.883	188
407.107	211
407.331	206
407.555	218
407.778	201
408.002	207
408.226	190
408.449	196
408.673	194
408.896	195
409.12	182
409.344	194
409.567	206
409.791	188
410.014	190
410.238	195
410.461	197
410.685	201
410.908	178
411.132	174
411.355	177
411.578	171
411.802	171
412.025	191
412.249	167
412.472	178
412.695	174
412.919	170
413.142	173
413.365	172
413.589	168
413.812	171
414.035	185
414.258	186
414.482	181
414.705	185
414.928	199
415.151	177
415.374	183
415.597	173
415.821	192
416.044	183
416.267	180
416.49	185
416.713	189
416.936	183
417.159	188
417.382	188
417.605	166
417.828	185
418.051	182
418.274	165
418.497	174
418.72	188
418.943	184
419.166	183
419.389	192
419.611	186
419.834	196
420.057	187
420.28	185
420.503	170
420.726	176
420.948	166
421.171	194
421.394	176
421.617	181
421.839	172
422.062	174
422.285	181
422.507	176
422.73	170
422.953	167
423.175	189
423.398	178
423.621	185
423.843	197
424.066	181
424.288	178
424.511	180
424.733	176
424.956	184
425.178	190
425.401	164
425.623	178
425.846	184
426.068	178
426.291	177
426.513	175
426.735	182
426.958	190
427.18	162
427.402	188
427.625	183
427.847	170
428.069	164
428.292	168
428.514	169
428.736	161
428.958	137
429.181	165
429.403	144
429.625	162
429.847	160
430.069	157
430.292	170
430.514	166
430.736	161
430.958	167
431.18	155
431.402	151
431.624	167
431.846	173
432.068	181
432.29	168
432.512	167
432.734	168
432.956	178
433.178	160
433.4	182
433.622	168
433.844	161
434.066	171
434.287	178
434.509	177
434.731	176
434.953	158
435.175	180
435.397	193
435.618	162
435.84	160
436.062	173
436.284	160
436.505	157
436.727	171
436.949	160
437.17	163
437.392	165
437.614	148
437.835	160
438.057	163
438.278	158
438.5	170
438.721	168
438.943	176
439.165	174
439.386	162
439.608	170
439.829	162
440.05	193
440.272	176
440.493	173
440.715	157
440.936	172
441.158	177
441.379	175
441.6	199
441.822	178
442.043	185
442.264	167
442.486	174
442.707	173
442.928	167
443.149	158
443.371	185
443.592	190
443.813	179
444.034	173
444.255	191
444.476	217
444.698	201
444.919	204
445.14	433
445.361	332
445.582	178
445.803	170
446.024	184
446.245	180
446.466	158
446.687	157
446.908	172
447.129	166
447.35	158
447.571	167
447.792	153
448.013	160
448.234	164
448.455	144
448.675	164
448.896	164
449.117	147
449.338	163
449.559	165
449.779	158
450	162
450.221	165
450.442	136
450.662	160
450.883	154
451.104	163
451.324	142
451.545	162
451.766	160
451.986	159
452.207	168
452.428	144
452.648	158
452.869	166
453.089	148
453.31	134
453.53	150
453.751	154
453.971	161
454.192	162
454.412	144
454.633	165
454.853	157
455.073	150
455.294	158
455.514	156
455.734	164
455.955	147
456.175	132
456.395	143
456.616	151
456.836	153
457.056	157
457.276	173
457.497	162
457.717	154
457.937	143
458.157	153
458.377	126
458.598	147
458.818	163
459.038	155
459.258	158
459.478	173
459.698	165
459.918	168
460.138	168
460.358	170
460.578	195
460.798	181
461.018	180
461.238	174
461.458	195
461.678	207
461.898	172
462.118	179
462.338	204
462.558	199
462.777	186
462.997	213
463.217	237
463.437	237
463.657	205
463.876	193
464.096	223
464.316	194
464.536	193
464.755	197
464.975	190
465.195	205
465.414	183
465.634	174
465.854	178
466.073	174
466.293	162
466.512	162
466.732	163
466.951	165
467.171	166
467.391	148
467.61	156
467.829	168
468.049	165
468.268	162
468.488	149
468.707	164
468.927	167
469.146	170
469.365	163
469.585	177
469.804	160
470.023	158
470.243	168
470.462	159
470.681	170
470.901	181
471.12	176
471.339	174
471.558	180
471.777	147
471.997	163
472.216	168
472.435	166
472.654	165
472.873	169
473.092	143
473.311	164
473.53	143
473.749	167
473.968	178
474.187	152
474.406	145
474.625	171
474.844	176
475.063	154
475.282	152
475.501	153
475.72	173
475.939	155
476.158	149
476.377	177
476.596	168
476.814	159
477.033	156
477.252	169
477.471	169
477.69	164
477.908	165
478.127	193
478.346	179
478.564	173
478.783	160
479.002	175
479.22	176
479.439	189
479.658	172
479.876	187
480.095	188
480.313	211
480.532	190
480.751	199
480.969	188
481.188	178
481.406	161
481.624	164
481.843	183
482.061	178
482.28	167
482.498	171
482.717	169
482.935	192
483.153	170
483.372	169
483.59	174
483.808	170
484.027	171
484.245	184
484.463	168
484.681	192
484.9	188
485.118	175
485.336	176
485.554	174
485.772	182
485.99	189
486.209	188
486.427	178
486.645	179
486.863	188
487.081	179
487.299	174
487.517	174
487.735	199
487.953	188
488.171	186
488.389	190
488.607	171
488.825	168
489.043	175
489.261	191
489.479	180
489.696	202
489.914	175
490.132	170
490.35	182
490.568	187
490.786	188
491.003	180
491.221	187
491.439	167
491.657	174
491.874	178
492.092	182
492.31	194
492.527	193
492.745	198
492.963	177
493.18	190
493.398	180
493.615	180
493.833	178
494.05	191
494.268	200
494.485	190
494.703	169
494.92	181
495.138	183
495.355	182
495.573	196
495.79	195
496.008	184
496.225	197
496.442	178
496.66	210
496.877	192
497.094	208
497.312	195
497.529	206
497.746	201
497.963	216
498.181	200
498.398	193
498.615	225
498.832	220
499.049	238
499.267	262
499.484	263
499.701	311
499.918	336
500.135	369
500.352	415
500.569	429
500.786	410
501.003	383
501.22	324
501.437	315
501.654	280
501.871	272
502.088	246
502.305	232
502.522	239
502.739	238
502.956	209
503.172	229
503.389	210
503.606	209
503.823	204
504.04	205
504.256	212
504.473	207
504.69	211
504.907	220
505.123	197
505.34	199
505.557	180
505.773	185
505.99	186
506.207	178
506.423	177
506.64	182
506.856	171
507.073	184
507.289	176
507.506	177
507.722	160
507.939	155
508.155	185
508.372	172
508.588	176
508.805	179
509.021	180
509.238	177
509.454	168
509.67	167
509.887	160
510.103	144
510.319	174
510.536	171
510.752	168
510.968	174
511.184	154
511.401	138
511.617	160
511.833	159
512.049	171
512.265	161
512.481	169
512.698	146
512.914	165
513.13	149
513.346	159
513.562	166
513.778	162
513.994	162
514.21	168
514.426	168
514.642	173
514.858	161
515.074	169
515.29	168
515.506	162
515.721	169
515.937	189
516.153	153
516.369	168
516.585	189
516.801	186
517.016	197
517.232	201
517.448	200
517.664	206
517.879	206
518.095	230
518.311	215
518.527	190
518.742	199
518.958	185
519.173	177
519.389	159
519.605	174
519.82	180
520.036	176
520.251	170
520.467	161
520.682	166
520.898	153
521.113	166
521.329	181
521.544	161
521.76	162
521.975	157
522.19	162
522.406	154
522.621	152
522.836	180
523.052	175
523.267	157
523.482	161
523.698	151
523.913	172
524.128	159
524.343	148
524.559	168
524.774	157
524.989	181
525.204	173
525.419	167
525.634	153
525.849	153
526.064	144
526.28	169
526.495	161
526.71	148
526.925	160
527.14	145
527.355	166
527.57	163
527.785	166
527.999	147
528.214	156
528.429	180
528.644	145
528.859	162
529.074	161
529.289	164
529.503	172
529.718	156
529.933	160
530.148	166
530.363	156
530.577	152
530.792	149
531.007	144
531.221	158
531.436	166
531.651	164
531.865	144
532.08	158
532.295	154
532.509	151
532.724	169
532.938	148
533.153	159
533.367	153
533.582	164
533.796	145
534.011	166
534.225	152
534.44	152
534.654	153
534.868	144
535.083	167
535.297	158
535.511	183
535.726	158
535.94	162
536.154	154
536.369	164
536.583	161
536.797	161
537.011	153
537.225	148
537.44	141
537.654	160
537.868	159
538.082	155
538.296	143
538.51	143
538.724	154
538.938	151
539.153	150
539.367	146
539.581	142
539.795	159
540.009	156
540.222	156
540.436	150
540.65	147
540.864	149
541.078	141
541.292	158
541.506	144
541.72	154
541.934	178
542.147	156
542.361	132
542.575	143
542.789	164
543.002	155
543.216	157
543.43	143
543.644	166
543.857	164
544.071	142
544.285	173
544.498	168
544.712	165
544.925	160
545.139	169
545.352	163
545.566	159
545.779	162
545.993	162
546.206	154
546.42	163
546.633	163
546.847	173
547.06	167
547.274	165
547.487	168
547.7	140
547.914	174
548.127	174
548.34	156
548.554	167
548.767	173
548.98	157
549.193	165
549.407	151
549.62	157
549.833	155
550.046	166
550.259	158
550.473	165
550.686	177
550.899	178
551.112	152
551.325	170
551.538	154
551.751	141
551.964	149
552.177	170
552.39	153
552.603	171
552.816	160
553.029	173
553.242	164
553.455	176
553.667	194
553.88	164
554.093	172
554.306	183
554.519	170
554.732	146
554.944	165
555.157	142
555.37	173
555.583	164
555.795	150
556.008	144
556.221	145
556.433	160
556.646	154
556.859	148
557.071	154
557.284	162
557.496	152
557.709	161
557.921	131
558.134	158
558.346	146
558.559	135
558.771	129
558.984	146
559.196	146
559.409	136
559.621	135
559.833	137
560.046	132
560.258	153
560.47	142
560.683	138
560.895	130
561.107	145
561.32	151
561.532	154
561.744	151
561.956	140
562.168	156
562.381	146
562.593	151
562.805	152
563.017	161
563.229	128
563.441	148
563.653	159
563.865	137
564.077	148
564.289	158
564.501	143
564.713	158
564.925	147
565.137	144
565.349	153
565.561	161
565.773	166
565.985	172
566.197	160
566.408	181
566.62	180
566.832	191
