Data from SampD_HRD10591_00094.txt Node
Date: Mon Jan 19 11:41:53 EST 2026
User: Yrep
Spectrometer: HR+D1059
Trigger mode: 0
Integration Time (sec): 3.443000E-1
Scans to average: 1
Electric dark correction enabled: true
Nonlinearity correction enabled: false
Boxcar width: 0
XAxis mode: Wavelengths
Number of Pixels in Spectrum: 2048
>>>>>Begin Spectral Data<<<<<
223.165	-22.25
223.4	-22.25
223.635	-22.25
223.869	-26.25
224.104	-29.25
224.338	-10.25
224.573	-10.25
224.808	-17.25
225.042	-2.25
225.277	2.75
225.511	-2.25
225.746	11.75
225.98	11.75
226.215	9.75
226.449	14.75
226.683	21.75
226.918	21.75
227.152	25.75
227.387	38.75
227.621	32.75
227.856	30.75
228.09	43.75
228.324	47.75
228.559	61.75
228.793	47.75
229.027	59.75
229.262	74.75
229.496	58.75
229.73	61.75
229.964	78.75
230.199	71.75
230.433	68.75
230.667	76.75
230.901	78.75
231.136	77.75
231.37	83.75
231.604	92.75
231.838	82.75
232.072	75.75
232.306	89.75
232.541	87.75
232.775	79.75
233.009	85.75
233.243	81.75
233.477	82.75
233.711	81.75
233.945	67.75
234.179	86.75
234.413	101.75
234.647	85.75
234.881	78.75
235.115	83.75
235.349	77.75
235.583	97.75
235.817	82.75
236.051	70.75
236.285	73.75
236.519	93.75
236.753	90.75
236.987	81.75
237.221	82.75
237.455	73.75
237.689	69.75
237.922	80.75
238.156	79.75
238.39	74.75
238.624	82.75
238.858	89.75
239.091	91.75
239.325	66.75
239.559	93.75
239.793	82.75
240.027	98.75
240.26	81.75
240.494	65.75
240.728	84.75
240.961	89.75
241.195	87.75
241.429	84.75
241.662	85.75
241.896	59.75
242.13	86.75
242.363	83.75
242.597	80.75
242.83	92.75
243.064	79.75
243.298	93.75
243.531	76.75
243.765	71.75
243.998	81.75
244.232	79.75
244.465	85.75
244.699	88.75
244.932	86.75
245.166	87.75
245.399	86.75
245.633	94.75
245.866	86.75
246.099	78.75
246.333	79.75
246.566	75.75
246.8	73.75
247.033	90.75
247.266	81.75
247.5	81.75
247.733	81.75
247.966	86.75
248.2	89.75
248.433	109.75
248.666	93.75
248.899	85.75
249.133	90.75
249.366	96.75
249.599	87.75
249.832	100.75
250.066	104.75
250.299	92.75
250.532	79.75
250.765	75.75
250.998	93.75
251.231	93.75
251.465	86.75
251.698	87.75
251.931	91.75
252.164	97.75
252.397	85.75
252.63	87.75
252.863	97.75
253.096	98.75
253.329	94.75
253.562	87.75
253.795	86.75
254.028	97.75
254.261	96.75
254.494	86.75
254.727	92.75
254.96	100.75
255.193	90.75
255.426	90.75
255.659	94.75
255.892	98.75
256.124	81.75
256.357	80.75
256.59	94.75
256.823	89.75
257.056	94.75
257.289	82.75
257.521	89.75
257.754	81.75
257.987	90.75
258.22	89.75
258.452	98.75
258.685	103.75
258.918	101.75
259.151	96.75
259.383	89.75
259.616	104.75
259.849	95.75
260.081	97.75
260.314	83.75
260.547	96.75
260.779	90.75
261.012	85.75
261.244	93.75
261.477	102.75
261.71	78.75
261.942	110.75
262.175	91.75
262.407	104.75
262.64	81.75
262.872	106.75
263.105	87.75
263.337	106.75
263.57	92.75
263.802	87.75
264.035	106.75
264.267	94.75
264.499	76.75
264.732	115.75
264.964	114.75
265.197	89.75
265.429	91.75
265.661	94.75
265.894	92.75
266.126	98.75
266.358	102.75
266.591	107.75
266.823	92.75
267.055	101.75
267.287	108.75
267.52	95.75
267.752	108.75
267.984	107.75
268.216	106.75
268.448	109.75
268.681	87.75
268.913	108.75
269.145	91.75
269.377	105.75
269.609	97.75
269.841	108.75
270.073	98.75
270.306	101.75
270.538	97.75
270.77	106.75
271.002	114.75
271.234	109.75
271.466	130.75
271.698	108.75
271.93	91.75
272.162	103.75
272.394	105.75
272.626	101.75
272.858	107.75
273.09	110.75
273.322	115.75
273.553	98.75
273.785	96.75
274.017	113.75
274.249	101.75
274.481	107.75
274.713	103.75
274.945	101.75
275.176	100.75
275.408	112.75
275.64	94.75
275.872	108.75
276.104	114.75
276.335	95.75
276.567	102.75
276.799	110.75
277.031	112.75
277.262	102.75
277.494	103.75
277.726	104.75
277.957	116.75
278.189	99.75
278.421	103.75
278.652	117.75
278.884	103.75
279.115	83.75
279.347	103.75
279.579	103.75
279.81	101.75
280.042	113.75
280.273	109.75
280.505	102.75
280.736	110.75
280.968	118.75
281.199	95.75
281.431	96.75
281.662	109.75
281.894	105.75
282.125	106.75
282.356	101.75
282.588	110.75
282.819	123.75
283.051	87.75
283.282	101.75
283.513	118.75
283.745	99.75
283.976	110.75
284.207	120.75
284.439	115.75
284.67	113.75
284.901	125.75
285.132	122.75
285.364	113.75
285.595	113.75
285.826	125.75
286.057	111.75
286.288	110.75
286.52	110.75
286.751	107.75
286.982	123.75
287.213	114.75
287.444	114.75
287.675	101.75
287.906	118.75
288.138	118.75
288.369	103.75
288.6	126.75
288.831	114.75
289.062	117.75
289.293	125.75
289.524	123.75
289.755	90.75
289.986	112.75
290.217	113.75
290.448	110.75
290.679	105.75
290.91	118.75
291.141	94.75
291.371	127.75
291.602	122.75
291.833	111.75
292.064	112.75
292.295	116.75
292.526	109.75
292.757	124.75
292.987	111.75
293.218	104.75
293.449	112.75
293.68	114.75
293.91	121.75
294.141	125.75
294.372	111.75
294.603	116.75
294.833	114.75
295.064	109.75
295.295	123.75
295.525	115.75
295.756	108.75
295.987	120.75
296.217	117.75
296.448	111.75
296.679	111.75
296.909	119.75
297.14	121.75
297.37	137.75
297.601	122.75
297.831	116.75
298.062	129.75
298.292	116.75
298.523	126.75
298.753	147.75
298.984	123.75
299.214	116.75
299.445	114.75
299.675	109.75
299.905	113.75
300.136	121.75
300.366	111.75
300.597	115.75
300.827	110.75
301.057	117.75
301.288	130.75
301.518	123.75
301.748	107.75
301.979	140.75
302.209	132.75
302.439	108.75
302.669	110.75
302.9	97.75
303.13	125.75
303.36	126.75
303.59	117.75
303.82	128.75
304.051	120.75
304.281	132.75
304.511	121.75
304.741	124.75
304.971	124.75
305.201	118.75
305.431	120.75
305.661	114.75
305.891	121.75
306.121	136.75
306.352	115.75
306.582	113.75
306.812	113.75
307.042	113.75
307.272	122.75
307.502	114.75
307.731	110.75
307.961	111.75
308.191	111.75
308.421	129.75
308.651	139.75
308.881	125.75
309.111	117.75
309.341	112.75
309.571	113.75
309.8	106.75
310.03	110.75
310.26	118.75
310.49	123.75
310.72	103.75
310.949	101.75
311.179	120.75
311.409	126.75
311.639	121.75
311.868	128.75
312.098	119.75
312.328	142.75
312.557	131.75
312.787	103.75
313.017	139.75
313.246	117.75
313.476	107.75
313.706	112.75
313.935	116.75
314.165	123.75
314.394	133.75
314.624	110.75
314.853	118.75
315.083	133.75
315.312	120.75
315.542	133.75
315.771	133.75
316.001	141.75
316.23	117.75
316.46	105.75
316.689	125.75
316.919	128.75
317.148	140.75
317.377	113.75
317.607	112.75
317.836	122.75
318.065	103.75
318.295	119.75
318.524	126.75
318.753	121.75
318.983	117.75
319.212	110.75
319.441	124.75
319.67	138.75
319.9	113.75
320.129	124.75
320.358	127.75
320.587	118.75
320.816	139.75
321.046	123.75
321.275	115.75
321.504	105.75
321.733	131.75
321.962	125.75
322.191	111.75
322.42	112.75
322.649	126.75
322.878	134.75
323.108	130.75
323.337	133.75
323.566	124.75
323.795	114.75
324.024	119.75
324.253	127.75
324.482	121.75
324.71	115.75
324.939	122.75
325.168	113.75
325.397	130.75
325.626	123.75
325.855	119.75
326.084	123.75
326.313	133.75
326.542	118.75
326.77	123.75
326.999	145.75
327.228	125.75
327.457	123.75
327.686	124.75
327.914	137.75
328.143	139.75
328.372	133.75
328.6	139.75
328.829	128.75
329.058	123.75
329.287	128.75
329.515	121.75
329.744	137.75
329.972	122.75
330.201	131.75
330.43	115.75
330.658	134.75
330.887	137.75
331.115	134.75
331.344	130.75
331.572	133.75
331.801	141.75
332.03	137.75
332.258	153.75
332.486	140.75
332.715	123.75
332.943	127.75
333.172	138.75
333.4	144.75
333.629	145.75
333.857	156.75
334.085	137.75
334.314	141.75
334.542	135.75
334.771	133.75
334.999	149.75
335.227	158.75
335.455	159.75
335.684	139.75
335.912	146.75
336.14	132.75
336.369	137.75
336.597	144.75
336.825	139.75
337.053	129.75
337.281	131.75
337.51	146.75
337.738	142.75
337.966	132.75
338.194	137.75
338.422	131.75
338.65	153.75
338.878	130.75
339.106	127.75
339.334	146.75
339.562	126.75
339.79	141.75
340.018	130.75
340.246	124.75
340.474	128.75
340.702	127.75
340.93	134.75
341.158	124.75
341.386	144.75
341.614	135.75
341.842	127.75
342.07	122.75
342.298	136.75
342.526	126.75
342.754	141.75
342.981	128.75
343.209	137.75
343.437	160.75
343.665	133.75
343.893	144.75
344.12	157.75
344.348	138.75
344.576	132.75
344.804	133.75
345.031	151.75
345.259	137.75
345.487	145.75
345.714	136.75
345.942	127.75
346.17	131.75
346.397	128.75
346.625	126.75
346.853	120.75
347.08	114.75
347.308	130.75
347.535	129.75
347.763	116.75
347.99	127.75
348.218	124.75
348.445	117.75
348.673	125.75
348.9	126.75
349.128	137.75
349.355	128.75
349.583	140.75
349.81	143.75
350.037	116.75
350.265	137.75
350.492	132.75
350.72	121.75
350.947	134.75
351.174	132.75
351.402	122.75
351.629	125.75
351.856	129.75
352.083	133.75
352.311	131.75
352.538	121.75
352.765	138.75
352.992	133.75
353.22	135.75
353.447	130.75
353.674	131.75
353.901	127.75
354.128	117.75
354.355	129.75
354.583	128.75
354.81	120.75
355.037	121.75
355.264	125.75
355.491	134.75
355.718	130.75
355.945	133.75
356.172	147.75
356.399	130.75
356.626	133.75
356.853	138.75
357.08	145.75
357.307	132.75
357.534	110.75
357.761	134.75
357.988	131.75
358.215	138.75
358.441	126.75
358.668	131.75
358.895	130.75
359.122	129.75
359.349	135.75
359.576	144.75
359.802	139.75
360.029	129.75
360.256	132.75
360.483	109.75
360.709	124.75
360.936	135.75
361.163	133.75
361.39	127.75
361.616	129.75
361.843	123.75
362.07	141.75
362.296	127.75
362.523	124.75
362.749	141.75
362.976	123.75
363.203	129.75
363.429	128.75
363.656	130.75
363.882	126.75
364.109	140.75
364.335	138.75
364.562	134.75
364.788	138.75
365.015	123.75
365.241	114.75
365.468	127.75
365.694	136.75
365.92	127.75
366.147	126.75
366.373	114.75
366.599	125.75
366.826	116.75
367.052	113.75
367.278	128.75
367.505	126.75
367.731	148.75
367.957	116.75
368.184	122.75
368.41	125.75
368.636	130.75
368.862	121.75
369.089	117.75
369.315	135.75
369.541	141.75
369.767	133.75
369.993	128.75
370.219	114.75
370.445	122.75
370.672	141.75
370.898	130.75
371.124	141.75
371.35	137.75
371.576	126.75
371.802	135.75
372.028	128.75
372.254	135.75
372.48	133.75
372.706	131.75
372.932	127.75
373.158	131.75
373.384	144.75
373.61	138.75
373.835	152.75
374.061	129.75
374.287	123.75
374.513	126.75
374.739	141.75
374.965	156.75
375.191	133.75
375.416	145.75
375.642	149.75
375.868	148.75
376.094	125.75
376.319	142.75
376.545	110.75
376.771	120.75
376.997	143.75
377.222	124.75
377.448	139.75
377.674	127.75
377.899	129.75
378.125	127.75
378.35	138.75
378.576	132.75
378.802	130.75
379.027	139.75
379.253	147.75
379.478	129.75
379.704	129.75
379.929	133.75
380.155	133.75
380.38	145.75
380.606	129.75
380.831	121.75
381.057	162.75
381.282	129.75
381.507	141.75
381.733	130.75
381.958	145.75
382.184	134.75
382.409	143.75
382.634	160.75
382.86	145.75
383.085	141.75
383.31	149.75
383.535	152.75
383.761	134.75
383.986	141.75
384.211	139.75
384.436	124.75
384.662	153.75
384.887	152.75
385.112	145.75
385.337	149.75
385.562	162.75
385.787	145.75
386.013	149.75
386.238	152.75
386.463	153.75
386.688	178.75
386.913	164.75
387.138	137.75
387.363	149.75
387.588	144.75
387.813	146.75
388.038	156.75
388.263	134.75
388.488	135.75
388.713	152.75
388.938	145.75
389.163	144.75
389.387	138.75
389.612	148.75
389.837	127.75
390.062	149.75
390.287	143.75
390.512	168.75
390.736	141.75
390.961	132.75
391.186	159.75
391.411	157.75
391.636	142.75
391.86	137.75
392.085	154.75
392.31	158.75
392.534	148.75
392.759	158.75
392.984	161.75
393.208	155.75
393.433	166.75
393.658	173.75
393.882	131.75
394.107	145.75
394.331	164.75
394.556	155.75
394.78	162.75
395.005	159.75
395.229	155.75
395.454	162.75
395.678	169.75
395.903	157.75
396.127	167.75
396.352	156.75
396.576	147.75
396.801	153.75
397.025	146.75
397.249	167.75
397.474	175.75
397.698	164.75
397.922	147.75
398.147	150.75
398.371	145.75
398.595	168.75
398.82	170.75
399.044	177.75
399.268	213.75
399.492	202.75
399.717	221.75
399.941	208.75
400.165	204.75
400.389	173.75
400.613	179.75
400.837	175.75
401.062	169.75
401.286	161.75
401.51	159.75
401.734	157.75
401.958	170.75
402.182	178.75
402.406	175.75
402.63	166.75
402.854	164.75
403.078	166.75
403.302	183.75
403.526	178.75
403.75	179.75
403.974	189.75
404.198	179.75
404.422	202.75
404.645	180.75
404.869	184.75
405.093	183.75
405.317	172.75
405.541	163.75
405.765	179.75
405.988	168.75
406.212	189.75
406.436	182.75
406.66	190.75
406.883	189.75
407.107	193.75
407.331	198.75
407.555	199.75
407.778	203.75
408.002	183.75
408.226	194.75
408.449	186.75
408.673	178.75
408.896	176.75
409.12	202.75
409.344	172.75
409.567	176.75
409.791	187.75
410.014	187.75
410.238	167.75
410.461	186.75
410.685	171.75
410.908	169.75
411.132	177.75
411.355	173.75
411.578	178.75
411.802	171.75
412.025	185.75
412.249	177.75
412.472	170.75
412.695	174.75
412.919	159.75
413.142	182.75
413.365	157.75
413.589	170.75
413.812	171.75
414.035	178.75
414.258	170.75
414.482	157.75
414.705	163.75
414.928	178.75
415.151	180.75
415.374	185.75
415.597	173.75
415.821	174.75
416.044	165.75
416.267	180.75
416.49	165.75
416.713	171.75
416.936	165.75
417.159	175.75
417.382	166.75
417.605	151.75
417.828	164.75
418.051	174.75
418.274	181.75
418.497	175.75
418.72	170.75
418.943	179.75
419.166	190.75
419.389	197.75
419.611	181.75
419.834	174.75
420.057	164.75
420.28	196.75
420.503	180.75
420.726	173.75
420.948	162.75
421.171	151.75
421.394	164.75
421.617	179.75
421.839	173.75
422.062	162.75
422.285	156.75
422.507	178.75
422.73	171.75
422.953	177.75
423.175	178.75
423.398	181.75
423.621	163.75
423.843	175.75
424.066	173.75
424.288	174.75
424.511	183.75
424.733	185.75
424.956	165.75
425.178	160.75
425.401	173.75
425.623	181.75
425.846	155.75
426.068	170.75
426.291	146.75
426.513	166.75
426.735	177.75
426.958	167.75
427.18	167.75
427.402	168.75
427.625	167.75
427.847	149.75
428.069	176.75
428.292	153.75
428.514	175.75
428.736	169.75
428.958	165.75
429.181	155.75
429.403	167.75
429.625	158.75
429.847	162.75
430.069	180.75
430.292	175.75
430.514	159.75
430.736	144.75
430.958	158.75
431.18	156.75
431.402	157.75
431.624	150.75
431.846	161.75
432.068	174.75
432.29	162.75
432.512	164.75
432.734	161.75
432.956	162.75
433.178	169.75
433.4	146.75
433.622	160.75
433.844	168.75
434.066	165.75
434.287	160.75
434.509	166.75
434.731	170.75
434.953	180.75
435.175	180.75
435.397	192.75
435.618	165.75
435.84	164.75
436.062	158.75
436.284	168.75
436.505	157.75
436.727	146.75
436.949	166.75
437.17	167.75
437.392	159.75
437.614	141.75
437.835	150.75
438.057	170.75
438.278	145.75
438.5	156.75
438.721	169.75
438.943	155.75
439.165	155.75
439.386	176.75
439.608	153.75
439.829	157.75
440.05	170.75
440.272	160.75
440.493	168.75
440.715	156.75
440.936	166.75
441.158	173.75
441.379	166.75
441.6	194.75
441.822	180.75
442.043	177.75
442.264	176.75
442.486	169.75
442.707	163.75
442.928	177.75
443.149	172.75
443.371	174.75
443.592	162.75
443.813	168.75
444.034	177.75
444.255	181.75
444.476	176.75
444.698	184.75
444.919	188.75
445.14	459.75
445.361	305.75
445.582	155.75
445.803	157.75
446.024	157.75
446.245	186.75
446.466	176.75
446.687	156.75
446.908	175.75
447.129	168.75
447.35	156.75
447.571	173.75
447.792	155.75
448.013	143.75
448.234	135.75
448.455	141.75
448.675	138.75
448.896	155.75
449.117	153.75
449.338	152.75
449.559	138.75
449.779	147.75
450	148.75
450.221	159.75
450.442	131.75
450.662	150.75
450.883	156.75
451.104	154.75
451.324	155.75
451.545	154.75
451.766	166.75
451.986	159.75
452.207	158.75
452.428	159.75
452.648	164.75
452.869	159.75
453.089	162.75
453.31	133.75
453.53	159.75
453.751	158.75
453.971	154.75
454.192	143.75
454.412	152.75
454.633	134.75
454.853	142.75
455.073	143.75
455.294	143.75
455.514	162.75
455.734	126.75
455.955	140.75
456.175	153.75
456.395	137.75
456.616	129.75
456.836	148.75
457.056	143.75
457.276	154.75
457.497	150.75
457.717	137.75
457.937	142.75
458.157	128.75
458.377	143.75
458.598	153.75
458.818	145.75
459.038	153.75
459.258	153.75
459.478	163.75
459.698	153.75
459.918	156.75
460.138	155.75
460.358	167.75
460.578	190.75
460.798	179.75
461.018	180.75
461.238	179.75
461.458	182.75
461.678	177.75
461.898	178.75
462.118	178.75
462.338	191.75
462.558	194.75
462.777	173.75
462.997	211.75
463.217	205.75
463.437	223.75
463.657	194.75
463.876	191.75
464.096	180.75
464.316	177.75
464.536	194.75
464.755	209.75
464.975	181.75
465.195	202.75
465.414	192.75
465.634	162.75
465.854	160.75
466.073	172.75
466.293	169.75
466.512	159.75
466.732	156.75
466.951	154.75
467.171	155.75
467.391	158.75
467.61	157.75
467.829	150.75
468.049	162.75
468.268	158.75
468.488	149.75
468.707	149.75
468.927	151.75
469.146	154.75
469.365	151.75
469.585	175.75
469.804	164.75
470.023	152.75
470.243	176.75
470.462	181.75
470.681	158.75
470.901	159.75
471.12	173.75
471.339	166.75
471.558	149.75
471.777	171.75
471.997	141.75
472.216	152.75
472.435	139.75
472.654	151.75
472.873	154.75
473.092	174.75
473.311	158.75
473.53	153.75
473.749	170.75
473.968	151.75
474.187	153.75
474.406	149.75
474.625	129.75
474.844	145.75
475.063	141.75
475.282	142.75
475.501	152.75
475.72	166.75
475.939	146.75
476.158	148.75
476.377	150.75
476.596	142.75
476.814	164.75
477.033	158.75
477.252	142.75
477.471	169.75
477.69	182.75
477.908	156.75
478.127	172.75
478.346	179.75
478.564	175.75
478.783	182.75
479.002	185.75
479.22	175.75
479.439	193.75
479.658	173.75
479.876	179.75
480.095	184.75
480.313	169.75
480.532	182.75
480.751	193.75
480.969	173.75
481.188	163.75
481.406	172.75
481.624	144.75
481.843	157.75
482.061	153.75
482.28	165.75
482.498	163.75
482.717	156.75
482.935	167.75
483.153	161.75
483.372	163.75
483.59	186.75
483.808	169.75
484.027	159.75
484.245	173.75
484.463	158.75
484.681	195.75
484.9	160.75
485.118	170.75
485.336	160.75
485.554	167.75
485.772	158.75
485.99	165.75
486.209	176.75
486.427	169.75
486.645	163.75
486.863	186.75
487.081	164.75
487.299	174.75
487.517	161.75
487.735	172.75
487.953	173.75
488.171	165.75
488.389	172.75
488.607	175.75
488.825	186.75
489.043	169.75
489.261	180.75
489.479	179.75
489.696	158.75
489.914	153.75
490.132	166.75
490.35	178.75
490.568	175.75
490.786	164.75
491.003	164.75
491.221	189.75
491.439	189.75
491.657	176.75
491.874	191.75
492.092	196.75
492.31	188.75
492.527	173.75
492.745	179.75
492.963	186.75
493.18	193.75
493.398	184.75
493.615	177.75
493.833	174.75
494.05	171.75
494.268	182.75
494.485	189.75
494.703	191.75
494.92	177.75
495.138	173.75
495.355	176.75
495.573	171.75
495.79	189.75
496.008	190.75
496.225	179.75
496.442	178.75
496.66	191.75
496.877	175.75
497.094	197.75
497.312	182.75
497.529	184.75
497.746	186.75
497.963	195.75
498.181	202.75
498.398	207.75
498.615	209.75
498.832	214.75
499.049	231.75
499.267	262.75
499.484	283.75
499.701	283.75
499.918	319.75
500.135	352.75
500.352	367.75
500.569	398.75
500.786	382.75
501.003	357.75
501.22	315.75
501.437	305.75
501.654	267.75
501.871	238.75
502.088	238.75
502.305	222.75
502.522	222.75
502.739	210.75
502.956	197.75
503.172	190.75
503.389	194.75
503.606	191.75
503.823	193.75
504.04	200.75
504.256	181.75
504.473	176.75
504.69	211.75
504.907	215.75
