Data from SampD_HRD10591_00057.txt Node
Date: Mon Jan 19 11:41:40 EST 2026
User: Yrep
Spectrometer: HR+D1059
Trigger mode: 0
Integration Time (sec): 3.443000E-1
Scans to average: 1
Electric dark correction enabled: true
Nonlinearity correction enabled: false
Boxcar width: 0
XAxis mode: Wavelengths
Number of Pixels in Spectrum: 2048
>>>>>Begin Spectral Data<<<<<
223.165	-22.56
223.4	-22.56
223.635	-22.56
223.869	-29.56
224.104	-20.56
224.338	-16.56
224.573	-15.56
224.808	-19.56
225.042	1.44
225.277	-14.56
225.511	5.44
225.746	7.44
225.98	5.44
226.215	9.44
226.449	18.44
226.683	18.44
226.918	41.44
227.152	31.44
227.387	43.44
227.621	51.44
227.856	57.44
228.09	49.44
228.324	34.44
228.559	63.44
228.793	76.44
229.027	72.44
229.262	71.44
229.496	79.44
229.73	71.44
229.964	78.44
230.199	82.44
230.433	71.44
230.667	84.44
230.901	83.44
231.136	78.44
231.37	71.44
231.604	96.44
231.838	86.44
232.072	81.44
232.306	88.44
232.541	97.44
232.775	89.44
233.009	92.44
233.243	102.44
233.477	92.44
233.711	94.44
233.945	87.44
234.179	92.44
234.413	96.44
234.647	86.44
234.881	101.44
235.115	94.44
235.349	84.44
235.583	95.44
235.817	84.44
236.051	97.44
236.285	86.44
236.519	89.44
236.753	90.44
236.987	74.44
237.221	96.44
237.455	86.44
237.689	94.44
237.922	89.44
238.156	85.44
238.39	80.44
238.624	93.44
238.858	84.44
239.091	81.44
239.325	89.44
239.559	80.44
239.793	90.44
240.027	86.44
240.26	80.44
240.494	81.44
240.728	92.44
240.961	81.44
241.195	74.44
241.429	103.44
241.662	94.44
241.896	90.44
242.13	88.44
242.363	96.44
242.597	97.44
242.83	93.44
243.064	92.44
243.298	81.44
243.531	100.44
243.765	98.44
243.998	97.44
244.232	103.44
244.465	92.44
244.699	90.44
244.932	78.44
245.166	99.44
245.399	86.44
245.633	94.44
245.866	90.44
246.099	92.44
246.333	98.44
246.566	92.44
246.8	89.44
247.033	89.44
247.266	87.44
247.5	95.44
247.733	101.44
247.966	96.44
248.2	93.44
248.433	82.44
248.666	105.44
248.899	93.44
249.133	93.44
249.366	110.44
249.599	93.44
249.832	101.44
250.066	84.44
250.299	88.44
250.532	98.44
250.765	105.44
250.998	87.44
251.231	83.44
251.465	94.44
251.698	104.44
251.931	99.44
252.164	92.44
252.397	84.44
252.63	92.44
252.863	94.44
253.096	103.44
253.329	94.44
253.562	112.44
253.795	104.44
254.028	103.44
254.261	100.44
254.494	101.44
254.727	101.44
254.96	112.44
255.193	108.44
255.426	94.44
255.659	110.44
255.892	92.44
256.124	90.44
256.357	91.44
256.59	105.44
256.823	94.44
257.056	99.44
257.289	92.44
257.521	96.44
257.754	98.44
257.987	98.44
258.22	93.44
258.452	97.44
258.685	91.44
258.918	76.44
259.151	93.44
259.383	116.44
259.616	105.44
259.849	108.44
260.081	114.44
260.314	102.44
260.547	114.44
260.779	92.44
261.012	108.44
261.244	114.44
261.477	116.44
261.71	99.44
261.942	91.44
262.175	97.44
262.407	103.44
262.64	101.44
262.872	99.44
263.105	110.44
263.337	114.44
263.57	94.44
263.802	103.44
264.035	98.44
264.267	113.44
264.499	98.44
264.732	91.44
264.964	94.44
265.197	119.44
265.429	108.44
265.661	90.44
265.894	109.44
266.126	101.44
266.358	101.44
266.591	115.44
266.823	102.44
267.055	118.44
267.287	105.44
267.52	96.44
267.752	103.44
267.984	111.44
268.216	97.44
268.448	107.44
268.681	105.44
268.913	112.44
269.145	117.44
269.377	103.44
269.609	101.44
269.841	115.44
270.073	116.44
270.306	109.44
270.538	122.44
270.77	104.44
271.002	109.44
271.234	116.44
271.466	114.44
271.698	117.44
271.93	114.44
272.162	111.44
272.394	114.44
272.626	106.44
272.858	128.44
273.09	109.44
273.322	90.44
273.553	113.44
273.785	117.44
274.017	103.44
274.249	104.44
274.481	110.44
274.713	110.44
274.945	128.44
275.176	105.44
275.408	118.44
275.64	111.44
275.872	108.44
276.104	114.44
276.335	102.44
276.567	117.44
276.799	121.44
277.031	117.44
277.262	121.44
277.494	101.44
277.726	114.44
277.957	105.44
278.189	114.44
278.421	113.44
278.652	120.44
278.884	115.44
279.115	118.44
279.347	115.44
279.579	129.44
279.81	136.44
280.042	137.44
280.273	137.44
280.505	125.44
280.736	108.44
280.968	111.44
281.199	122.44
281.431	109.44
281.662	119.44
281.894	127.44
282.125	115.44
282.356	109.44
282.588	120.44
282.819	118.44
283.051	109.44
283.282	115.44
283.513	120.44
283.745	115.44
283.976	98.44
284.207	115.44
284.439	128.44
284.67	129.44
284.901	109.44
285.132	121.44
285.364	121.44
285.595	118.44
285.826	117.44
286.057	122.44
286.288	125.44
286.52	104.44
286.751	122.44
286.982	115.44
287.213	117.44
287.444	119.44
287.675	119.44
287.906	126.44
288.138	133.44
288.369	133.44
288.6	130.44
288.831	120.44
289.062	118.44
289.293	128.44
289.524	117.44
289.755	132.44
289.986	127.44
290.217	130.44
290.448	131.44
290.679	119.44
290.91	124.44
291.141	125.44
291.371	121.44
291.602	127.44
291.833	115.44
292.064	127.44
292.295	134.44
292.526	130.44
292.757	114.44
292.987	119.44
293.218	120.44
293.449	119.44
293.68	119.44
293.91	113.44
294.141	117.44
294.372	118.44
294.603	134.44
294.833	142.44
295.064	132.44
295.295	134.44
295.525	114.44
295.756	135.44
295.987	132.44
296.217	138.44
296.448	129.44
296.679	136.44
296.909	140.44
297.14	130.44
297.37	145.44
297.601	104.44
297.831	131.44
298.062	128.44
298.292	137.44
298.523	126.44
298.753	117.44
298.984	126.44
299.214	137.44
299.445	124.44
299.675	126.44
299.905	129.44
300.136	134.44
300.366	135.44
300.597	124.44
300.827	140.44
301.057	140.44
301.288	145.44
301.518	152.44
301.748	133.44
301.979	160.44
302.209	136.44
302.439	133.44
302.669	133.44
302.9	133.44
303.13	131.44
303.36	135.44
303.59	137.44
303.82	145.44
304.051	114.44
304.281	140.44
304.511	142.44
304.741	153.44
304.971	112.44
305.201	125.44
305.431	116.44
305.661	130.44
305.891	144.44
306.121	137.44
306.352	129.44
306.582	120.44
306.812	128.44
307.042	142.44
307.272	129.44
307.502	123.44
307.731	125.44
307.961	120.44
308.191	125.44
308.421	126.44
308.651	126.44
308.881	130.44
309.111	134.44
309.341	132.44
309.571	133.44
309.8	130.44
310.03	143.44
310.26	127.44
310.49	137.44
310.72	127.44
310.949	116.44
311.179	122.44
311.409	116.44
311.639	116.44
311.868	122.44
312.098	141.44
312.328	118.44
312.557	138.44
312.787	125.44
313.017	142.44
313.246	137.44
313.476	143.44
313.706	121.44
313.935	138.44
314.165	140.44
314.394	136.44
314.624	136.44
314.853	140.44
315.083	133.44
315.312	128.44
315.542	151.44
315.771	140.44
316.001	145.44
316.23	125.44
316.46	144.44
316.689	130.44
316.919	129.44
317.148	138.44
317.377	150.44
317.607	124.44
317.836	126.44
318.065	133.44
318.295	132.44
318.524	147.44
318.753	143.44
318.983	132.44
319.212	135.44
319.441	121.44
319.67	138.44
319.9	112.44
320.129	127.44
320.358	149.44
320.587	136.44
320.816	126.44
321.046	135.44
321.275	146.44
321.504	127.44
321.733	142.44
321.962	132.44
322.191	124.44
322.42	114.44
322.649	125.44
322.878	141.44
323.108	144.44
323.337	132.44
323.566	142.44
323.795	140.44
324.024	128.44
324.253	125.44
324.482	134.44
324.71	136.44
324.939	139.44
325.168	126.44
325.397	138.44
325.626	130.44
325.855	146.44
326.084	135.44
326.313	131.44
326.542	141.44
326.77	145.44
326.999	151.44
327.228	135.44
327.457	131.44
327.686	132.44
327.914	127.44
328.143	114.44
328.372	126.44
328.6	136.44
328.829	131.44
329.058	141.44
329.287	153.44
329.515	132.44
329.744	152.44
329.972	147.44
330.201	147.44
330.43	142.44
330.658	158.44
330.887	151.44
331.115	149.44
331.344	126.44
331.572	145.44
331.801	155.44
332.03	131.44
332.258	141.44
332.486	140.44
332.715	150.44
332.943	146.44
333.172	173.44
333.4	157.44
333.629	160.44
333.857	164.44
334.085	177.44
334.314	156.44
334.542	156.44
334.771	166.44
334.999	158.44
335.227	160.44
335.455	159.44
335.684	165.44
335.912	153.44
336.14	134.44
336.369	170.44
336.597	152.44
336.825	146.44
337.053	157.44
337.281	141.44
337.51	151.44
337.738	136.44
337.966	134.44
338.194	144.44
338.422	150.44
338.65	140.44
338.878	155.44
339.106	157.44
339.334	141.44
339.562	156.44
339.79	137.44
340.018	130.44
340.246	135.44
340.474	142.44
340.702	152.44
340.93	147.44
341.158	155.44
341.386	133.44
341.614	137.44
341.842	139.44
342.07	129.44
342.298	140.44
342.526	153.44
342.754	152.44
342.981	128.44
343.209	143.44
343.437	180.44
343.665	153.44
343.893	146.44
344.12	160.44
344.348	144.44
344.576	140.44
344.804	152.44
345.031	147.44
345.259	143.44
345.487	157.44
345.714	125.44
345.942	123.44
346.17	127.44
346.397	126.44
346.625	136.44
346.853	160.44
347.08	157.44
347.308	153.44
347.535	134.44
347.763	152.44
347.99	130.44
348.218	137.44
348.445	129.44
348.673	140.44
348.9	147.44
349.128	157.44
349.355	135.44
349.583	144.44
349.81	150.44
350.037	148.44
350.265	125.44
350.492	147.44
350.72	153.44
350.947	146.44
351.174	140.44
351.402	160.44
351.629	141.44
351.856	144.44
352.083	141.44
352.311	148.44
352.538	132.44
352.765	127.44
352.992	152.44
353.22	141.44
353.447	139.44
353.674	155.44
353.901	134.44
354.128	149.44
354.355	145.44
354.583	136.44
354.81	146.44
355.037	144.44
355.264	155.44
355.491	142.44
355.718	139.44
355.945	154.44
356.172	144.44
356.399	145.44
356.626	142.44
356.853	135.44
357.08	137.44
357.307	140.44
357.534	145.44
357.761	141.44
357.988	145.44
358.215	140.44
358.441	132.44
358.668	140.44
358.895	137.44
359.122	145.44
359.349	140.44
359.576	141.44
359.802	129.44
360.029	146.44
360.256	131.44
360.483	153.44
360.709	147.44
360.936	140.44
361.163	147.44
361.39	136.44
361.616	136.44
361.843	155.44
362.07	148.44
362.296	151.44
362.523	133.44
362.749	143.44
362.976	128.44
363.203	157.44
363.429	140.44
363.656	131.44
363.882	136.44
364.109	146.44
364.335	144.44
364.562	132.44
364.788	130.44
365.015	141.44
365.241	137.44
365.468	154.44
365.694	148.44
365.92	142.44
366.147	125.44
366.373	136.44
366.599	154.44
366.826	152.44
367.052	153.44
367.278	150.44
367.505	129.44
367.731	144.44
367.957	137.44
368.184	130.44
368.41	125.44
368.636	144.44
368.862	137.44
369.089	144.44
369.315	131.44
369.541	161.44
369.767	144.44
369.993	143.44
370.219	118.44
370.445	127.44
370.672	134.44
370.898	156.44
371.124	162.44
371.35	151.44
371.576	151.44
371.802	146.44
372.028	146.44
372.254	142.44
372.48	124.44
372.706	141.44
372.932	160.44
373.158	158.44
373.384	155.44
373.61	153.44
373.835	156.44
374.061	129.44
374.287	150.44
374.513	146.44
374.739	159.44
374.965	154.44
375.191	160.44
375.416	159.44
375.642	143.44
375.868	167.44
376.094	153.44
376.319	142.44
376.545	145.44
376.771	148.44
376.997	161.44
377.222	160.44
377.448	157.44
377.674	155.44
377.899	151.44
378.125	136.44
378.35	138.44
378.576	160.44
378.802	158.44
379.027	157.44
379.253	148.44
379.478	150.44
379.704	152.44
379.929	147.44
380.155	140.44
380.38	150.44
380.606	152.44
380.831	148.44
381.057	165.44
381.282	144.44
381.507	145.44
381.733	131.44
381.958	142.44
382.184	156.44
382.409	145.44
382.634	170.44
382.86	153.44
383.085	160.44
383.31	148.44
383.535	158.44
383.761	172.44
383.986	170.44
384.211	162.44
384.436	167.44
384.662	159.44
384.887	159.44
385.112	155.44
385.337	158.44
385.562	173.44
385.787	152.44
386.013	176.44
386.238	165.44
386.463	164.44
386.688	201.44
386.913	162.44
387.138	168.44
387.363	137.44
387.588	167.44
387.813	169.44
388.038	165.44
388.263	165.44
388.488	158.44
388.713	147.44
388.938	158.44
389.163	168.44
389.387	142.44
389.612	160.44
389.837	163.44
390.062	171.44
390.287	164.44
390.512	158.44
390.736	164.44
390.961	169.44
391.186	166.44
391.411	168.44
391.636	173.44
391.86	185.44
392.085	176.44
392.31	190.44
392.534	203.44
392.759	174.44
392.984	184.44
393.208	213.44
393.433	238.44
393.658	207.44
393.882	190.44
394.107	177.44
394.331	160.44
394.556	167.44
394.78	172.44
395.005	174.44
395.229	180.44
395.454	184.44
395.678	180.44
395.903	172.44
396.127	164.44
396.352	177.44
396.576	186.44
396.801	209.44
397.025	201.44
397.249	193.44
397.474	174.44
397.698	168.44
397.922	183.44
398.147	164.44
398.371	172.44
398.595	188.44
398.82	194.44
399.044	184.44
399.268	214.44
399.492	243.44
399.717	263.44
399.941	243.44
400.165	220.44
400.389	197.44
400.613	175.44
400.837	180.44
401.062	185.44
401.286	188.44
401.51	189.44
401.734	198.44
401.958	199.44
402.182	186.44
402.406	196.44
402.63	192.44
402.854	193.44
403.078	190.44
403.302	181.44
403.526	212.44
403.75	220.44
403.974	201.44
404.198	204.44
404.422	211.44
404.645	209.44
404.869	199.44
405.093	206.44
405.317	196.44
405.541	203.44
405.765	199.44
405.988	202.44
406.212	191.44
406.436	200.44
406.66	202.44
406.883	207.44
407.107	207.44
407.331	211.44
407.555	219.44
407.778	210.44
408.002	214.44
408.226	214.44
408.449	217.44
408.673	192.44
408.896	221.44
409.12	201.44
409.344	199.44
409.567	206.44
409.791	212.44
410.014	201.44
410.238	209.44
410.461	191.44
410.685	213.44
410.908	194.44
411.132	193.44
411.355	196.44
411.578	195.44
411.802	184.44
412.025	179.44
412.249	188.44
412.472	187.44
412.695	196.44
412.919	193.44
413.142	197.44
413.365	178.44
413.589	193.44
413.812	196.44
414.035	202.44
414.258	183.44
414.482	188.44
414.705	181.44
414.928	192.44
415.151	193.44
415.374	191.44
415.597	191.44
415.821	177.44
416.044	188.44
416.267	194.44
416.49	187.44
416.713	199.44
416.936	190.44
417.159	196.44
417.382	184.44
417.605	183.44
417.828	188.44
418.051	207.44
418.274	196.44
418.497	191.44
418.72	192.44
418.943	208.44
419.166	216.44
419.389	205.44
419.611	197.44
419.834	194.44
420.057	188.44
420.28	181.44
420.503	191.44
420.726	192.44
420.948	185.44
421.171	192.44
421.394	180.44
421.617	191.44
421.839	198.44
422.062	204.44
422.285	194.44
422.507	178.44
422.73	195.44
422.953	184.44
423.175	196.44
423.398	205.44
423.621	212.44
423.843	184.44
424.066	203.44
424.288	192.44
424.511	195.44
424.733	195.44
424.956	194.44
425.178	206.44
425.401	192.44
425.623	187.44
425.846	178.44
426.068	190.44
426.291	205.44
426.513	191.44
426.735	183.44
426.958	183.44
427.18	184.44
427.402	181.44
427.625	183.44
427.847	173.44
428.069	191.44
428.292	172.44
428.514	183.44
428.736	166.44
428.958	182.44
429.181	193.44
429.403	159.44
429.625	159.44
429.847	188.44
430.069	184.44
430.292	182.44
430.514	182.44
430.736	182.44
430.958	193.44
431.18	176.44
431.402	176.44
431.624	174.44
431.846	170.44
432.068	182.44
432.29	180.44
432.512	177.44
432.734	170.44
432.956	182.44
433.178	184.44
433.4	163.44
433.622	177.44
433.844	185.44
434.066	195.44
434.287	187.44
434.509	175.44
434.731	192.44
434.953	185.44
435.175	195.44
435.397	177.44
435.618	169.44
435.84	162.44
436.062	173.44
436.284	180.44
436.505	181.44
436.727	195.44
436.949	185.44
437.17	180.44
437.392	186.44
437.614	165.44
437.835	165.44
438.057	168.44
438.278	177.44
438.5	174.44
438.721	176.44
438.943	160.44
439.165	167.44
439.386	180.44
439.608	177.44
439.829	170.44
440.05	191.44
440.272	177.44
440.493	191.44
440.715	171.44
440.936	185.44
441.158	178.44
441.379	179.44
441.6	187.44
441.822	190.44
442.043	177.44
442.264	196.44
442.486	191.44
442.707	189.44
442.928	180.44
443.149	180.44
443.371	186.44
443.592	179.44
443.813	190.44
444.034	191.44
444.255	199.44
444.476	216.44
444.698	204.44
444.919	210.44
445.14	454.44
445.361	325.44
445.582	196.44
445.803	172.44
446.024	189.44
446.245	193.44
446.466	185.44
446.687	172.44
446.908	152.44
447.129	187.44
447.35	181.44
447.571	180.44
447.792	183.44
448.013	169.44
448.234	167.44
448.455	174.44
448.675	164.44
448.896	159.44
449.117	167.44
449.338	162.44
449.559	181.44
449.779	160.44
450	165.44
450.221	163.44
450.442	168.44
450.662	156.44
450.883	160.44
451.104	178.44
451.324	174.44
451.545	179.44
451.766	176.44
451.986	171.44
452.207	161.44
452.428	169.44
452.648	185.44
452.869	171.44
453.089	160.44
453.31	158.44
453.53	157.44
453.751	180.44
453.971	164.44
454.192	151.44
454.412	158.44
454.633	161.44
454.853	166.44
455.073	164.44
455.294	158.44
455.514	167.44
455.734	172.44
455.955	164.44
456.175	160.44
456.395	168.44
456.616	141.44
456.836	157.44
457.056	177.44
457.276	161.44
457.497	156.44
457.717	163.44
457.937	158.44
458.157	160.44
458.377	166.44
458.598	180.44
458.818	152.44
459.038	164.44
459.258	169.44
459.478	179.44
459.698	182.44
459.918	181.44
460.138	178.44
460.358	207.44
460.578	205.44
460.798	204.44
461.018	203.44
461.238	190.44
461.458	195.44
461.678	187.44
461.898	208.44
462.118	200.44
462.338	215.44
462.558	212.44
462.777	190.44
462.997	240.44
463.217	242.44
463.437	237.44
463.657	229.44
463.876	232.44
464.096	220.44
464.316	214.44
464.536	220.44
464.755	203.44
464.975	199.44
465.195	200.44
465.414	193.44
465.634	188.44
465.854	185.44
466.073	183.44
466.293	185.44
466.512	173.44
466.732	175.44
466.951	170.44
467.171	175.44
467.391	166.44
467.61	191.44
467.829	172.44
468.049	172.44
468.268	174.44
468.488	168.44
468.707	175.44
468.927	173.44
469.146	162.44
469.365	163.44
469.585	166.44
469.804	177.44
470.023	191.44
470.243	185.44
470.462	182.44
470.681	194.44
470.901	176.44
471.12	168.44
471.339	184.44
471.558	166.44
471.777	168.44
471.997	174.44
472.216	185.44
472.435	162.44
472.654	186.44
472.873	182.44
473.092	153.44
473.311	162.44
473.53	162.44
473.749	184.44
473.968	182.44
474.187	167.44
474.406	172.44
474.625	190.44
474.844	162.44
475.063	162.44
475.282	164.44
475.501	156.44
475.72	181.44
475.939	170.44
476.158	166.44
476.377	165.44
476.596	164.44
476.814	179.44
477.033	188.44
477.252	170.44
477.471	183.44
477.69	189.44
477.908	191.44
478.127	190.44
478.346	201.44
478.564	184.44
478.783	184.44
479.002	201.44
479.22	197.44
479.439	192.44
479.658	188.44
479.876	183.44
480.095	200.44
480.313	223.44
480.532	207.44
480.751	210.44
480.969	196.44
481.188	194.44
481.406	184.44
481.624	189.44
481.843	160.44
482.061	178.44
482.28	175.44
482.498	178.44
482.717	189.44
482.935	187.44
483.153	195.44
483.372	190.44
483.59	192.44
483.808	169.44
484.027	161.44
484.245	188.44
484.463	185.44
484.681	201.44
484.9	189.44
485.118	184.44
485.336	187.44
485.554	188.44
485.772	195.44
485.99	193.44
486.209	186.44
486.427	192.44
486.645	199.44
486.863	190.44
487.081	188.44
487.299	190.44
487.517	186.44
487.735	177.44
487.953	173.44
488.171	201.44
488.389	200.44
488.607	184.44
488.825	185.44
489.043	188.44
489.261	188.44
489.479	192.44
489.696	201.44
489.914	188.44
490.132	178.44
490.35	201.44
490.568	197.44
490.786	180.44
491.003	186.44
491.221	199.44
491.439	184.44
491.657	198.44
491.874	186.44
492.092	193.44
492.31	195.44
492.527	201.44
492.745	210.44
492.963	195.44
493.18	208.44
493.398	215.44
493.615	203.44
493.833	202.44
494.05	188.44
494.268	186.44
494.485	210.44
494.703	198.44
494.92	196.44
495.138	189.44
495.355	198.44
495.573	199.44
495.79	207.44
496.008	197.44
496.225	182.44
496.442	218.44
496.66	234.44
496.877	217.44
497.094	220.44
497.312	196.44
497.529	221.44
497.746	239.44
497.963	235.44
498.181	225.44
498.398	239.44
498.615	228.44
498.832	245.44
499.049	269.44
499.267	278.44
499.484	296.44
499.701	312.44
499.918	378.44
500.135	424.44
500.352	443.44
500.569	421.44
500.786	434.44
501.003	402.44
501.22	357.44
501.437	321.44
501.654	300.44
501.871	276.44
502.088	267.44
502.305	278.44
502.522	232.44
502.739	229.44
502.956	237.44
503.172	230.44
503.389	239.44
503.606	193.44
503.823	206.44
504.04	208.44
504.256	231.44
504.473	224.44
