Data from SampD_HRD10591_00047.txt Node
Date: Mon Jan 19 11:41:37 EST 2026
User: Yrep
Spectrometer: HR+D1059
Trigger mode: 0
Integration Time (sec): 3.443000E-1
Scans to average: 1
Electric dark correction enabled: true
Nonlinearity correction enabled: false
Boxcar width: 0
XAxis mode: Wavelengths
Number of Pixels in Spectrum: 2048
>>>>>Begin Spectral Data<<<<<
223.165	-41.31
223.4	-41.31
223.635	-41.31
223.869	-23.31
224.104	-41.31
224.338	-14.31
224.573	-18.31
224.808	-20.31
225.042	-1.31
225.277	-12.31
225.511	7.69
225.746	24.69
225.98	28.69
226.215	13.69
226.449	20.69
226.683	32.69
226.918	24.69
227.152	19.69
227.387	45.69
227.621	37.69
227.856	52.69
228.09	36.69
228.324	56.69
228.559	85.69
228.793	61.69
229.027	60.69
229.262	70.69
229.496	68.69
229.73	66.69
229.964	84.69
230.199	88.69
230.433	81.69
230.667	85.69
230.901	86.69
231.136	73.69
231.37	79.69
231.604	79.69
231.838	97.69
232.072	73.69
232.306	103.69
232.541	94.69
232.775	81.69
233.009	79.69
233.243	90.69
233.477	99.69
233.711	92.69
233.945	107.69
234.179	73.69
234.413	99.69
234.647	100.69
234.881	75.69
235.115	85.69
235.349	86.69
235.583	82.69
235.817	93.69
236.051	93.69
236.285	86.69
236.519	85.69
236.753	88.69
236.987	89.69
237.221	76.69
237.455	95.69
237.689	88.69
237.922	78.69
238.156	90.69
238.39	86.69
238.624	76.69
238.858	83.69
239.091	96.69
239.325	80.69
239.559	94.69
239.793	86.69
240.027	84.69
240.26	97.69
240.494	95.69
240.728	88.69
240.961	104.69
241.195	92.69
241.429	84.69
241.662	74.69
241.896	84.69
242.13	84.69
242.363	92.69
242.597	80.69
242.83	98.69
243.064	84.69
243.298	99.69
243.531	81.69
243.765	95.69
243.998	81.69
244.232	92.69
244.465	94.69
244.699	92.69
244.932	86.69
245.166	91.69
245.399	98.69
245.633	97.69
245.866	94.69
246.099	80.69
246.333	90.69
246.566	83.69
246.8	96.69
247.033	97.69
247.266	107.69
247.5	93.69
247.733	94.69
247.966	94.69
248.2	85.69
248.433	91.69
248.666	105.69
248.899	91.69
249.133	67.69
249.366	96.69
249.599	80.69
249.832	100.69
250.066	104.69
250.299	98.69
250.532	100.69
250.765	88.69
250.998	97.69
251.231	84.69
251.465	102.69
251.698	102.69
251.931	88.69
252.164	101.69
252.397	84.69
252.63	97.69
252.863	88.69
253.096	110.69
253.329	108.69
253.562	98.69
253.795	113.69
254.028	113.69
254.261	92.69
254.494	95.69
254.727	113.69
254.96	102.69
255.193	99.69
255.426	110.69
255.659	81.69
255.892	88.69
256.124	100.69
256.357	101.69
256.59	107.69
256.823	95.69
257.056	115.69
257.289	108.69
257.521	105.69
257.754	108.69
257.987	97.69
258.22	95.69
258.452	98.69
258.685	108.69
258.918	106.69
259.151	100.69
259.383	105.69
259.616	106.69
259.849	104.69
260.081	108.69
260.314	101.69
260.547	102.69
260.779	111.69
261.012	104.69
261.244	102.69
261.477	113.69
261.71	100.69
261.942	96.69
262.175	106.69
262.407	99.69
262.64	109.69
262.872	112.69
263.105	94.69
263.337	116.69
263.57	103.69
263.802	105.69
264.035	103.69
264.267	99.69
264.499	95.69
264.732	128.69
264.964	116.69
265.197	100.69
265.429	116.69
265.661	100.69
265.894	110.69
266.126	100.69
266.358	108.69
266.591	104.69
266.823	100.69
267.055	107.69
267.287	115.69
267.52	104.69
267.752	114.69
267.984	112.69
268.216	118.69
268.448	111.69
268.681	106.69
268.913	124.69
269.145	109.69
269.377	105.69
269.609	113.69
269.841	120.69
270.073	110.69
270.306	100.69
270.538	106.69
270.77	106.69
271.002	109.69
271.234	103.69
271.466	108.69
271.698	104.69
271.93	112.69
272.162	107.69
272.394	123.69
272.626	113.69
272.858	102.69
273.09	120.69
273.322	110.69
273.553	109.69
273.785	107.69
274.017	106.69
274.249	112.69
274.481	103.69
274.713	98.69
274.945	134.69
275.176	105.69
275.408	123.69
275.64	116.69
275.872	112.69
276.104	115.69
276.335	105.69
276.567	119.69
276.799	112.69
277.031	109.69
277.262	115.69
277.494	111.69
277.726	127.69
277.957	118.69
278.189	128.69
278.421	113.69
278.652	112.69
278.884	115.69
279.115	119.69
279.347	119.69
279.579	116.69
279.81	128.69
280.042	114.69
280.273	109.69
280.505	111.69
280.736	110.69
280.968	109.69
281.199	105.69
281.431	129.69
281.662	144.69
281.894	130.69
282.125	110.69
282.356	113.69
282.588	116.69
282.819	122.69
283.051	110.69
283.282	120.69
283.513	126.69
283.745	120.69
283.976	132.69
284.207	112.69
284.439	108.69
284.67	120.69
284.901	117.69
285.132	120.69
285.364	137.69
285.595	124.69
285.826	125.69
286.057	120.69
286.288	119.69
286.52	116.69
286.751	118.69
286.982	130.69
287.213	113.69
287.444	129.69
287.675	117.69
287.906	132.69
288.138	131.69
288.369	109.69
288.6	114.69
288.831	117.69
289.062	129.69
289.293	141.69
289.524	134.69
289.755	124.69
289.986	110.69
290.217	140.69
290.448	129.69
290.679	128.69
290.91	127.69
291.141	124.69
291.371	119.69
291.602	118.69
291.833	118.69
292.064	128.69
292.295	131.69
292.526	120.69
292.757	124.69
292.987	126.69
293.218	133.69
293.449	134.69
293.68	130.69
293.91	129.69
294.141	147.69
294.372	134.69
294.603	134.69
294.833	138.69
295.064	125.69
295.295	122.69
295.525	118.69
295.756	119.69
295.987	125.69
296.217	128.69
296.448	134.69
296.679	124.69
296.909	115.69
297.14	124.69
297.37	138.69
297.601	131.69
297.831	144.69
298.062	137.69
298.292	141.69
298.523	126.69
298.753	128.69
298.984	118.69
299.214	134.69
299.445	121.69
299.675	134.69
299.905	143.69
300.136	127.69
300.366	133.69
300.597	125.69
300.827	138.69
301.057	130.69
301.288	127.69
301.518	126.69
301.748	126.69
301.979	153.69
302.209	140.69
302.439	138.69
302.669	150.69
302.9	140.69
303.13	132.69
303.36	124.69
303.59	138.69
303.82	130.69
304.051	123.69
304.281	137.69
304.511	144.69
304.741	129.69
304.971	125.69
305.201	134.69
305.431	137.69
305.661	138.69
305.891	131.69
306.121	142.69
306.352	136.69
306.582	134.69
306.812	135.69
307.042	137.69
307.272	117.69
307.502	133.69
307.731	136.69
307.961	132.69
308.191	119.69
308.421	141.69
308.651	134.69
308.881	136.69
309.111	132.69
309.341	121.69
309.571	118.69
309.8	134.69
310.03	125.69
310.26	137.69
310.49	146.69
310.72	132.69
310.949	135.69
311.179	137.69
311.409	137.69
311.639	124.69
311.868	131.69
312.098	140.69
312.328	153.69
312.557	142.69
312.787	116.69
313.017	127.69
313.246	142.69
313.476	133.69
313.706	125.69
313.935	135.69
314.165	120.69
314.394	129.69
314.624	132.69
314.853	142.69
315.083	120.69
315.312	125.69
315.542	135.69
315.771	137.69
316.001	132.69
316.23	150.69
316.46	114.69
316.689	137.69
316.919	130.69
317.148	150.69
317.377	152.69
317.607	134.69
317.836	140.69
318.065	137.69
318.295	135.69
318.524	142.69
318.753	137.69
318.983	124.69
319.212	140.69
319.441	141.69
319.67	143.69
319.9	136.69
320.129	144.69
320.358	137.69
320.587	142.69
320.816	143.69
321.046	129.69
321.275	143.69
321.504	130.69
321.733	130.69
321.962	132.69
322.191	148.69
322.42	149.69
322.649	137.69
322.878	150.69
323.108	131.69
323.337	143.69
323.566	147.69
323.795	151.69
324.024	148.69
324.253	139.69
324.482	142.69
324.71	133.69
324.939	147.69
325.168	144.69
325.397	129.69
325.626	145.69
325.855	125.69
326.084	128.69
326.313	137.69
326.542	151.69
326.77	143.69
326.999	141.69
327.228	141.69
327.457	143.69
327.686	145.69
327.914	149.69
328.143	160.69
328.372	141.69
328.6	136.69
328.829	142.69
329.058	130.69
329.287	121.69
329.515	152.69
329.744	150.69
329.972	153.69
330.201	156.69
330.43	148.69
330.658	146.69
330.887	144.69
331.115	142.69
331.344	143.69
331.572	155.69
331.801	141.69
332.03	161.69
332.258	148.69
332.486	164.69
332.715	152.69
332.943	145.69
333.172	167.69
333.4	171.69
333.629	174.69
333.857	159.69
334.085	189.69
334.314	173.69
334.542	162.69
334.771	171.69
334.999	167.69
335.227	160.69
335.455	160.69
335.684	184.69
335.912	159.69
336.14	161.69
336.369	161.69
336.597	159.69
336.825	176.69
337.053	150.69
337.281	149.69
337.51	145.69
337.738	136.69
337.966	138.69
338.194	141.69
338.422	152.69
338.65	160.69
338.878	158.69
339.106	148.69
339.334	162.69
339.562	142.69
339.79	148.69
340.018	143.69
340.246	123.69
340.474	158.69
340.702	144.69
340.93	133.69
341.158	140.69
341.386	135.69
341.614	142.69
341.842	152.69
342.07	146.69
342.298	145.69
342.526	153.69
342.754	141.69
342.981	145.69
343.209	136.69
343.437	178.69
343.665	160.69
343.893	168.69
344.12	167.69
344.348	163.69
344.576	152.69
344.804	154.69
345.031	135.69
345.259	158.69
345.487	160.69
345.714	146.69
345.942	146.69
346.17	162.69
346.397	159.69
346.625	153.69
346.853	157.69
347.08	137.69
347.308	148.69
347.535	148.69
347.763	145.69
347.99	145.69
348.218	129.69
348.445	145.69
348.673	147.69
348.9	140.69
349.128	148.69
349.355	140.69
349.583	144.69
349.81	158.69
350.037	145.69
350.265	141.69
350.492	146.69
350.72	160.69
350.947	142.69
351.174	151.69
351.402	136.69
351.629	149.69
351.856	140.69
352.083	152.69
352.311	142.69
352.538	134.69
352.765	121.69
352.992	158.69
353.22	145.69
353.447	142.69
353.674	146.69
353.901	148.69
354.128	149.69
354.355	150.69
354.583	134.69
354.81	154.69
355.037	155.69
355.264	142.69
355.491	148.69
355.718	139.69
355.945	150.69
356.172	141.69
356.399	137.69
356.626	142.69
356.853	146.69
357.08	147.69
357.307	126.69
357.534	122.69
357.761	156.69
357.988	144.69
358.215	162.69
358.441	163.69
358.668	158.69
358.895	150.69
359.122	146.69
359.349	138.69
359.576	133.69
359.802	145.69
360.029	152.69
360.256	148.69
360.483	124.69
360.709	146.69
360.936	148.69
361.163	145.69
361.39	140.69
361.616	137.69
361.843	136.69
362.07	143.69
362.296	141.69
362.523	146.69
362.749	139.69
362.976	133.69
363.203	151.69
363.429	142.69
363.656	152.69
363.882	133.69
364.109	151.69
364.335	149.69
364.562	147.69
364.788	143.69
365.015	142.69
365.241	138.69
365.468	133.69
365.694	137.69
365.92	145.69
366.147	140.69
366.373	144.69
366.599	146.69
366.826	144.69
367.052	152.69
367.278	153.69
367.505	146.69
367.731	164.69
367.957	146.69
368.184	142.69
368.41	140.69
368.636	161.69
368.862	162.69
369.089	145.69
369.315	133.69
369.541	148.69
369.767	159.69
369.993	156.69
370.219	141.69
370.445	135.69
370.672	140.69
370.898	161.69
371.124	149.69
371.35	144.69
371.576	158.69
371.802	137.69
372.028	134.69
372.254	142.69
372.48	148.69
372.706	161.69
372.932	157.69
373.158	154.69
373.384	162.69
373.61	148.69
373.835	131.69
374.061	152.69
374.287	155.69
374.513	147.69
374.739	149.69
374.965	150.69
375.191	150.69
375.416	158.69
375.642	159.69
375.868	156.69
376.094	151.69
376.319	141.69
376.545	145.69
376.771	153.69
376.997	138.69
377.222	166.69
377.448	156.69
377.674	137.69
377.899	145.69
378.125	151.69
378.35	165.69
378.576	145.69
378.802	143.69
379.027	158.69
379.253	171.69
379.478	146.69
379.704	127.69
379.929	148.69
380.155	167.69
380.38	152.69
380.606	148.69
380.831	164.69
381.057	158.69
381.282	161.69
381.507	140.69
381.733	151.69
381.958	138.69
382.184	160.69
382.409	158.69
382.634	157.69
382.86	149.69
383.085	164.69
383.31	173.69
383.535	181.69
383.761	157.69
383.986	156.69
384.211	161.69
384.436	175.69
384.662	149.69
384.887	169.69
385.112	170.69
385.337	170.69
385.562	164.69
385.787	177.69
386.013	160.69
386.238	166.69
386.463	181.69
386.688	205.69
386.913	164.69
387.138	177.69
387.363	167.69
387.588	178.69
387.813	164.69
388.038	167.69
388.263	179.69
388.488	186.69
388.713	166.69
388.938	164.69
389.163	160.69
389.387	161.69
389.612	168.69
389.837	160.69
390.062	175.69
390.287	169.69
390.512	170.69
390.736	165.69
390.961	174.69
391.186	169.69
391.411	177.69
391.636	178.69
391.86	177.69
392.085	181.69
392.31	172.69
392.534	167.69
392.759	190.69
392.984	167.69
393.208	170.69
393.433	166.69
393.658	169.69
393.882	164.69
394.107	176.69
394.331	178.69
394.556	185.69
394.78	182.69
395.005	183.69
395.229	166.69
395.454	174.69
395.678	181.69
395.903	198.69
396.127	182.69
396.352	158.69
396.576	182.69
396.801	169.69
397.025	183.69
397.249	183.69
397.474	191.69
397.698	181.69
397.922	178.69
398.147	184.69
398.371	178.69
398.595	198.69
398.82	179.69
399.044	210.69
399.268	238.69
399.492	248.69
399.717	278.69
399.941	240.69
400.165	230.69
400.389	224.69
400.613	195.69
400.837	206.69
401.062	188.69
401.286	185.69
401.51	184.69
401.734	193.69
401.958	213.69
402.182	190.69
402.406	193.69
402.63	209.69
402.854	213.69
403.078	208.69
403.302	220.69
403.526	205.69
403.75	225.69
403.974	215.69
404.198	215.69
404.422	209.69
404.645	207.69
404.869	215.69
405.093	231.69
405.317	222.69
405.541	213.69
405.765	212.69
405.988	207.69
406.212	216.69
406.436	191.69
406.66	221.69
406.883	217.69
407.107	217.69
407.331	233.69
407.555	230.69
407.778	220.69
408.002	231.69
408.226	226.69
408.449	200.69
408.673	209.69
408.896	213.69
409.12	198.69
409.344	208.69
409.567	212.69
409.791	206.69
410.014	211.69
410.238	229.69
410.461	221.69
410.685	205.69
410.908	222.69
411.132	193.69
411.355	185.69
411.578	196.69
411.802	191.69
412.025	201.69
412.249	208.69
412.472	197.69
412.695	191.69
412.919	182.69
413.142	189.69
413.365	200.69
413.589	194.69
413.812	196.69
414.035	194.69
414.258	208.69
414.482	190.69
414.705	196.69
414.928	205.69
415.151	197.69
415.374	207.69
415.597	195.69
415.821	189.69
416.044	189.69
416.267	191.69
416.49	199.69
416.713	192.69
416.936	194.69
417.159	190.69
417.382	207.69
417.605	213.69
417.828	190.69
418.051	182.69
418.274	209.69
418.497	208.69
418.72	189.69
418.943	202.69
419.166	205.69
419.389	216.69
419.611	210.69
419.834	191.69
420.057	215.69
420.28	190.69
420.503	204.69
420.726	187.69
420.948	188.69
421.171	165.69
421.394	204.69
421.617	200.69
421.839	184.69
422.062	208.69
422.285	193.69
422.507	205.69
422.73	195.69
422.953	199.69
423.175	212.69
423.398	190.69
423.621	205.69
423.843	206.69
424.066	221.69
424.288	219.69
424.511	208.69
424.733	208.69
424.956	216.69
425.178	179.69
425.401	191.69
425.623	201.69
425.846	196.69
426.068	182.69
426.291	193.69
426.513	200.69
426.735	203.69
426.958	178.69
427.18	195.69
427.402	186.69
427.625	183.69
427.847	191.69
428.069	191.69
428.292	182.69
428.514	178.69
428.736	176.69
428.958	189.69
429.181	190.69
429.403	177.69
429.625	170.69
429.847	182.69
430.069	179.69
430.292	189.69
430.514	171.69
430.736	170.69
430.958	195.69
431.18	178.69
431.402	174.69
431.624	186.69
431.846	183.69
432.068	189.69
432.29	184.69
432.512	167.69
432.734	178.69
432.956	193.69
433.178	186.69
433.4	192.69
433.622	180.69
433.844	178.69
434.066	195.69
434.287	178.69
434.509	188.69
434.731	190.69
434.953	195.69
435.175	188.69
435.397	202.69
435.618	178.69
435.84	194.69
436.062	184.69
436.284	182.69
436.505	173.69
436.727	178.69
436.949	187.69
437.17	181.69
437.392	164.69
437.614	175.69
437.835	178.69
438.057	165.69
438.278	181.69
438.5	190.69
438.721	184.69
438.943	187.69
439.165	183.69
439.386	172.69
439.608	186.69
439.829	207.69
440.05	182.69
440.272	169.69
440.493	187.69
440.715	201.69
440.936	204.69
441.158	196.69
441.379	191.69
441.6	200.69
441.822	212.69
442.043	193.69
442.264	195.69
442.486	188.69
442.707	192.69
442.928	191.69
443.149	202.69
443.371	188.69
443.592	186.69
443.813	213.69
444.034	193.69
444.255	208.69
444.476	222.69
444.698	206.69
444.919	221.69
445.14	472.69
445.361	314.69
445.582	207.69
445.803	199.69
446.024	185.69
446.245	193.69
446.466	185.69
446.687	186.69
446.908	191.69
447.129	182.69
447.35	192.69
447.571	191.69
447.792	179.69
448.013	170.69
448.234	169.69
448.455	162.69
448.675	170.69
448.896	178.69
449.117	157.69
449.338	159.69
449.559	192.69
449.779	186.69
450	166.69
450.221	177.69
450.442	179.69
450.662	174.69
450.883	170.69
451.104	183.69
451.324	193.69
451.545	180.69
451.766	186.69
451.986	187.69
452.207	174.69
452.428	178.69
452.648	191.69
452.869	187.69
453.089	168.69
453.31	187.69
453.53	190.69
453.751	188.69
453.971	160.69
454.192	144.69
454.412	153.69
454.633	190.69
454.853	189.69
455.073	157.69
455.294	167.69
455.514	166.69
455.734	168.69
455.955	162.69
456.175	168.69
456.395	178.69
456.616	173.69
456.836	168.69
457.056	181.69
457.276	165.69
457.497	184.69
457.717	158.69
457.937	169.69
458.157	169.69
458.377	172.69
458.598	171.69
458.818	180.69
459.038	165.69
459.258	179.69
459.478	169.69
459.698	205.69
459.918	200.69
460.138	199.69
460.358	212.69
460.578	211.69
460.798	194.69
461.018	219.69
461.238	209.69
461.458	212.69
461.678	211.69
461.898	208.69
462.118	215.69
462.338	219.69
462.558	202.69
462.777	219.69
462.997	244.69
463.217	248.69
463.437	248.69
463.657	205.69
463.876	230.69
464.096	227.69
464.316	231.69
464.536	224.69
464.755	234.69
464.975	215.69
465.195	206.69
465.414	209.69
465.634	185.69
465.854	184.69
466.073	184.69
466.293	157.69
466.512	184.69
466.732	183.69
466.951	176.69
467.171	172.69
467.391	172.69
467.61	181.69
467.829	171.69
468.049	175.69
468.268	179.69
468.488	182.69
468.707	164.69
468.927	176.69
469.146	160.69
469.365	167.69
469.585	161.69
469.804	192.69
470.023	177.69
470.243	184.69
470.462	193.69
470.681	197.69
470.901	187.69
471.12	166.69
471.339	174.69
471.558	171.69
471.777	178.69
471.997	182.69
472.216	188.69
472.435	164.69
472.654	172.69
472.873	184.69
473.092	181.69
473.311	156.69
473.53	164.69
473.749	176.69
473.968	188.69
474.187	179.69
474.406	185.69
474.625	178.69
474.844	185.69
475.063	182.69
475.282	169.69
475.501	164.69
475.72	188.69
475.939	173.69
476.158	165.69
476.377	185.69
476.596	204.69
476.814	174.69
477.033	184.69
477.252	188.69
477.471	183.69
477.69	187.69
477.908	197.69
478.127	192.69
478.346	176.69
478.564	209.69
478.783	202.69
479.002	189.69
479.22	204.69
479.439	183.69
479.658	198.69
479.876	185.69
480.095	200.69
480.313	210.69
480.532	230.69
480.751	210.69
480.969	182.69
481.188	207.69
481.406	190.69
481.624	190.69
481.843	192.69
482.061	188.69
482.28	198.69
482.498	196.69
482.717	181.69
482.935	190.69
483.153	189.69
483.372	194.69
483.59	193.69
483.808	176.69
484.027	191.69
484.245	191.69
484.463	196.69
484.681	228.69
484.9	206.69
485.118	204.69
485.336	189.69
485.554	214.69
485.772	200.69
485.99	191.69
486.209	192.69
486.427	221.69
486.645	199.69
486.863	181.69
487.081	207.69
487.299	193.69
487.517	206.69
487.735	194.69
487.953	194.69
488.171	218.69
488.389	201.69
488.607	196.69
488.825	179.69
489.043	190.69
489.261	195.69
489.479	180.69
489.696	208.69
489.914	192.69
490.132	200.69
490.35	210.69
490.568	206.69
490.786	190.69
491.003	196.69
491.221	214.69
491.439	211.69
491.657	215.69
491.874	198.69
492.092	213.69
492.31	217.69
492.527	207.69
492.745	193.69
492.963	218.69
493.18	197.69
493.398	225.69
493.615	217.69
493.833	214.69
494.05	213.69
494.268	209.69
494.485	214.69
494.703	207.69
494.92	221.69
495.138	219.69
495.355	222.69
495.573	225.69
495.79	209.69
496.008	222.69
496.225	204.69
496.442	215.69
496.66	224.69
496.877	224.69
497.094	214.69
497.312	225.69
497.529	239.69
497.746	228.69
497.963	225.69
498.181	223.69
498.398	245.69
498.615	236.69
498.832	268.69
499.049	274.69
499.267	294.69
499.484	306.69
499.701	360.69
499.918	366.69
500.135	417.69
500.352	461.69
500.569	451.69
500.786	470.69
501.003	423.69
501.22	378.69
501.437	329.69
501.654	308.69
501.871	303.69
502.088	285.69
502.305	276.69
502.522	270.69
502.739	262.69
502.956	244.69
503.172	218.69
503.389	219.69
503.606	208.69
503.823	228.69
504.04	221.69
504.256	249.69
