Data from SampD_HRD10591_00002.txt Node
Date: Mon Jan 19 11:41:21 EST 2026
User: Yrep
Spectrometer: HR+D1059
Trigger mode: 0
Integration Time (sec): 3.443000E-1
Scans to average: 1
Electric dark correction enabled: true
Nonlinearity correction enabled: false
Boxcar width: 0
XAxis mode: Wavelengths
Number of Pixels in Spectrum: 2048
>>>>>Begin Spectral Data<<<<<
223.165	-19.88
223.4	-19.88
223.635	-19.88
223.869	-36.88
224.104	-18.88
224.338	-14.88
224.573	-19.88
224.808	-6.88
225.042	3.12
225.277	-4.88
225.511	-0.88
225.746	0.12
225.98	12.12
226.215	9.12
226.449	26.12
226.683	15.12
226.918	36.12
227.152	21.12
227.387	55.12
227.621	37.12
227.856	33.12
228.09	56.12
228.324	63.12
228.559	63.12
228.793	67.12
229.027	83.12
229.262	80.12
229.496	78.12
229.73	65.12
229.964	75.12
230.199	82.12
230.433	85.12
230.667	83.12
230.901	68.12
231.136	75.12
231.37	79.12
231.604	80.12
231.838	84.12
232.072	82.12
232.306	95.12
232.541	83.12
232.775	84.12
233.009	91.12
233.243	81.12
233.477	86.12
233.711	92.12
233.945	82.12
234.179	89.12
234.413	77.12
234.647	94.12
234.881	88.12
235.115	93.12
235.349	83.12
235.583	96.12
235.817	84.12
236.051	89.12
236.285	93.12
236.519	75.12
236.753	88.12
236.987	80.12
237.221	70.12
237.455	67.12
237.689	88.12
237.922	87.12
238.156	87.12
238.39	75.12
238.624	66.12
238.858	72.12
239.091	80.12
239.325	78.12
239.559	79.12
239.793	65.12
240.027	91.12
240.26	86.12
240.494	87.12
240.728	83.12
240.961	66.12
241.195	75.12
241.429	86.12
241.662	79.12
241.896	85.12
242.13	76.12
242.363	93.12
242.597	81.12
242.83	75.12
243.064	83.12
243.298	101.12
243.531	91.12
243.765	73.12
243.998	81.12
244.232	87.12
244.465	86.12
244.699	86.12
244.932	81.12
245.166	94.12
245.399	85.12
245.633	82.12
245.866	86.12
246.099	83.12
246.333	89.12
246.566	82.12
246.8	83.12
247.033	73.12
247.266	83.12
247.5	76.12
247.733	81.12
247.966	92.12
248.2	87.12
248.433	87.12
248.666	84.12
248.899	104.12
249.133	80.12
249.366	90.12
249.599	83.12
249.832	99.12
250.066	104.12
250.299	94.12
250.532	79.12
250.765	84.12
250.998	77.12
251.231	70.12
251.465	88.12
251.698	89.12
251.931	85.12
252.164	83.12
252.397	76.12
252.63	86.12
252.863	65.12
253.096	91.12
253.329	87.12
253.562	95.12
253.795	87.12
254.028	94.12
254.261	87.12
254.494	95.12
254.727	82.12
254.96	79.12
255.193	87.12
255.426	77.12
255.659	87.12
255.892	103.12
256.124	91.12
256.357	94.12
256.59	82.12
256.823	78.12
257.056	91.12
257.289	95.12
257.521	81.12
257.754	78.12
257.987	84.12
258.22	94.12
258.452	95.12
258.685	81.12
258.918	95.12
259.151	91.12
259.383	94.12
259.616	84.12
259.849	72.12
260.081	87.12
260.314	95.12
260.547	83.12
260.779	93.12
261.012	96.12
261.244	83.12
261.477	103.12
261.71	73.12
261.942	97.12
262.175	76.12
262.407	87.12
262.64	92.12
262.872	89.12
263.105	93.12
263.337	93.12
263.57	93.12
263.802	83.12
264.035	99.12
264.267	92.12
264.499	82.12
264.732	80.12
264.964	88.12
265.197	99.12
265.429	84.12
265.661	91.12
265.894	81.12
266.126	103.12
266.358	91.12
266.591	92.12
266.823	80.12
267.055	88.12
267.287	98.12
267.52	87.12
267.752	85.12
267.984	97.12
268.216	89.12
268.448	102.12
268.681	98.12
268.913	103.12
269.145	97.12
269.377	103.12
269.609	88.12
269.841	109.12
270.073	84.12
270.306	95.12
270.538	95.12
270.77	99.12
271.002	94.12
271.234	91.12
271.466	102.12
271.698	91.12
271.93	96.12
272.162	98.12
272.394	109.12
272.626	89.12
272.858	96.12
273.09	97.12
273.322	91.12
273.553	87.12
273.785	94.12
274.017	85.12
274.249	101.12
274.481	92.12
274.713	92.12
274.945	108.12
275.176	109.12
275.408	95.12
275.64	107.12
275.872	91.12
276.104	101.12
276.335	98.12
276.567	92.12
276.799	95.12
277.031	88.12
277.262	97.12
277.494	101.12
277.726	103.12
277.957	86.12
278.189	86.12
278.421	100.12
278.652	85.12
278.884	90.12
279.115	94.12
279.347	89.12
279.579	107.12
279.81	98.12
280.042	86.12
280.273	91.12
280.505	99.12
280.736	97.12
280.968	107.12
281.199	96.12
281.431	95.12
281.662	93.12
281.894	107.12
282.125	93.12
282.356	97.12
282.588	87.12
282.819	103.12
283.051	92.12
283.282	104.12
283.513	109.12
283.745	95.12
283.976	103.12
284.207	100.12
284.439	88.12
284.67	101.12
284.901	91.12
285.132	81.12
285.364	102.12
285.595	116.12
285.826	99.12
286.057	106.12
286.288	97.12
286.52	100.12
286.751	91.12
286.982	106.12
287.213	90.12
287.444	100.12
287.675	103.12
287.906	99.12
288.138	96.12
288.369	100.12
288.6	94.12
288.831	97.12
289.062	97.12
289.293	108.12
289.524	105.12
289.755	89.12
289.986	86.12
290.217	114.12
290.448	105.12
290.679	104.12
290.91	113.12
291.141	108.12
291.371	97.12
291.602	105.12
291.833	84.12
292.064	116.12
292.295	112.12
292.526	95.12
292.757	110.12
292.987	93.12
293.218	113.12
293.449	104.12
293.68	101.12
293.91	99.12
294.141	116.12
294.372	107.12
294.603	102.12
294.833	102.12
295.064	105.12
295.295	96.12
295.525	105.12
295.756	99.12
295.987	96.12
296.217	112.12
296.448	91.12
296.679	96.12
296.909	106.12
297.14	111.12
297.37	108.12
297.601	107.12
297.831	105.12
298.062	100.12
298.292	113.12
298.523	118.12
298.753	112.12
298.984	122.12
299.214	98.12
299.445	104.12
299.675	102.12
299.905	100.12
300.136	93.12
300.366	80.12
300.597	93.12
300.827	103.12
301.057	112.12
301.288	103.12
301.518	108.12
301.748	107.12
301.979	123.12
302.209	102.12
302.439	112.12
302.669	99.12
302.9	112.12
303.13	106.12
303.36	108.12
303.59	110.12
303.82	96.12
304.051	100.12
304.281	110.12
304.511	96.12
304.741	114.12
304.971	94.12
305.201	101.12
305.431	118.12
305.661	96.12
305.891	108.12
306.121	101.12
306.352	110.12
306.582	93.12
306.812	116.12
307.042	103.12
307.272	96.12
307.502	111.12
307.731	108.12
307.961	101.12
308.191	103.12
308.421	101.12
308.651	106.12
308.881	102.12
309.111	111.12
309.341	98.12
309.571	101.12
309.8	113.12
310.03	91.12
310.26	96.12
310.49	104.12
310.72	87.12
310.949	93.12
311.179	97.12
311.409	104.12
311.639	97.12
311.868	109.12
312.098	112.12
312.328	105.12
312.557	113.12
312.787	98.12
313.017	106.12
313.246	110.12
313.476	108.12
313.706	104.12
313.935	107.12
314.165	111.12
314.394	105.12
314.624	106.12
314.853	93.12
315.083	109.12
315.312	116.12
315.542	99.12
315.771	107.12
316.001	106.12
316.23	118.12
316.46	96.12
316.689	100.12
316.919	105.12
317.148	118.12
317.377	114.12
317.607	104.12
317.836	102.12
318.065	108.12
318.295	99.12
318.524	93.12
318.753	115.12
318.983	105.12
319.212	110.12
319.441	104.12
319.67	114.12
319.9	102.12
320.129	117.12
320.358	102.12
320.587	103.12
320.816	104.12
321.046	100.12
321.275	106.12
321.504	109.12
321.733	103.12
321.962	113.12
322.191	104.12
322.42	105.12
322.649	100.12
322.878	109.12
323.108	94.12
323.337	112.12
323.566	109.12
323.795	129.12
324.024	115.12
324.253	103.12
324.482	105.12
324.71	108.12
324.939	109.12
325.168	108.12
325.397	116.12
325.626	106.12
325.855	122.12
326.084	123.12
326.313	125.12
326.542	109.12
326.77	111.12
326.999	116.12
327.228	107.12
327.457	116.12
327.686	121.12
327.914	125.12
328.143	112.12
328.372	112.12
328.6	91.12
328.829	105.12
329.058	113.12
329.287	102.12
329.515	111.12
329.744	116.12
329.972	105.12
330.201	104.12
330.43	113.12
330.658	109.12
330.887	98.12
331.115	95.12
331.344	127.12
331.572	107.12
331.801	112.12
332.03	113.12
332.258	95.12
332.486	113.12
332.715	117.12
332.943	110.12
333.172	111.12
333.4	116.12
333.629	128.12
333.857	125.12
334.085	140.12
334.314	115.12
334.542	96.12
334.771	118.12
334.999	116.12
335.227	113.12
335.455	125.12
335.684	119.12
335.912	116.12
336.14	101.12
336.369	112.12
336.597	122.12
336.825	119.12
337.053	109.12
337.281	107.12
337.51	113.12
337.738	116.12
337.966	112.12
338.194	114.12
338.422	97.12
338.65	110.12
338.878	113.12
339.106	113.12
339.334	117.12
339.562	92.12
339.79	121.12
340.018	101.12
340.246	113.12
340.474	114.12
340.702	103.12
340.93	118.12
341.158	107.12
341.386	108.12
341.614	115.12
341.842	113.12
342.07	112.12
342.298	112.12
342.526	113.12
342.754	110.12
342.981	111.12
343.209	109.12
343.437	140.12
343.665	123.12
343.893	115.12
344.12	113.12
344.348	125.12
344.576	110.12
344.804	107.12
345.031	99.12
345.259	103.12
345.487	120.12
345.714	109.12
345.942	109.12
346.17	100.12
346.397	112.12
346.625	119.12
346.853	110.12
347.08	108.12
347.308	101.12
347.535	121.12
347.763	118.12
347.99	123.12
348.218	110.12
348.445	110.12
348.673	109.12
348.9	124.12
349.128	108.12
349.355	101.12
349.583	103.12
349.81	105.12
350.037	104.12
350.265	106.12
350.492	119.12
350.72	107.12
350.947	98.12
351.174	107.12
351.402	105.12
351.629	101.12
351.856	117.12
352.083	112.12
352.311	121.12
352.538	108.12
352.765	112.12
352.992	113.12
353.22	113.12
353.447	97.12
353.674	111.12
353.901	111.12
354.128	107.12
354.355	94.12
354.583	110.12
354.81	114.12
355.037	103.12
355.264	116.12
355.491	103.12
355.718	90.12
355.945	127.12
356.172	102.12
356.399	111.12
356.626	98.12
356.853	111.12
357.08	105.12
357.307	120.12
357.534	118.12
357.761	112.12
357.988	135.12
358.215	100.12
358.441	114.12
358.668	101.12
358.895	98.12
359.122	127.12
359.349	103.12
359.576	111.12
359.802	103.12
360.029	106.12
360.256	105.12
360.483	94.12
360.709	99.12
360.936	115.12
361.163	114.12
361.39	108.12
361.616	103.12
361.843	104.12
362.07	121.12
362.296	114.12
362.523	103.12
362.749	99.12
362.976	98.12
363.203	119.12
363.429	108.12
363.656	111.12
363.882	117.12
364.109	106.12
364.335	113.12
364.562	99.12
364.788	98.12
365.015	109.12
365.241	126.12
365.468	113.12
365.694	95.12
365.92	109.12
366.147	111.12
366.373	100.12
366.599	101.12
366.826	97.12
367.052	115.12
367.278	115.12
367.505	110.12
367.731	128.12
367.957	110.12
368.184	97.12
368.41	106.12
368.636	101.12
368.862	103.12
369.089	112.12
369.315	111.12
369.541	119.12
369.767	111.12
369.993	114.12
370.219	117.12
370.445	93.12
370.672	93.12
370.898	102.12
371.124	107.12
371.35	106.12
371.576	110.12
371.802	102.12
372.028	114.12
372.254	118.12
372.48	95.12
372.706	127.12
372.932	112.12
373.158	103.12
373.384	125.12
373.61	111.12
373.835	116.12
374.061	109.12
374.287	131.12
374.513	117.12
374.739	125.12
374.965	109.12
375.191	110.12
375.416	114.12
375.642	119.12
375.868	125.12
376.094	133.12
376.319	112.12
376.545	106.12
376.771	92.12
376.997	97.12
377.222	96.12
377.448	113.12
377.674	111.12
377.899	113.12
378.125	95.12
378.35	128.12
378.576	115.12
378.802	119.12
379.027	105.12
379.253	114.12
379.478	105.12
379.704	104.12
379.929	115.12
380.155	112.12
380.38	107.12
380.606	112.12
380.831	123.12
381.057	123.12
381.282	104.12
381.507	98.12
381.733	115.12
381.958	117.12
382.184	122.12
382.409	115.12
382.634	134.12
382.86	111.12
383.085	114.12
383.31	103.12
383.535	129.12
383.761	101.12
383.986	134.12
384.211	104.12
384.436	114.12
384.662	113.12
384.887	124.12
385.112	115.12
385.337	115.12
385.562	117.12
385.787	126.12
386.013	119.12
386.238	131.12
386.463	112.12
386.688	152.12
386.913	119.12
387.138	125.12
387.363	103.12
387.588	119.12
387.813	130.12
388.038	136.12
388.263	130.12
388.488	125.12
388.713	125.12
388.938	112.12
389.163	98.12
389.387	113.12
389.612	122.12
389.837	112.12
390.062	108.12
390.287	122.12
390.512	117.12
390.736	119.12
390.961	124.12
391.186	133.12
391.411	120.12
391.636	120.12
391.86	132.12
392.085	119.12
392.31	127.12
392.534	110.12
392.759	110.12
392.984	119.12
393.208	139.12
393.433	126.12
393.658	130.12
393.882	123.12
394.107	121.12
394.331	119.12
394.556	127.12
394.78	123.12
395.005	118.12
395.229	117.12
395.454	134.12
395.678	111.12
395.903	130.12
396.127	135.12
396.352	129.12
396.576	122.12
396.801	113.12
397.025	125.12
397.249	125.12
397.474	142.12
397.698	137.12
397.922	126.12
398.147	117.12
398.371	123.12
398.595	123.12
398.82	128.12
399.044	137.12
399.268	143.12
399.492	151.12
399.717	164.12
399.941	141.12
400.165	159.12
400.389	131.12
400.613	145.12
400.837	121.12
401.062	120.12
401.286	141.12
401.51	133.12
401.734	116.12
401.958	125.12
402.182	121.12
402.406	112.12
402.63	132.12
402.854	133.12
403.078	139.12
403.302	133.12
403.526	136.12
403.75	135.12
403.974	133.12
404.198	146.12
404.422	148.12
404.645	135.12
404.869	133.12
405.093	152.12
405.317	131.12
405.541	124.12
405.765	141.12
405.988	121.12
406.212	137.12
406.436	128.12
406.66	130.12
406.883	134.12
407.107	144.12
407.331	130.12
407.555	144.12
407.778	151.12
408.002	136.12
408.226	146.12
408.449	119.12
408.673	149.12
408.896	133.12
409.12	122.12
409.344	162.12
409.567	132.12
409.791	120.12
410.014	141.12
410.238	123.12
410.461	132.12
410.685	133.12
410.908	134.12
411.132	143.12
411.355	127.12
411.578	141.12
411.802	125.12
412.025	130.12
412.249	134.12
412.472	147.12
412.695	140.12
412.919	151.12
413.142	124.12
413.365	119.12
413.589	130.12
413.812	131.12
414.035	144.12
414.258	126.12
414.482	112.12
414.705	140.12
414.928	126.12
415.151	134.12
415.374	132.12
415.597	113.12
415.821	137.12
416.044	128.12
416.267	149.12
416.49	139.12
416.713	123.12
416.936	134.12
417.159	132.12
417.382	135.12
417.605	104.12
417.828	121.12
418.051	128.12
418.274	127.12
418.497	113.12
418.72	117.12
418.943	154.12
419.166	129.12
419.389	139.12
419.611	132.12
419.834	132.12
420.057	124.12
420.28	121.12
420.503	127.12
420.726	126.12
420.948	134.12
421.171	116.12
421.394	128.12
421.617	126.12
421.839	127.12
422.062	131.12
422.285	128.12
422.507	115.12
422.73	123.12
422.953	135.12
423.175	126.12
423.398	128.12
423.621	128.12
423.843	142.12
424.066	134.12
424.288	143.12
424.511	141.12
424.733	150.12
424.956	132.12
425.178	128.12
425.401	117.12
425.623	126.12
425.846	130.12
426.068	111.12
426.291	123.12
426.513	119.12
426.735	125.12
426.958	134.12
427.18	135.12
427.402	134.12
427.625	126.12
427.847	126.12
428.069	125.12
428.292	118.12
428.514	124.12
428.736	126.12
428.958	132.12
429.181	136.12
429.403	132.12
429.625	109.12
429.847	117.12
430.069	126.12
430.292	136.12
430.514	116.12
430.736	133.12
430.958	124.12
431.18	126.12
431.402	113.12
431.624	114.12
431.846	126.12
432.068	118.12
432.29	121.12
432.512	123.12
432.734	120.12
432.956	116.12
433.178	126.12
433.4	113.12
433.622	126.12
433.844	126.12
434.066	123.12
434.287	123.12
434.509	135.12
434.731	124.12
434.953	126.12
435.175	141.12
435.397	135.12
435.618	129.12
435.84	122.12
436.062	135.12
436.284	148.12
436.505	117.12
436.727	130.12
436.949	138.12
437.17	112.12
437.392	136.12
437.614	128.12
437.835	109.12
438.057	119.12
438.278	131.12
438.5	121.12
438.721	131.12
438.943	124.12
439.165	123.12
439.386	123.12
439.608	130.12
439.829	119.12
440.05	105.12
440.272	121.12
440.493	119.12
440.715	136.12
440.936	141.12
441.158	130.12
441.379	123.12
441.6	127.12
441.822	130.12
442.043	136.12
442.264	130.12
442.486	127.12
442.707	116.12
442.928	134.12
443.149	131.12
443.371	146.12
443.592	117.12
443.813	124.12
444.034	118.12
444.255	139.12
444.476	139.12
444.698	137.12
444.919	153.12
445.14	394.12
445.361	255.12
445.582	133.12
445.803	129.12
446.024	123.12
446.245	126.12
446.466	131.12
446.687	111.12
446.908	119.12
447.129	140.12
447.35	117.12
447.571	119.12
447.792	121.12
448.013	107.12
448.234	120.12
448.455	120.12
448.675	128.12
448.896	122.12
449.117	119.12
449.338	125.12
449.559	127.12
449.779	125.12
450	124.12
450.221	124.12
450.442	133.12
450.662	117.12
450.883	117.12
451.104	139.12
451.324	113.12
451.545	122.12
451.766	124.12
451.986	114.12
452.207	121.12
452.428	116.12
452.648	121.12
452.869	129.12
453.089	122.12
453.31	101.12
453.53	107.12
453.751	109.12
453.971	113.12
454.192	127.12
454.412	106.12
454.633	128.12
454.853	132.12
455.073	116.12
455.294	110.12
455.514	126.12
455.734	105.12
455.955	112.12
456.175	111.12
456.395	115.12
456.616	115.12
456.836	121.12
457.056	115.12
457.276	117.12
457.497	108.12
457.717	116.12
457.937	124.12
458.157	126.12
458.377	121.12
458.598	116.12
458.818	107.12
459.038	111.12
459.258	120.12
459.478	123.12
459.698	130.12
459.918	132.12
460.138	126.12
460.358	119.12
460.578	136.12
460.798	140.12
461.018	141.12
461.238	144.12
461.458	141.12
461.678	144.12
461.898	133.12
462.118	140.12
462.338	135.12
462.558	148.12
462.777	143.12
462.997	152.12
463.217	148.12
463.437	136.12
463.657	136.12
463.876	134.12
464.096	145.12
464.316	131.12
464.536	136.12
464.755	139.12
464.975	126.12
465.195	133.12
465.414	115.12
465.634	125.12
465.854	132.12
466.073	133.12
466.293	132.12
466.512	131.12
466.732	124.12
466.951	118.12
467.171	119.12
467.391	124.12
467.61	106.12
467.829	120.12
468.049	111.12
468.268	117.12
468.488	129.12
468.707	128.12
468.927	116.12
469.146	125.12
469.365	124.12
469.585	112.12
469.804	129.12
470.023	128.12
470.243	132.12
470.462	122.12
470.681	125.12
470.901	120.12
471.12	123.12
471.339	121.12
471.558	117.12
471.777	127.12
471.997	132.12
472.216	112.12
472.435	127.12
472.654	124.12
472.873	121.12
473.092	121.12
473.311	123.12
473.53	126.12
473.749	115.12
473.968	111.12
474.187	113.12
474.406	114.12
474.625	130.12
474.844	121.12
475.063	124.12
475.282	119.12
475.501	104.12
475.72	139.12
475.939	118.12
476.158	117.12
476.377	132.12
476.596	118.12
476.814	121.12
477.033	120.12
477.252	121.12
477.471	129.12
477.69	128.12
477.908	133.12
478.127	130.12
478.346	119.12
478.564	128.12
478.783	120.12
479.002	120.12
479.22	124.12
479.439	148.12
479.658	139.12
479.876	131.12
480.095	123.12
480.313	129.12
480.532	145.12
480.751	132.12
480.969	115.12
481.188	125.12
481.406	150.12
481.624	139.12
481.843	125.12
482.061	126.12
482.28	130.12
482.498	137.12
482.717	116.12
482.935	135.12
483.153	124.12
483.372	112.12
483.59	136.12
483.808	126.12
484.027	125.12
484.245	129.12
484.463	126.12
484.681	145.12
484.9	133.12
485.118	130.12
485.336	123.12
485.554	117.12
485.772	131.12
485.99	124.12
486.209	145.12
486.427	119.12
486.645	120.12
486.863	128.12
487.081	124.12
487.299	140.12
487.517	140.12
487.735	135.12
487.953	144.12
488.171	122.12
488.389	136.12
488.607	128.12
488.825	136.12
489.043	140.12
489.261	136.12
489.479	118.12
489.696	145.12
489.914	132.12
490.132	113.12
490.35	134.12
490.568	123.12
490.786	128.12
491.003	141.12
491.221	132.12
491.439	143.12
491.657	133.12
491.874	126.12
492.092	136.12
492.31	137.12
492.527	127.12
492.745	132.12
492.963	139.12
493.18	152.12
493.398	132.12
493.615	119.12
493.833	131.12
494.05	147.12
494.268	128.12
494.485	135.12
494.703	140.12
494.92	119.12
495.138	123.12
495.355	140.12
495.573	139.12
495.79	136.12
496.008	123.12
496.225	124.12
496.442	133.12
496.66	153.12
496.877	144.12
497.094	150.12
497.312	132.12
497.529	132.12
497.746	145.12
497.963	145.12
498.181	133.12
498.398	141.12
498.615	151.12
498.832	152.12
499.049	167.12
499.267	178.12
499.484	171.12
499.701	200.12
499.918	199.12
500.135	221.12
500.352	241.12
500.569	254.12
500.786	256.12
501.003	229.12
501.22	209.12
501.437	189.12
501.654	169.12
501.871	184.12
502.088	152.12
502.305	164.12
502.522	143.12
502.739	156.12
502.956	156.12
503.172	127.12
503.389	155.12
503.606	157.12
503.823	150.12
504.04	148.12
504.256	155.12
504.473	156.12
504.69	141.12
504.907	161.12
505.123	136.12
505.34	137.12
505.557	126.12
505.773	129.12
505.99	120.12
506.207	135.12
506.423	127.12
506.64	139.12
506.856	136.12
