Data from SampD_HRD10591_00085.txt Node
Date: Mon Jan 19 11:41:50 EST 2026
User: Yrep
Spectrometer: HR+D1059
Trigger mode: 0
Integration Time (sec): 3.443000E-1
Scans to average: 1
Electric dark correction enabled: true
Nonlinearity correction enabled: false
Boxcar width: 0
XAxis mode: Wavelengths
Number of Pixels in Spectrum: 2048
>>>>>Begin Spectral Data<<<<<
223.165	-14.5
223.4	-14.5
223.635	-14.5
223.869	-32.5
224.104	-14.5
224.338	-24.5
224.573	-23.5
224.808	-9.5
225.042	-16.5
225.277	7.5
225.511	-5.5
225.746	3.5
225.98	4.5
226.215	17.5
226.449	25.5
226.683	31.5
226.918	27.5
227.152	23.5
227.387	46.5
227.621	51.5
227.856	47.5
228.09	58.5
228.324	56.5
228.559	58.5
228.793	68.5
229.027	54.5
229.262	58.5
229.496	77.5
229.73	77.5
229.964	74.5
230.199	77.5
230.433	77.5
230.667	88.5
230.901	85.5
231.136	83.5
231.37	73.5
231.604	83.5
231.838	86.5
232.072	88.5
232.306	84.5
232.541	86.5
232.775	89.5
233.009	105.5
233.243	85.5
233.477	75.5
233.711	82.5
233.945	89.5
234.179	87.5
234.413	92.5
234.647	83.5
234.881	84.5
235.115	78.5
235.349	73.5
235.583	93.5
235.817	61.5
236.051	59.5
236.285	77.5
236.519	83.5
236.753	89.5
236.987	81.5
237.221	88.5
237.455	95.5
237.689	91.5
237.922	72.5
238.156	59.5
238.39	77.5
238.624	76.5
238.858	97.5
239.091	77.5
239.325	86.5
239.559	78.5
239.793	81.5
240.027	97.5
240.26	98.5
240.494	91.5
240.728	87.5
240.961	89.5
241.195	87.5
241.429	81.5
241.662	81.5
241.896	79.5
242.13	78.5
242.363	78.5
242.597	78.5
242.83	87.5
243.064	79.5
243.298	92.5
243.531	88.5
243.765	81.5
243.998	93.5
244.232	97.5
244.465	81.5
244.699	83.5
244.932	88.5
245.166	88.5
245.399	104.5
245.633	95.5
245.866	78.5
246.099	101.5
246.333	75.5
246.566	73.5
246.8	84.5
247.033	86.5
247.266	87.5
247.5	84.5
247.733	85.5
247.966	89.5
248.2	74.5
248.433	74.5
248.666	92.5
248.899	92.5
249.133	82.5
249.366	92.5
249.599	95.5
249.832	85.5
250.066	94.5
250.299	93.5
250.532	79.5
250.765	92.5
250.998	82.5
251.231	82.5
251.465	95.5
251.698	101.5
251.931	81.5
252.164	83.5
252.397	83.5
252.63	81.5
252.863	79.5
253.096	93.5
253.329	99.5
253.562	99.5
253.795	86.5
254.028	95.5
254.261	89.5
254.494	87.5
254.727	73.5
254.96	80.5
255.193	93.5
255.426	74.5
255.659	93.5
255.892	110.5
256.124	88.5
256.357	91.5
256.59	83.5
256.823	81.5
257.056	83.5
257.289	95.5
257.521	98.5
257.754	86.5
257.987	94.5
258.22	107.5
258.452	87.5
258.685	88.5
258.918	96.5
259.151	82.5
259.383	94.5
259.616	90.5
259.849	105.5
260.081	92.5
260.314	77.5
260.547	99.5
260.779	90.5
261.012	100.5
261.244	87.5
261.477	93.5
261.71	84.5
261.942	91.5
262.175	82.5
262.407	86.5
262.64	105.5
262.872	92.5
263.105	90.5
263.337	100.5
263.57	94.5
263.802	103.5
264.035	83.5
264.267	102.5
264.499	86.5
264.732	89.5
264.964	93.5
265.197	88.5
265.429	111.5
265.661	105.5
265.894	90.5
266.126	113.5
266.358	96.5
266.591	98.5
266.823	95.5
267.055	70.5
267.287	101.5
267.52	85.5
267.752	87.5
267.984	97.5
268.216	111.5
268.448	97.5
268.681	98.5
268.913	104.5
269.145	100.5
269.377	96.5
269.609	95.5
269.841	103.5
270.073	88.5
270.306	112.5
270.538	108.5
270.77	74.5
271.002	87.5
271.234	91.5
271.466	90.5
271.698	101.5
271.93	98.5
272.162	103.5
272.394	107.5
272.626	97.5
272.858	91.5
273.09	93.5
273.322	95.5
273.553	93.5
273.785	102.5
274.017	104.5
274.249	87.5
274.481	95.5
274.713	107.5
274.945	90.5
275.176	83.5
275.408	102.5
275.64	97.5
275.872	89.5
276.104	103.5
276.335	106.5
276.567	107.5
276.799	102.5
277.031	111.5
277.262	101.5
277.494	97.5
277.726	103.5
277.957	103.5
278.189	104.5
278.421	111.5
278.652	89.5
278.884	92.5
279.115	92.5
279.347	96.5
279.579	97.5
279.81	99.5
280.042	106.5
280.273	99.5
280.505	90.5
280.736	102.5
280.968	103.5
281.199	105.5
281.431	106.5
281.662	93.5
281.894	109.5
282.125	99.5
282.356	96.5
282.588	91.5
282.819	109.5
283.051	107.5
283.282	115.5
283.513	106.5
283.745	110.5
283.976	102.5
284.207	97.5
284.439	97.5
284.67	104.5
284.901	118.5
285.132	104.5
285.364	102.5
285.595	106.5
285.826	102.5
286.057	103.5
286.288	103.5
286.52	96.5
286.751	85.5
286.982	92.5
287.213	106.5
287.444	102.5
287.675	107.5
287.906	122.5
288.138	100.5
288.369	106.5
288.6	104.5
288.831	110.5
289.062	101.5
289.293	86.5
289.524	98.5
289.755	102.5
289.986	104.5
290.217	101.5
290.448	117.5
290.679	102.5
290.91	101.5
291.141	102.5
291.371	96.5
291.602	106.5
291.833	97.5
292.064	104.5
292.295	103.5
292.526	107.5
292.757	108.5
292.987	113.5
293.218	107.5
293.449	98.5
293.68	120.5
293.91	104.5
294.141	101.5
294.372	100.5
294.603	102.5
294.833	105.5
295.064	104.5
295.295	97.5
295.525	107.5
295.756	117.5
295.987	106.5
296.217	97.5
296.448	103.5
296.679	109.5
296.909	111.5
297.14	102.5
297.37	100.5
297.601	102.5
297.831	116.5
298.062	101.5
298.292	108.5
298.523	111.5
298.753	106.5
298.984	113.5
299.214	114.5
299.445	96.5
299.675	91.5
299.905	108.5
300.136	109.5
300.366	99.5
300.597	98.5
300.827	102.5
301.057	102.5
301.288	99.5
301.518	90.5
301.748	107.5
301.979	118.5
302.209	93.5
302.439	93.5
302.669	109.5
302.9	96.5
303.13	102.5
303.36	103.5
303.59	100.5
303.82	105.5
304.051	111.5
304.281	121.5
304.511	114.5
304.741	123.5
304.971	107.5
305.201	116.5
305.431	109.5
305.661	109.5
305.891	97.5
306.121	122.5
306.352	102.5
306.582	106.5
306.812	121.5
307.042	102.5
307.272	94.5
307.502	95.5
307.731	103.5
307.961	117.5
308.191	108.5
308.421	120.5
308.651	102.5
308.881	106.5
309.111	107.5
309.341	93.5
309.571	126.5
309.8	117.5
310.03	104.5
310.26	89.5
310.49	106.5
310.72	115.5
310.949	107.5
311.179	109.5
311.409	108.5
311.639	108.5
311.868	91.5
312.098	112.5
312.328	92.5
312.557	123.5
312.787	106.5
313.017	117.5
313.246	110.5
313.476	106.5
313.706	107.5
313.935	106.5
314.165	112.5
314.394	109.5
314.624	114.5
314.853	101.5
315.083	104.5
315.312	112.5
315.542	89.5
315.771	93.5
316.001	96.5
316.23	105.5
316.46	106.5
316.689	94.5
316.919	112.5
317.148	104.5
317.377	108.5
317.607	119.5
317.836	98.5
318.065	104.5
318.295	107.5
318.524	105.5
318.753	107.5
318.983	110.5
319.212	110.5
319.441	115.5
319.67	100.5
319.9	98.5
320.129	119.5
320.358	110.5
320.587	127.5
320.816	104.5
321.046	114.5
321.275	109.5
321.504	100.5
321.733	97.5
321.962	107.5
322.191	96.5
322.42	101.5
322.649	101.5
322.878	117.5
323.108	104.5
323.337	102.5
323.566	108.5
323.795	111.5
324.024	112.5
324.253	103.5
324.482	101.5
324.71	118.5
324.939	116.5
325.168	114.5
325.397	112.5
325.626	118.5
325.855	107.5
326.084	110.5
326.313	121.5
326.542	109.5
326.77	114.5
326.999	109.5
327.228	109.5
327.457	109.5
327.686	121.5
327.914	115.5
328.143	107.5
328.372	111.5
328.6	101.5
328.829	106.5
329.058	108.5
329.287	114.5
329.515	109.5
329.744	110.5
329.972	116.5
330.201	115.5
330.43	106.5
330.658	126.5
330.887	115.5
331.115	120.5
331.344	113.5
331.572	115.5
331.801	107.5
332.03	119.5
332.258	118.5
332.486	117.5
332.715	113.5
332.943	117.5
333.172	120.5
333.4	116.5
333.629	119.5
333.857	122.5
334.085	119.5
334.314	116.5
334.542	124.5
334.771	123.5
334.999	114.5
335.227	107.5
335.455	125.5
335.684	116.5
335.912	118.5
336.14	107.5
336.369	116.5
336.597	106.5
336.825	118.5
337.053	95.5
337.281	118.5
337.51	107.5
337.738	97.5
337.966	98.5
338.194	95.5
338.422	108.5
338.65	129.5
338.878	125.5
339.106	106.5
339.334	123.5
339.562	100.5
339.79	114.5
340.018	105.5
340.246	120.5
340.474	117.5
340.702	105.5
340.93	101.5
341.158	100.5
341.386	104.5
341.614	122.5
341.842	111.5
342.07	104.5
342.298	119.5
342.526	106.5
342.754	105.5
342.981	113.5
343.209	117.5
343.437	132.5
343.665	130.5
343.893	116.5
344.12	133.5
344.348	112.5
344.576	134.5
344.804	107.5
345.031	98.5
345.259	120.5
345.487	100.5
345.714	110.5
345.942	118.5
346.17	114.5
346.397	101.5
346.625	120.5
346.853	118.5
347.08	99.5
347.308	116.5
347.535	110.5
347.763	112.5
347.99	113.5
348.218	105.5
348.445	102.5
348.673	115.5
348.9	111.5
349.128	108.5
349.355	109.5
349.583	113.5
349.81	104.5
350.037	128.5
350.265	103.5
350.492	112.5
350.72	92.5
350.947	97.5
351.174	114.5
351.402	103.5
351.629	110.5
351.856	114.5
352.083	98.5
352.311	118.5
352.538	97.5
352.765	119.5
352.992	119.5
353.22	119.5
353.447	102.5
353.674	129.5
353.901	118.5
354.128	106.5
354.355	94.5
354.583	110.5
354.81	110.5
355.037	104.5
355.264	121.5
355.491	101.5
355.718	102.5
355.945	105.5
356.172	97.5
356.399	102.5
356.626	115.5
356.853	109.5
357.08	114.5
357.307	119.5
357.534	106.5
357.761	106.5
357.988	111.5
358.215	110.5
358.441	98.5
358.668	110.5
358.895	118.5
359.122	99.5
359.349	115.5
359.576	101.5
359.802	99.5
360.029	108.5
360.256	109.5
360.483	107.5
360.709	115.5
360.936	134.5
361.163	111.5
361.39	114.5
361.616	117.5
361.843	99.5
362.07	113.5
362.296	119.5
362.523	100.5
362.749	120.5
362.976	113.5
363.203	122.5
363.429	118.5
363.656	112.5
363.882	77.5
364.109	113.5
364.335	110.5
364.562	105.5
364.788	113.5
365.015	118.5
365.241	109.5
365.468	134.5
365.694	111.5
365.92	114.5
366.147	115.5
366.373	100.5
366.599	114.5
366.826	113.5
367.052	120.5
367.278	119.5
367.505	113.5
367.731	120.5
367.957	105.5
368.184	101.5
368.41	115.5
368.636	107.5
368.862	124.5
369.089	99.5
369.315	95.5
369.541	118.5
369.767	106.5
369.993	107.5
370.219	113.5
370.445	121.5
370.672	102.5
370.898	105.5
371.124	100.5
371.35	112.5
371.576	95.5
371.802	110.5
372.028	100.5
372.254	98.5
372.48	104.5
372.706	113.5
372.932	110.5
373.158	117.5
373.384	117.5
373.61	111.5
373.835	112.5
374.061	101.5
374.287	128.5
374.513	116.5
374.739	102.5
374.965	122.5
375.191	111.5
375.416	111.5
375.642	117.5
375.868	130.5
376.094	117.5
376.319	113.5
376.545	116.5
376.771	117.5
376.997	114.5
377.222	124.5
377.448	116.5
377.674	91.5
377.899	107.5
378.125	109.5
378.35	108.5
378.576	93.5
378.802	96.5
379.027	106.5
379.253	117.5
379.478	116.5
379.704	98.5
379.929	111.5
380.155	113.5
380.38	105.5
380.606	120.5
380.831	119.5
381.057	129.5
381.282	107.5
381.507	117.5
381.733	107.5
381.958	107.5
382.184	113.5
382.409	94.5
382.634	126.5
382.86	114.5
383.085	114.5
383.31	118.5
383.535	123.5
383.761	122.5
383.986	129.5
384.211	117.5
384.436	116.5
384.662	112.5
384.887	104.5
385.112	119.5
385.337	104.5
385.562	112.5
385.787	115.5
386.013	143.5
386.238	116.5
386.463	117.5
386.688	146.5
386.913	125.5
387.138	107.5
387.363	122.5
387.588	126.5
387.813	116.5
388.038	133.5
388.263	133.5
388.488	112.5
388.713	117.5
388.938	123.5
389.163	97.5
389.387	111.5
389.612	118.5
389.837	118.5
390.062	116.5
390.287	124.5
390.512	106.5
390.736	102.5
390.961	117.5
391.186	128.5
391.411	122.5
391.636	132.5
391.86	115.5
392.085	130.5
392.31	113.5
392.534	109.5
392.759	130.5
392.984	119.5
393.208	129.5
393.433	134.5
393.658	128.5
393.882	121.5
394.107	128.5
394.331	136.5
394.556	126.5
394.78	127.5
395.005	134.5
395.229	111.5
395.454	114.5
395.678	123.5
395.903	124.5
396.127	115.5
396.352	128.5
396.576	122.5
396.801	128.5
397.025	107.5
397.249	130.5
397.474	135.5
397.698	125.5
397.922	133.5
398.147	127.5
398.371	119.5
398.595	127.5
398.82	127.5
399.044	131.5
399.268	146.5
399.492	159.5
399.717	160.5
399.941	144.5
400.165	148.5
400.389	121.5
400.613	139.5
400.837	112.5
401.062	122.5
401.286	127.5
401.51	133.5
401.734	127.5
401.958	130.5
402.182	134.5
402.406	126.5
402.63	126.5
402.854	140.5
403.078	149.5
403.302	127.5
403.526	122.5
403.75	123.5
403.974	130.5
404.198	133.5
404.422	132.5
404.645	143.5
404.869	136.5
405.093	147.5
405.317	131.5
405.541	136.5
405.765	134.5
405.988	128.5
406.212	148.5
406.436	117.5
406.66	153.5
406.883	122.5
407.107	152.5
407.331	142.5
407.555	130.5
407.778	126.5
408.002	140.5
408.226	131.5
408.449	149.5
408.673	136.5
408.896	128.5
409.12	139.5
409.344	156.5
409.567	126.5
409.791	143.5
410.014	149.5
410.238	137.5
410.461	152.5
410.685	142.5
410.908	119.5
411.132	137.5
411.355	130.5
411.578	129.5
411.802	119.5
412.025	129.5
412.249	116.5
412.472	123.5
412.695	124.5
412.919	129.5
413.142	135.5
413.365	125.5
413.589	132.5
413.812	123.5
414.035	138.5
414.258	125.5
414.482	127.5
414.705	124.5
414.928	149.5
415.151	127.5
415.374	141.5
415.597	127.5
415.821	126.5
416.044	129.5
416.267	119.5
416.49	107.5
416.713	125.5
416.936	131.5
417.159	128.5
417.382	124.5
417.605	125.5
417.828	117.5
418.051	130.5
418.274	139.5
418.497	138.5
418.72	127.5
418.943	128.5
419.166	135.5
419.389	132.5
419.611	131.5
419.834	116.5
420.057	121.5
420.28	134.5
420.503	125.5
420.726	132.5
420.948	122.5
421.171	126.5
421.394	130.5
421.617	122.5
421.839	130.5
422.062	144.5
422.285	117.5
422.507	133.5
422.73	122.5
422.953	114.5
423.175	107.5
423.398	141.5
423.621	140.5
423.843	123.5
424.066	121.5
424.288	116.5
424.511	123.5
424.733	120.5
424.956	127.5
425.178	128.5
425.401	137.5
425.623	130.5
425.846	121.5
426.068	130.5
426.291	143.5
426.513	122.5
426.735	106.5
426.958	120.5
427.18	113.5
427.402	130.5
427.625	131.5
427.847	132.5
428.069	112.5
428.292	120.5
428.514	121.5
428.736	121.5
428.958	116.5
429.181	105.5
429.403	117.5
429.625	103.5
429.847	110.5
430.069	120.5
430.292	132.5
430.514	130.5
430.736	118.5
430.958	123.5
431.18	115.5
431.402	128.5
431.624	127.5
431.846	133.5
432.068	132.5
432.29	124.5
432.512	132.5
432.734	119.5
432.956	126.5
433.178	113.5
433.4	121.5
433.622	121.5
433.844	129.5
434.066	119.5
434.287	116.5
434.509	121.5
434.731	124.5
434.953	118.5
435.175	134.5
435.397	120.5
435.618	128.5
435.84	105.5
436.062	131.5
436.284	123.5
436.505	118.5
436.727	113.5
436.949	143.5
437.17	119.5
437.392	112.5
437.614	134.5
437.835	114.5
438.057	122.5
438.278	110.5
438.5	127.5
438.721	127.5
438.943	127.5
439.165	112.5
439.386	114.5
439.608	143.5
439.829	123.5
440.05	131.5
440.272	136.5
440.493	119.5
440.715	137.5
440.936	146.5
441.158	132.5
441.379	127.5
441.6	124.5
441.822	137.5
442.043	119.5
442.264	138.5
442.486	124.5
442.707	125.5
442.928	133.5
443.149	109.5
443.371	127.5
443.592	131.5
443.813	128.5
444.034	130.5
444.255	150.5
444.476	145.5
444.698	141.5
444.919	138.5
445.14	381.5
445.361	253.5
445.582	125.5
445.803	117.5
446.024	117.5
446.245	127.5
446.466	122.5
446.687	122.5
446.908	123.5
447.129	143.5
447.35	133.5
447.571	144.5
447.792	115.5
448.013	114.5
448.234	138.5
448.455	107.5
448.675	125.5
448.896	109.5
449.117	114.5
449.338	113.5
449.559	132.5
449.779	99.5
450	117.5
450.221	125.5
450.442	131.5
450.662	109.5
450.883	123.5
451.104	134.5
451.324	114.5
451.545	114.5
451.766	120.5
451.986	122.5
452.207	107.5
452.428	109.5
452.648	120.5
452.869	128.5
453.089	120.5
453.31	111.5
453.53	121.5
453.751	127.5
453.971	116.5
454.192	114.5
454.412	119.5
454.633	115.5
454.853	115.5
455.073	109.5
455.294	111.5
455.514	121.5
455.734	115.5
455.955	119.5
456.175	117.5
456.395	114.5
456.616	106.5
456.836	118.5
457.056	119.5
457.276	111.5
457.497	113.5
457.717	117.5
457.937	99.5
458.157	105.5
458.377	118.5
458.598	116.5
458.818	112.5
459.038	119.5
459.258	119.5
459.478	121.5
459.698	122.5
459.918	120.5
460.138	122.5
460.358	150.5
460.578	130.5
460.798	123.5
461.018	116.5
461.238	138.5
461.458	128.5
461.678	138.5
461.898	134.5
462.118	126.5
462.338	121.5
462.558	137.5
462.777	118.5
462.997	154.5
463.217	146.5
463.437	144.5
463.657	152.5
463.876	132.5
464.096	153.5
464.316	141.5
464.536	159.5
464.755	144.5
464.975	121.5
465.195	125.5
465.414	143.5
465.634	117.5
465.854	128.5
466.073	113.5
466.293	123.5
466.512	115.5
466.732	116.5
466.951	107.5
467.171	114.5
467.391	132.5
467.61	127.5
467.829	115.5
468.049	128.5
468.268	117.5
468.488	127.5
468.707	131.5
468.927	120.5
469.146	125.5
469.365	114.5
469.585	120.5
469.804	134.5
470.023	114.5
470.243	136.5
470.462	130.5
470.681	116.5
470.901	120.5
471.12	117.5
471.339	127.5
471.558	113.5
471.777	122.5
471.997	104.5
472.216	123.5
472.435	119.5
472.654	117.5
472.873	126.5
473.092	135.5
473.311	111.5
473.53	126.5
473.749	116.5
473.968	110.5
474.187	121.5
474.406	98.5
474.625	122.5
474.844	114.5
475.063	116.5
475.282	128.5
475.501	111.5
475.72	125.5
475.939	101.5
476.158	117.5
476.377	116.5
476.596	119.5
476.814	124.5
477.033	118.5
477.252	119.5
477.471	118.5
477.69	132.5
477.908	118.5
478.127	141.5
478.346	132.5
478.564	133.5
478.783	115.5
479.002	135.5
479.22	122.5
479.439	121.5
479.658	136.5
479.876	128.5
480.095	125.5
480.313	138.5
480.532	133.5
480.751	134.5
480.969	133.5
481.188	120.5
481.406	134.5
481.624	114.5
481.843	112.5
482.061	110.5
482.28	125.5
482.498	117.5
482.717	129.5
482.935	127.5
483.153	121.5
483.372	140.5
483.59	130.5
483.808	106.5
484.027	126.5
484.245	125.5
484.463	135.5
484.681	150.5
484.9	142.5
485.118	120.5
485.336	132.5
485.554	127.5
485.772	110.5
485.99	125.5
486.209	137.5
486.427	113.5
486.645	119.5
486.863	127.5
487.081	130.5
487.299	133.5
487.517	112.5
487.735	125.5
487.953	142.5
488.171	151.5
488.389	126.5
488.607	124.5
488.825	126.5
489.043	123.5
489.261	133.5
489.479	135.5
489.696	138.5
489.914	126.5
490.132	133.5
490.35	124.5
490.568	119.5
490.786	122.5
491.003	121.5
491.221	134.5
491.439	130.5
491.657	122.5
491.874	135.5
492.092	139.5
492.31	141.5
492.527	136.5
492.745	133.5
492.963	142.5
493.18	134.5
493.398	127.5
493.615	126.5
493.833	129.5
494.05	138.5
494.268	125.5
494.485	121.5
494.703	131.5
494.92	138.5
495.138	121.5
495.355	133.5
495.573	143.5
495.79	126.5
496.008	131.5
496.225	138.5
496.442	148.5
496.66	157.5
496.877	131.5
497.094	136.5
497.312	142.5
497.529	134.5
497.746	130.5
497.963	125.5
498.181	147.5
498.398	160.5
498.615	144.5
498.832	153.5
499.049	154.5
499.267	183.5
499.484	177.5
499.701	206.5
499.918	201.5
500.135	237.5
500.352	243.5
500.569	238.5
500.786	239.5
501.003	202.5
501.22	225.5
501.437	192.5
501.654	183.5
501.871	169.5
502.088	147.5
502.305	163.5
502.522	150.5
502.739	147.5
502.956	141.5
503.172	135.5
503.389	132.5
503.606	138.5
503.823	139.5
504.04	142.5
504.256	151.5
504.473	141.5
504.69	160.5
504.907	148.5
505.123	128.5
505.34	129.5
505.557	134.5
505.773	124.5
505.99	137.5
506.207	118.5
506.423	121.5
506.64	124.5
506.856	125.5
507.073	132.5
507.289	126.5
507.506	134.5
507.722	130.5
507.939	125.5
508.155	140.5
508.372	116.5
508.588	121.5
508.805	121.5
509.021	128.5
509.238	116.5
509.454	120.5
509.67	119.5
509.887	110.5
510.103	116.5
510.319	111.5
510.536	114.5
510.752	113.5
510.968	105.5
511.184	116.5
511.401	104.5
511.617	113.5
511.833	121.5
512.049	128.5
512.265	129.5
512.481	124.5
512.698	141.5
512.914	129.5
513.13	119.5
513.346	105.5
513.562	115.5
513.778	128.5
513.994	117.5
514.21	103.5
514.426	129.5
514.642	128.5
514.858	138.5
515.074	130.5
515.29	131.5
515.506	112.5
515.721	127.5
515.937	136.5
516.153	111.5
516.369	126.5
516.585	129.5
516.801	116.5
517.016	144.5
517.232	129.5
517.448	135.5
517.664	138.5
517.879	141.5
518.095	141.5
518.311	139.5
518.527	128.5
518.742	129.5
518.958	138.5
519.173	144.5
519.389	127.5
519.605	133.5
519.82	126.5
520.036	126.5
520.251	125.5
520.467	115.5
520.682	130.5
520.898	123.5
521.113	128.5
521.329	118.5
521.544	123.5
521.76	121.5
521.975	111.5
522.19	127.5
522.406	113.5
522.621	119.5
522.836	137.5
523.052	134.5
523.267	137.5
523.482	121.5
523.698	118.5
523.913	111.5
524.128	101.5
524.343	114.5
