Data from SampD_HRD10591_00036.txt Node
Date: Mon Jan 19 11:41:33 EST 2026
User: Yrep
Spectrometer: HR+D1059
Trigger mode: 0
Integration Time (sec): 3.443000E-1
Scans to average: 1
Electric dark correction enabled: true
Nonlinearity correction enabled: false
Boxcar width: 0
XAxis mode: Wavelengths
Number of Pixels in Spectrum: 2048
>>>>>Begin Spectral Data<<<<<
223.165	-19.19
223.4	-19.19
223.635	-19.19
223.869	-28.19
224.104	-18.19
224.338	-6.19
224.573	-17.19
224.808	-8.19
225.042	-3.19
225.277	-0.19
225.511	-0.19
225.746	8.81
225.98	-0.19
226.215	12.81
226.449	29.81
226.683	24.81
226.918	9.81
227.152	14.81
227.387	39.81
227.621	40.81
227.856	55.81
228.09	55.81
228.324	43.81
228.559	59.81
228.793	53.81
229.027	65.81
229.262	77.81
229.496	72.81
229.73	81.81
229.964	83.81
230.199	72.81
230.433	78.81
230.667	87.81
230.901	75.81
231.136	72.81
231.37	71.81
231.604	101.81
231.838	94.81
232.072	81.81
232.306	80.81
232.541	84.81
232.775	79.81
233.009	90.81
233.243	91.81
233.477	79.81
233.711	89.81
233.945	73.81
234.179	89.81
234.413	98.81
234.647	101.81
234.881	76.81
235.115	76.81
235.349	81.81
235.583	88.81
235.817	87.81
236.051	83.81
236.285	100.81
236.519	102.81
236.753	80.81
236.987	80.81
237.221	81.81
237.455	83.81
237.689	85.81
237.922	102.81
238.156	78.81
238.39	84.81
238.624	87.81
238.858	96.81
239.091	95.81
239.325	60.81
239.559	92.81
239.793	81.81
240.027	102.81
240.26	75.81
240.494	97.81
240.728	93.81
240.961	83.81
241.195	78.81
241.429	71.81
241.662	88.81
241.896	80.81
242.13	92.81
242.363	89.81
242.597	95.81
242.83	95.81
243.064	84.81
243.298	83.81
243.531	84.81
243.765	95.81
243.998	92.81
244.232	107.81
244.465	83.81
244.699	100.81
244.932	87.81
245.166	81.81
245.399	102.81
245.633	93.81
245.866	85.81
246.099	90.81
246.333	96.81
246.566	93.81
246.8	99.81
247.033	89.81
247.266	88.81
247.5	97.81
247.733	102.81
247.966	107.81
248.2	91.81
248.433	74.81
248.666	82.81
248.899	89.81
249.133	89.81
249.366	87.81
249.599	100.81
249.832	101.81
250.066	94.81
250.299	97.81
250.532	108.81
250.765	96.81
250.998	100.81
251.231	87.81
251.465	103.81
251.698	100.81
251.931	93.81
252.164	87.81
252.397	93.81
252.63	93.81
252.863	102.81
253.096	104.81
253.329	87.81
253.562	97.81
253.795	90.81
254.028	110.81
254.261	109.81
254.494	89.81
254.727	94.81
254.96	91.81
255.193	88.81
255.426	95.81
255.659	93.81
255.892	95.81
256.124	92.81
256.357	89.81
256.59	95.81
256.823	87.81
257.056	88.81
257.289	94.81
257.521	102.81
257.754	97.81
257.987	95.81
258.22	105.81
258.452	108.81
258.685	102.81
258.918	107.81
259.151	110.81
259.383	102.81
259.616	90.81
259.849	96.81
260.081	89.81
260.314	109.81
260.547	104.81
260.779	97.81
261.012	100.81
261.244	99.81
261.477	113.81
261.71	110.81
261.942	82.81
262.175	99.81
262.407	101.81
262.64	104.81
262.872	98.81
263.105	101.81
263.337	113.81
263.57	113.81
263.802	116.81
264.035	104.81
264.267	85.81
264.499	98.81
264.732	113.81
264.964	96.81
265.197	105.81
265.429	105.81
265.661	105.81
265.894	111.81
266.126	104.81
266.358	107.81
266.591	100.81
266.823	111.81
267.055	103.81
267.287	89.81
267.52	88.81
267.752	113.81
267.984	104.81
268.216	106.81
268.448	96.81
268.681	123.81
268.913	107.81
269.145	110.81
269.377	116.81
269.609	101.81
269.841	111.81
270.073	107.81
270.306	93.81
270.538	107.81
270.77	110.81
271.002	102.81
271.234	114.81
271.466	99.81
271.698	101.81
271.93	110.81
272.162	90.81
272.394	106.81
272.626	103.81
272.858	111.81
273.09	118.81
273.322	99.81
273.553	105.81
273.785	110.81
274.017	122.81
274.249	116.81
274.481	89.81
274.713	102.81
274.945	109.81
275.176	91.81
275.408	117.81
275.64	117.81
275.872	105.81
276.104	113.81
276.335	105.81
276.567	123.81
276.799	118.81
277.031	111.81
277.262	106.81
277.494	115.81
277.726	135.81
277.957	116.81
278.189	109.81
278.421	105.81
278.652	121.81
278.884	113.81
279.115	108.81
279.347	101.81
279.579	108.81
279.81	122.81
280.042	113.81
280.273	116.81
280.505	116.81
280.736	117.81
280.968	124.81
281.199	119.81
281.431	116.81
281.662	119.81
281.894	111.81
282.125	102.81
282.356	118.81
282.588	110.81
282.819	125.81
283.051	126.81
283.282	92.81
283.513	135.81
283.745	120.81
283.976	133.81
284.207	109.81
284.439	137.81
284.67	125.81
284.901	127.81
285.132	115.81
285.364	115.81
285.595	116.81
285.826	120.81
286.057	128.81
286.288	116.81
286.52	113.81
286.751	112.81
286.982	123.81
287.213	124.81
287.444	128.81
287.675	121.81
287.906	118.81
288.138	114.81
288.369	120.81
288.6	137.81
288.831	120.81
289.062	127.81
289.293	133.81
289.524	151.81
289.755	132.81
289.986	118.81
290.217	116.81
290.448	116.81
290.679	113.81
290.91	119.81
291.141	121.81
291.371	136.81
291.602	119.81
291.833	118.81
292.064	109.81
292.295	114.81
292.526	122.81
292.757	134.81
292.987	114.81
293.218	132.81
293.449	122.81
293.68	135.81
293.91	120.81
294.141	124.81
294.372	115.81
294.603	112.81
294.833	113.81
295.064	114.81
295.295	123.81
295.525	121.81
295.756	141.81
295.987	132.81
296.217	109.81
296.448	135.81
296.679	125.81
296.909	122.81
297.14	136.81
297.37	124.81
297.601	128.81
297.831	125.81
298.062	132.81
298.292	118.81
298.523	124.81
298.753	122.81
298.984	137.81
299.214	130.81
299.445	144.81
299.675	113.81
299.905	117.81
300.136	125.81
300.366	126.81
300.597	132.81
300.827	133.81
301.057	120.81
301.288	115.81
301.518	120.81
301.748	128.81
301.979	175.81
302.209	114.81
302.439	121.81
302.669	137.81
302.9	123.81
303.13	130.81
303.36	136.81
303.59	127.81
303.82	143.81
304.051	143.81
304.281	130.81
304.511	132.81
304.741	129.81
304.971	128.81
305.201	156.81
305.431	133.81
305.661	126.81
305.891	118.81
306.121	143.81
306.352	117.81
306.582	130.81
306.812	124.81
307.042	124.81
307.272	120.81
307.502	112.81
307.731	144.81
307.961	128.81
308.191	133.81
308.421	126.81
308.651	114.81
308.881	125.81
309.111	113.81
309.341	125.81
309.571	126.81
309.8	124.81
310.03	115.81
310.26	115.81
310.49	136.81
310.72	131.81
310.949	128.81
311.179	109.81
311.409	124.81
311.639	120.81
311.868	120.81
312.098	144.81
312.328	134.81
312.557	120.81
312.787	129.81
313.017	132.81
313.246	128.81
313.476	136.81
313.706	130.81
313.935	134.81
314.165	125.81
314.394	160.81
314.624	139.81
314.853	136.81
315.083	134.81
315.312	124.81
315.542	126.81
315.771	135.81
316.001	137.81
316.23	124.81
316.46	141.81
316.689	136.81
316.919	125.81
317.148	126.81
317.377	136.81
317.607	145.81
317.836	134.81
318.065	123.81
318.295	115.81
318.524	141.81
318.753	125.81
318.983	121.81
319.212	144.81
319.441	119.81
319.67	128.81
319.9	128.81
320.129	146.81
320.358	128.81
320.587	131.81
320.816	133.81
321.046	118.81
321.275	151.81
321.504	123.81
321.733	126.81
321.962	121.81
322.191	127.81
322.42	137.81
322.649	131.81
322.878	145.81
323.108	141.81
323.337	132.81
323.566	135.81
323.795	118.81
324.024	118.81
324.253	131.81
324.482	130.81
324.71	126.81
324.939	141.81
325.168	121.81
325.397	127.81
325.626	153.81
325.855	139.81
326.084	129.81
326.313	140.81
326.542	130.81
326.77	130.81
326.999	141.81
327.228	126.81
327.457	136.81
327.686	139.81
327.914	148.81
328.143	159.81
328.372	145.81
328.6	152.81
328.829	147.81
329.058	129.81
329.287	128.81
329.515	133.81
329.744	163.81
329.972	135.81
330.201	139.81
330.43	157.81
330.658	142.81
330.887	129.81
331.115	159.81
331.344	133.81
331.572	134.81
331.801	128.81
332.03	144.81
332.258	142.81
332.486	143.81
332.715	164.81
332.943	155.81
333.172	155.81
333.4	163.81
333.629	144.81
333.857	161.81
334.085	172.81
334.314	144.81
334.542	153.81
334.771	165.81
334.999	150.81
335.227	152.81
335.455	136.81
335.684	168.81
335.912	152.81
336.14	169.81
336.369	149.81
336.597	156.81
336.825	157.81
337.053	136.81
337.281	144.81
337.51	155.81
337.738	148.81
337.966	143.81
338.194	151.81
338.422	134.81
338.65	145.81
338.878	151.81
339.106	148.81
339.334	147.81
339.562	135.81
339.79	142.81
340.018	147.81
340.246	135.81
340.474	140.81
340.702	133.81
340.93	155.81
341.158	144.81
341.386	135.81
341.614	143.81
341.842	147.81
342.07	147.81
342.298	150.81
342.526	141.81
342.754	151.81
342.981	153.81
343.209	129.81
343.437	164.81
343.665	136.81
343.893	161.81
344.12	174.81
344.348	143.81
344.576	134.81
344.804	141.81
345.031	130.81
345.259	148.81
345.487	152.81
345.714	136.81
345.942	124.81
346.17	141.81
346.397	137.81
346.625	144.81
346.853	135.81
347.08	125.81
347.308	155.81
347.535	141.81
347.763	138.81
347.99	153.81
348.218	138.81
348.445	148.81
348.673	129.81
348.9	131.81
349.128	136.81
349.355	147.81
349.583	155.81
349.81	142.81
350.037	132.81
350.265	130.81
350.492	129.81
350.72	130.81
350.947	139.81
351.174	139.81
351.402	139.81
351.629	139.81
351.856	135.81
352.083	122.81
352.311	130.81
352.538	125.81
352.765	120.81
352.992	136.81
353.22	137.81
353.447	139.81
353.674	129.81
353.901	129.81
354.128	129.81
354.355	143.81
354.583	150.81
354.81	119.81
355.037	154.81
355.264	143.81
355.491	131.81
355.718	128.81
355.945	141.81
356.172	142.81
356.399	125.81
356.626	129.81
356.853	133.81
357.08	129.81
357.307	161.81
357.534	137.81
357.761	134.81
357.988	143.81
358.215	147.81
358.441	126.81
358.668	123.81
358.895	137.81
359.122	140.81
359.349	137.81
359.576	150.81
359.802	133.81
360.029	152.81
360.256	151.81
360.483	125.81
360.709	131.81
360.936	155.81
361.163	138.81
361.39	137.81
361.616	128.81
361.843	136.81
362.07	136.81
362.296	129.81
362.523	124.81
362.749	138.81
362.976	135.81
363.203	131.81
363.429	135.81
363.656	133.81
363.882	142.81
364.109	166.81
364.335	134.81
364.562	145.81
364.788	131.81
365.015	140.81
365.241	121.81
365.468	143.81
365.694	128.81
365.92	139.81
366.147	155.81
366.373	132.81
366.599	132.81
366.826	135.81
367.052	131.81
367.278	126.81
367.505	139.81
367.731	159.81
367.957	138.81
368.184	147.81
368.41	135.81
368.636	144.81
368.862	134.81
369.089	127.81
369.315	133.81
369.541	145.81
369.767	143.81
369.993	134.81
370.219	148.81
370.445	139.81
370.672	155.81
370.898	143.81
371.124	160.81
371.35	141.81
371.576	145.81
371.802	121.81
372.028	135.81
372.254	134.81
372.48	156.81
372.706	133.81
372.932	129.81
373.158	153.81
373.384	165.81
373.61	139.81
373.835	159.81
374.061	136.81
374.287	141.81
374.513	132.81
374.739	131.81
374.965	140.81
375.191	140.81
375.416	149.81
375.642	143.81
375.868	162.81
376.094	166.81
376.319	142.81
376.545	139.81
376.771	131.81
376.997	138.81
377.222	136.81
377.448	134.81
377.674	157.81
377.899	145.81
378.125	142.81
378.35	139.81
378.576	140.81
378.802	149.81
379.027	141.81
379.253	145.81
379.478	133.81
379.704	136.81
379.929	143.81
380.155	127.81
380.38	133.81
380.606	137.81
380.831	142.81
381.057	136.81
381.282	145.81
381.507	139.81
381.733	134.81
381.958	144.81
382.184	139.81
382.409	145.81
382.634	158.81
382.86	143.81
383.085	164.81
383.31	165.81
383.535	149.81
383.761	168.81
383.986	153.81
384.211	155.81
384.436	159.81
384.662	147.81
384.887	171.81
385.112	175.81
385.337	161.81
385.562	159.81
385.787	152.81
386.013	153.81
386.238	168.81
386.463	169.81
386.688	188.81
386.913	155.81
387.138	147.81
387.363	150.81
387.588	159.81
387.813	166.81
388.038	162.81
388.263	163.81
388.488	170.81
388.713	137.81
388.938	146.81
389.163	162.81
389.387	156.81
389.612	151.81
389.837	168.81
390.062	159.81
390.287	163.81
390.512	179.81
390.736	164.81
390.961	155.81
391.186	152.81
391.411	137.81
391.636	150.81
391.86	176.81
392.085	182.81
392.31	174.81
392.534	173.81
392.759	157.81
392.984	164.81
393.208	164.81
393.433	169.81
393.658	182.81
393.882	163.81
394.107	168.81
394.331	185.81
394.556	160.81
394.78	166.81
395.005	162.81
395.229	154.81
395.454	175.81
395.678	176.81
395.903	177.81
396.127	177.81
396.352	170.81
396.576	175.81
396.801	157.81
397.025	172.81
397.249	169.81
397.474	187.81
397.698	183.81
397.922	167.81
398.147	160.81
398.371	171.81
398.595	180.81
398.82	172.81
399.044	188.81
399.268	211.81
399.492	226.81
399.717	251.81
399.941	227.81
400.165	209.81
400.389	197.81
400.613	187.81
400.837	179.81
401.062	188.81
401.286	168.81
401.51	160.81
401.734	199.81
401.958	191.81
402.182	166.81
402.406	176.81
402.63	180.81
402.854	202.81
403.078	185.81
403.302	194.81
403.526	184.81
403.75	199.81
403.974	210.81
404.198	215.81
404.422	214.81
404.645	204.81
404.869	182.81
405.093	200.81
405.317	204.81
405.541	188.81
405.765	184.81
405.988	175.81
406.212	183.81
406.436	193.81
406.66	215.81
406.883	195.81
407.107	191.81
407.331	220.81
407.555	212.81
407.778	208.81
408.002	211.81
408.226	198.81
408.449	208.81
408.673	203.81
408.896	196.81
409.12	175.81
409.344	197.81
409.567	216.81
409.791	188.81
410.014	204.81
410.238	199.81
410.461	188.81
410.685	203.81
410.908	193.81
411.132	199.81
411.355	194.81
411.578	196.81
411.802	187.81
412.025	192.81
412.249	192.81
412.472	196.81
412.695	174.81
412.919	170.81
413.142	184.81
413.365	174.81
413.589	177.81
413.812	181.81
414.035	195.81
414.258	191.81
414.482	180.81
414.705	179.81
414.928	183.81
415.151	191.81
415.374	177.81
415.597	188.81
415.821	182.81
416.044	184.81
416.267	181.81
416.49	173.81
416.713	191.81
416.936	181.81
417.159	190.81
417.382	168.81
417.605	179.81
417.828	184.81
418.051	173.81
418.274	173.81
418.497	198.81
418.72	184.81
418.943	207.81
419.166	199.81
419.389	199.81
419.611	189.81
419.834	183.81
420.057	212.81
420.28	183.81
420.503	190.81
420.726	180.81
420.948	181.81
421.171	181.81
421.394	190.81
421.617	177.81
421.839	171.81
422.062	185.81
422.285	183.81
422.507	172.81
422.73	176.81
422.953	184.81
423.175	202.81
423.398	181.81
423.621	207.81
423.843	180.81
424.066	203.81
424.288	195.81
424.511	192.81
424.733	197.81
424.956	189.81
425.178	189.81
425.401	176.81
425.623	186.81
425.846	190.81
426.068	199.81
426.291	183.81
426.513	149.81
426.735	168.81
426.958	177.81
427.18	169.81
427.402	175.81
427.625	169.81
427.847	147.81
428.069	188.81
428.292	179.81
428.514	172.81
428.736	152.81
428.958	169.81
429.181	180.81
429.403	165.81
429.625	174.81
429.847	155.81
430.069	183.81
430.292	184.81
430.514	156.81
430.736	161.81
430.958	164.81
431.18	162.81
431.402	160.81
431.624	169.81
431.846	173.81
432.068	183.81
432.29	179.81
432.512	198.81
432.734	177.81
432.956	176.81
433.178	181.81
433.4	185.81
433.622	175.81
433.844	172.81
434.066	187.81
434.287	171.81
434.509	174.81
434.731	193.81
434.953	201.81
435.175	194.81
435.397	185.81
435.618	179.81
435.84	172.81
436.062	180.81
436.284	177.81
436.505	176.81
436.727	169.81
436.949	170.81
437.17	179.81
437.392	152.81
437.614	173.81
437.835	175.81
438.057	155.81
438.278	167.81
438.5	173.81
438.721	184.81
438.943	180.81
439.165	171.81
439.386	174.81
439.608	168.81
439.829	173.81
440.05	192.81
440.272	190.81
440.493	175.81
440.715	181.81
440.936	198.81
441.158	190.81
441.379	184.81
441.6	215.81
441.822	183.81
442.043	190.81
442.264	189.81
442.486	194.81
442.707	186.81
442.928	188.81
443.149	186.81
443.371	197.81
443.592	193.81
443.813	188.81
444.034	181.81
444.255	193.81
444.476	194.81
444.698	207.81
444.919	218.81
445.14	439.81
445.361	318.81
445.582	188.81
445.803	179.81
446.024	195.81
446.245	180.81
446.466	179.81
446.687	169.81
446.908	173.81
447.129	168.81
447.35	173.81
447.571	172.81
447.792	156.81
448.013	169.81
448.234	161.81
448.455	161.81
448.675	160.81
448.896	181.81
449.117	169.81
449.338	142.81
449.559	176.81
449.779	142.81
450	168.81
450.221	164.81
450.442	179.81
450.662	156.81
450.883	169.81
451.104	181.81
451.324	174.81
451.545	167.81
451.766	171.81
451.986	129.81
452.207	159.81
452.428	175.81
452.648	181.81
452.869	168.81
453.089	168.81
453.31	158.81
453.53	160.81
453.751	161.81
453.971	159.81
454.192	164.81
454.412	167.81
454.633	161.81
454.853	168.81
455.073	157.81
455.294	152.81
455.514	173.81
455.734	163.81
455.955	150.81
456.175	151.81
456.395	150.81
456.616	146.81
456.836	167.81
457.056	175.81
457.276	139.81
457.497	167.81
457.717	169.81
457.937	148.81
458.157	166.81
458.377	145.81
458.598	145.81
458.818	158.81
459.038	171.81
459.258	192.81
459.478	169.81
459.698	163.81
459.918	166.81
460.138	182.81
460.358	189.81
460.578	188.81
460.798	208.81
461.018	203.81
461.238	199.81
461.458	195.81
461.678	165.81
461.898	197.81
462.118	184.81
462.338	195.81
462.558	208.81
462.777	211.81
462.997	223.81
463.217	239.81
463.437	239.81
463.657	212.81
463.876	229.81
464.096	226.81
464.316	223.81
464.536	206.81
464.755	200.81
464.975	198.81
465.195	200.81
465.414	189.81
465.634	187.81
465.854	180.81
466.073	187.81
466.293	175.81
466.512	162.81
466.732	159.81
466.951	166.81
467.171	165.81
467.391	175.81
467.61	157.81
467.829	153.81
468.049	162.81
468.268	161.81
468.488	164.81
468.707	170.81
468.927	158.81
469.146	155.81
469.365	187.81
469.585	167.81
469.804	176.81
470.023	166.81
470.243	178.81
470.462	200.81
470.681	178.81
470.901	173.81
471.12	172.81
471.339	184.81
471.558	169.81
471.777	168.81
471.997	169.81
472.216	151.81
472.435	169.81
472.654	164.81
472.873	175.81
473.092	174.81
473.311	173.81
473.53	145.81
473.749	168.81
473.968	175.81
474.187	167.81
474.406	171.81
474.625	158.81
474.844	165.81
475.063	169.81
475.282	153.81
475.501	159.81
475.72	189.81
475.939	168.81
476.158	174.81
476.377	177.81
476.596	165.81
476.814	167.81
477.033	169.81
477.252	161.81
477.471	165.81
477.69	176.81
477.908	173.81
478.127	189.81
478.346	173.81
478.564	180.81
478.783	181.81
479.002	180.81
479.22	183.81
479.439	176.81
479.658	187.81
479.876	167.81
480.095	187.81
480.313	189.81
480.532	213.81
480.751	191.81
480.969	178.81
481.188	175.81
481.406	193.81
481.624	177.81
481.843	183.81
482.061	174.81
482.28	179.81
482.498	180.81
482.717	184.81
482.935	185.81
483.153	180.81
483.372	183.81
483.59	176.81
483.808	180.81
484.027	175.81
484.245	170.81
484.463	171.81
484.681	178.81
484.9	179.81
485.118	180.81
485.336	192.81
485.554	196.81
485.772	189.81
485.99	188.81
486.209	195.81
486.427	175.81
486.645	181.81
486.863	172.81
487.081	200.81
487.299	184.81
487.517	187.81
487.735	185.81
487.953	203.81
488.171	190.81
488.389	201.81
488.607	177.81
488.825	180.81
489.043	182.81
489.261	180.81
489.479	192.81
489.696	192.81
489.914	170.81
490.132	181.81
490.35	182.81
490.568	173.81
490.786	179.81
491.003	198.81
491.221	197.81
491.439	182.81
491.657	182.81
491.874	203.81
492.092	191.81
492.31	203.81
492.527	188.81
492.745	196.81
492.963	192.81
493.18	194.81
493.398	202.81
493.615	181.81
493.833	184.81
494.05	196.81
494.268	211.81
494.485	187.81
494.703	187.81
494.92	204.81
495.138	197.81
495.355	212.81
495.573	206.81
495.79	193.81
496.008	193.81
496.225	201.81
496.442	192.81
496.66	212.81
496.877	204.81
497.094	212.81
497.312	203.81
497.529	207.81
497.746	208.81
497.963	199.81
498.181	213.81
498.398	236.81
498.615	236.81
498.832	231.81
499.049	263.81
499.267	271.81
499.484	275.81
499.701	313.81
499.918	337.81
500.135	404.81
500.352	441.81
500.569	423.81
500.786	434.81
501.003	365.81
501.22	358.81
501.437	313.81
501.654	278.81
501.871	287.81
502.088	249.81
502.305	242.81
502.522	249.81
502.739	223.81
502.956	215.81
503.172	217.81
503.389	215.81
503.606	204.81
503.823	213.81
504.04	208.81
504.256	203.81
504.473	215.81
