Data from SampD_HRD10591_00049.txt Node
Date: Mon Jan 19 11:41:37 EST 2026
User: Yrep
Spectrometer: HR+D1059
Trigger mode: 0
Integration Time (sec): 3.443000E-1
Scans to average: 1
Electric dark correction enabled: true
Nonlinearity correction enabled: false
Boxcar width: 0
XAxis mode: Wavelengths
Number of Pixels in Spectrum: 2048
>>>>>Begin Spectral Data<<<<<
223.165	-18.5
223.4	-18.5
223.635	-18.5
223.869	-33.5
224.104	-24.5
224.338	-18.5
224.573	-21.5
224.808	-19.5
225.042	4.5
225.277	-11.5
225.511	-11.5
225.746	16.5
225.98	17.5
226.215	15.5
226.449	13.5
226.683	33.5
226.918	21.5
227.152	36.5
227.387	27.5
227.621	25.5
227.856	37.5
228.09	39.5
228.324	51.5
228.559	48.5
228.793	61.5
229.027	80.5
229.262	66.5
229.496	65.5
229.73	74.5
229.964	75.5
230.199	73.5
230.433	77.5
230.667	87.5
230.901	78.5
231.136	79.5
231.37	69.5
231.604	83.5
231.838	75.5
232.072	88.5
232.306	84.5
232.541	70.5
232.775	78.5
233.009	61.5
233.243	81.5
233.477	83.5
233.711	91.5
233.945	92.5
234.179	79.5
234.413	72.5
234.647	90.5
234.881	87.5
235.115	85.5
235.349	80.5
235.583	82.5
235.817	76.5
236.051	78.5
236.285	80.5
236.519	77.5
236.753	69.5
236.987	76.5
237.221	69.5
237.455	96.5
237.689	62.5
237.922	73.5
238.156	81.5
238.39	83.5
238.624	91.5
238.858	83.5
239.091	85.5
239.325	82.5
239.559	66.5
239.793	84.5
240.027	83.5
240.26	79.5
240.494	100.5
240.728	81.5
240.961	79.5
241.195	85.5
241.429	84.5
241.662	70.5
241.896	77.5
242.13	83.5
242.363	75.5
242.597	91.5
242.83	88.5
243.064	85.5
243.298	92.5
243.531	66.5
243.765	89.5
243.998	71.5
244.232	94.5
244.465	86.5
244.699	70.5
244.932	90.5
245.166	82.5
245.399	95.5
245.633	85.5
245.866	78.5
246.099	93.5
246.333	79.5
246.566	89.5
246.8	84.5
247.033	74.5
247.266	77.5
247.5	81.5
247.733	81.5
247.966	79.5
248.2	81.5
248.433	77.5
248.666	73.5
248.899	84.5
249.133	83.5
249.366	81.5
249.599	63.5
249.832	70.5
250.066	97.5
250.299	85.5
250.532	81.5
250.765	98.5
250.998	91.5
251.231	90.5
251.465	90.5
251.698	82.5
251.931	79.5
252.164	96.5
252.397	64.5
252.63	82.5
252.863	77.5
253.096	97.5
253.329	97.5
253.562	88.5
253.795	98.5
254.028	74.5
254.261	84.5
254.494	84.5
254.727	93.5
254.96	84.5
255.193	79.5
255.426	86.5
255.659	81.5
255.892	82.5
256.124	77.5
256.357	91.5
256.59	85.5
256.823	85.5
257.056	87.5
257.289	82.5
257.521	94.5
257.754	86.5
257.987	83.5
258.22	92.5
258.452	90.5
258.685	89.5
258.918	95.5
259.151	80.5
259.383	89.5
259.616	75.5
259.849	81.5
260.081	82.5
260.314	83.5
260.547	73.5
260.779	98.5
261.012	90.5
261.244	104.5
261.477	108.5
261.71	94.5
261.942	92.5
262.175	89.5
262.407	83.5
262.64	88.5
262.872	92.5
263.105	93.5
263.337	100.5
263.57	79.5
263.802	84.5
264.035	91.5
264.267	81.5
264.499	85.5
264.732	97.5
264.964	89.5
265.197	87.5
265.429	83.5
265.661	80.5
265.894	97.5
266.126	95.5
266.358	86.5
266.591	94.5
266.823	88.5
267.055	86.5
267.287	97.5
267.52	91.5
267.752	93.5
267.984	102.5
268.216	98.5
268.448	90.5
268.681	106.5
268.913	99.5
269.145	89.5
269.377	94.5
269.609	91.5
269.841	98.5
270.073	92.5
270.306	106.5
270.538	97.5
270.77	85.5
271.002	98.5
271.234	94.5
271.466	101.5
271.698	99.5
271.93	103.5
272.162	94.5
272.394	97.5
272.626	93.5
272.858	83.5
273.09	97.5
273.322	92.5
273.553	93.5
273.785	86.5
274.017	90.5
274.249	96.5
274.481	93.5
274.713	101.5
274.945	90.5
275.176	92.5
275.408	86.5
275.64	102.5
275.872	85.5
276.104	86.5
276.335	71.5
276.567	93.5
276.799	81.5
277.031	73.5
277.262	85.5
277.494	102.5
277.726	95.5
277.957	87.5
278.189	89.5
278.421	103.5
278.652	84.5
278.884	73.5
279.115	88.5
279.347	87.5
279.579	73.5
279.81	92.5
280.042	108.5
280.273	89.5
280.505	93.5
280.736	94.5
280.968	101.5
281.199	94.5
281.431	94.5
281.662	83.5
281.894	100.5
282.125	93.5
282.356	97.5
282.588	104.5
282.819	90.5
283.051	84.5
283.282	89.5
283.513	100.5
283.745	95.5
283.976	111.5
284.207	97.5
284.439	78.5
284.67	96.5
284.901	92.5
285.132	95.5
285.364	85.5
285.595	94.5
285.826	93.5
286.057	108.5
286.288	94.5
286.52	94.5
286.751	103.5
286.982	107.5
287.213	96.5
287.444	99.5
287.675	103.5
287.906	101.5
288.138	99.5
288.369	107.5
288.6	104.5
288.831	94.5
289.062	117.5
289.293	107.5
289.524	100.5
289.755	99.5
289.986	111.5
290.217	96.5
290.448	95.5
290.679	94.5
290.91	125.5
291.141	93.5
291.371	97.5
291.602	115.5
291.833	93.5
292.064	96.5
292.295	101.5
292.526	99.5
292.757	109.5
292.987	104.5
293.218	109.5
293.449	101.5
293.68	102.5
293.91	91.5
294.141	102.5
294.372	98.5
294.603	100.5
294.833	98.5
295.064	106.5
295.295	93.5
295.525	105.5
295.756	111.5
295.987	110.5
296.217	100.5
296.448	105.5
296.679	101.5
296.909	132.5
297.14	120.5
297.37	111.5
297.601	113.5
297.831	97.5
298.062	107.5
298.292	101.5
298.523	104.5
298.753	101.5
298.984	100.5
299.214	104.5
299.445	106.5
299.675	105.5
299.905	116.5
300.136	97.5
300.366	81.5
300.597	93.5
300.827	99.5
301.057	106.5
301.288	129.5
301.518	97.5
301.748	116.5
301.979	148.5
302.209	102.5
302.439	98.5
302.669	108.5
302.9	99.5
303.13	106.5
303.36	104.5
303.59	97.5
303.82	103.5
304.051	105.5
304.281	105.5
304.511	108.5
304.741	94.5
304.971	93.5
305.201	100.5
305.431	97.5
305.661	97.5
305.891	112.5
306.121	109.5
306.352	110.5
306.582	103.5
306.812	110.5
307.042	98.5
307.272	100.5
307.502	111.5
307.731	104.5
307.961	90.5
308.191	106.5
308.421	116.5
308.651	103.5
308.881	109.5
309.111	111.5
309.341	91.5
309.571	94.5
309.8	99.5
310.03	103.5
310.26	83.5
310.49	91.5
310.72	106.5
310.949	111.5
311.179	103.5
311.409	101.5
311.639	92.5
311.868	96.5
312.098	105.5
312.328	105.5
312.557	103.5
312.787	108.5
313.017	109.5
313.246	111.5
313.476	89.5
313.706	113.5
313.935	105.5
314.165	111.5
314.394	112.5
314.624	105.5
314.853	122.5
315.083	118.5
315.312	116.5
315.542	106.5
315.771	94.5
316.001	107.5
316.23	107.5
316.46	98.5
316.689	102.5
316.919	93.5
317.148	111.5
317.377	113.5
317.607	120.5
317.836	105.5
318.065	110.5
318.295	99.5
318.524	89.5
318.753	100.5
318.983	106.5
319.212	102.5
319.441	87.5
319.67	101.5
319.9	107.5
320.129	107.5
320.358	113.5
320.587	111.5
320.816	100.5
321.046	111.5
321.275	117.5
321.504	110.5
321.733	103.5
321.962	106.5
322.191	122.5
322.42	108.5
322.649	104.5
322.878	107.5
323.108	122.5
323.337	115.5
323.566	103.5
323.795	105.5
324.024	107.5
324.253	112.5
324.482	110.5
324.71	126.5
324.939	111.5
325.168	109.5
325.397	85.5
325.626	123.5
325.855	107.5
326.084	92.5
326.313	104.5
326.542	106.5
326.77	87.5
326.999	102.5
327.228	117.5
327.457	108.5
327.686	119.5
327.914	129.5
328.143	133.5
328.372	86.5
328.6	100.5
328.829	98.5
329.058	125.5
329.287	108.5
329.515	110.5
329.744	128.5
329.972	103.5
330.201	100.5
330.43	119.5
330.658	103.5
330.887	98.5
331.115	130.5
331.344	100.5
331.572	116.5
331.801	126.5
332.03	108.5
332.258	113.5
332.486	106.5
332.715	123.5
332.943	113.5
333.172	123.5
333.4	124.5
333.629	112.5
333.857	117.5
334.085	119.5
334.314	110.5
334.542	117.5
334.771	113.5
334.999	117.5
335.227	123.5
335.455	117.5
335.684	120.5
335.912	110.5
336.14	123.5
336.369	108.5
336.597	102.5
336.825	105.5
337.053	113.5
337.281	109.5
337.51	107.5
337.738	112.5
337.966	103.5
338.194	110.5
338.422	109.5
338.65	113.5
338.878	114.5
339.106	112.5
339.334	115.5
339.562	102.5
339.79	115.5
340.018	99.5
340.246	99.5
340.474	109.5
340.702	96.5
340.93	110.5
341.158	109.5
341.386	109.5
341.614	109.5
341.842	94.5
342.07	115.5
342.298	109.5
342.526	111.5
342.754	111.5
342.981	108.5
343.209	110.5
343.437	130.5
343.665	109.5
343.893	105.5
344.12	119.5
344.348	118.5
344.576	110.5
344.804	123.5
345.031	119.5
345.259	110.5
345.487	110.5
345.714	98.5
345.942	97.5
346.17	112.5
346.397	114.5
346.625	111.5
346.853	102.5
347.08	125.5
347.308	127.5
347.535	96.5
347.763	108.5
347.99	112.5
348.218	113.5
348.445	106.5
348.673	100.5
348.9	100.5
349.128	117.5
349.355	117.5
349.583	102.5
349.81	125.5
350.037	105.5
350.265	116.5
350.492	124.5
350.72	101.5
350.947	107.5
351.174	124.5
351.402	106.5
351.629	95.5
351.856	123.5
352.083	106.5
352.311	115.5
352.538	102.5
352.765	116.5
352.992	132.5
353.22	112.5
353.447	109.5
353.674	126.5
353.901	115.5
354.128	99.5
354.355	109.5
354.583	115.5
354.81	109.5
355.037	107.5
355.264	116.5
355.491	108.5
355.718	106.5
355.945	104.5
356.172	106.5
356.399	109.5
356.626	112.5
356.853	112.5
357.08	100.5
357.307	108.5
357.534	120.5
357.761	106.5
357.988	113.5
358.215	120.5
358.441	122.5
358.668	108.5
358.895	106.5
359.122	100.5
359.349	96.5
359.576	113.5
359.802	98.5
360.029	108.5
360.256	102.5
360.483	111.5
360.709	104.5
360.936	133.5
361.163	99.5
361.39	102.5
361.616	114.5
361.843	100.5
362.07	97.5
362.296	118.5
362.523	84.5
362.749	109.5
362.976	107.5
363.203	111.5
363.429	107.5
363.656	109.5
363.882	100.5
364.109	115.5
364.335	102.5
364.562	107.5
364.788	100.5
365.015	108.5
365.241	103.5
365.468	115.5
365.694	105.5
365.92	118.5
366.147	109.5
366.373	109.5
366.599	102.5
366.826	110.5
367.052	116.5
367.278	111.5
367.505	108.5
367.731	130.5
367.957	129.5
368.184	107.5
368.41	100.5
368.636	113.5
368.862	114.5
369.089	114.5
369.315	117.5
369.541	120.5
369.767	133.5
369.993	106.5
370.219	112.5
370.445	109.5
370.672	107.5
370.898	104.5
371.124	112.5
371.35	107.5
371.576	112.5
371.802	100.5
372.028	111.5
372.254	109.5
372.48	106.5
372.706	112.5
372.932	105.5
373.158	126.5
373.384	112.5
373.61	110.5
373.835	123.5
374.061	105.5
374.287	108.5
374.513	117.5
374.739	132.5
374.965	131.5
375.191	112.5
375.416	131.5
375.642	108.5
375.868	123.5
376.094	103.5
376.319	103.5
376.545	82.5
376.771	108.5
376.997	116.5
377.222	101.5
377.448	114.5
377.674	89.5
377.899	100.5
378.125	111.5
378.35	111.5
378.576	112.5
378.802	104.5
379.027	121.5
379.253	110.5
379.478	113.5
379.704	107.5
379.929	122.5
380.155	111.5
380.38	106.5
380.606	117.5
380.831	100.5
381.057	134.5
381.282	110.5
381.507	113.5
381.733	108.5
381.958	109.5
382.184	102.5
382.409	114.5
382.634	123.5
382.86	117.5
383.085	116.5
383.31	118.5
383.535	110.5
383.761	131.5
383.986	117.5
384.211	118.5
384.436	123.5
384.662	116.5
384.887	116.5
385.112	114.5
385.337	106.5
385.562	123.5
385.787	125.5
386.013	116.5
386.238	120.5
386.463	126.5
386.688	163.5
386.913	116.5
387.138	115.5
387.363	103.5
387.588	134.5
387.813	116.5
388.038	130.5
388.263	120.5
388.488	114.5
388.713	118.5
388.938	130.5
389.163	122.5
389.387	116.5
389.612	108.5
389.837	116.5
390.062	121.5
390.287	115.5
390.512	121.5
390.736	132.5
390.961	133.5
391.186	124.5
391.411	119.5
391.636	121.5
391.86	124.5
392.085	131.5
392.31	127.5
392.534	137.5
392.759	129.5
392.984	127.5
393.208	133.5
393.433	119.5
393.658	122.5
393.882	114.5
394.107	127.5
394.331	137.5
394.556	133.5
394.78	127.5
395.005	128.5
395.229	116.5
395.454	124.5
395.678	138.5
395.903	129.5
396.127	125.5
396.352	128.5
396.576	116.5
396.801	130.5
397.025	122.5
397.249	134.5
397.474	123.5
397.698	113.5
397.922	130.5
398.147	123.5
398.371	139.5
398.595	130.5
398.82	116.5
399.044	130.5
399.268	144.5
399.492	153.5
399.717	158.5
399.941	153.5
400.165	146.5
400.389	142.5
400.613	122.5
400.837	137.5
401.062	128.5
401.286	129.5
401.51	135.5
401.734	123.5
401.958	128.5
402.182	141.5
402.406	130.5
402.63	133.5
402.854	131.5
403.078	130.5
403.302	138.5
403.526	139.5
403.75	150.5
403.974	133.5
404.198	134.5
404.422	143.5
404.645	165.5
404.869	133.5
405.093	140.5
405.317	142.5
405.541	141.5
405.765	141.5
405.988	132.5
406.212	149.5
406.436	137.5
406.66	155.5
406.883	154.5
407.107	157.5
407.331	157.5
407.555	166.5
407.778	153.5
408.002	150.5
408.226	175.5
408.449	123.5
408.673	131.5
408.896	131.5
409.12	134.5
409.344	145.5
409.567	135.5
409.791	144.5
410.014	153.5
410.238	134.5
410.461	142.5
410.685	144.5
410.908	128.5
411.132	131.5
411.355	135.5
411.578	131.5
411.802	132.5
412.025	139.5
412.249	139.5
412.472	143.5
412.695	144.5
412.919	126.5
413.142	117.5
413.365	123.5
413.589	135.5
413.812	123.5
414.035	133.5
414.258	125.5
414.482	129.5
414.705	128.5
414.928	139.5
415.151	134.5
415.374	126.5
415.597	117.5
415.821	133.5
416.044	133.5
416.267	126.5
416.49	134.5
416.713	151.5
416.936	138.5
417.159	131.5
417.382	117.5
417.605	130.5
417.828	144.5
418.051	131.5
418.274	150.5
418.497	143.5
418.72	127.5
418.943	156.5
419.166	140.5
419.389	142.5
419.611	142.5
419.834	140.5
420.057	129.5
420.28	141.5
420.503	131.5
420.726	129.5
420.948	139.5
421.171	123.5
421.394	129.5
421.617	127.5
421.839	130.5
422.062	127.5
422.285	150.5
422.507	139.5
422.73	139.5
422.953	124.5
423.175	135.5
423.398	145.5
423.621	145.5
423.843	127.5
424.066	145.5
424.288	150.5
424.511	126.5
424.733	129.5
424.956	120.5
425.178	143.5
425.401	146.5
425.623	130.5
425.846	125.5
426.068	136.5
426.291	120.5
426.513	129.5
426.735	124.5
426.958	140.5
427.18	128.5
427.402	121.5
427.625	123.5
427.847	123.5
428.069	127.5
428.292	123.5
428.514	124.5
428.736	118.5
428.958	127.5
429.181	117.5
429.403	131.5
429.625	118.5
429.847	131.5
430.069	127.5
430.292	146.5
430.514	123.5
430.736	122.5
430.958	125.5
431.18	125.5
431.402	136.5
431.624	121.5
431.846	112.5
432.068	121.5
432.29	133.5
432.512	138.5
432.734	115.5
432.956	112.5
433.178	124.5
433.4	123.5
433.622	124.5
433.844	129.5
434.066	118.5
434.287	121.5
434.509	126.5
434.731	115.5
434.953	134.5
435.175	129.5
435.397	141.5
435.618	122.5
435.84	122.5
436.062	125.5
436.284	122.5
436.505	110.5
436.727	130.5
436.949	131.5
437.17	123.5
437.392	117.5
437.614	134.5
437.835	124.5
438.057	119.5
438.278	122.5
438.5	132.5
438.721	113.5
438.943	134.5
439.165	122.5
439.386	114.5
439.608	128.5
439.829	119.5
440.05	125.5
440.272	122.5
440.493	119.5
440.715	132.5
440.936	141.5
441.158	118.5
441.379	114.5
441.6	140.5
441.822	128.5
442.043	134.5
442.264	143.5
442.486	134.5
442.707	109.5
442.928	123.5
443.149	142.5
443.371	144.5
443.592	121.5
443.813	123.5
444.034	125.5
444.255	137.5
444.476	133.5
444.698	149.5
444.919	137.5
445.14	395.5
445.361	253.5
445.582	153.5
445.803	120.5
446.024	127.5
446.245	130.5
446.466	135.5
446.687	123.5
446.908	138.5
447.129	123.5
447.35	130.5
447.571	135.5
447.792	116.5
448.013	122.5
448.234	138.5
448.455	107.5
448.675	122.5
448.896	118.5
449.117	120.5
449.338	122.5
449.559	121.5
449.779	139.5
450	114.5
450.221	132.5
450.442	125.5
450.662	126.5
450.883	120.5
451.104	124.5
451.324	123.5
451.545	125.5
451.766	130.5
451.986	125.5
452.207	118.5
452.428	116.5
452.648	126.5
452.869	118.5
453.089	120.5
453.31	121.5
453.53	125.5
453.751	113.5
453.971	127.5
454.192	132.5
454.412	125.5
454.633	120.5
454.853	119.5
455.073	125.5
455.294	121.5
455.514	118.5
455.734	108.5
455.955	111.5
456.175	121.5
456.395	121.5
456.616	120.5
456.836	112.5
457.056	122.5
457.276	117.5
457.497	116.5
457.717	106.5
457.937	127.5
458.157	120.5
458.377	108.5
458.598	117.5
458.818	120.5
459.038	128.5
459.258	127.5
459.478	124.5
459.698	138.5
459.918	132.5
460.138	133.5
460.358	137.5
460.578	128.5
460.798	134.5
461.018	150.5
461.238	133.5
461.458	130.5
461.678	126.5
461.898	146.5
462.118	148.5
462.338	145.5
462.558	138.5
462.777	145.5
462.997	147.5
463.217	150.5
463.437	147.5
463.657	138.5
463.876	141.5
464.096	153.5
464.316	138.5
464.536	143.5
464.755	154.5
464.975	142.5
465.195	134.5
465.414	139.5
465.634	126.5
465.854	126.5
466.073	133.5
466.293	127.5
466.512	136.5
466.732	117.5
466.951	116.5
467.171	137.5
467.391	136.5
467.61	120.5
467.829	124.5
468.049	129.5
468.268	126.5
468.488	113.5
468.707	119.5
468.927	124.5
469.146	128.5
469.365	103.5
469.585	119.5
469.804	125.5
470.023	110.5
470.243	134.5
470.462	126.5
470.681	129.5
470.901	115.5
471.12	141.5
471.339	126.5
471.558	123.5
471.777	140.5
471.997	112.5
472.216	130.5
472.435	125.5
472.654	120.5
472.873	114.5
473.092	139.5
473.311	128.5
473.53	137.5
473.749	118.5
473.968	117.5
474.187	146.5
474.406	133.5
474.625	124.5
474.844	126.5
475.063	110.5
475.282	136.5
475.501	114.5
475.72	119.5
475.939	128.5
476.158	128.5
476.377	118.5
476.596	126.5
476.814	119.5
477.033	145.5
477.252	140.5
477.471	126.5
477.69	128.5
477.908	133.5
478.127	143.5
478.346	139.5
478.564	138.5
478.783	122.5
479.002	139.5
479.22	131.5
479.439	137.5
479.658	126.5
479.876	124.5
480.095	122.5
480.313	139.5
480.532	150.5
480.751	143.5
480.969	140.5
481.188	123.5
481.406	140.5
481.624	131.5
481.843	147.5
482.061	130.5
482.28	119.5
482.498	135.5
482.717	113.5
482.935	130.5
483.153	137.5
483.372	130.5
483.59	134.5
483.808	117.5
484.027	139.5
484.245	128.5
484.463	127.5
484.681	134.5
484.9	131.5
485.118	138.5
485.336	112.5
485.554	134.5
485.772	143.5
485.99	141.5
486.209	142.5
486.427	148.5
486.645	141.5
486.863	132.5
487.081	142.5
487.299	127.5
487.517	143.5
487.735	139.5
487.953	138.5
488.171	143.5
488.389	148.5
488.607	133.5
488.825	124.5
489.043	139.5
489.261	127.5
489.479	134.5
489.696	138.5
489.914	134.5
490.132	142.5
490.35	143.5
490.568	141.5
490.786	137.5
491.003	134.5
491.221	116.5
491.439	133.5
491.657	143.5
491.874	154.5
492.092	131.5
492.31	149.5
492.527	134.5
492.745	128.5
492.963	152.5
493.18	124.5
493.398	133.5
493.615	151.5
493.833	141.5
494.05	154.5
494.268	142.5
494.485	124.5
494.703	133.5
494.92	131.5
495.138	131.5
495.355	148.5
495.573	129.5
495.79	126.5
496.008	145.5
496.225	142.5
496.442	139.5
496.66	157.5
496.877	145.5
497.094	154.5
497.312	126.5
497.529	134.5
497.746	165.5
497.963	152.5
498.181	140.5
498.398	156.5
498.615	158.5
498.832	161.5
499.049	178.5
499.267	191.5
499.484	186.5
499.701	193.5
499.918	203.5
500.135	253.5
500.352	261.5
500.569	272.5
500.786	265.5
501.003	244.5
501.22	223.5
501.437	190.5
501.654	177.5
501.871	186.5
502.088	167.5
502.305	167.5
502.522	156.5
502.739	162.5
502.956	157.5
503.172	137.5
503.389	148.5
503.606	132.5
503.823	153.5
504.04	165.5
504.256	155.5
504.473	160.5
504.69	134.5
504.907	163.5
505.123	123.5
505.34	138.5
505.557	140.5
505.773	132.5
505.99	139.5
506.207	146.5
506.423	138.5
506.64	138.5
506.856	130.5
507.073	126.5
507.289	127.5
507.506	129.5
507.722	132.5
507.939	137.5
508.155	125.5
508.372	113.5
508.588	130.5
508.805	132.5
509.021	131.5
509.238	136.5
509.454	126.5
509.67	140.5
509.887	117.5
510.103	128.5
510.319	110.5
510.536	126.5
510.752	131.5
510.968	132.5
511.184	120.5
511.401	117.5
511.617	127.5
511.833	116.5
512.049	122.5
512.265	124.5
512.481	124.5
512.698	125.5
512.914	125.5
513.13	124.5
513.346	123.5
513.562	121.5
513.778	142.5
513.994	116.5
514.21	108.5
514.426	134.5
514.642	132.5
514.858	117.5
515.074	128.5
515.29	135.5
515.506	121.5
515.721	150.5
515.937	137.5
516.153	126.5
516.369	136.5
516.585	136.5
516.801	133.5
517.016	139.5
517.232	139.5
517.448	150.5
517.664	142.5
517.879	141.5
518.095	157.5
518.311	138.5
518.527	129.5
518.742	132.5
518.958	121.5
519.173	116.5
519.389	127.5
519.605	135.5
519.82	123.5
520.036	129.5
520.251	121.5
520.467	124.5
520.682	130.5
520.898	119.5
521.113	129.5
521.329	122.5
521.544	124.5
521.76	133.5
521.975	126.5
522.19	140.5
522.406	115.5
522.621	112.5
522.836	129.5
523.052	119.5
523.267	125.5
523.482	105.5
523.698	112.5
523.913	131.5
524.128	111.5
524.343	130.5
524.559	119.5
524.774	127.5
524.989	137.5
