Data from SampD_HRD10591_00098.txt Node
Date: Mon Jan 19 11:41:54 EST 2026
User: Yrep
Spectrometer: HR+D1059
Trigger mode: 0
Integration Time (sec): 3.443000E-1
Scans to average: 1
Electric dark correction enabled: true
Nonlinearity correction enabled: false
Boxcar width: 0
XAxis mode: Wavelengths
Number of Pixels in Spectrum: 2048
>>>>>Begin Spectral Data<<<<<
223.165	-32
223.4	-32
223.635	-32
223.869	-17
224.104	-32
224.338	-1
224.573	-17
224.808	-12
225.042	-25
225.277	-5
225.511	3
225.746	7
225.98	4
226.215	17
226.449	26
226.683	25
226.918	22
227.152	37
227.387	53
227.621	40
227.856	40
228.09	38
228.324	54
228.559	67
228.793	58
229.027	68
229.262	87
229.496	80
229.73	78
229.964	77
230.199	83
230.433	84
230.667	90
230.901	107
231.136	78
231.37	94
231.604	89
231.838	89
232.072	92
232.306	80
232.541	80
232.775	98
233.009	82
233.243	86
233.477	88
233.711	102
233.945	83
234.179	90
234.413	90
234.647	108
234.881	100
235.115	94
235.349	89
235.583	89
235.817	91
236.051	83
236.285	80
236.519	81
236.753	97
236.987	88
237.221	83
237.455	98
237.689	104
237.922	100
238.156	82
238.39	75
238.624	87
238.858	80
239.091	88
239.325	84
239.559	93
239.793	71
240.027	85
240.26	90
240.494	95
240.728	88
240.961	80
241.195	106
241.429	102
241.662	80
241.896	92
242.13	86
242.363	87
242.597	89
242.83	96
243.064	98
243.298	95
243.531	88
243.765	99
243.998	69
244.232	88
244.465	92
244.699	86
244.932	84
245.166	99
245.399	99
245.633	90
245.866	86
246.099	83
246.333	80
246.566	102
246.8	98
247.033	81
247.266	87
247.5	92
247.733	86
247.966	84
248.2	72
248.433	102
248.666	97
248.899	94
249.133	90
249.366	93
249.599	96
249.832	106
250.066	99
250.299	88
250.532	104
250.765	100
250.998	96
251.231	85
251.465	98
251.698	94
251.931	93
252.164	115
252.397	105
252.63	102
252.863	96
253.096	108
253.329	103
253.562	120
253.795	114
254.028	107
254.261	98
254.494	99
254.727	89
254.96	96
255.193	102
255.426	91
255.659	91
255.892	101
256.124	97
256.357	96
256.59	99
256.823	98
257.056	104
257.289	112
257.521	116
257.754	94
257.987	99
258.22	115
258.452	105
258.685	102
258.918	98
259.151	110
259.383	106
259.616	90
259.849	112
260.081	100
260.314	106
260.547	105
260.779	108
261.012	108
261.244	106
261.477	106
261.71	103
261.942	128
262.175	100
262.407	96
262.64	103
262.872	86
263.105	115
263.337	119
263.57	107
263.802	98
264.035	102
264.267	116
264.499	107
264.732	104
264.964	104
265.197	100
265.429	102
265.661	101
265.894	96
266.126	108
266.358	99
266.591	94
266.823	118
267.055	107
267.287	116
267.52	90
267.752	111
267.984	119
268.216	101
268.448	111
268.681	105
268.913	103
269.145	105
269.377	112
269.609	114
269.841	122
270.073	99
270.306	108
270.538	117
270.77	107
271.002	121
271.234	102
271.466	116
271.698	102
271.93	113
272.162	104
272.394	115
272.626	107
272.858	122
273.09	115
273.322	117
273.553	106
273.785	115
274.017	104
274.249	110
274.481	105
274.713	119
274.945	115
275.176	113
275.408	123
275.64	117
275.872	107
276.104	121
276.335	110
276.567	108
276.799	102
277.031	114
277.262	117
277.494	129
277.726	123
277.957	112
278.189	114
278.421	102
278.652	108
278.884	101
279.115	127
279.347	114
279.579	123
279.81	122
280.042	118
280.273	122
280.505	120
280.736	112
280.968	108
281.199	116
281.431	120
281.662	120
281.894	112
282.125	114
282.356	115
282.588	106
282.819	122
283.051	106
283.282	107
283.513	123
283.745	122
283.976	127
284.207	122
284.439	131
284.67	117
284.901	120
285.132	122
285.364	116
285.595	118
285.826	120
286.057	130
286.288	116
286.52	131
286.751	127
286.982	121
287.213	127
287.444	127
287.675	117
287.906	130
288.138	124
288.369	126
288.6	133
288.831	128
289.062	118
289.293	119
289.524	125
289.755	127
289.986	120
290.217	131
290.448	119
290.679	115
290.91	127
291.141	133
291.371	129
291.602	112
291.833	123
292.064	112
292.295	113
292.526	131
292.757	120
292.987	130
293.218	122
293.449	123
293.68	131
293.91	126
294.141	128
294.372	129
294.603	134
294.833	131
295.064	118
295.295	138
295.525	114
295.756	136
295.987	137
296.217	113
296.448	118
296.679	124
296.909	135
297.14	158
297.37	134
297.601	117
297.831	120
298.062	135
298.292	124
298.523	132
298.753	128
298.984	126
299.214	125
299.445	132
299.675	115
299.905	124
300.136	139
300.366	134
300.597	131
300.827	144
301.057	123
301.288	142
301.518	130
301.748	136
301.979	171
302.209	137
302.439	127
302.669	135
302.9	129
303.13	132
303.36	138
303.59	135
303.82	135
304.051	124
304.281	156
304.511	133
304.741	121
304.971	139
305.201	122
305.431	127
305.661	147
305.891	142
306.121	131
306.352	137
306.582	133
306.812	135
307.042	137
307.272	139
307.502	147
307.731	123
307.961	128
308.191	125
308.421	127
308.651	119
308.881	134
309.111	144
309.341	121
309.571	138
309.8	139
310.03	139
310.26	132
310.49	152
310.72	128
310.949	124
311.179	135
311.409	123
311.639	129
311.868	131
312.098	129
312.328	135
312.557	135
312.787	133
313.017	147
313.246	143
313.476	116
313.706	121
313.935	134
314.165	130
314.394	132
314.624	116
314.853	130
315.083	149
315.312	150
315.542	121
315.771	135
316.001	135
316.23	127
316.46	142
316.689	149
316.919	135
317.148	154
317.377	152
317.607	146
317.836	138
318.065	135
318.295	162
318.524	139
318.753	147
318.983	139
319.212	138
319.441	121
319.67	136
319.9	140
320.129	138
320.358	134
320.587	135
320.816	139
321.046	139
321.275	137
321.504	127
321.733	136
321.962	121
322.191	136
322.42	123
322.649	144
322.878	164
323.108	143
323.337	137
323.566	132
323.795	131
324.024	126
324.253	150
324.482	129
324.71	133
324.939	146
325.168	136
325.397	149
325.626	135
325.855	118
326.084	139
326.313	144
326.542	146
326.77	144
326.999	134
327.228	136
327.457	142
327.686	150
327.914	140
328.143	168
328.372	136
328.6	137
328.829	140
329.058	133
329.287	142
329.515	144
329.744	151
329.972	134
330.201	150
330.43	146
330.658	147
330.887	143
331.115	156
331.344	149
331.572	158
331.801	152
332.03	156
332.258	148
332.486	147
332.715	170
332.943	162
333.172	154
333.4	160
333.629	159
333.857	167
334.085	178
334.314	166
334.542	152
334.771	146
334.999	168
335.227	174
335.455	164
335.684	170
335.912	153
336.14	138
336.369	142
336.597	160
336.825	154
337.053	148
337.281	163
337.51	144
337.738	136
337.966	141
338.194	133
338.422	146
338.65	142
338.878	148
339.106	147
339.334	147
339.562	140
339.79	122
340.018	140
340.246	149
340.474	134
340.702	135
340.93	136
341.158	156
341.386	150
341.614	152
341.842	132
342.07	122
342.298	147
342.526	129
342.754	134
342.981	132
343.209	133
343.437	182
343.665	160
343.893	156
344.12	163
344.348	153
344.576	150
344.804	140
345.031	142
345.259	162
345.487	137
345.714	130
345.942	146
346.17	142
346.397	127
346.625	134
346.853	139
347.08	138
347.308	146
347.535	129
347.763	124
347.99	132
348.218	147
348.445	135
348.673	155
348.9	146
349.128	147
349.355	132
349.583	129
349.81	150
350.037	139
350.265	147
350.492	147
350.72	135
350.947	146
351.174	142
351.402	136
351.629	131
351.856	136
352.083	146
352.311	140
352.538	143
352.765	138
352.992	155
353.22	139
353.447	123
353.674	149
353.901	152
354.128	140
354.355	144
354.583	142
354.81	155
355.037	149
355.264	146
355.491	148
355.718	143
355.945	140
356.172	154
356.399	160
356.626	118
356.853	134
357.08	124
357.307	147
357.534	151
357.761	139
357.988	166
358.215	146
358.441	127
358.668	159
358.895	151
359.122	150
359.349	137
359.576	135
359.802	140
360.029	144
360.256	136
360.483	138
360.709	121
360.936	161
361.163	155
361.39	135
361.616	134
361.843	140
362.07	135
362.296	148
362.523	142
362.749	148
362.976	115
363.203	135
363.429	130
363.656	140
363.882	131
364.109	156
364.335	142
364.562	132
364.788	142
365.015	145
365.241	134
365.468	151
365.694	155
365.92	138
366.147	130
366.373	129
366.599	138
366.826	130
367.052	136
367.278	146
367.505	152
367.731	143
367.957	139
368.184	144
368.41	128
368.636	140
368.862	154
369.089	150
369.315	133
369.541	152
369.767	142
369.993	154
370.219	144
370.445	134
370.672	139
370.898	146
371.124	166
371.35	133
371.576	145
371.802	142
372.028	139
372.254	145
372.48	151
372.706	154
372.932	159
373.158	153
373.384	154
373.61	160
373.835	165
374.061	152
374.287	147
374.513	149
374.739	147
374.965	154
375.191	154
375.416	166
375.642	144
375.868	163
376.094	150
376.319	150
376.545	146
376.771	127
376.997	151
377.222	142
377.448	157
377.674	146
377.899	135
378.125	144
378.35	167
378.576	155
378.802	141
379.027	138
379.253	152
379.478	155
379.704	137
379.929	133
380.155	147
380.38	136
380.606	148
380.831	151
381.057	146
381.282	144
381.507	150
381.733	154
381.958	139
382.184	122
382.409	158
382.634	151
382.86	163
383.085	160
383.31	151
383.535	150
383.761	145
383.986	166
384.211	152
384.436	159
384.662	166
384.887	167
385.112	169
385.337	174
385.562	167
385.787	158
386.013	161
386.238	160
386.463	169
386.688	219
386.913	168
387.138	155
387.363	159
387.588	167
387.813	156
388.038	155
388.263	184
388.488	158
388.713	167
388.938	158
389.163	152
389.387	169
389.612	150
389.837	170
390.062	167
390.287	151
390.512	171
390.736	164
390.961	175
391.186	151
391.411	170
391.636	191
391.86	176
392.085	183
392.31	162
392.534	163
392.759	168
392.984	171
393.208	154
393.433	176
393.658	166
393.882	166
394.107	159
394.331	162
394.556	182
394.78	183
395.005	177
395.229	169
395.454	175
395.678	162
395.903	179
396.127	172
396.352	161
396.576	163
396.801	186
397.025	166
397.249	170
397.474	181
397.698	183
397.922	180
398.147	165
398.371	179
398.595	197
398.82	191
399.044	190
399.268	228
399.492	256
399.717	248
399.941	224
400.165	220
400.389	188
400.613	176
400.837	199
401.062	210
401.286	170
401.51	187
401.734	190
401.958	174
402.182	190
402.406	198
402.63	188
402.854	212
403.078	204
403.302	207
403.526	206
403.75	209
403.974	210
404.198	210
404.422	211
404.645	210
404.869	207
405.093	212
405.317	199
405.541	205
405.765	208
405.988	202
406.212	198
406.436	196
406.66	202
406.883	194
407.107	236
407.331	215
407.555	209
407.778	215
408.002	213
408.226	204
408.449	206
408.673	214
408.896	193
409.12	205
409.344	198
409.567	210
409.791	217
410.014	210
410.238	202
410.461	204
410.685	215
410.908	193
411.132	191
411.355	189
411.578	197
411.802	180
412.025	188
412.249	199
412.472	196
412.695	186
412.919	191
413.142	194
413.365	194
413.589	194
413.812	182
414.035	212
414.258	200
414.482	208
414.705	192
414.928	197
415.151	181
415.374	190
415.597	195
415.821	199
416.044	189
416.267	193
416.49	198
416.713	197
416.936	192
417.159	196
417.382	201
417.605	191
417.828	221
418.051	187
418.274	202
418.497	190
418.72	196
418.943	204
419.166	216
419.389	204
419.611	199
419.834	188
420.057	196
420.28	197
420.503	191
420.726	196
420.948	192
421.171	190
421.394	189
421.617	196
421.839	187
422.062	192
422.285	176
422.507	193
422.73	191
422.953	187
423.175	190
423.398	211
423.621	205
423.843	217
424.066	194
424.288	203
424.511	196
424.733	195
424.956	188
425.178	188
425.401	204
425.623	195
425.846	184
426.068	201
426.291	172
426.513	177
426.735	192
426.958	180
427.18	189
427.402	195
427.625	200
427.847	169
428.069	183
428.292	173
428.514	184
428.736	167
428.958	170
429.181	184
429.403	162
429.625	172
429.847	175
430.069	176
430.292	181
430.514	168
430.736	181
430.958	181
431.18	166
431.402	162
431.624	181
431.846	187
432.068	186
432.29	182
432.512	195
432.734	186
432.956	182
433.178	169
433.4	198
433.622	176
433.844	163
434.066	181
434.287	192
434.509	193
434.731	195
434.953	162
435.175	199
435.397	187
435.618	184
435.84	183
436.062	170
436.284	184
436.505	162
436.727	181
436.949	197
437.17	183
437.392	168
437.614	169
437.835	176
438.057	166
438.278	177
438.5	177
438.721	182
438.943	184
439.165	172
439.386	196
439.608	190
439.829	181
440.05	188
440.272	188
440.493	179
440.715	181
440.936	184
441.158	172
441.379	179
441.6	182
441.822	191
442.043	182
442.264	193
442.486	194
442.707	181
442.928	193
443.149	180
443.371	192
443.592	182
443.813	198
444.034	191
444.255	212
444.476	217
444.698	214
444.919	214
445.14	466
445.361	333
445.582	214
445.803	199
446.024	185
446.245	200
446.466	195
446.687	176
446.908	185
447.129	170
447.35	184
447.571	171
447.792	176
448.013	170
448.234	166
448.455	178
448.675	180
448.896	152
449.117	162
449.338	176
449.559	176
449.779	172
450	158
450.221	172
450.442	178
450.662	170
450.883	176
451.104	182
451.324	175
451.545	183
451.766	149
451.986	166
452.207	170
452.428	169
452.648	165
452.869	167
453.089	165
453.31	181
453.53	164
453.751	162
453.971	155
454.192	167
454.412	169
454.633	139
454.853	176
455.073	163
455.294	167
455.514	172
455.734	168
455.955	167
456.175	153
456.395	156
456.616	164
456.836	151
457.056	176
457.276	146
457.497	164
457.717	153
457.937	169
458.157	145
458.377	154
458.598	167
458.818	166
459.038	177
459.258	180
459.478	191
459.698	196
459.918	180
460.138	193
460.358	213
460.578	197
460.798	214
461.018	197
461.238	195
461.458	195
461.678	202
461.898	208
462.118	188
462.338	206
462.558	217
462.777	210
462.997	235
463.217	255
463.437	226
463.657	214
463.876	228
464.096	204
464.316	216
464.536	222
464.755	215
464.975	211
465.195	210
465.414	211
465.634	193
465.854	175
466.073	178
466.293	171
466.512	172
466.732	162
466.951	178
467.171	183
467.391	175
467.61	180
467.829	169
468.049	167
468.268	164
468.488	172
468.707	163
468.927	166
469.146	182
469.365	176
469.585	183
469.804	183
470.023	173
470.243	172
470.462	177
470.681	185
470.901	185
471.12	180
471.339	191
471.558	162
471.777	175
471.997	165
472.216	168
472.435	164
472.654	168
472.873	177
473.092	168
473.311	181
473.53	173
473.749	170
473.968	161
474.187	159
474.406	175
474.625	187
474.844	172
475.063	178
475.282	169
475.501	163
475.72	184
475.939	167
476.158	162
476.377	177
476.596	189
476.814	171
477.033	176
477.252	176
477.471	183
477.69	172
477.908	200
478.127	204
478.346	178
478.564	181
478.783	194
479.002	202
479.22	206
479.439	191
479.658	185
479.876	191
480.095	193
480.313	195
480.532	207
480.751	214
480.969	195
481.188	187
481.406	192
481.624	180
481.843	187
482.061	194
482.28	180
482.498	187
482.717	183
482.935	178
483.153	182
483.372	181
483.59	195
483.808	185
484.027	194
484.245	203
484.463	179
484.681	219
484.9	221
485.118	200
485.336	184
485.554	194
485.772	198
485.99	195
486.209	193
486.427	190
486.645	185
486.863	181
487.081	198
487.299	195
487.517	201
487.735	185
487.953	185
488.171	202
488.389	188
488.607	193
488.825	183
489.043	176
489.261	199
489.479	183
489.696	203
489.914	184
490.132	198
490.35	191
490.568	192
490.786	190
491.003	200
491.221	199
491.439	197
491.657	190
491.874	200
492.092	214
492.31	201
492.527	195
492.745	192
492.963	222
493.18	207
493.398	198
493.615	199
493.833	194
494.05	207
494.268	200
494.485	207
494.703	200
494.92	209
495.138	194
495.355	213
495.573	209
495.79	199
496.008	202
496.225	210
496.442	193
496.66	212
496.877	217
497.094	218
497.312	202
497.529	217
497.746	227
497.963	227
498.181	232
498.398	219
498.615	241
498.832	249
499.049	278
499.267	287
499.484	331
499.701	331
499.918	369
500.135	403
500.352	453
500.569	448
500.786	434
501.003	388
501.22	376
501.437	327
501.654	306
501.871	291
502.088	258
502.305	271
502.522	241
502.739	251
502.956	233
503.172	236
503.389	228
503.606	217
503.823	208
504.04	242
504.256	219
504.473	216
504.69	237
504.907	219
505.123	224
505.34	200
505.557	192
505.773	176
505.99	189
506.207	184
506.423	187
506.64	197
506.856	184
507.073	189
507.289	191
507.506	195
507.722	201
507.939	193
508.155	190
508.372	182
508.588	187
508.805	168
509.021	175
509.238	180
509.454	181
509.67	167
509.887	182
510.103	171
510.319	166
510.536	192
510.752	165
510.968	168
511.184	166
511.401	174
511.617	187
511.833	182
512.049	179
512.265	170
512.481	167
512.698	171
512.914	172
513.13	168
513.346	178
513.562	184
513.778	189
513.994	192
514.21	171
514.426	172
514.642	172
514.858	183
515.074	177
515.29	182
515.506	183
515.721	188
515.937	191
516.153	177
516.369	176
516.585	185
516.801	179
517.016	197
517.232	198
517.448	218
517.664	231
517.879	209
518.095	214
518.311	223
518.527	198
518.742	196
518.958	190
519.173	186
519.389	199
519.605	187
519.82	172
520.036	169
520.251	176
520.467	191
520.682	178
520.898	170
521.113	178
521.329	167
521.544	176
521.76	169
521.975	157
522.19	173
522.406	170
522.621	171
522.836	172
523.052	187
523.267	168
523.482	187
523.698	175
523.913	163
524.128	175
524.343	178
524.559	173
524.774	162
524.989	170
525.204	183
525.419	186
525.634	168
525.849	155
526.064	177
526.28	189
526.495	176
526.71	162
526.925	163
527.14	166
527.355	160
527.57	176
527.785	176
527.999	164
528.214	171
528.429	176
528.644	176
528.859	168
529.074	161
529.289	170
529.503	180
529.718	168
529.933	189
530.148	164
530.363	179
530.577	183
530.792	175
531.007	160
531.221	166
531.436	172
531.651	173
531.865	180
532.08	177
532.295	161
532.509	168
532.724	164
532.938	179
533.153	169
533.367	159
533.582	175
533.796	170
534.011	158
534.225	164
534.44	163
534.654	182
534.868	160
535.083	160
535.297	176
535.511	166
535.726	190
535.94	158
536.154	164
536.369	158
536.583	168
536.797	167
537.011	159
537.225	174
537.44	150
537.654	159
537.868	162
538.082	167
538.296	161
538.51	165
538.724	178
538.938	157
539.153	175
539.367	178
539.581	146
539.795	157
540.009	147
540.222	159
540.436	171
540.65	166
540.864	152
541.078	156
541.292	178
541.506	183
541.72	177
541.934	166
542.147	171
542.361	186
542.575	167
542.789	158
543.002	168
543.216	159
543.43	140
543.644	156
543.857	164
544.071	171
544.285	182
544.498	160
544.712	180
544.925	171
545.139	159
545.352	171
545.566	162
545.779	164
545.993	151
546.206	157
546.42	158
546.633	176
546.847	180
547.06	180
547.274	181
547.487	162
547.7	158
547.914	164
548.127	159
548.34	176
548.554	176
548.767	179
548.98	187
549.193	177
549.407	163
549.62	175
549.833	168
550.046	169
550.259	170
550.473	171
550.686	158
550.899	161
551.112	181
551.325	167
551.538	150
551.751	172
551.964	169
552.177	185
552.39	153
552.603	176
552.816	188
553.029	168
553.242	166
553.455	173
553.667	173
553.88	178
554.093	172
554.306	187
554.519	164
554.732	149
554.944	163
555.157	159
555.37	174
555.583	172
555.795	158
556.008	166
556.221	147
556.433	158
556.646	154
556.859	146
557.071	171
557.284	164
557.496	156
557.709	142
557.921	158
558.134	162
558.346	162
558.559	157
558.771	150
558.984	148
559.196	152
559.409	161
559.621	155
559.833	158
560.046	158
560.258	143
560.47	156
560.683	153
560.895	157
561.107	156
561.32	154
561.532	142
561.744	163
561.956	152
562.168	148
562.381	151
562.593	172
562.805	172
563.017	175
563.229	166
563.441	162
563.653	142
563.865	146
564.077	155
564.289	158
564.501	158
564.713	174
564.925	146
565.137	135
565.349	149
565.561	151
565.773	169
565.985	176
566.197	173
566.408	177
