Data from SampD_HRD10591_00043.txt Node
Date: Mon Jan 19 11:41:35 EST 2026
User: Yrep
Spectrometer: HR+D1059
Trigger mode: 0
Integration Time (sec): 3.443000E-1
Scans to average: 1
Electric dark correction enabled: true
Nonlinearity correction enabled: false
Boxcar width: 0
XAxis mode: Wavelengths
Number of Pixels in Spectrum: 2048
>>>>>Begin Spectral Data<<<<<
223.165	-24.5
223.4	-24.5
223.635	-24.5
223.869	-17.5
224.104	-15.5
224.338	-4.5
224.573	-21.5
224.808	-25.5
225.042	5.5
225.277	-4.5
225.511	-5.5
225.746	2.5
225.98	3.5
226.215	21.5
226.449	7.5
226.683	27.5
226.918	23.5
227.152	27.5
227.387	46.5
227.621	33.5
227.856	25.5
228.09	52.5
228.324	54.5
228.559	57.5
228.793	52.5
229.027	66.5
229.262	75.5
229.496	66.5
229.73	73.5
229.964	79.5
230.199	66.5
230.433	61.5
230.667	82.5
230.901	78.5
231.136	88.5
231.37	75.5
231.604	73.5
231.838	81.5
232.072	80.5
232.306	72.5
232.541	85.5
232.775	81.5
233.009	92.5
233.243	90.5
233.477	82.5
233.711	85.5
233.945	73.5
234.179	81.5
234.413	94.5
234.647	91.5
234.881	77.5
235.115	79.5
235.349	85.5
235.583	102.5
235.817	83.5
236.051	77.5
236.285	73.5
236.519	86.5
236.753	81.5
236.987	94.5
237.221	89.5
237.455	85.5
237.689	98.5
237.922	78.5
238.156	75.5
238.39	73.5
238.624	64.5
238.858	84.5
239.091	81.5
239.325	71.5
239.559	95.5
239.793	77.5
240.027	97.5
240.26	69.5
240.494	85.5
240.728	77.5
240.961	82.5
241.195	83.5
241.429	98.5
241.662	84.5
241.896	73.5
242.13	94.5
242.363	89.5
242.597	85.5
242.83	87.5
243.064	86.5
243.298	66.5
243.531	93.5
243.765	89.5
243.998	89.5
244.232	90.5
244.465	83.5
244.699	76.5
244.932	85.5
245.166	79.5
245.399	85.5
245.633	96.5
245.866	76.5
246.099	77.5
246.333	93.5
246.566	86.5
246.8	82.5
247.033	75.5
247.266	95.5
247.5	89.5
247.733	96.5
247.966	105.5
248.2	85.5
248.433	71.5
248.666	85.5
248.899	97.5
249.133	89.5
249.366	109.5
249.599	98.5
249.832	94.5
250.066	82.5
250.299	77.5
250.532	103.5
250.765	93.5
250.998	77.5
251.231	86.5
251.465	83.5
251.698	84.5
251.931	94.5
252.164	95.5
252.397	102.5
252.63	111.5
252.863	97.5
253.096	99.5
253.329	84.5
253.562	83.5
253.795	103.5
254.028	97.5
254.261	92.5
254.494	82.5
254.727	76.5
254.96	83.5
255.193	81.5
255.426	85.5
255.659	89.5
255.892	104.5
256.124	91.5
256.357	89.5
256.59	98.5
256.823	101.5
257.056	95.5
257.289	100.5
257.521	90.5
257.754	99.5
257.987	84.5
258.22	91.5
258.452	97.5
258.685	99.5
258.918	106.5
259.151	87.5
259.383	105.5
259.616	94.5
259.849	92.5
260.081	105.5
260.314	101.5
260.547	106.5
260.779	105.5
261.012	102.5
261.244	99.5
261.477	100.5
261.71	85.5
261.942	101.5
262.175	101.5
262.407	105.5
262.64	104.5
262.872	103.5
263.105	88.5
263.337	102.5
263.57	96.5
263.802	105.5
264.035	97.5
264.267	104.5
264.499	102.5
264.732	97.5
264.964	105.5
265.197	98.5
265.429	103.5
265.661	100.5
265.894	85.5
266.126	110.5
266.358	109.5
266.591	101.5
266.823	122.5
267.055	90.5
267.287	94.5
267.52	93.5
267.752	102.5
267.984	93.5
268.216	106.5
268.448	102.5
268.681	111.5
268.913	99.5
269.145	93.5
269.377	107.5
269.609	107.5
269.841	96.5
270.073	97.5
270.306	88.5
270.538	108.5
270.77	97.5
271.002	92.5
271.234	94.5
271.466	112.5
271.698	108.5
271.93	94.5
272.162	108.5
272.394	110.5
272.626	117.5
272.858	95.5
273.09	103.5
273.322	93.5
273.553	104.5
273.785	114.5
274.017	93.5
274.249	95.5
274.481	100.5
274.713	107.5
274.945	103.5
275.176	108.5
275.408	117.5
275.64	103.5
275.872	95.5
276.104	120.5
276.335	112.5
276.567	109.5
276.799	97.5
277.031	107.5
277.262	102.5
277.494	111.5
277.726	126.5
277.957	105.5
278.189	99.5
278.421	98.5
278.652	110.5
278.884	119.5
279.115	120.5
279.347	107.5
279.579	111.5
279.81	114.5
280.042	107.5
280.273	108.5
280.505	104.5
280.736	106.5
280.968	103.5
281.199	120.5
281.431	112.5
281.662	104.5
281.894	103.5
282.125	104.5
282.356	115.5
282.588	114.5
282.819	102.5
283.051	109.5
283.282	118.5
283.513	119.5
283.745	115.5
283.976	120.5
284.207	108.5
284.439	101.5
284.67	121.5
284.901	125.5
285.132	108.5
285.364	107.5
285.595	103.5
285.826	111.5
286.057	119.5
286.288	93.5
286.52	128.5
286.751	125.5
286.982	128.5
287.213	121.5
287.444	96.5
287.675	116.5
287.906	131.5
288.138	118.5
288.369	122.5
288.6	119.5
288.831	107.5
289.062	121.5
289.293	121.5
289.524	107.5
289.755	108.5
289.986	124.5
290.217	126.5
290.448	126.5
290.679	122.5
290.91	137.5
291.141	120.5
291.371	125.5
291.602	115.5
291.833	128.5
292.064	114.5
292.295	117.5
292.526	127.5
292.757	127.5
292.987	119.5
293.218	112.5
293.449	102.5
293.68	105.5
293.91	114.5
294.141	109.5
294.372	118.5
294.603	129.5
294.833	120.5
295.064	115.5
295.295	109.5
295.525	121.5
295.756	121.5
295.987	132.5
296.217	108.5
296.448	123.5
296.679	116.5
296.909	134.5
297.14	128.5
297.37	140.5
297.601	116.5
297.831	121.5
298.062	132.5
298.292	141.5
298.523	115.5
298.753	127.5
298.984	143.5
299.214	121.5
299.445	125.5
299.675	137.5
299.905	128.5
300.136	127.5
300.366	123.5
300.597	124.5
300.827	125.5
301.057	122.5
301.288	133.5
301.518	121.5
301.748	141.5
301.979	157.5
302.209	125.5
302.439	116.5
302.669	123.5
302.9	132.5
303.13	130.5
303.36	117.5
303.59	123.5
303.82	117.5
304.051	124.5
304.281	122.5
304.511	130.5
304.741	138.5
304.971	128.5
305.201	125.5
305.431	134.5
305.661	118.5
305.891	122.5
306.121	126.5
306.352	131.5
306.582	132.5
306.812	125.5
307.042	136.5
307.272	138.5
307.502	126.5
307.731	127.5
307.961	133.5
308.191	130.5
308.421	120.5
308.651	114.5
308.881	115.5
309.111	109.5
309.341	125.5
309.571	120.5
309.8	111.5
310.03	126.5
310.26	148.5
310.49	121.5
310.72	138.5
310.949	132.5
311.179	123.5
311.409	109.5
311.639	116.5
311.868	108.5
312.098	139.5
312.328	133.5
312.557	133.5
312.787	138.5
313.017	145.5
313.246	141.5
313.476	142.5
313.706	125.5
313.935	126.5
314.165	134.5
314.394	128.5
314.624	138.5
314.853	134.5
315.083	123.5
315.312	132.5
315.542	124.5
315.771	118.5
316.001	118.5
316.23	131.5
316.46	121.5
316.689	132.5
316.919	124.5
317.148	130.5
317.377	144.5
317.607	125.5
317.836	123.5
318.065	123.5
318.295	132.5
318.524	120.5
318.753	130.5
318.983	122.5
319.212	134.5
319.441	129.5
319.67	137.5
319.9	133.5
320.129	122.5
320.358	131.5
320.587	118.5
320.816	137.5
321.046	122.5
321.275	128.5
321.504	120.5
321.733	129.5
321.962	133.5
322.191	115.5
322.42	122.5
322.649	123.5
322.878	126.5
323.108	128.5
323.337	138.5
323.566	125.5
323.795	127.5
324.024	137.5
324.253	125.5
324.482	127.5
324.71	132.5
324.939	140.5
325.168	134.5
325.397	137.5
325.626	149.5
325.855	143.5
326.084	138.5
326.313	125.5
326.542	127.5
326.77	131.5
326.999	139.5
327.228	123.5
327.457	106.5
327.686	127.5
327.914	145.5
328.143	149.5
328.372	127.5
328.6	131.5
328.829	128.5
329.058	129.5
329.287	127.5
329.515	146.5
329.744	130.5
329.972	130.5
330.201	129.5
330.43	122.5
330.658	137.5
330.887	142.5
331.115	145.5
331.344	130.5
331.572	148.5
331.801	141.5
332.03	154.5
332.258	137.5
332.486	136.5
332.715	150.5
332.943	158.5
333.172	155.5
333.4	155.5
333.629	159.5
333.857	157.5
334.085	145.5
334.314	163.5
334.542	143.5
334.771	162.5
334.999	154.5
335.227	166.5
335.455	157.5
335.684	153.5
335.912	153.5
336.14	142.5
336.369	157.5
336.597	139.5
336.825	155.5
337.053	148.5
337.281	154.5
337.51	162.5
337.738	162.5
337.966	144.5
338.194	122.5
338.422	137.5
338.65	145.5
338.878	137.5
339.106	146.5
339.334	145.5
339.562	144.5
339.79	132.5
340.018	142.5
340.246	139.5
340.474	127.5
340.702	134.5
340.93	140.5
341.158	139.5
341.386	153.5
341.614	129.5
341.842	126.5
342.07	146.5
342.298	128.5
342.526	146.5
342.754	134.5
342.981	132.5
343.209	139.5
343.437	182.5
343.665	162.5
343.893	153.5
344.12	165.5
344.348	153.5
344.576	144.5
344.804	140.5
345.031	139.5
345.259	123.5
345.487	127.5
345.714	140.5
345.942	137.5
346.17	153.5
346.397	135.5
346.625	125.5
346.853	132.5
347.08	138.5
347.308	144.5
347.535	129.5
347.763	139.5
347.99	153.5
348.218	138.5
348.445	154.5
348.673	139.5
348.9	137.5
349.128	143.5
349.355	119.5
349.583	140.5
349.81	122.5
350.037	129.5
350.265	127.5
350.492	143.5
350.72	145.5
350.947	130.5
351.174	131.5
351.402	137.5
351.629	132.5
351.856	127.5
352.083	139.5
352.311	138.5
352.538	134.5
352.765	130.5
352.992	155.5
353.22	142.5
353.447	122.5
353.674	137.5
353.901	132.5
354.128	132.5
354.355	123.5
354.583	135.5
354.81	130.5
355.037	142.5
355.264	142.5
355.491	133.5
355.718	130.5
355.945	128.5
356.172	140.5
356.399	150.5
356.626	135.5
356.853	143.5
357.08	157.5
357.307	139.5
357.534	125.5
357.761	125.5
357.988	154.5
358.215	149.5
358.441	141.5
358.668	144.5
358.895	132.5
359.122	146.5
359.349	140.5
359.576	153.5
359.802	132.5
360.029	149.5
360.256	116.5
360.483	124.5
360.709	119.5
360.936	153.5
361.163	153.5
361.39	111.5
361.616	126.5
361.843	128.5
362.07	133.5
362.296	134.5
362.523	132.5
362.749	144.5
362.976	128.5
363.203	143.5
363.429	136.5
363.656	137.5
363.882	138.5
364.109	151.5
364.335	130.5
364.562	132.5
364.788	124.5
365.015	151.5
365.241	131.5
365.468	140.5
365.694	126.5
365.92	130.5
366.147	137.5
366.373	129.5
366.599	134.5
366.826	132.5
367.052	138.5
367.278	137.5
367.505	131.5
367.731	158.5
367.957	137.5
368.184	124.5
368.41	127.5
368.636	137.5
368.862	130.5
369.089	133.5
369.315	131.5
369.541	131.5
369.767	131.5
369.993	136.5
370.219	138.5
370.445	132.5
370.672	138.5
370.898	142.5
371.124	146.5
371.35	155.5
371.576	145.5
371.802	143.5
372.028	113.5
372.254	143.5
372.48	111.5
372.706	138.5
372.932	136.5
373.158	162.5
373.384	168.5
373.61	146.5
373.835	135.5
374.061	137.5
374.287	134.5
374.513	130.5
374.739	134.5
374.965	145.5
375.191	147.5
375.416	139.5
375.642	156.5
375.868	153.5
376.094	148.5
376.319	128.5
376.545	157.5
376.771	135.5
376.997	131.5
377.222	147.5
377.448	133.5
377.674	143.5
377.899	127.5
378.125	139.5
378.35	142.5
378.576	153.5
378.802	138.5
379.027	149.5
379.253	149.5
379.478	153.5
379.704	128.5
379.929	141.5
380.155	134.5
380.38	151.5
380.606	139.5
380.831	124.5
381.057	167.5
381.282	133.5
381.507	156.5
381.733	145.5
381.958	131.5
382.184	129.5
382.409	143.5
382.634	158.5
382.86	135.5
383.085	141.5
383.31	143.5
383.535	164.5
383.761	149.5
383.986	150.5
384.211	158.5
384.436	158.5
384.662	145.5
384.887	163.5
385.112	154.5
385.337	150.5
385.562	146.5
385.787	159.5
386.013	151.5
386.238	162.5
386.463	148.5
386.688	177.5
386.913	139.5
387.138	157.5
387.363	134.5
387.588	163.5
387.813	166.5
388.038	148.5
388.263	159.5
388.488	160.5
388.713	156.5
388.938	146.5
389.163	153.5
389.387	149.5
389.612	149.5
389.837	156.5
390.062	162.5
390.287	154.5
390.512	158.5
390.736	146.5
390.961	174.5
391.186	160.5
391.411	157.5
391.636	155.5
391.86	169.5
392.085	167.5
392.31	172.5
392.534	168.5
392.759	171.5
392.984	174.5
393.208	158.5
393.433	172.5
393.658	172.5
393.882	164.5
394.107	156.5
394.331	159.5
394.556	163.5
394.78	163.5
395.005	172.5
395.229	165.5
395.454	172.5
395.678	166.5
395.903	181.5
396.127	183.5
396.352	178.5
396.576	188.5
396.801	163.5
397.025	155.5
397.249	181.5
397.474	173.5
397.698	161.5
397.922	161.5
398.147	161.5
398.371	173.5
398.595	179.5
398.82	185.5
399.044	185.5
399.268	220.5
399.492	235.5
399.717	240.5
399.941	221.5
400.165	212.5
400.389	183.5
400.613	194.5
400.837	186.5
401.062	194.5
401.286	167.5
401.51	188.5
401.734	173.5
401.958	178.5
402.182	183.5
402.406	180.5
402.63	188.5
402.854	171.5
403.078	197.5
403.302	188.5
403.526	202.5
403.75	201.5
403.974	198.5
404.198	193.5
404.422	205.5
404.645	203.5
404.869	206.5
405.093	187.5
405.317	201.5
405.541	200.5
405.765	211.5
405.988	200.5
406.212	209.5
406.436	178.5
406.66	210.5
406.883	215.5
407.107	215.5
407.331	226.5
407.555	210.5
407.778	196.5
408.002	201.5
408.226	198.5
408.449	197.5
408.673	198.5
408.896	218.5
409.12	210.5
409.344	205.5
409.567	202.5
409.791	207.5
410.014	213.5
410.238	203.5
410.461	203.5
410.685	201.5
410.908	184.5
411.132	201.5
411.355	192.5
411.578	196.5
411.802	195.5
412.025	176.5
412.249	190.5
412.472	192.5
412.695	190.5
412.919	178.5
413.142	174.5
413.365	179.5
413.589	176.5
413.812	181.5
414.035	178.5
414.258	183.5
414.482	190.5
414.705	196.5
414.928	179.5
415.151	185.5
415.374	196.5
415.597	177.5
415.821	183.5
416.044	164.5
416.267	171.5
416.49	185.5
416.713	189.5
416.936	186.5
417.159	163.5
417.382	191.5
417.605	185.5
417.828	193.5
418.051	167.5
418.274	201.5
418.497	180.5
418.72	180.5
418.943	195.5
419.166	183.5
419.389	199.5
419.611	195.5
419.834	190.5
420.057	209.5
420.28	161.5
420.503	190.5
420.726	186.5
420.948	175.5
421.171	175.5
421.394	166.5
421.617	173.5
421.839	183.5
422.062	189.5
422.285	189.5
422.507	195.5
422.73	195.5
422.953	191.5
423.175	184.5
423.398	177.5
423.621	181.5
423.843	189.5
424.066	205.5
424.288	185.5
424.511	185.5
424.733	197.5
424.956	179.5
425.178	179.5
425.401	185.5
425.623	203.5
425.846	158.5
426.068	176.5
426.291	171.5
426.513	162.5
426.735	188.5
426.958	161.5
427.18	183.5
427.402	179.5
427.625	169.5
427.847	170.5
428.069	175.5
428.292	175.5
428.514	177.5
428.736	162.5
428.958	181.5
429.181	180.5
429.403	160.5
429.625	157.5
429.847	167.5
430.069	163.5
430.292	161.5
430.514	181.5
430.736	168.5
430.958	165.5
431.18	162.5
431.402	180.5
431.624	177.5
431.846	175.5
432.068	167.5
432.29	175.5
432.512	174.5
432.734	174.5
432.956	170.5
433.178	190.5
433.4	174.5
433.622	184.5
433.844	183.5
434.066	177.5
434.287	161.5
434.509	187.5
434.731	172.5
434.953	169.5
435.175	189.5
435.397	187.5
435.618	185.5
435.84	173.5
436.062	157.5
436.284	171.5
436.505	169.5
436.727	181.5
436.949	174.5
437.17	167.5
437.392	160.5
437.614	166.5
437.835	163.5
438.057	168.5
438.278	158.5
438.5	162.5
438.721	171.5
438.943	159.5
439.165	161.5
439.386	175.5
439.608	180.5
439.829	182.5
440.05	189.5
440.272	175.5
440.493	180.5
440.715	168.5
440.936	190.5
441.158	180.5
441.379	166.5
441.6	185.5
441.822	181.5
442.043	194.5
442.264	183.5
442.486	193.5
442.707	186.5
442.928	187.5
443.149	177.5
443.371	193.5
443.592	180.5
443.813	194.5
444.034	192.5
444.255	205.5
444.476	193.5
444.698	208.5
444.919	214.5
445.14	467.5
445.361	310.5
445.582	196.5
445.803	177.5
446.024	162.5
446.245	186.5
446.466	189.5
446.687	161.5
446.908	173.5
447.129	185.5
447.35	169.5
447.571	174.5
447.792	176.5
448.013	165.5
448.234	169.5
448.455	164.5
448.675	190.5
448.896	163.5
449.117	171.5
449.338	168.5
449.559	175.5
449.779	170.5
450	158.5
450.221	155.5
450.442	172.5
450.662	185.5
450.883	149.5
451.104	169.5
451.324	161.5
451.545	162.5
451.766	163.5
451.986	162.5
452.207	162.5
452.428	154.5
452.648	173.5
452.869	168.5
453.089	150.5
453.31	155.5
453.53	179.5
453.751	165.5
453.971	151.5
454.192	149.5
454.412	148.5
454.633	161.5
454.853	162.5
455.073	146.5
455.294	155.5
455.514	156.5
455.734	159.5
455.955	162.5
456.175	153.5
456.395	164.5
456.616	172.5
456.836	163.5
457.056	151.5
457.276	152.5
457.497	163.5
457.717	158.5
457.937	183.5
458.157	159.5
458.377	177.5
458.598	176.5
458.818	146.5
459.038	167.5
459.258	179.5
459.478	175.5
459.698	159.5
459.918	178.5
460.138	180.5
460.358	182.5
460.578	201.5
460.798	201.5
461.018	195.5
461.238	209.5
461.458	185.5
461.678	194.5
461.898	204.5
462.118	220.5
462.338	204.5
462.558	194.5
462.777	208.5
462.997	225.5
463.217	240.5
463.437	222.5
463.657	213.5
463.876	200.5
464.096	221.5
464.316	202.5
464.536	206.5
464.755	214.5
464.975	221.5
465.195	182.5
465.414	201.5
465.634	159.5
465.854	172.5
466.073	181.5
466.293	193.5
466.512	162.5
466.732	176.5
466.951	155.5
467.171	181.5
467.391	167.5
467.61	172.5
467.829	182.5
468.049	153.5
468.268	165.5
468.488	162.5
468.707	155.5
468.927	153.5
469.146	170.5
469.365	169.5
469.585	148.5
469.804	170.5
470.023	174.5
470.243	186.5
470.462	163.5
470.681	174.5
470.901	176.5
471.12	162.5
471.339	167.5
471.558	173.5
471.777	182.5
471.997	163.5
472.216	169.5
472.435	148.5
472.654	157.5
472.873	163.5
473.092	178.5
473.311	166.5
473.53	167.5
473.749	156.5
473.968	174.5
474.187	163.5
474.406	133.5
474.625	162.5
474.844	159.5
475.063	157.5
475.282	176.5
475.501	163.5
475.72	169.5
475.939	159.5
476.158	164.5
476.377	154.5
476.596	172.5
476.814	164.5
477.033	161.5
477.252	193.5
477.471	154.5
477.69	177.5
477.908	192.5
478.127	196.5
478.346	177.5
478.564	171.5
478.783	190.5
479.002	187.5
479.22	196.5
479.439	191.5
479.658	201.5
479.876	205.5
480.095	197.5
480.313	179.5
480.532	206.5
480.751	192.5
480.969	179.5
481.188	186.5
481.406	177.5
481.624	180.5
481.843	172.5
482.061	171.5
482.28	180.5
482.498	171.5
482.717	174.5
482.935	181.5
483.153	192.5
483.372	186.5
483.59	181.5
483.808	165.5
484.027	180.5
484.245	166.5
484.463	192.5
484.681	194.5
484.9	189.5
485.118	196.5
485.336	182.5
485.554	167.5
485.772	186.5
485.99	182.5
486.209	177.5
486.427	173.5
486.645	199.5
486.863	196.5
487.081	191.5
487.299	189.5
487.517	176.5
487.735	185.5
487.953	199.5
488.171	180.5
488.389	183.5
488.607	173.5
488.825	178.5
489.043	176.5
489.261	187.5
489.479	169.5
489.696	182.5
489.914	183.5
490.132	182.5
490.35	182.5
490.568	194.5
490.786	192.5
491.003	181.5
491.221	185.5
491.439	191.5
491.657	182.5
491.874	187.5
492.092	185.5
492.31	190.5
492.527	191.5
492.745	205.5
492.963	198.5
493.18	201.5
493.398	185.5
493.615	206.5
493.833	203.5
494.05	177.5
494.268	206.5
494.485	210.5
494.703	202.5
494.92	194.5
495.138	209.5
495.355	199.5
495.573	212.5
495.79	197.5
496.008	213.5
496.225	198.5
496.442	193.5
496.66	201.5
496.877	185.5
497.094	217.5
497.312	205.5
497.529	212.5
497.746	218.5
497.963	223.5
498.181	213.5
498.398	225.5
498.615	234.5
498.832	230.5
499.049	259.5
499.267	275.5
499.484	290.5
499.701	347.5
499.918	369.5
500.135	398.5
500.352	429.5
500.569	423.5
500.786	411.5
501.003	399.5
501.22	363.5
501.437	321.5
501.654	298.5
501.871	281.5
502.088	266.5
502.305	255.5
502.522	238.5
502.739	225.5
502.956	213.5
503.172	223.5
503.389	211.5
503.606	203.5
503.823	206.5
504.04	213.5
504.256	220.5
504.473	225.5
504.69	213.5
504.907	218.5
505.123	198.5
505.34	206.5
505.557	199.5
505.773	177.5
505.99	187.5
506.207	190.5
506.423	163.5
506.64	173.5
506.856	154.5
507.073	180.5
507.289	175.5
507.506	184.5
507.722	172.5
507.939	182.5
508.155	176.5
508.372	166.5
508.588	173.5
508.805	181.5
509.021	148.5
509.238	176.5
509.454	176.5
509.67	161.5
509.887	161.5
510.103	160.5
510.319	171.5
510.536	167.5
510.752	160.5
510.968	162.5
511.184	146.5
511.401	166.5
511.617	178.5
511.833	158.5
512.049	158.5
512.265	170.5
512.481	165.5
512.698	169.5
512.914	165.5
513.13	177.5
513.346	152.5
513.562	160.5
513.778	157.5
513.994	178.5
514.21	171.5
514.426	180.5
514.642	170.5
514.858	181.5
515.074	175.5
515.29	192.5
515.506	172.5
515.721	172.5
515.937	163.5
516.153	170.5
516.369	192.5
516.585	185.5
516.801	193.5
517.016	207.5
517.232	185.5
517.448	201.5
517.664	211.5
517.879	226.5
518.095	192.5
518.311	202.5
518.527	189.5
518.742	185.5
518.958	191.5
519.173	197.5
519.389	176.5
519.605	170.5
519.82	183.5
520.036	172.5
520.251	176.5
520.467	167.5
520.682	171.5
520.898	172.5
521.113	172.5
521.329	191.5
521.544	172.5
521.76	159.5
521.975	177.5
522.19	155.5
522.406	167.5
522.621	153.5
522.836	166.5
523.052	157.5
