Data from SampD_HRD10591_00082.txt Node
Date: Mon Jan 19 11:41:49 EST 2026
User: Yrep
Spectrometer: HR+D1059
Trigger mode: 0
Integration Time (sec): 3.443000E-1
Scans to average: 1
Electric dark correction enabled: true
Nonlinearity correction enabled: false
Boxcar width: 0
XAxis mode: Wavelengths
Number of Pixels in Spectrum: 2048
>>>>>Begin Spectral Data<<<<<
223.165	-22
223.4	-22
223.635	-22
223.869	-35
224.104	-29
224.338	-5
224.573	-24
224.808	-7
225.042	-5
225.277	-9
225.511	10
225.746	22
225.98	4
226.215	8
226.449	16
226.683	19
226.918	24
227.152	33
227.387	52
227.621	30
227.856	54
228.09	33
228.324	49
228.559	54
228.793	56
229.027	61
229.262	69
229.496	59
229.73	69
229.964	76
230.199	80
230.433	76
230.667	83
230.901	88
231.136	90
231.37	77
231.604	85
231.838	85
232.072	85
232.306	77
232.541	76
232.775	90
233.009	99
233.243	88
233.477	82
233.711	87
233.945	92
234.179	89
234.413	91
234.647	96
234.881	76
235.115	88
235.349	78
235.583	86
235.817	83
236.051	77
236.285	94
236.519	92
236.753	85
236.987	82
237.221	99
237.455	74
237.689	78
237.922	89
238.156	95
238.39	78
238.624	82
238.858	80
239.091	87
239.325	77
239.559	81
239.793	88
240.027	98
240.26	84
240.494	80
240.728	97
240.961	90
241.195	89
241.429	96
241.662	91
241.896	100
242.13	82
242.363	82
242.597	81
242.83	85
243.064	69
243.298	86
243.531	92
243.765	78
243.998	84
244.232	89
244.465	89
244.699	98
244.932	86
245.166	88
245.399	90
245.633	84
245.866	78
246.099	95
246.333	93
246.566	82
246.8	73
247.033	100
247.266	85
247.5	90
247.733	90
247.966	90
248.2	91
248.433	75
248.666	81
248.899	91
249.133	91
249.366	102
249.599	80
249.832	91
250.066	104
250.299	86
250.532	104
250.765	92
250.998	96
251.231	88
251.465	93
251.698	60
251.931	87
252.164	105
252.397	89
252.63	92
252.863	96
253.096	102
253.329	101
253.562	87
253.795	96
254.028	107
254.261	84
254.494	99
254.727	115
254.96	96
255.193	88
255.426	81
255.659	79
255.892	87
256.124	106
256.357	102
256.59	83
256.823	97
257.056	94
257.289	88
257.521	98
257.754	81
257.987	90
258.22	108
258.452	104
258.685	88
258.918	100
259.151	92
259.383	103
259.616	99
259.849	94
260.081	92
260.314	85
260.547	90
260.779	100
261.012	105
261.244	101
261.477	105
261.71	84
261.942	105
262.175	104
262.407	89
262.64	95
262.872	95
263.105	103
263.337	108
263.57	98
263.802	90
264.035	105
264.267	89
264.499	94
264.732	106
264.964	102
265.197	101
265.429	81
265.661	101
265.894	105
266.126	120
266.358	100
266.591	108
266.823	111
267.055	97
267.287	105
267.52	89
267.752	106
267.984	116
268.216	90
268.448	109
268.681	104
268.913	102
269.145	100
269.377	107
269.609	100
269.841	104
270.073	112
270.306	99
270.538	113
270.77	98
271.002	100
271.234	100
271.466	115
271.698	116
271.93	114
272.162	115
272.394	109
272.626	112
272.858	108
273.09	101
273.322	98
273.553	111
273.785	103
274.017	97
274.249	99
274.481	113
274.713	107
274.945	100
275.176	109
275.408	115
275.64	116
275.872	121
276.104	112
276.335	106
276.567	120
276.799	106
277.031	103
277.262	106
277.494	121
277.726	118
277.957	93
278.189	108
278.421	110
278.652	108
278.884	110
279.115	98
279.347	108
279.579	117
279.81	104
280.042	112
280.273	120
280.505	109
280.736	113
280.968	124
281.199	109
281.431	107
281.662	122
281.894	121
282.125	113
282.356	112
282.588	107
282.819	120
283.051	113
283.282	99
283.513	121
283.745	114
283.976	112
284.207	101
284.439	113
284.67	117
284.901	120
285.132	98
285.364	109
285.595	113
285.826	105
286.057	123
286.288	122
286.52	123
286.751	104
286.982	122
287.213	108
287.444	113
287.675	107
287.906	110
288.138	115
288.369	127
288.6	120
288.831	122
289.062	127
289.293	109
289.524	111
289.755	110
289.986	122
290.217	124
290.448	112
290.679	133
290.91	138
291.141	111
291.371	116
291.602	144
291.833	101
292.064	116
292.295	106
292.526	111
292.757	121
292.987	131
293.218	118
293.449	128
293.68	115
293.91	117
294.141	120
294.372	115
294.603	129
294.833	117
295.064	117
295.295	128
295.525	108
295.756	110
295.987	112
296.217	111
296.448	124
296.679	129
296.909	129
297.14	131
297.37	136
297.601	121
297.831	124
298.062	129
298.292	127
298.523	126
298.753	132
298.984	132
299.214	142
299.445	124
299.675	141
299.905	130
300.136	134
300.366	123
300.597	127
300.827	126
301.057	124
301.288	126
301.518	132
301.748	131
301.979	167
302.209	138
302.439	114
302.669	136
302.9	140
303.13	127
303.36	130
303.59	103
303.82	118
304.051	133
304.281	129
304.511	123
304.741	129
304.971	113
305.201	142
305.431	136
305.661	112
305.891	134
306.121	122
306.352	122
306.582	139
306.812	137
307.042	119
307.272	129
307.502	115
307.731	121
307.961	133
308.191	123
308.421	119
308.651	132
308.881	139
309.111	133
309.341	124
309.571	114
309.8	120
310.03	130
310.26	111
310.49	129
310.72	123
310.949	127
311.179	133
311.409	149
311.639	128
311.868	121
312.098	133
312.328	122
312.557	129
312.787	130
313.017	144
313.246	128
313.476	129
313.706	133
313.935	136
314.165	134
314.394	127
314.624	131
314.853	126
315.083	126
315.312	109
315.542	128
315.771	133
316.001	130
316.23	129
316.46	129
316.689	128
316.919	154
317.148	133
317.377	132
317.607	141
317.836	123
318.065	121
318.295	140
318.524	138
318.753	127
318.983	137
319.212	156
319.441	136
319.67	130
319.9	115
320.129	124
320.358	125
320.587	148
320.816	136
321.046	132
321.275	140
321.504	129
321.733	133
321.962	125
322.191	147
322.42	138
322.649	135
322.878	141
323.108	121
323.337	132
323.566	145
323.795	117
324.024	131
324.253	138
324.482	120
324.71	148
324.939	130
325.168	129
325.397	120
325.626	128
325.855	118
326.084	139
326.313	143
326.542	130
326.77	142
326.999	128
327.228	117
327.457	128
327.686	116
327.914	141
328.143	136
328.372	124
328.6	116
328.829	133
329.058	141
329.287	146
329.515	122
329.744	144
329.972	141
330.201	154
330.43	131
330.658	129
330.887	141
331.115	136
331.344	139
331.572	140
331.801	147
332.03	155
332.258	152
332.486	142
332.715	140
332.943	142
333.172	155
333.4	159
333.629	175
333.857	166
334.085	157
334.314	165
334.542	147
334.771	164
334.999	141
335.227	153
335.455	144
335.684	157
335.912	159
336.14	148
336.369	151
336.597	163
336.825	154
337.053	164
337.281	156
337.51	139
337.738	145
337.966	139
338.194	150
338.422	144
338.65	147
338.878	143
339.106	147
339.334	163
339.562	139
339.79	134
340.018	142
340.246	129
340.474	137
340.702	136
340.93	127
341.158	146
341.386	142
341.614	140
341.842	160
342.07	140
342.298	136
342.526	142
342.754	126
342.981	141
343.209	141
343.437	174
343.665	159
343.893	155
344.12	167
344.348	159
344.576	144
344.804	143
345.031	136
345.259	152
345.487	137
345.714	135
345.942	133
346.17	156
346.397	127
346.625	141
346.853	149
347.08	129
347.308	155
347.535	134
347.763	156
347.99	137
348.218	135
348.445	130
348.673	140
348.9	146
349.128	146
349.355	137
349.583	140
349.81	137
350.037	137
350.265	149
350.492	147
350.72	126
350.947	127
351.174	145
351.402	125
351.629	140
351.856	149
352.083	132
352.311	136
352.538	143
352.765	142
352.992	156
353.22	141
353.447	139
353.674	132
353.901	136
354.128	139
354.355	133
354.583	135
354.81	145
355.037	146
355.264	136
355.491	144
355.718	136
355.945	128
356.172	132
356.399	126
356.626	135
356.853	138
357.08	141
357.307	144
357.534	122
357.761	148
357.988	143
358.215	148
358.441	157
358.668	136
358.895	135
359.122	124
359.349	135
359.576	160
359.802	141
360.029	150
360.256	129
360.483	132
360.709	117
360.936	169
361.163	133
361.39	132
361.616	128
361.843	152
362.07	114
362.296	134
362.523	127
362.749	136
362.976	133
363.203	144
363.429	130
363.656	129
363.882	130
364.109	143
364.335	142
364.562	131
364.788	143
365.015	144
365.241	131
365.468	147
365.694	143
365.92	133
366.147	133
366.373	122
366.599	132
366.826	137
367.052	146
367.278	130
367.505	143
367.731	152
367.957	134
368.184	138
368.41	130
368.636	139
368.862	144
369.089	141
369.315	143
369.541	152
369.767	130
369.993	136
370.219	141
370.445	145
370.672	144
370.898	139
371.124	132
371.35	150
371.576	152
371.802	136
372.028	141
372.254	140
372.48	149
372.706	143
372.932	137
373.158	154
373.384	143
373.61	160
373.835	117
374.061	129
374.287	152
374.513	127
374.739	152
374.965	140
375.191	149
375.416	144
375.642	156
375.868	156
376.094	139
376.319	133
376.545	144
376.771	153
376.997	140
377.222	143
377.448	137
377.674	147
377.899	160
378.125	143
378.35	133
378.576	143
378.802	132
379.027	162
379.253	145
379.478	132
379.704	128
379.929	148
380.155	143
380.38	140
380.606	143
380.831	155
381.057	164
381.282	153
381.507	141
381.733	150
381.958	134
382.184	138
382.409	137
382.634	156
382.86	157
383.085	151
383.31	147
383.535	154
383.761	146
383.986	162
384.211	159
384.436	177
384.662	149
384.887	163
385.112	149
385.337	152
385.562	167
385.787	153
386.013	149
386.238	168
386.463	161
386.688	188
386.913	162
387.138	163
387.363	168
387.588	170
387.813	157
388.038	167
388.263	138
388.488	162
388.713	165
388.938	159
389.163	158
389.387	165
389.612	152
389.837	153
390.062	154
390.287	168
390.512	173
390.736	174
390.961	162
391.186	165
391.411	181
391.636	165
391.86	184
392.085	178
392.31	161
392.534	168
392.759	180
392.984	171
393.208	167
393.433	173
393.658	163
393.882	158
394.107	182
394.331	171
394.556	164
394.78	180
395.005	187
395.229	172
395.454	188
395.678	165
395.903	160
396.127	173
396.352	165
396.576	166
396.801	166
397.025	166
397.249	185
397.474	176
397.698	179
397.922	173
398.147	161
398.371	189
398.595	184
398.82	179
399.044	192
399.268	198
399.492	238
399.717	253
399.941	222
400.165	230
400.389	211
400.613	208
400.837	182
401.062	192
401.286	193
401.51	198
401.734	184
401.958	208
402.182	188
402.406	193
402.63	193
402.854	178
403.078	197
403.302	213
403.526	192
403.75	195
403.974	206
404.198	216
404.422	225
404.645	224
404.869	209
405.093	207
405.317	200
405.541	197
405.765	188
405.988	169
406.212	206
406.436	209
406.66	195
406.883	216
407.107	228
407.331	216
407.555	229
407.778	223
408.002	203
408.226	212
408.449	205
408.673	202
408.896	202
409.12	214
409.344	206
409.567	214
409.791	213
410.014	206
410.238	213
410.461	206
410.685	180
410.908	201
411.132	209
411.355	185
411.578	189
411.802	184
412.025	201
412.249	185
412.472	207
412.695	181
412.919	201
413.142	197
413.365	177
413.589	199
413.812	183
414.035	193
414.258	187
414.482	193
414.705	193
414.928	200
415.151	190
415.374	177
415.597	186
415.821	184
416.044	188
416.267	177
416.49	180
416.713	206
416.936	186
417.159	188
417.382	197
417.605	162
417.828	184
418.051	187
418.274	184
418.497	190
418.72	200
418.943	206
419.166	200
419.389	203
419.611	193
419.834	190
420.057	198
420.28	206
420.503	191
420.726	190
420.948	173
421.171	179
421.394	194
421.617	187
421.839	190
422.062	184
422.285	185
422.507	193
422.73	185
422.953	190
423.175	182
423.398	199
423.621	204
423.843	194
424.066	194
424.288	192
424.511	215
424.733	197
424.956	201
425.178	195
425.401	196
425.623	183
425.846	189
426.068	197
426.291	190
426.513	188
426.735	185
426.958	166
427.18	176
427.402	185
427.625	167
427.847	172
428.069	182
428.292	173
428.514	179
428.736	184
428.958	163
429.181	148
429.403	179
429.625	168
429.847	189
430.069	167
430.292	192
430.514	184
430.736	185
430.958	157
431.18	160
431.402	186
431.624	172
431.846	180
432.068	185
432.29	176
432.512	180
432.734	174
432.956	167
433.178	171
433.4	182
433.622	197
433.844	171
434.066	181
434.287	187
434.509	171
434.731	200
434.953	188
435.175	189
435.397	203
435.618	182
435.84	184
436.062	172
436.284	169
436.505	182
436.727	193
436.949	195
437.17	173
437.392	171
437.614	187
437.835	174
438.057	167
438.278	167
438.5	156
438.721	174
438.943	172
439.165	162
439.386	176
439.608	167
439.829	168
440.05	167
440.272	198
440.493	185
440.715	184
440.936	179
441.158	187
441.379	182
441.6	192
441.822	191
442.043	195
442.264	185
442.486	185
442.707	195
442.928	184
443.149	174
443.371	179
443.592	192
443.813	171
444.034	183
444.255	208
444.476	185
444.698	212
444.919	210
445.14	466
445.361	310
445.582	196
445.803	178
446.024	178
446.245	189
446.466	184
446.687	172
446.908	179
447.129	195
447.35	180
447.571	182
447.792	162
448.013	161
448.234	188
448.455	163
448.675	160
448.896	161
449.117	167
449.338	178
449.559	166
449.779	155
450	144
450.221	158
450.442	175
450.662	179
450.883	182
451.104	156
451.324	157
451.545	174
451.766	176
451.986	172
452.207	174
452.428	156
452.648	167
452.869	164
453.089	150
453.31	162
453.53	156
453.751	164
453.971	163
454.192	155
454.412	160
454.633	160
454.853	160
455.073	167
455.294	162
455.514	172
455.734	152
455.955	152
456.175	164
456.395	161
456.616	146
456.836	168
457.056	152
457.276	146
457.497	147
457.717	162
457.937	149
458.157	176
458.377	158
458.598	154
458.818	169
459.038	167
459.258	170
459.478	176
459.698	186
459.918	201
460.138	197
460.358	199
460.578	207
460.798	189
461.018	194
461.238	198
461.458	205
461.678	192
461.898	194
462.118	202
462.338	225
462.558	211
462.777	212
462.997	223
463.217	249
463.437	244
463.657	212
463.876	223
464.096	234
464.316	210
464.536	204
464.755	221
464.975	202
465.195	213
465.414	204
465.634	184
465.854	198
466.073	189
466.293	170
466.512	161
466.732	163
466.951	171
467.171	169
467.391	166
467.61	168
467.829	153
468.049	170
468.268	159
468.488	162
468.707	163
468.927	170
469.146	183
469.365	176
469.585	193
469.804	185
470.023	201
470.243	172
470.462	166
470.681	180
470.901	176
471.12	191
471.339	183
471.558	186
471.777	176
471.997	166
472.216	161
472.435	150
472.654	178
472.873	171
473.092	176
473.311	156
473.53	149
473.749	154
473.968	143
474.187	156
474.406	172
474.625	168
474.844	164
475.063	162
475.282	149
475.501	171
475.72	160
475.939	160
476.158	160
476.377	164
476.596	161
476.814	175
477.033	173
477.252	163
477.471	181
477.69	185
477.908	180
478.127	199
478.346	173
478.564	186
478.783	195
479.002	197
479.22	183
479.439	204
479.658	187
479.876	193
480.095	192
480.313	202
480.532	192
480.751	205
480.969	194
481.188	181
481.406	198
481.624	177
481.843	155
482.061	169
482.28	176
482.498	181
482.717	179
482.935	186
483.153	180
483.372	182
483.59	186
483.808	195
484.027	188
484.245	191
484.463	172
484.681	192
484.9	186
485.118	178
485.336	178
485.554	204
485.772	209
485.99	197
486.209	201
486.427	183
486.645	193
486.863	195
487.081	179
487.299	207
487.517	198
487.735	195
487.953	189
488.171	198
488.389	186
488.607	188
488.825	193
489.043	201
489.261	198
489.479	176
489.696	182
489.914	187
490.132	188
490.35	202
490.568	196
490.786	169
491.003	186
491.221	187
491.439	192
491.657	205
491.874	200
492.092	192
492.31	192
492.527	192
492.745	190
492.963	205
493.18	204
493.398	197
493.615	202
493.833	186
494.05	205
494.268	186
494.485	216
494.703	210
494.92	201
495.138	195
495.355	182
495.573	200
495.79	200
496.008	222
496.225	191
496.442	204
496.66	215
496.877	221
497.094	211
497.312	217
497.529	227
497.746	217
497.963	192
498.181	216
498.398	230
498.615	236
498.832	268
499.049	269
499.267	288
499.484	309
499.701	344
499.918	373
500.135	417
500.352	454
500.569	460
500.786	452
501.003	421
501.22	364
501.437	357
501.654	307
501.871	280
502.088	266
502.305	256
502.522	257
502.739	240
502.956	229
503.172	227
503.389	229
503.606	216
503.823	220
504.04	224
504.256	219
504.473	214
504.69	225
504.907	212
505.123	202
505.34	184
505.557	202
505.773	207
505.99	189
506.207	184
506.423	188
506.64	185
506.856	187
507.073	178
507.289	184
507.506	186
507.722	180
507.939	192
508.155	186
508.372	186
508.588	173
508.805	176
509.021	193
509.238	188
509.454	165
509.67	177
509.887	178
510.103	173
510.319	164
510.536	178
510.752	164
510.968	164
511.184	178
511.401	156
511.617	173
511.833	156
512.049	179
512.265	175
512.481	178
512.698	153
512.914	159
513.13	160
513.346	175
513.562	171
513.778	168
513.994	166
514.21	165
514.426	172
514.642	178
514.858	177
515.074	169
515.29	182
515.506	185
515.721	181
515.937	174
516.153	190
516.369	171
516.585	177
516.801	185
517.016	192
517.232	198
517.448	226
517.664	221
517.879	233
518.095	220
518.311	212
518.527	195
518.742	192
518.958	177
519.173	201
519.389	183
519.605	191
519.82	180
520.036	166
520.251	173
520.467	181
520.682	172
520.898	178
521.113	153
521.329	162
521.544	164
521.76	141
521.975	161
522.19	172
522.406	160
522.621	164
522.836	166
523.052	156
523.267	158
523.482	174
523.698	169
523.913	170
524.128	172
524.343	171
524.559	161
524.774	184
524.989	182
525.204	166
525.419	163
525.634	149
525.849	155
526.064	166
526.28	160
526.495	155
526.71	173
526.925	163
527.14	159
527.355	165
527.57	165
527.785	146
527.999	144
528.214	152
528.429	156
528.644	160
528.859	181
529.074	175
529.289	185
529.503	171
529.718	177
529.933	178
530.148	154
530.363	158
530.577	158
530.792	172
531.007	172
531.221	173
531.436	154
531.651	169
531.865	171
532.08	154
532.295	155
532.509	178
532.724	158
532.938	157
533.153	178
533.367	168
533.582	175
533.796	166
534.011	166
534.225	153
534.44	157
534.654	157
534.868	176
535.083	162
535.297	160
535.511	167
535.726	169
535.94	157
536.154	162
536.369	169
536.583	166
536.797	168
537.011	160
537.225	164
537.44	145
537.654	156
537.868	151
538.082	170
538.296	176
538.51	151
538.724	165
538.938	162
539.153	158
539.367	159
539.581	164
539.795	164
540.009	170
540.222	163
540.436	161
540.65	156
540.864	157
541.078	167
541.292	153
541.506	166
541.72	156
541.934	174
542.147	164
542.361	172
542.575	163
542.789	161
543.002	146
543.216	165
543.43	145
543.644	165
543.857	140
544.071	154
544.285	166
544.498	165
544.712	170
544.925	170
545.139	181
545.352	172
545.566	169
545.779	168
545.993	157
546.206	164
546.42	162
546.633	177
546.847	185
547.06	159
547.274	170
547.487	163
547.7	158
547.914	158
548.127	165
548.34	162
548.554	170
548.767	177
548.98	166
549.193	173
549.407	154
549.62	180
549.833	167
550.046	178
550.259	169
550.473	157
550.686	163
550.899	168
551.112	173
551.325	168
551.538	165
551.751	170
551.964	173
552.177	163
552.39	166
552.603	179
552.816	174
553.029	177
553.242	188
553.455	184
553.667	185
553.88	180
554.093	172
554.306	177
554.519	181
554.732	176
554.944	182
555.157	162
555.37	161
555.583	160
555.795	156
556.008	164
556.221	143
556.433	150
556.646	150
556.859	149
557.071	166
557.284	153
557.496	139
557.709	141
557.921	157
558.134	161
558.346	155
558.559	142
558.771	133
558.984	152
559.196	160
559.409	161
559.621	154
559.833	157
560.046	137
560.258	162
560.47	136
560.683	158
560.895	163
561.107	159
561.32	147
561.532	142
561.744	138
561.956	138
562.168	154
562.381	152
562.593	170
562.805	146
563.017	149
563.229	154
563.441	137
563.653	156
563.865	130
564.077	140
564.289	156
564.501	154
564.713	170
564.925	176
565.137	169
565.349	166
565.561	161
565.773	158
565.985	173
566.197	183
566.408	181
566.62	200
566.832	208
