Data from SampD_HRD10591_00076.txt Node
Date: Mon Jan 19 11:41:47 EST 2026
User: Yrep
Spectrometer: HR+D1059
Trigger mode: 0
Integration Time (sec): 3.443000E-1
Scans to average: 1
Electric dark correction enabled: true
Nonlinearity correction enabled: false
Boxcar width: 0
XAxis mode: Wavelengths
Number of Pixels in Spectrum: 2048
>>>>>Begin Spectral Data<<<<<
223.165	-25.31
223.4	-25.31
223.635	-25.31
223.869	-22.31
224.104	-31.31
224.338	-14.31
224.573	-18.31
224.808	-10.31
225.042	-15.31
225.277	-3.31
225.511	-8.31
225.746	18.69
225.98	6.69
226.215	13.69
226.449	27.69
226.683	21.69
226.918	24.69
227.152	35.69
227.387	35.69
227.621	46.69
227.856	46.69
228.09	46.69
228.324	42.69
228.559	73.69
228.793	54.69
229.027	67.69
229.262	70.69
229.496	69.69
229.73	76.69
229.964	91.69
230.199	90.69
230.433	89.69
230.667	66.69
230.901	79.69
231.136	79.69
231.37	85.69
231.604	101.69
231.838	85.69
232.072	82.69
232.306	90.69
232.541	76.69
232.775	74.69
233.009	84.69
233.243	96.69
233.477	97.69
233.711	81.69
233.945	79.69
234.179	85.69
234.413	90.69
234.647	87.69
234.881	86.69
235.115	94.69
235.349	83.69
235.583	86.69
235.817	88.69
236.051	93.69
236.285	92.69
236.519	83.69
236.753	80.69
236.987	90.69
237.221	76.69
237.455	76.69
237.689	79.69
237.922	90.69
238.156	69.69
238.39	78.69
238.624	77.69
238.858	75.69
239.091	80.69
239.325	89.69
239.559	76.69
239.793	83.69
240.027	83.69
240.26	73.69
240.494	82.69
240.728	75.69
240.961	61.69
241.195	77.69
241.429	87.69
241.662	70.69
241.896	70.69
242.13	83.69
242.363	70.69
242.597	93.69
242.83	95.69
243.064	92.69
243.298	81.69
243.531	91.69
243.765	91.69
243.998	82.69
244.232	95.69
244.465	84.69
244.699	84.69
244.932	87.69
245.166	78.69
245.399	98.69
245.633	84.69
245.866	83.69
246.099	95.69
246.333	79.69
246.566	86.69
246.8	87.69
247.033	87.69
247.266	74.69
247.5	100.69
247.733	90.69
247.966	88.69
248.2	93.69
248.433	87.69
248.666	95.69
248.899	94.69
249.133	84.69
249.366	94.69
249.599	100.69
249.832	86.69
250.066	83.69
250.299	81.69
250.532	97.69
250.765	94.69
250.998	87.69
251.231	90.69
251.465	83.69
251.698	83.69
251.931	90.69
252.164	97.69
252.397	90.69
252.63	92.69
252.863	84.69
253.096	87.69
253.329	102.69
253.562	90.69
253.795	93.69
254.028	97.69
254.261	94.69
254.494	92.69
254.727	108.69
254.96	93.69
255.193	93.69
255.426	103.69
255.659	96.69
255.892	91.69
256.124	91.69
256.357	89.69
256.59	95.69
256.823	84.69
257.056	96.69
257.289	91.69
257.521	81.69
257.754	98.69
257.987	78.69
258.22	100.69
258.452	87.69
258.685	79.69
258.918	93.69
259.151	79.69
259.383	86.69
259.616	109.69
259.849	97.69
260.081	109.69
260.314	111.69
260.547	97.69
260.779	97.69
261.012	94.69
261.244	103.69
261.477	102.69
261.71	86.69
261.942	103.69
262.175	84.69
262.407	95.69
262.64	98.69
262.872	103.69
263.105	85.69
263.337	86.69
263.57	113.69
263.802	97.69
264.035	100.69
264.267	102.69
264.499	97.69
264.732	104.69
264.964	88.69
265.197	100.69
265.429	89.69
265.661	107.69
265.894	109.69
266.126	96.69
266.358	94.69
266.591	104.69
266.823	98.69
267.055	106.69
267.287	95.69
267.52	99.69
267.752	110.69
267.984	101.69
268.216	94.69
268.448	102.69
268.681	98.69
268.913	87.69
269.145	91.69
269.377	93.69
269.609	95.69
269.841	102.69
270.073	101.69
270.306	103.69
270.538	98.69
270.77	98.69
271.002	99.69
271.234	109.69
271.466	92.69
271.698	111.69
271.93	88.69
272.162	112.69
272.394	113.69
272.626	98.69
272.858	102.69
273.09	94.69
273.322	109.69
273.553	102.69
273.785	103.69
274.017	97.69
274.249	102.69
274.481	109.69
274.713	109.69
274.945	116.69
275.176	100.69
275.408	110.69
275.64	110.69
275.872	97.69
276.104	86.69
276.335	100.69
276.567	102.69
276.799	103.69
277.031	94.69
277.262	102.69
277.494	117.69
277.726	108.69
277.957	112.69
278.189	118.69
278.421	112.69
278.652	106.69
278.884	95.69
279.115	101.69
279.347	106.69
279.579	99.69
279.81	99.69
280.042	115.69
280.273	114.69
280.505	108.69
280.736	118.69
280.968	111.69
281.199	108.69
281.431	108.69
281.662	114.69
281.894	109.69
282.125	108.69
282.356	111.69
282.588	124.69
282.819	122.69
283.051	89.69
283.282	106.69
283.513	114.69
283.745	107.69
283.976	111.69
284.207	113.69
284.439	122.69
284.67	122.69
284.901	118.69
285.132	114.69
285.364	113.69
285.595	122.69
285.826	108.69
286.057	110.69
286.288	116.69
286.52	106.69
286.751	111.69
286.982	121.69
287.213	118.69
287.444	115.69
287.675	119.69
287.906	103.69
288.138	109.69
288.369	131.69
288.6	114.69
288.831	101.69
289.062	129.69
289.293	124.69
289.524	110.69
289.755	112.69
289.986	101.69
290.217	112.69
290.448	113.69
290.679	116.69
290.91	124.69
291.141	98.69
291.371	124.69
291.602	104.69
291.833	124.69
292.064	120.69
292.295	114.69
292.526	123.69
292.757	113.69
292.987	121.69
293.218	109.69
293.449	107.69
293.68	115.69
293.91	123.69
294.141	137.69
294.372	125.69
294.603	105.69
294.833	109.69
295.064	106.69
295.295	100.69
295.525	108.69
295.756	138.69
295.987	107.69
296.217	114.69
296.448	123.69
296.679	111.69
296.909	126.69
297.14	121.69
297.37	108.69
297.601	120.69
297.831	119.69
298.062	122.69
298.292	124.69
298.523	126.69
298.753	123.69
298.984	123.69
299.214	146.69
299.445	131.69
299.675	125.69
299.905	129.69
300.136	106.69
300.366	118.69
300.597	126.69
300.827	114.69
301.057	119.69
301.288	122.69
301.518	122.69
301.748	126.69
301.979	163.69
302.209	121.69
302.439	122.69
302.669	112.69
302.9	111.69
303.13	122.69
303.36	137.69
303.59	131.69
303.82	124.69
304.051	126.69
304.281	134.69
304.511	141.69
304.741	135.69
304.971	124.69
305.201	138.69
305.431	119.69
305.661	135.69
305.891	131.69
306.121	135.69
306.352	132.69
306.582	130.69
306.812	139.69
307.042	129.69
307.272	119.69
307.502	112.69
307.731	131.69
307.961	125.69
308.191	123.69
308.421	137.69
308.651	117.69
308.881	123.69
309.111	123.69
309.341	132.69
309.571	115.69
309.8	113.69
310.03	124.69
310.26	128.69
310.49	123.69
310.72	126.69
310.949	138.69
311.179	131.69
311.409	108.69
311.639	128.69
311.868	125.69
312.098	115.69
312.328	127.69
312.557	121.69
312.787	137.69
313.017	127.69
313.246	141.69
313.476	129.69
313.706	133.69
313.935	128.69
314.165	127.69
314.394	127.69
314.624	120.69
314.853	147.69
315.083	128.69
315.312	121.69
315.542	122.69
315.771	121.69
316.001	121.69
316.23	117.69
316.46	130.69
316.689	133.69
316.919	141.69
317.148	150.69
317.377	147.69
317.607	131.69
317.836	132.69
318.065	123.69
318.295	119.69
318.524	116.69
318.753	133.69
318.983	134.69
319.212	137.69
319.441	128.69
319.67	125.69
319.9	131.69
320.129	116.69
320.358	115.69
320.587	131.69
320.816	122.69
321.046	139.69
321.275	137.69
321.504	118.69
321.733	118.69
321.962	112.69
322.191	134.69
322.42	122.69
322.649	115.69
322.878	127.69
323.108	130.69
323.337	126.69
323.566	121.69
323.795	135.69
324.024	134.69
324.253	122.69
324.482	134.69
324.71	131.69
324.939	127.69
325.168	132.69
325.397	130.69
325.626	127.69
325.855	120.69
326.084	133.69
326.313	134.69
326.542	111.69
326.77	126.69
326.999	138.69
327.228	132.69
327.457	126.69
327.686	131.69
327.914	135.69
328.143	145.69
328.372	134.69
328.6	130.69
328.829	131.69
329.058	130.69
329.287	117.69
329.515	134.69
329.744	123.69
329.972	129.69
330.201	157.69
330.43	134.69
330.658	134.69
330.887	129.69
331.115	147.69
331.344	151.69
331.572	146.69
331.801	151.69
332.03	141.69
332.258	151.69
332.486	147.69
332.715	130.69
332.943	154.69
333.172	162.69
333.4	154.69
333.629	159.69
333.857	168.69
334.085	158.69
334.314	157.69
334.542	146.69
334.771	147.69
334.999	165.69
335.227	149.69
335.455	165.69
335.684	144.69
335.912	154.69
336.14	145.69
336.369	143.69
336.597	125.69
336.825	144.69
337.053	155.69
337.281	135.69
337.51	146.69
337.738	147.69
337.966	142.69
338.194	135.69
338.422	131.69
338.65	156.69
338.878	140.69
339.106	154.69
339.334	167.69
339.562	154.69
339.79	133.69
340.018	160.69
340.246	130.69
340.474	121.69
340.702	137.69
340.93	144.69
341.158	138.69
341.386	145.69
341.614	126.69
341.842	145.69
342.07	129.69
342.298	133.69
342.526	128.69
342.754	138.69
342.981	118.69
343.209	140.69
343.437	175.69
343.665	150.69
343.893	153.69
344.12	161.69
344.348	130.69
344.576	135.69
344.804	127.69
345.031	126.69
345.259	144.69
345.487	139.69
345.714	148.69
345.942	139.69
346.17	147.69
346.397	125.69
346.625	141.69
346.853	134.69
347.08	135.69
347.308	152.69
347.535	125.69
347.763	121.69
347.99	145.69
348.218	131.69
348.445	126.69
348.673	116.69
348.9	121.69
349.128	138.69
349.355	138.69
349.583	132.69
349.81	139.69
350.037	120.69
350.265	135.69
350.492	134.69
350.72	138.69
350.947	132.69
351.174	133.69
351.402	133.69
351.629	135.69
351.856	139.69
352.083	127.69
352.311	123.69
352.538	124.69
352.765	132.69
352.992	142.69
353.22	141.69
353.447	141.69
353.674	134.69
353.901	138.69
354.128	129.69
354.355	130.69
354.583	132.69
354.81	147.69
355.037	134.69
355.264	134.69
355.491	144.69
355.718	139.69
355.945	125.69
356.172	137.69
356.399	136.69
356.626	124.69
356.853	126.69
357.08	126.69
357.307	147.69
357.534	143.69
357.761	140.69
357.988	134.69
358.215	125.69
358.441	138.69
358.668	131.69
358.895	144.69
359.122	140.69
359.349	131.69
359.576	139.69
359.802	122.69
360.029	131.69
360.256	128.69
360.483	121.69
360.709	121.69
360.936	153.69
361.163	139.69
361.39	117.69
361.616	144.69
361.843	138.69
362.07	143.69
362.296	129.69
362.523	137.69
362.749	136.69
362.976	138.69
363.203	140.69
363.429	135.69
363.656	143.69
363.882	142.69
364.109	146.69
364.335	143.69
364.562	122.69
364.788	151.69
365.015	135.69
365.241	141.69
365.468	165.69
365.694	132.69
365.92	134.69
366.147	121.69
366.373	123.69
366.599	134.69
366.826	120.69
367.052	144.69
367.278	149.69
367.505	128.69
367.731	142.69
367.957	130.69
368.184	125.69
368.41	129.69
368.636	139.69
368.862	151.69
369.089	127.69
369.315	129.69
369.541	141.69
369.767	144.69
369.993	139.69
370.219	141.69
370.445	114.69
370.672	130.69
370.898	143.69
371.124	136.69
371.35	139.69
371.576	139.69
371.802	135.69
372.028	123.69
372.254	139.69
372.48	135.69
372.706	126.69
372.932	141.69
373.158	145.69
373.384	156.69
373.61	154.69
373.835	141.69
374.061	147.69
374.287	139.69
374.513	145.69
374.739	137.69
374.965	137.69
375.191	156.69
375.416	145.69
375.642	137.69
375.868	141.69
376.094	136.69
376.319	149.69
376.545	152.69
376.771	153.69
376.997	145.69
377.222	140.69
377.448	136.69
377.674	142.69
377.899	138.69
378.125	133.69
378.35	163.69
378.576	137.69
378.802	127.69
379.027	155.69
379.253	147.69
379.478	141.69
379.704	138.69
379.929	157.69
380.155	141.69
380.38	129.69
380.606	135.69
380.831	141.69
381.057	149.69
381.282	139.69
381.507	141.69
381.733	163.69
381.958	130.69
382.184	140.69
382.409	155.69
382.634	141.69
382.86	145.69
383.085	154.69
383.31	152.69
383.535	155.69
383.761	157.69
383.986	153.69
384.211	160.69
384.436	148.69
384.662	153.69
384.887	149.69
385.112	150.69
385.337	162.69
385.562	165.69
385.787	155.69
386.013	153.69
386.238	150.69
386.463	159.69
386.688	183.69
386.913	135.69
387.138	153.69
387.363	142.69
387.588	161.69
387.813	165.69
388.038	156.69
388.263	151.69
388.488	145.69
388.713	147.69
388.938	171.69
389.163	146.69
389.387	153.69
389.612	148.69
389.837	156.69
390.062	157.69
390.287	147.69
390.512	149.69
390.736	162.69
390.961	159.69
391.186	167.69
391.411	166.69
391.636	180.69
391.86	148.69
392.085	169.69
392.31	166.69
392.534	160.69
392.759	157.69
392.984	167.69
393.208	167.69
393.433	171.69
393.658	169.69
393.882	163.69
394.107	176.69
394.331	178.69
394.556	160.69
394.78	158.69
395.005	162.69
395.229	161.69
395.454	167.69
395.678	168.69
395.903	164.69
396.127	169.69
396.352	155.69
396.576	158.69
396.801	161.69
397.025	150.69
397.249	173.69
397.474	150.69
397.698	160.69
397.922	157.69
398.147	143.69
398.371	151.69
398.595	179.69
398.82	180.69
399.044	196.69
399.268	197.69
399.492	225.69
399.717	228.69
399.941	239.69
400.165	208.69
400.389	186.69
400.613	190.69
400.837	157.69
401.062	186.69
401.286	179.69
401.51	177.69
401.734	178.69
401.958	178.69
402.182	174.69
402.406	172.69
402.63	192.69
402.854	202.69
403.078	193.69
403.302	180.69
403.526	191.69
403.75	205.69
403.974	198.69
404.198	201.69
404.422	190.69
404.645	197.69
404.869	188.69
405.093	205.69
405.317	197.69
405.541	189.69
405.765	172.69
405.988	172.69
406.212	171.69
406.436	192.69
406.66	205.69
406.883	201.69
407.107	191.69
407.331	210.69
407.555	220.69
407.778	212.69
408.002	208.69
408.226	205.69
408.449	193.69
408.673	196.69
408.896	214.69
409.12	196.69
409.344	203.69
409.567	195.69
409.791	196.69
410.014	205.69
410.238	193.69
410.461	191.69
410.685	195.69
410.908	180.69
411.132	191.69
411.355	173.69
411.578	177.69
411.802	196.69
412.025	179.69
412.249	181.69
412.472	179.69
412.695	167.69
412.919	186.69
413.142	183.69
413.365	181.69
413.589	175.69
413.812	168.69
414.035	181.69
414.258	193.69
414.482	175.69
414.705	182.69
414.928	186.69
415.151	191.69
415.374	171.69
415.597	173.69
415.821	169.69
416.044	174.69
416.267	174.69
416.49	181.69
416.713	181.69
416.936	180.69
417.159	162.69
417.382	181.69
417.605	179.69
417.828	180.69
418.051	173.69
418.274	191.69
418.497	191.69
418.72	189.69
418.943	180.69
419.166	194.69
419.389	209.69
419.611	190.69
419.834	202.69
420.057	185.69
420.28	181.69
420.503	194.69
420.726	202.69
420.948	154.69
421.171	178.69
421.394	170.69
421.617	175.69
421.839	176.69
422.062	191.69
422.285	175.69
422.507	171.69
422.73	170.69
422.953	145.69
423.175	179.69
423.398	191.69
423.621	186.69
423.843	190.69
424.066	176.69
424.288	184.69
424.511	177.69
424.733	190.69
424.956	186.69
425.178	207.69
425.401	168.69
425.623	173.69
425.846	175.69
426.068	188.69
426.291	176.69
426.513	181.69
426.735	175.69
426.958	173.69
427.18	173.69
427.402	178.69
427.625	168.69
427.847	151.69
428.069	188.69
428.292	175.69
428.514	168.69
428.736	160.69
428.958	162.69
429.181	165.69
429.403	170.69
429.625	169.69
429.847	169.69
430.069	160.69
430.292	163.69
430.514	156.69
430.736	173.69
430.958	174.69
431.18	166.69
431.402	143.69
431.624	159.69
431.846	148.69
432.068	159.69
432.29	148.69
432.512	181.69
432.734	178.69
432.956	154.69
433.178	177.69
433.4	160.69
433.622	179.69
433.844	174.69
434.066	178.69
434.287	165.69
434.509	182.69
434.731	174.69
434.953	179.69
435.175	170.69
435.397	173.69
435.618	173.69
435.84	175.69
436.062	175.69
436.284	175.69
436.505	175.69
436.727	160.69
436.949	177.69
437.17	172.69
437.392	152.69
437.614	197.69
437.835	155.69
438.057	156.69
438.278	164.69
438.5	148.69
438.721	170.69
438.943	157.69
439.165	151.69
439.386	167.69
439.608	179.69
439.829	152.69
440.05	174.69
440.272	161.69
440.493	191.69
440.715	183.69
440.936	182.69
441.158	175.69
441.379	172.69
441.6	173.69
441.822	179.69
442.043	186.69
442.264	171.69
442.486	180.69
442.707	176.69
442.928	187.69
443.149	185.69
443.371	179.69
443.592	175.69
443.813	190.69
444.034	192.69
444.255	197.69
444.476	201.69
444.698	214.69
444.919	217.69
445.14	441.69
445.361	303.69
445.582	189.69
445.803	172.69
446.024	183.69
446.245	177.69
446.466	178.69
446.687	164.69
446.908	157.69
447.129	163.69
447.35	169.69
447.571	170.69
447.792	165.69
448.013	170.69
448.234	160.69
448.455	149.69
448.675	171.69
448.896	161.69
449.117	156.69
449.338	162.69
449.559	169.69
449.779	166.69
450	162.69
450.221	171.69
450.442	159.69
450.662	159.69
450.883	170.69
451.104	174.69
451.324	169.69
451.545	168.69
451.766	152.69
451.986	174.69
452.207	176.69
452.428	151.69
452.648	172.69
452.869	159.69
453.089	154.69
453.31	146.69
453.53	150.69
453.751	145.69
453.971	159.69
454.192	132.69
454.412	143.69
454.633	155.69
454.853	158.69
455.073	146.69
455.294	147.69
455.514	164.69
455.734	161.69
455.955	160.69
456.175	158.69
456.395	154.69
456.616	151.69
456.836	160.69
457.056	145.69
457.276	148.69
457.497	139.69
457.717	146.69
457.937	144.69
458.157	162.69
458.377	142.69
458.598	153.69
458.818	163.69
459.038	153.69
459.258	164.69
459.478	191.69
459.698	176.69
459.918	169.69
460.138	175.69
460.358	185.69
460.578	188.69
460.798	193.69
461.018	189.69
461.238	173.69
461.458	189.69
461.678	191.69
461.898	179.69
462.118	191.69
462.338	188.69
462.558	196.69
462.777	212.69
462.997	205.69
463.217	224.69
463.437	217.69
463.657	193.69
463.876	190.69
464.096	201.69
464.316	191.69
464.536	199.69
464.755	196.69
464.975	189.69
465.195	187.69
465.414	194.69
465.634	181.69
465.854	168.69
466.073	174.69
466.293	161.69
466.512	175.69
466.732	156.69
466.951	179.69
467.171	165.69
467.391	165.69
467.61	161.69
467.829	152.69
468.049	159.69
468.268	163.69
468.488	154.69
468.707	166.69
468.927	155.69
469.146	155.69
469.365	164.69
469.585	186.69
469.804	172.69
470.023	173.69
470.243	160.69
470.462	170.69
470.681	168.69
470.901	160.69
471.12	152.69
471.339	181.69
471.558	159.69
471.777	144.69
471.997	171.69
472.216	151.69
472.435	148.69
472.654	164.69
472.873	155.69
473.092	173.69
473.311	170.69
473.53	156.69
473.749	169.69
473.968	164.69
474.187	166.69
474.406	154.69
474.625	156.69
474.844	165.69
475.063	154.69
475.282	171.69
475.501	161.69
475.72	178.69
475.939	161.69
476.158	175.69
476.377	164.69
476.596	171.69
476.814	158.69
477.033	151.69
477.252	187.69
477.471	183.69
477.69	167.69
477.908	187.69
478.127	185.69
478.346	176.69
478.564	180.69
478.783	171.69
479.002	170.69
479.22	176.69
479.439	184.69
479.658	198.69
479.876	162.69
480.095	174.69
480.313	185.69
480.532	199.69
480.751	207.69
480.969	178.69
481.188	177.69
481.406	183.69
481.624	186.69
481.843	155.69
482.061	158.69
482.28	165.69
482.498	179.69
482.717	173.69
482.935	161.69
483.153	168.69
483.372	179.69
483.59	177.69
483.808	178.69
484.027	183.69
484.245	187.69
484.463	178.69
484.681	199.69
484.9	166.69
485.118	197.69
485.336	176.69
485.554	169.69
485.772	177.69
485.99	188.69
486.209	174.69
486.427	175.69
486.645	167.69
486.863	175.69
487.081	178.69
487.299	175.69
487.517	177.69
487.735	179.69
487.953	189.69
488.171	188.69
488.389	186.69
488.607	188.69
488.825	174.69
489.043	171.69
489.261	181.69
489.479	171.69
489.696	189.69
489.914	179.69
490.132	177.69
490.35	197.69
490.568	177.69
490.786	172.69
491.003	194.69
491.221	171.69
491.439	185.69
491.657	165.69
491.874	208.69
492.092	194.69
492.31	182.69
492.527	185.69
492.745	179.69
492.963	179.69
493.18	186.69
493.398	195.69
493.615	181.69
493.833	181.69
494.05	190.69
494.268	187.69
494.485	198.69
494.703	193.69
494.92	195.69
495.138	185.69
495.355	197.69
495.573	186.69
495.79	172.69
496.008	173.69
496.225	191.69
496.442	189.69
496.66	195.69
496.877	192.69
497.094	218.69
497.312	217.69
497.529	211.69
497.746	217.69
497.963	207.69
498.181	224.69
498.398	225.69
498.615	236.69
498.832	242.69
499.049	250.69
499.267	287.69
499.484	300.69
499.701	319.69
499.918	339.69
500.135	378.69
500.352	414.69
500.569	420.69
500.786	399.69
501.003	377.69
501.22	340.69
501.437	309.69
501.654	292.69
501.871	265.69
502.088	252.69
502.305	245.69
502.522	231.69
502.739	231.69
502.956	220.69
503.172	230.69
503.389	208.69
503.606	200.69
503.823	188.69
504.04	203.69
504.256	227.69
504.473	215.69
504.69	221.69
504.907	221.69
