Data from SampD_HRD10591_00020.txt Node
Date: Mon Jan 19 11:41:28 EST 2026
User: Yrep
Spectrometer: HR+D1059
Trigger mode: 0
Integration Time (sec): 3.443000E-1
Scans to average: 1
Electric dark correction enabled: true
Nonlinearity correction enabled: false
Boxcar width: 0
XAxis mode: Wavelengths
Number of Pixels in Spectrum: 2048
>>>>>Begin Spectral Data<<<<<
223.165	-23.88
223.4	-23.88
223.635	-23.88
223.869	-12.88
224.104	-21.88
224.338	-7.88
224.573	-19.88
224.808	-15.88
225.042	-0.88
225.277	-16.88
225.511	10.12
225.746	4.12
225.98	14.12
226.215	15.12
226.449	15.12
226.683	-1.88
226.918	39.12
227.152	24.12
227.387	34.12
227.621	33.12
227.856	48.12
228.09	52.12
228.324	46.12
228.559	61.12
228.793	70.12
229.027	72.12
229.262	68.12
229.496	63.12
229.73	84.12
229.964	83.12
230.199	74.12
230.433	68.12
230.667	85.12
230.901	77.12
231.136	77.12
231.37	88.12
231.604	73.12
231.838	75.12
232.072	88.12
232.306	94.12
232.541	74.12
232.775	79.12
233.009	99.12
233.243	85.12
233.477	90.12
233.711	85.12
233.945	96.12
234.179	81.12
234.413	77.12
234.647	80.12
234.881	79.12
235.115	85.12
235.349	78.12
235.583	84.12
235.817	91.12
236.051	80.12
236.285	83.12
236.519	87.12
236.753	94.12
236.987	66.12
237.221	68.12
237.455	86.12
237.689	82.12
237.922	78.12
238.156	74.12
238.39	72.12
238.624	89.12
238.858	79.12
239.091	64.12
239.325	79.12
239.559	79.12
239.793	92.12
240.027	96.12
240.26	68.12
240.494	79.12
240.728	63.12
240.961	80.12
241.195	80.12
241.429	81.12
241.662	78.12
241.896	95.12
242.13	90.12
242.363	70.12
242.597	75.12
242.83	82.12
243.064	76.12
243.298	86.12
243.531	78.12
243.765	84.12
243.998	91.12
244.232	88.12
244.465	90.12
244.699	84.12
244.932	88.12
245.166	96.12
245.399	76.12
245.633	91.12
245.866	83.12
246.099	84.12
246.333	76.12
246.566	87.12
246.8	79.12
247.033	80.12
247.266	103.12
247.5	80.12
247.733	80.12
247.966	94.12
248.2	83.12
248.433	103.12
248.666	90.12
248.899	91.12
249.133	96.12
249.366	86.12
249.599	80.12
249.832	89.12
250.066	93.12
250.299	87.12
250.532	99.12
250.765	74.12
250.998	87.12
251.231	95.12
251.465	87.12
251.698	84.12
251.931	77.12
252.164	79.12
252.397	87.12
252.63	99.12
252.863	82.12
253.096	87.12
253.329	85.12
253.562	82.12
253.795	99.12
254.028	91.12
254.261	82.12
254.494	83.12
254.727	90.12
254.96	78.12
255.193	80.12
255.426	101.12
255.659	84.12
255.892	101.12
256.124	89.12
256.357	93.12
256.59	88.12
256.823	96.12
257.056	70.12
257.289	81.12
257.521	88.12
257.754	80.12
257.987	89.12
258.22	85.12
258.452	95.12
258.685	97.12
258.918	87.12
259.151	80.12
259.383	93.12
259.616	94.12
259.849	85.12
260.081	99.12
260.314	90.12
260.547	98.12
260.779	81.12
261.012	88.12
261.244	79.12
261.477	93.12
261.71	95.12
261.942	98.12
262.175	90.12
262.407	80.12
262.64	94.12
262.872	81.12
263.105	99.12
263.337	86.12
263.57	78.12
263.802	88.12
264.035	92.12
264.267	91.12
264.499	92.12
264.732	89.12
264.964	86.12
265.197	91.12
265.429	86.12
265.661	82.12
265.894	108.12
266.126	109.12
266.358	103.12
266.591	101.12
266.823	97.12
267.055	82.12
267.287	96.12
267.52	100.12
267.752	87.12
267.984	97.12
268.216	99.12
268.448	100.12
268.681	117.12
268.913	94.12
269.145	103.12
269.377	111.12
269.609	85.12
269.841	104.12
270.073	97.12
270.306	94.12
270.538	94.12
270.77	85.12
271.002	101.12
271.234	102.12
271.466	99.12
271.698	87.12
271.93	99.12
272.162	95.12
272.394	79.12
272.626	100.12
272.858	78.12
273.09	96.12
273.322	91.12
273.553	82.12
273.785	105.12
274.017	94.12
274.249	109.12
274.481	96.12
274.713	87.12
274.945	108.12
275.176	106.12
275.408	95.12
275.64	86.12
275.872	106.12
276.104	96.12
276.335	102.12
276.567	107.12
276.799	95.12
277.031	83.12
277.262	94.12
277.494	96.12
277.726	95.12
277.957	98.12
278.189	92.12
278.421	98.12
278.652	90.12
278.884	88.12
279.115	96.12
279.347	102.12
279.579	97.12
279.81	104.12
280.042	107.12
280.273	102.12
280.505	94.12
280.736	86.12
280.968	112.12
281.199	111.12
281.431	104.12
281.662	95.12
281.894	98.12
282.125	92.12
282.356	92.12
282.588	106.12
282.819	84.12
283.051	96.12
283.282	110.12
283.513	112.12
283.745	95.12
283.976	88.12
284.207	97.12
284.439	117.12
284.67	110.12
284.901	114.12
285.132	107.12
285.364	108.12
285.595	103.12
285.826	94.12
286.057	107.12
286.288	98.12
286.52	103.12
286.751	99.12
286.982	107.12
287.213	90.12
287.444	100.12
287.675	95.12
287.906	99.12
288.138	107.12
288.369	117.12
288.6	110.12
288.831	103.12
289.062	117.12
289.293	102.12
289.524	111.12
289.755	107.12
289.986	102.12
290.217	97.12
290.448	101.12
290.679	115.12
290.91	106.12
291.141	116.12
291.371	112.12
291.602	106.12
291.833	93.12
292.064	101.12
292.295	113.12
292.526	107.12
292.757	111.12
292.987	108.12
293.218	97.12
293.449	111.12
293.68	102.12
293.91	105.12
294.141	114.12
294.372	86.12
294.603	112.12
294.833	112.12
295.064	104.12
295.295	106.12
295.525	109.12
295.756	111.12
295.987	100.12
296.217	102.12
296.448	108.12
296.679	103.12
296.909	122.12
297.14	107.12
297.37	103.12
297.601	123.12
297.831	121.12
298.062	116.12
298.292	107.12
298.523	92.12
298.753	104.12
298.984	113.12
299.214	98.12
299.445	121.12
299.675	113.12
299.905	93.12
300.136	108.12
300.366	105.12
300.597	111.12
300.827	115.12
301.057	109.12
301.288	97.12
301.518	109.12
301.748	103.12
301.979	148.12
302.209	94.12
302.439	110.12
302.669	110.12
302.9	119.12
303.13	104.12
303.36	101.12
303.59	105.12
303.82	126.12
304.051	104.12
304.281	125.12
304.511	127.12
304.741	106.12
304.971	108.12
305.201	110.12
305.431	123.12
305.661	100.12
305.891	103.12
306.121	103.12
306.352	113.12
306.582	116.12
306.812	102.12
307.042	109.12
307.272	105.12
307.502	114.12
307.731	104.12
307.961	101.12
308.191	109.12
308.421	116.12
308.651	108.12
308.881	94.12
309.111	98.12
309.341	94.12
309.571	110.12
309.8	94.12
310.03	113.12
310.26	92.12
310.49	119.12
310.72	117.12
310.949	101.12
311.179	95.12
311.409	110.12
311.639	110.12
311.868	107.12
312.098	121.12
312.328	114.12
312.557	112.12
312.787	94.12
313.017	99.12
313.246	116.12
313.476	111.12
313.706	103.12
313.935	124.12
314.165	96.12
314.394	107.12
314.624	93.12
314.853	117.12
315.083	117.12
315.312	108.12
315.542	108.12
315.771	127.12
316.001	110.12
316.23	111.12
316.46	100.12
316.689	83.12
316.919	97.12
317.148	104.12
317.377	109.12
317.607	100.12
317.836	93.12
318.065	106.12
318.295	114.12
318.524	99.12
318.753	115.12
318.983	108.12
319.212	121.12
319.441	107.12
319.67	108.12
319.9	99.12
320.129	107.12
320.358	122.12
320.587	106.12
320.816	102.12
321.046	99.12
321.275	108.12
321.504	102.12
321.733	109.12
321.962	111.12
322.191	104.12
322.42	118.12
322.649	125.12
322.878	104.12
323.108	122.12
323.337	106.12
323.566	109.12
323.795	102.12
324.024	136.12
324.253	117.12
324.482	100.12
324.71	118.12
324.939	117.12
325.168	98.12
325.397	111.12
325.626	114.12
325.855	113.12
326.084	118.12
326.313	103.12
326.542	95.12
326.77	108.12
326.999	112.12
327.228	114.12
327.457	101.12
327.686	117.12
327.914	111.12
328.143	127.12
328.372	108.12
328.6	113.12
328.829	107.12
329.058	109.12
329.287	117.12
329.515	114.12
329.744	120.12
329.972	111.12
330.201	111.12
330.43	111.12
330.658	109.12
330.887	110.12
331.115	116.12
331.344	115.12
331.572	121.12
331.801	107.12
332.03	118.12
332.258	115.12
332.486	111.12
332.715	107.12
332.943	132.12
333.172	109.12
333.4	122.12
333.629	127.12
333.857	115.12
334.085	131.12
334.314	129.12
334.542	120.12
334.771	122.12
334.999	110.12
335.227	116.12
335.455	131.12
335.684	113.12
335.912	127.12
336.14	107.12
336.369	125.12
336.597	111.12
336.825	123.12
337.053	108.12
337.281	112.12
337.51	119.12
337.738	138.12
337.966	111.12
338.194	118.12
338.422	115.12
338.65	115.12
338.878	122.12
339.106	102.12
339.334	120.12
339.562	120.12
339.79	115.12
340.018	105.12
340.246	104.12
340.474	113.12
340.702	102.12
340.93	111.12
341.158	118.12
341.386	118.12
341.614	110.12
341.842	114.12
342.07	130.12
342.298	117.12
342.526	111.12
342.754	118.12
342.981	104.12
343.209	127.12
343.437	142.12
343.665	117.12
343.893	124.12
344.12	126.12
344.348	122.12
344.576	106.12
344.804	119.12
345.031	110.12
345.259	122.12
345.487	129.12
345.714	107.12
345.942	105.12
346.17	104.12
346.397	99.12
346.625	102.12
346.853	107.12
347.08	119.12
347.308	120.12
347.535	99.12
347.763	120.12
347.99	121.12
348.218	118.12
348.445	102.12
348.673	113.12
348.9	113.12
349.128	111.12
349.355	107.12
349.583	109.12
349.81	108.12
350.037	109.12
350.265	94.12
350.492	103.12
350.72	124.12
350.947	117.12
351.174	101.12
351.402	99.12
351.629	123.12
351.856	122.12
352.083	108.12
352.311	109.12
352.538	110.12
352.765	124.12
352.992	123.12
353.22	114.12
353.447	112.12
353.674	121.12
353.901	115.12
354.128	112.12
354.355	111.12
354.583	110.12
354.81	123.12
355.037	106.12
355.264	128.12
355.491	104.12
355.718	112.12
355.945	108.12
356.172	110.12
356.399	108.12
356.626	113.12
356.853	94.12
357.08	116.12
357.307	128.12
357.534	111.12
357.761	113.12
357.988	120.12
358.215	116.12
358.441	114.12
358.668	122.12
358.895	109.12
359.122	109.12
359.349	104.12
359.576	105.12
359.802	134.12
360.029	104.12
360.256	110.12
360.483	99.12
360.709	112.12
360.936	115.12
361.163	106.12
361.39	92.12
361.616	111.12
361.843	108.12
362.07	110.12
362.296	107.12
362.523	106.12
362.749	114.12
362.976	127.12
363.203	119.12
363.429	114.12
363.656	116.12
363.882	108.12
364.109	126.12
364.335	125.12
364.562	112.12
364.788	116.12
365.015	118.12
365.241	111.12
365.468	122.12
365.694	117.12
365.92	121.12
366.147	127.12
366.373	106.12
366.599	133.12
366.826	107.12
367.052	110.12
367.278	109.12
367.505	113.12
367.731	110.12
367.957	102.12
368.184	99.12
368.41	115.12
368.636	106.12
368.862	116.12
369.089	120.12
369.315	110.12
369.541	132.12
369.767	103.12
369.993	114.12
370.219	102.12
370.445	94.12
370.672	104.12
370.898	98.12
371.124	132.12
371.35	113.12
371.576	109.12
371.802	127.12
372.028	105.12
372.254	109.12
372.48	127.12
372.706	108.12
372.932	126.12
373.158	114.12
373.384	114.12
373.61	116.12
373.835	117.12
374.061	117.12
374.287	120.12
374.513	119.12
374.739	122.12
374.965	132.12
375.191	128.12
375.416	112.12
375.642	115.12
375.868	127.12
376.094	109.12
376.319	97.12
376.545	115.12
376.771	106.12
376.997	121.12
377.222	115.12
377.448	118.12
377.674	121.12
377.899	124.12
378.125	101.12
378.35	116.12
378.576	104.12
378.802	123.12
379.027	115.12
379.253	113.12
379.478	118.12
379.704	111.12
379.929	111.12
380.155	112.12
380.38	113.12
380.606	114.12
380.831	115.12
381.057	119.12
381.282	123.12
381.507	113.12
381.733	127.12
381.958	117.12
382.184	109.12
382.409	116.12
382.634	105.12
382.86	118.12
383.085	125.12
383.31	116.12
383.535	122.12
383.761	129.12
383.986	127.12
384.211	118.12
384.436	126.12
384.662	108.12
384.887	130.12
385.112	123.12
385.337	130.12
385.562	121.12
385.787	131.12
386.013	133.12
386.238	126.12
386.463	131.12
386.688	156.12
386.913	112.12
387.138	119.12
387.363	113.12
387.588	138.12
387.813	124.12
388.038	125.12
388.263	114.12
388.488	135.12
388.713	126.12
388.938	117.12
389.163	104.12
389.387	103.12
389.612	123.12
389.837	114.12
390.062	119.12
390.287	134.12
390.512	127.12
390.736	103.12
390.961	105.12
391.186	119.12
391.411	119.12
391.636	118.12
391.86	131.12
392.085	129.12
392.31	134.12
392.534	136.12
392.759	127.12
392.984	139.12
393.208	135.12
393.433	127.12
393.658	140.12
393.882	108.12
394.107	131.12
394.331	125.12
394.556	114.12
394.78	121.12
395.005	140.12
395.229	127.12
395.454	144.12
395.678	133.12
395.903	124.12
396.127	129.12
396.352	131.12
396.576	126.12
396.801	123.12
397.025	130.12
397.249	118.12
397.474	135.12
397.698	136.12
397.922	121.12
398.147	122.12
398.371	118.12
398.595	138.12
398.82	131.12
399.044	138.12
399.268	133.12
399.492	172.12
399.717	171.12
399.941	156.12
400.165	176.12
400.389	140.12
400.613	141.12
400.837	124.12
401.062	141.12
401.286	129.12
401.51	144.12
401.734	130.12
401.958	128.12
402.182	128.12
402.406	140.12
402.63	140.12
402.854	140.12
403.078	141.12
403.302	140.12
403.526	146.12
403.75	144.12
403.974	143.12
404.198	154.12
404.422	154.12
404.645	139.12
404.869	145.12
405.093	154.12
405.317	146.12
405.541	150.12
405.765	143.12
405.988	142.12
406.212	141.12
406.436	141.12
406.66	126.12
406.883	159.12
407.107	144.12
407.331	140.12
407.555	163.12
407.778	155.12
408.002	157.12
408.226	158.12
408.449	136.12
408.673	134.12
408.896	145.12
409.12	131.12
409.344	142.12
409.567	142.12
409.791	159.12
410.014	143.12
410.238	169.12
410.461	146.12
410.685	128.12
410.908	134.12
411.132	137.12
411.355	130.12
411.578	152.12
411.802	145.12
412.025	150.12
412.249	138.12
412.472	152.12
412.695	129.12
412.919	119.12
413.142	143.12
413.365	151.12
413.589	139.12
413.812	154.12
414.035	144.12
414.258	130.12
414.482	138.12
414.705	141.12
414.928	127.12
415.151	137.12
415.374	131.12
415.597	144.12
415.821	140.12
416.044	140.12
416.267	128.12
416.49	140.12
416.713	120.12
416.936	138.12
417.159	140.12
417.382	127.12
417.605	141.12
417.828	149.12
418.051	142.12
418.274	139.12
418.497	126.12
418.72	134.12
418.943	161.12
419.166	153.12
419.389	162.12
419.611	133.12
419.834	143.12
420.057	138.12
420.28	141.12
420.503	147.12
420.726	135.12
420.948	131.12
421.171	127.12
421.394	138.12
421.617	135.12
421.839	127.12
422.062	132.12
422.285	145.12
422.507	146.12
422.73	142.12
422.953	152.12
423.175	145.12
423.398	135.12
423.621	152.12
423.843	153.12
424.066	131.12
424.288	146.12
424.511	140.12
424.733	145.12
424.956	145.12
425.178	138.12
425.401	138.12
425.623	127.12
425.846	128.12
426.068	117.12
426.291	117.12
426.513	123.12
426.735	135.12
426.958	128.12
427.18	143.12
427.402	124.12
427.625	123.12
427.847	135.12
428.069	144.12
428.292	140.12
428.514	138.12
428.736	118.12
428.958	115.12
429.181	126.12
429.403	131.12
429.625	136.12
429.847	131.12
430.069	140.12
430.292	125.12
430.514	131.12
430.736	129.12
430.958	132.12
431.18	131.12
431.402	126.12
431.624	127.12
431.846	120.12
432.068	119.12
432.29	122.12
432.512	131.12
432.734	128.12
432.956	122.12
433.178	132.12
433.4	137.12
433.622	145.12
433.844	135.12
434.066	134.12
434.287	123.12
434.509	132.12
434.731	132.12
434.953	119.12
435.175	145.12
435.397	141.12
435.618	150.12
435.84	130.12
436.062	127.12
436.284	141.12
436.505	128.12
436.727	112.12
436.949	107.12
437.17	111.12
437.392	123.12
437.614	126.12
437.835	120.12
438.057	123.12
438.278	125.12
438.5	117.12
438.721	137.12
438.943	128.12
439.165	124.12
439.386	117.12
439.608	150.12
439.829	130.12
440.05	144.12
440.272	140.12
440.493	127.12
440.715	140.12
440.936	136.12
441.158	133.12
441.379	132.12
441.6	135.12
441.822	126.12
442.043	144.12
442.264	146.12
442.486	118.12
442.707	133.12
442.928	143.12
443.149	130.12
443.371	140.12
443.592	143.12
443.813	133.12
444.034	141.12
444.255	146.12
444.476	127.12
444.698	146.12
444.919	138.12
445.14	412.12
445.361	271.12
445.582	149.12
445.803	135.12
446.024	138.12
446.245	131.12
446.466	147.12
446.687	118.12
446.908	131.12
447.129	142.12
447.35	126.12
447.571	123.12
447.792	117.12
448.013	120.12
448.234	112.12
448.455	130.12
448.675	127.12
448.896	127.12
449.117	127.12
449.338	119.12
449.559	138.12
449.779	118.12
450	110.12
450.221	121.12
450.442	109.12
450.662	134.12
450.883	119.12
451.104	131.12
451.324	129.12
451.545	130.12
451.766	111.12
451.986	127.12
452.207	131.12
452.428	117.12
452.648	114.12
452.869	107.12
453.089	96.12
453.31	120.12
453.53	130.12
453.751	127.12
453.971	131.12
454.192	110.12
454.412	108.12
454.633	112.12
454.853	129.12
455.073	119.12
455.294	131.12
455.514	130.12
455.734	103.12
455.955	117.12
456.175	111.12
456.395	116.12
456.616	102.12
456.836	119.12
457.056	112.12
457.276	115.12
457.497	119.12
457.717	114.12
457.937	108.12
458.157	109.12
458.377	116.12
458.598	111.12
458.818	143.12
459.038	114.12
459.258	116.12
459.478	145.12
459.698	119.12
459.918	126.12
460.138	129.12
460.358	139.12
460.578	161.12
460.798	150.12
461.018	139.12
461.238	131.12
461.458	141.12
461.678	138.12
461.898	139.12
462.118	154.12
462.338	138.12
462.558	137.12
462.777	149.12
462.997	164.12
463.217	167.12
463.437	170.12
463.657	157.12
463.876	144.12
464.096	132.12
464.316	158.12
464.536	151.12
464.755	146.12
464.975	148.12
465.195	140.12
465.414	143.12
465.634	134.12
465.854	129.12
466.073	130.12
466.293	138.12
466.512	148.12
466.732	132.12
466.951	115.12
467.171	124.12
467.391	144.12
467.61	120.12
467.829	140.12
468.049	129.12
468.268	132.12
468.488	130.12
468.707	134.12
468.927	100.12
469.146	112.12
469.365	131.12
469.585	117.12
469.804	134.12
470.023	121.12
470.243	138.12
470.462	135.12
470.681	122.12
470.901	122.12
471.12	123.12
471.339	134.12
471.558	138.12
471.777	135.12
471.997	138.12
472.216	125.12
472.435	131.12
472.654	136.12
472.873	134.12
473.092	138.12
473.311	125.12
473.53	108.12
473.749	122.12
473.968	135.12
474.187	131.12
474.406	124.12
474.625	122.12
474.844	127.12
475.063	136.12
475.282	140.12
475.501	124.12
475.72	132.12
475.939	131.12
476.158	129.12
476.377	133.12
476.596	127.12
476.814	133.12
477.033	115.12
477.252	141.12
477.471	142.12
477.69	119.12
477.908	140.12
478.127	142.12
478.346	135.12
478.564	132.12
478.783	143.12
479.002	134.12
479.22	134.12
479.439	132.12
479.658	140.12
479.876	128.12
480.095	135.12
480.313	140.12
480.532	161.12
480.751	148.12
480.969	126.12
481.188	140.12
481.406	130.12
481.624	145.12
481.843	120.12
482.061	121.12
482.28	133.12
482.498	133.12
482.717	141.12
482.935	128.12
483.153	147.12
483.372	131.12
483.59	140.12
483.808	130.12
484.027	126.12
484.245	131.12
484.463	139.12
484.681	131.12
484.9	115.12
485.118	144.12
485.336	135.12
485.554	116.12
485.772	136.12
485.99	149.12
486.209	134.12
486.427	125.12
486.645	140.12
486.863	143.12
487.081	138.12
487.299	147.12
487.517	140.12
487.735	145.12
487.953	144.12
488.171	145.12
488.389	153.12
488.607	141.12
488.825	140.12
489.043	108.12
489.261	136.12
489.479	134.12
489.696	124.12
489.914	119.12
490.132	126.12
490.35	130.12
490.568	126.12
490.786	143.12
491.003	170.12
491.221	138.12
491.439	131.12
491.657	139.12
491.874	158.12
492.092	139.12
492.31	153.12
492.527	153.12
492.745	150.12
492.963	165.12
493.18	155.12
493.398	146.12
493.615	152.12
493.833	140.12
494.05	143.12
494.268	143.12
494.485	159.12
494.703	155.12
494.92	138.12
495.138	156.12
495.355	156.12
495.573	140.12
495.79	154.12
496.008	130.12
496.225	136.12
496.442	136.12
496.66	146.12
496.877	134.12
497.094	146.12
497.312	158.12
497.529	138.12
497.746	167.12
497.963	147.12
498.181	154.12
498.398	158.12
498.615	153.12
498.832	177.12
499.049	160.12
499.267	192.12
499.484	196.12
499.701	203.12
499.918	234.12
500.135	253.12
500.352	266.12
500.569	265.12
500.786	296.12
501.003	255.12
501.22	236.12
501.437	218.12
501.654	208.12
501.871	188.12
502.088	154.12
502.305	184.12
502.522	163.12
502.739	156.12
502.956	159.12
503.172	163.12
503.389	138.12
503.606	139.12
503.823	166.12
504.04	151.12
504.256	163.12
504.473	135.12
504.69	144.12
504.907	156.12
505.123	143.12
505.34	149.12
505.557	136.12
505.773	147.12
505.99	125.12
506.207	139.12
