Data from SampD_HRD10591_00071.txt Node
Date: Mon Jan 19 11:41:45 EST 2026
User: Yrep
Spectrometer: HR+D1059
Trigger mode: 0
Integration Time (sec): 3.443000E-1
Scans to average: 1
Electric dark correction enabled: true
Nonlinearity correction enabled: false
Boxcar width: 0
XAxis mode: Wavelengths
Number of Pixels in Spectrum: 2048
>>>>>Begin Spectral Data<<<<<
223.165	-30.5
223.4	-30.5
223.635	-30.5
223.869	-16.5
224.104	-20.5
224.338	-16.5
224.573	-4.5
224.808	-19.5
225.042	-15.5
225.277	3.5
225.511	9.5
225.746	11.5
225.98	10.5
226.215	10.5
226.449	16.5
226.683	9.5
226.918	27.5
227.152	24.5
227.387	42.5
227.621	40.5
227.856	49.5
228.09	50.5
228.324	51.5
228.559	51.5
228.793	63.5
229.027	57.5
229.262	68.5
229.496	67.5
229.73	65.5
229.964	67.5
230.199	72.5
230.433	71.5
230.667	74.5
230.901	90.5
231.136	77.5
231.37	72.5
231.604	87.5
231.838	96.5
232.072	83.5
232.306	85.5
232.541	76.5
232.775	65.5
233.009	92.5
233.243	75.5
233.477	71.5
233.711	89.5
233.945	74.5
234.179	68.5
234.413	89.5
234.647	90.5
234.881	83.5
235.115	74.5
235.349	78.5
235.583	85.5
235.817	63.5
236.051	79.5
236.285	77.5
236.519	96.5
236.753	79.5
236.987	71.5
237.221	87.5
237.455	84.5
237.689	78.5
237.922	66.5
238.156	83.5
238.39	70.5
238.624	88.5
238.858	82.5
239.091	74.5
239.325	78.5
239.559	90.5
239.793	74.5
240.027	86.5
240.26	72.5
240.494	87.5
240.728	89.5
240.961	86.5
241.195	80.5
241.429	100.5
241.662	91.5
241.896	79.5
242.13	89.5
242.363	79.5
242.597	75.5
242.83	90.5
243.064	76.5
243.298	81.5
243.531	91.5
243.765	81.5
243.998	90.5
244.232	88.5
244.465	85.5
244.699	73.5
244.932	96.5
245.166	79.5
245.399	96.5
245.633	82.5
245.866	84.5
246.099	87.5
246.333	91.5
246.566	84.5
246.8	94.5
247.033	78.5
247.266	81.5
247.5	78.5
247.733	90.5
247.966	83.5
248.2	89.5
248.433	83.5
248.666	85.5
248.899	87.5
249.133	64.5
249.366	91.5
249.599	97.5
249.832	88.5
250.066	95.5
250.299	79.5
250.532	82.5
250.765	91.5
250.998	82.5
251.231	72.5
251.465	80.5
251.698	82.5
251.931	87.5
252.164	102.5
252.397	90.5
252.63	91.5
252.863	94.5
253.096	79.5
253.329	74.5
253.562	93.5
253.795	103.5
254.028	87.5
254.261	98.5
254.494	84.5
254.727	96.5
254.96	89.5
255.193	90.5
255.426	79.5
255.659	105.5
255.892	101.5
256.124	91.5
256.357	109.5
256.59	97.5
256.823	87.5
257.056	98.5
257.289	85.5
257.521	88.5
257.754	88.5
257.987	85.5
258.22	101.5
258.452	82.5
258.685	98.5
258.918	88.5
259.151	85.5
259.383	98.5
259.616	94.5
259.849	91.5
260.081	92.5
260.314	87.5
260.547	96.5
260.779	96.5
261.012	93.5
261.244	90.5
261.477	93.5
261.71	90.5
261.942	109.5
262.175	90.5
262.407	93.5
262.64	102.5
262.872	91.5
263.105	102.5
263.337	96.5
263.57	89.5
263.802	93.5
264.035	94.5
264.267	96.5
264.499	98.5
264.732	98.5
264.964	102.5
265.197	82.5
265.429	101.5
265.661	101.5
265.894	91.5
266.126	91.5
266.358	89.5
266.591	97.5
266.823	103.5
267.055	97.5
267.287	98.5
267.52	99.5
267.752	101.5
267.984	111.5
268.216	99.5
268.448	110.5
268.681	111.5
268.913	94.5
269.145	107.5
269.377	99.5
269.609	99.5
269.841	96.5
270.073	104.5
270.306	108.5
270.538	82.5
270.77	86.5
271.002	99.5
271.234	110.5
271.466	99.5
271.698	99.5
271.93	105.5
272.162	113.5
272.394	105.5
272.626	90.5
272.858	83.5
273.09	101.5
273.322	101.5
273.553	95.5
273.785	97.5
274.017	92.5
274.249	102.5
274.481	101.5
274.713	96.5
274.945	123.5
275.176	91.5
275.408	105.5
275.64	96.5
275.872	109.5
276.104	103.5
276.335	115.5
276.567	102.5
276.799	113.5
277.031	113.5
277.262	108.5
277.494	107.5
277.726	95.5
277.957	96.5
278.189	116.5
278.421	96.5
278.652	106.5
278.884	113.5
279.115	100.5
279.347	101.5
279.579	100.5
279.81	114.5
280.042	106.5
280.273	92.5
280.505	101.5
280.736	116.5
280.968	111.5
281.199	104.5
281.431	111.5
281.662	113.5
281.894	97.5
282.125	103.5
282.356	117.5
282.588	109.5
282.819	105.5
283.051	110.5
283.282	117.5
283.513	107.5
283.745	113.5
283.976	110.5
284.207	113.5
284.439	109.5
284.67	109.5
284.901	112.5
285.132	113.5
285.364	120.5
285.595	105.5
285.826	103.5
286.057	124.5
286.288	95.5
286.52	112.5
286.751	118.5
286.982	107.5
287.213	102.5
287.444	108.5
287.675	113.5
287.906	136.5
288.138	107.5
288.369	102.5
288.6	112.5
288.831	107.5
289.062	105.5
289.293	109.5
289.524	99.5
289.755	108.5
289.986	116.5
290.217	120.5
290.448	101.5
290.679	107.5
290.91	119.5
291.141	119.5
291.371	109.5
291.602	114.5
291.833	116.5
292.064	110.5
292.295	110.5
292.526	116.5
292.757	116.5
292.987	126.5
293.218	102.5
293.449	121.5
293.68	115.5
293.91	114.5
294.141	103.5
294.372	105.5
294.603	114.5
294.833	102.5
295.064	107.5
295.295	127.5
295.525	100.5
295.756	112.5
295.987	109.5
296.217	100.5
296.448	119.5
296.679	116.5
296.909	131.5
297.14	120.5
297.37	123.5
297.601	124.5
297.831	113.5
298.062	112.5
298.292	106.5
298.523	128.5
298.753	121.5
298.984	123.5
299.214	117.5
299.445	98.5
299.675	115.5
299.905	121.5
300.136	120.5
300.366	125.5
300.597	117.5
300.827	119.5
301.057	114.5
301.288	113.5
301.518	115.5
301.748	119.5
301.979	165.5
302.209	133.5
302.439	118.5
302.669	123.5
302.9	115.5
303.13	116.5
303.36	114.5
303.59	120.5
303.82	114.5
304.051	128.5
304.281	136.5
304.511	137.5
304.741	130.5
304.971	103.5
305.201	147.5
305.431	129.5
305.661	121.5
305.891	116.5
306.121	122.5
306.352	119.5
306.582	129.5
306.812	119.5
307.042	115.5
307.272	104.5
307.502	114.5
307.731	117.5
307.961	126.5
308.191	102.5
308.421	100.5
308.651	110.5
308.881	121.5
309.111	126.5
309.341	99.5
309.571	111.5
309.8	121.5
310.03	120.5
310.26	113.5
310.49	108.5
310.72	119.5
310.949	126.5
311.179	108.5
311.409	121.5
311.639	117.5
311.868	116.5
312.098	125.5
312.328	129.5
312.557	123.5
312.787	118.5
313.017	130.5
313.246	124.5
313.476	140.5
313.706	119.5
313.935	119.5
314.165	124.5
314.394	123.5
314.624	115.5
314.853	113.5
315.083	115.5
315.312	123.5
315.542	119.5
315.771	129.5
316.001	116.5
316.23	132.5
316.46	115.5
316.689	118.5
316.919	121.5
317.148	113.5
317.377	138.5
317.607	116.5
317.836	114.5
318.065	121.5
318.295	118.5
318.524	125.5
318.753	108.5
318.983	123.5
319.212	125.5
319.441	119.5
319.67	114.5
319.9	114.5
320.129	107.5
320.358	119.5
320.587	135.5
320.816	128.5
321.046	124.5
321.275	135.5
321.504	105.5
321.733	115.5
321.962	122.5
322.191	121.5
322.42	131.5
322.649	135.5
322.878	132.5
323.108	117.5
323.337	130.5
323.566	135.5
323.795	127.5
324.024	123.5
324.253	123.5
324.482	109.5
324.71	126.5
324.939	131.5
325.168	137.5
325.397	104.5
325.626	126.5
325.855	137.5
326.084	144.5
326.313	118.5
326.542	123.5
326.77	125.5
326.999	119.5
327.228	131.5
327.457	114.5
327.686	137.5
327.914	142.5
328.143	144.5
328.372	124.5
328.6	119.5
328.829	136.5
329.058	119.5
329.287	125.5
329.515	120.5
329.744	125.5
329.972	125.5
330.201	122.5
330.43	127.5
330.658	126.5
330.887	116.5
331.115	131.5
331.344	124.5
331.572	136.5
331.801	124.5
332.03	139.5
332.258	130.5
332.486	132.5
332.715	142.5
332.943	135.5
333.172	129.5
333.4	147.5
333.629	151.5
333.857	158.5
334.085	157.5
334.314	141.5
334.542	144.5
334.771	134.5
334.999	138.5
335.227	122.5
335.455	141.5
335.684	129.5
335.912	139.5
336.14	153.5
336.369	120.5
336.597	135.5
336.825	131.5
337.053	115.5
337.281	141.5
337.51	135.5
337.738	148.5
337.966	129.5
338.194	149.5
338.422	135.5
338.65	121.5
338.878	137.5
339.106	135.5
339.334	145.5
339.562	139.5
339.79	113.5
340.018	139.5
340.246	124.5
340.474	113.5
340.702	135.5
340.93	128.5
341.158	123.5
341.386	131.5
341.614	121.5
341.842	127.5
342.07	120.5
342.298	126.5
342.526	104.5
342.754	114.5
342.981	123.5
343.209	128.5
343.437	166.5
343.665	130.5
343.893	148.5
344.12	151.5
344.348	144.5
344.576	134.5
344.804	124.5
345.031	129.5
345.259	138.5
345.487	143.5
345.714	127.5
345.942	132.5
346.17	136.5
346.397	124.5
346.625	129.5
346.853	132.5
347.08	131.5
347.308	137.5
347.535	121.5
347.763	131.5
347.99	130.5
348.218	127.5
348.445	129.5
348.673	123.5
348.9	130.5
349.128	117.5
349.355	111.5
349.583	131.5
349.81	149.5
350.037	139.5
350.265	124.5
350.492	127.5
350.72	125.5
350.947	126.5
351.174	136.5
351.402	137.5
351.629	126.5
351.856	128.5
352.083	136.5
352.311	138.5
352.538	107.5
352.765	128.5
352.992	135.5
353.22	105.5
353.447	130.5
353.674	129.5
353.901	120.5
354.128	125.5
354.355	117.5
354.583	127.5
354.81	128.5
355.037	114.5
355.264	129.5
355.491	104.5
355.718	128.5
355.945	125.5
356.172	131.5
356.399	115.5
356.626	127.5
356.853	124.5
357.08	113.5
357.307	129.5
357.534	124.5
357.761	132.5
357.988	126.5
358.215	128.5
358.441	100.5
358.668	117.5
358.895	109.5
359.122	127.5
359.349	114.5
359.576	125.5
359.802	125.5
360.029	125.5
360.256	128.5
360.483	127.5
360.709	114.5
360.936	141.5
361.163	135.5
361.39	122.5
361.616	122.5
361.843	124.5
362.07	136.5
362.296	131.5
362.523	129.5
362.749	119.5
362.976	124.5
363.203	135.5
363.429	127.5
363.656	133.5
363.882	122.5
364.109	135.5
364.335	135.5
364.562	132.5
364.788	119.5
365.015	124.5
365.241	136.5
365.468	127.5
365.694	117.5
365.92	127.5
366.147	121.5
366.373	125.5
366.599	126.5
366.826	124.5
367.052	126.5
367.278	146.5
367.505	128.5
367.731	130.5
367.957	128.5
368.184	132.5
368.41	114.5
368.636	128.5
368.862	129.5
369.089	115.5
369.315	115.5
369.541	119.5
369.767	142.5
369.993	135.5
370.219	135.5
370.445	133.5
370.672	128.5
370.898	122.5
371.124	124.5
371.35	122.5
371.576	125.5
371.802	139.5
372.028	118.5
372.254	138.5
372.48	127.5
372.706	137.5
372.932	137.5
373.158	151.5
373.384	141.5
373.61	138.5
373.835	135.5
374.061	142.5
374.287	129.5
374.513	136.5
374.739	135.5
374.965	131.5
375.191	146.5
375.416	147.5
375.642	131.5
375.868	147.5
376.094	128.5
376.319	131.5
376.545	139.5
376.771	130.5
376.997	123.5
377.222	133.5
377.448	139.5
377.674	136.5
377.899	133.5
378.125	128.5
378.35	131.5
378.576	120.5
378.802	117.5
379.027	129.5
379.253	140.5
379.478	108.5
379.704	129.5
379.929	131.5
380.155	138.5
380.38	116.5
380.606	121.5
380.831	133.5
381.057	129.5
381.282	124.5
381.507	144.5
381.733	136.5
381.958	137.5
382.184	136.5
382.409	149.5
382.634	137.5
382.86	143.5
383.085	163.5
383.31	140.5
383.535	156.5
383.761	146.5
383.986	166.5
384.211	148.5
384.436	133.5
384.662	143.5
384.887	153.5
385.112	157.5
385.337	148.5
385.562	145.5
385.787	139.5
386.013	159.5
386.238	137.5
386.463	128.5
386.688	161.5
386.913	154.5
387.138	144.5
387.363	140.5
387.588	158.5
387.813	145.5
388.038	157.5
388.263	155.5
388.488	147.5
388.713	149.5
388.938	135.5
389.163	139.5
389.387	136.5
389.612	143.5
389.837	147.5
390.062	155.5
390.287	157.5
390.512	157.5
390.736	152.5
390.961	156.5
391.186	140.5
391.411	156.5
391.636	162.5
391.86	151.5
392.085	173.5
392.31	141.5
392.534	155.5
392.759	158.5
392.984	155.5
393.208	164.5
393.433	156.5
393.658	151.5
393.882	146.5
394.107	139.5
394.331	152.5
394.556	144.5
394.78	158.5
395.005	147.5
395.229	158.5
395.454	166.5
395.678	139.5
395.903	148.5
396.127	144.5
396.352	151.5
396.576	128.5
396.801	149.5
397.025	139.5
397.249	159.5
397.474	158.5
397.698	160.5
397.922	158.5
398.147	155.5
398.371	164.5
398.595	175.5
398.82	151.5
399.044	168.5
399.268	189.5
399.492	227.5
399.717	229.5
399.941	208.5
400.165	197.5
400.389	185.5
400.613	169.5
400.837	149.5
401.062	176.5
401.286	159.5
401.51	164.5
401.734	159.5
401.958	186.5
402.182	179.5
402.406	157.5
402.63	167.5
402.854	169.5
403.078	168.5
403.302	164.5
403.526	174.5
403.75	177.5
403.974	168.5
404.198	167.5
404.422	189.5
404.645	167.5
404.869	168.5
405.093	171.5
405.317	184.5
405.541	183.5
405.765	174.5
405.988	175.5
406.212	175.5
406.436	164.5
406.66	187.5
406.883	175.5
407.107	188.5
407.331	206.5
407.555	187.5
407.778	193.5
408.002	194.5
408.226	217.5
408.449	173.5
408.673	168.5
408.896	175.5
409.12	157.5
409.344	181.5
409.567	183.5
409.791	187.5
410.014	191.5
410.238	171.5
410.461	159.5
410.685	180.5
410.908	166.5
411.132	190.5
411.355	178.5
411.578	172.5
411.802	158.5
412.025	167.5
412.249	165.5
412.472	160.5
412.695	171.5
412.919	161.5
413.142	161.5
413.365	170.5
413.589	185.5
413.812	155.5
414.035	169.5
414.258	169.5
414.482	157.5
414.705	173.5
414.928	172.5
415.151	169.5
415.374	174.5
415.597	164.5
415.821	162.5
416.044	163.5
416.267	178.5
416.49	171.5
416.713	171.5
416.936	174.5
417.159	162.5
417.382	159.5
417.605	165.5
417.828	185.5
418.051	168.5
418.274	190.5
418.497	169.5
418.72	159.5
418.943	171.5
419.166	170.5
419.389	183.5
419.611	181.5
419.834	200.5
420.057	165.5
420.28	156.5
420.503	166.5
420.726	168.5
420.948	154.5
421.171	184.5
421.394	184.5
421.617	177.5
421.839	164.5
422.062	175.5
422.285	153.5
422.507	151.5
422.73	176.5
422.953	166.5
423.175	166.5
423.398	160.5
423.621	169.5
423.843	172.5
424.066	181.5
424.288	184.5
424.511	173.5
424.733	177.5
424.956	169.5
425.178	177.5
425.401	161.5
425.623	156.5
425.846	169.5
426.068	162.5
426.291	155.5
426.513	154.5
426.735	161.5
426.958	162.5
427.18	162.5
427.402	167.5
427.625	170.5
427.847	157.5
428.069	161.5
428.292	164.5
428.514	177.5
428.736	155.5
428.958	163.5
429.181	161.5
429.403	146.5
429.625	153.5
429.847	165.5
430.069	150.5
430.292	161.5
430.514	155.5
430.736	151.5
430.958	155.5
431.18	148.5
431.402	158.5
431.624	158.5
431.846	155.5
432.068	157.5
432.29	155.5
432.512	157.5
432.734	161.5
432.956	155.5
433.178	164.5
433.4	151.5
433.622	171.5
433.844	167.5
434.066	168.5
434.287	168.5
434.509	159.5
434.731	169.5
434.953	179.5
435.175	167.5
435.397	170.5
435.618	165.5
435.84	165.5
436.062	147.5
436.284	175.5
436.505	151.5
436.727	154.5
436.949	146.5
437.17	158.5
437.392	139.5
437.614	155.5
437.835	165.5
438.057	147.5
438.278	143.5
438.5	149.5
438.721	150.5
438.943	161.5
439.165	151.5
439.386	147.5
439.608	168.5
439.829	143.5
440.05	147.5
440.272	168.5
440.493	167.5
440.715	148.5
440.936	182.5
441.158	163.5
441.379	156.5
441.6	179.5
441.822	186.5
442.043	170.5
442.264	170.5
442.486	163.5
442.707	177.5
442.928	171.5
443.149	160.5
443.371	165.5
443.592	167.5
443.813	184.5
444.034	173.5
444.255	179.5
444.476	177.5
444.698	175.5
444.919	185.5
445.14	380.5
445.361	265.5
445.582	180.5
445.803	164.5
446.024	164.5
446.245	158.5
446.466	165.5
446.687	171.5
446.908	163.5
447.129	164.5
447.35	157.5
447.571	147.5
447.792	144.5
448.013	136.5
448.234	140.5
448.455	158.5
448.675	154.5
448.896	159.5
449.117	145.5
449.338	154.5
449.559	159.5
449.779	161.5
450	155.5
450.221	161.5
450.442	155.5
450.662	147.5
450.883	156.5
451.104	141.5
451.324	159.5
451.545	168.5
451.766	161.5
451.986	157.5
452.207	138.5
452.428	160.5
452.648	156.5
452.869	158.5
453.089	141.5
453.31	129.5
453.53	145.5
453.751	147.5
453.971	157.5
454.192	140.5
454.412	151.5
454.633	144.5
454.853	140.5
455.073	159.5
455.294	152.5
455.514	167.5
455.734	140.5
455.955	147.5
456.175	131.5
456.395	140.5
456.616	150.5
456.836	141.5
457.056	158.5
457.276	140.5
457.497	148.5
457.717	136.5
457.937	147.5
458.157	141.5
458.377	137.5
458.598	139.5
458.818	139.5
459.038	141.5
459.258	168.5
459.478	159.5
459.698	161.5
459.918	167.5
460.138	153.5
460.358	163.5
460.578	183.5
460.798	178.5
461.018	172.5
461.238	164.5
461.458	176.5
461.678	180.5
461.898	176.5
462.118	188.5
462.338	186.5
462.558	205.5
462.777	192.5
462.997	213.5
463.217	204.5
463.437	200.5
463.657	212.5
463.876	185.5
464.096	203.5
464.316	199.5
464.536	189.5
464.755	190.5
464.975	188.5
465.195	183.5
465.414	191.5
465.634	173.5
465.854	159.5
466.073	167.5
466.293	162.5
466.512	158.5
466.732	156.5
466.951	162.5
467.171	159.5
467.391	153.5
467.61	144.5
467.829	149.5
468.049	149.5
468.268	153.5
468.488	153.5
468.707	158.5
468.927	155.5
469.146	146.5
469.365	161.5
469.585	171.5
469.804	161.5
470.023	152.5
470.243	161.5
470.462	166.5
470.681	168.5
470.901	166.5
471.12	170.5
471.339	164.5
471.558	163.5
471.777	156.5
471.997	152.5
472.216	166.5
472.435	144.5
472.654	156.5
472.873	154.5
473.092	150.5
473.311	139.5
473.53	160.5
473.749	147.5
473.968	138.5
474.187	155.5
474.406	137.5
474.625	158.5
474.844	149.5
475.063	149.5
475.282	144.5
475.501	136.5
475.72	156.5
475.939	167.5
476.158	148.5
476.377	160.5
476.596	148.5
476.814	141.5
477.033	137.5
477.252	159.5
477.471	160.5
477.69	161.5
477.908	163.5
478.127	186.5
478.346	170.5
478.564	161.5
478.783	160.5
479.002	179.5
479.22	170.5
479.439	192.5
479.658	186.5
479.876	162.5
480.095	161.5
480.313	179.5
480.532	177.5
480.751	170.5
480.969	168.5
481.188	173.5
481.406	157.5
481.624	159.5
481.843	158.5
482.061	163.5
482.28	167.5
482.498	169.5
482.717	174.5
482.935	171.5
483.153	162.5
483.372	153.5
483.59	173.5
483.808	174.5
484.027	174.5
484.245	165.5
484.463	185.5
484.681	177.5
484.9	159.5
485.118	166.5
485.336	157.5
485.554	155.5
485.772	161.5
485.99	164.5
486.209	172.5
486.427	165.5
486.645	168.5
486.863	188.5
487.081	171.5
487.299	171.5
487.517	172.5
487.735	178.5
487.953	165.5
488.171	180.5
488.389	164.5
488.607	159.5
488.825	149.5
489.043	163.5
489.261	168.5
489.479	179.5
489.696	169.5
489.914	173.5
490.132	156.5
490.35	166.5
490.568	180.5
490.786	158.5
491.003	171.5
491.221	186.5
491.439	182.5
491.657	181.5
491.874	172.5
492.092	181.5
492.31	187.5
492.527	175.5
492.745	184.5
492.963	183.5
493.18	178.5
493.398	188.5
493.615	183.5
493.833	174.5
494.05	188.5
494.268	176.5
494.485	181.5
494.703	184.5
494.92	181.5
495.138	191.5
495.355	180.5
495.573	179.5
495.79	168.5
496.008	177.5
496.225	180.5
496.442	194.5
496.66	205.5
496.877	187.5
497.094	186.5
497.312	196.5
497.529	201.5
497.746	185.5
497.963	180.5
498.181	179.5
498.398	204.5
498.615	213.5
498.832	235.5
499.049	226.5
499.267	251.5
499.484	275.5
499.701	290.5
499.918	330.5
500.135	358.5
500.352	396.5
500.569	379.5
500.786	373.5
501.003	357.5
501.22	320.5
501.437	296.5
501.654	253.5
501.871	236.5
502.088	223.5
502.305	238.5
502.522	218.5
502.739	203.5
502.956	185.5
503.172	191.5
503.389	193.5
503.606	195.5
503.823	186.5
504.04	201.5
504.256	190.5
504.473	182.5
504.69	191.5
504.907	201.5
505.123	193.5
505.34	177.5
505.557	176.5
505.773	174.5
505.99	179.5
506.207	162.5
506.423	180.5
506.64	168.5
506.856	169.5
507.073	172.5
507.289	171.5
507.506	176.5
507.722	167.5
507.939	144.5
508.155	173.5
508.372	155.5
508.588	151.5
508.805	163.5
509.021	155.5
509.238	164.5
509.454	157.5
509.67	163.5
509.887	146.5
510.103	135.5
510.319	144.5
510.536	149.5
510.752	154.5
510.968	155.5
511.184	158.5
511.401	144.5
511.617	143.5
511.833	155.5
512.049	164.5
512.265	142.5
512.481	156.5
512.698	139.5
512.914	159.5
513.13	169.5
513.346	177.5
513.562	152.5
513.778	177.5
513.994	160.5
514.21	173.5
514.426	169.5
514.642	171.5
514.858	162.5
515.074	156.5
515.29	171.5
515.506	151.5
515.721	139.5
515.937	160.5
516.153	152.5
516.369	162.5
516.585	156.5
516.801	160.5
517.016	179.5
517.232	181.5
517.448	186.5
517.664	195.5
517.879	184.5
518.095	195.5
518.311	174.5
518.527	187.5
518.742	173.5
518.958	170.5
519.173	168.5
519.389	163.5
519.605	160.5
519.82	161.5
520.036	163.5
520.251	152.5
520.467	182.5
520.682	153.5
520.898	165.5
521.113	147.5
521.329	157.5
521.544	156.5
521.76	162.5
521.975	142.5
522.19	147.5
522.406	142.5
522.621	148.5
522.836	155.5
523.052	158.5
523.267	139.5
