Data from SampD_HRD10591_00007.txt Node
Date: Mon Jan 19 11:41:23 EST 2026
User: Yrep
Spectrometer: HR+D1059
Trigger mode: 0
Integration Time (sec): 3.443000E-1
Scans to average: 1
Electric dark correction enabled: true
Nonlinearity correction enabled: false
Boxcar width: 0
XAxis mode: Wavelengths
Number of Pixels in Spectrum: 2048
>>>>>Begin Spectral Data<<<<<
223.165	-30.06
223.4	-30.06
223.635	-30.06
223.869	-14.06
224.104	-35.06
224.338	-7.06
224.573	-8.06
224.808	-7.06
225.042	-4.06
225.277	-4.06
225.511	-6.06
225.746	3.94
225.98	14.94
226.215	6.94
226.449	12.94
226.683	14.94
226.918	25.94
227.152	35.94
227.387	26.94
227.621	40.94
227.856	48.94
228.09	35.94
228.324	53.94
228.559	70.94
228.793	68.94
229.027	62.94
229.262	85.94
229.496	76.94
229.73	59.94
229.964	83.94
230.199	72.94
230.433	57.94
230.667	60.94
230.901	72.94
231.136	77.94
231.37	83.94
231.604	76.94
231.838	77.94
232.072	74.94
232.306	86.94
232.541	97.94
232.775	82.94
233.009	95.94
233.243	91.94
233.477	91.94
233.711	91.94
233.945	82.94
234.179	82.94
234.413	85.94
234.647	74.94
234.881	86.94
235.115	70.94
235.349	79.94
235.583	85.94
235.817	83.94
236.051	86.94
236.285	72.94
236.519	86.94
236.753	81.94
236.987	81.94
237.221	87.94
237.455	77.94
237.689	90.94
237.922	86.94
238.156	77.94
238.39	77.94
238.624	79.94
238.858	89.94
239.091	90.94
239.325	90.94
239.559	81.94
239.793	84.94
240.027	90.94
240.26	74.94
240.494	82.94
240.728	82.94
240.961	77.94
241.195	82.94
241.429	85.94
241.662	86.94
241.896	79.94
242.13	82.94
242.363	85.94
242.597	76.94
242.83	90.94
243.064	82.94
243.298	83.94
243.531	73.94
243.765	89.94
243.998	76.94
244.232	83.94
244.465	67.94
244.699	84.94
244.932	70.94
245.166	93.94
245.399	96.94
245.633	96.94
245.866	84.94
246.099	84.94
246.333	73.94
246.566	80.94
246.8	89.94
247.033	83.94
247.266	78.94
247.5	73.94
247.733	76.94
247.966	94.94
248.2	89.94
248.433	94.94
248.666	92.94
248.899	95.94
249.133	91.94
249.366	108.94
249.599	82.94
249.832	78.94
250.066	90.94
250.299	98.94
250.532	89.94
250.765	89.94
250.998	86.94
251.231	73.94
251.465	92.94
251.698	81.94
251.931	83.94
252.164	91.94
252.397	88.94
252.63	99.94
252.863	101.94
253.096	86.94
253.329	98.94
253.562	105.94
253.795	96.94
254.028	121.94
254.261	72.94
254.494	72.94
254.727	95.94
254.96	99.94
255.193	87.94
255.426	107.94
255.659	87.94
255.892	98.94
256.124	89.94
256.357	82.94
256.59	98.94
256.823	83.94
257.056	92.94
257.289	101.94
257.521	100.94
257.754	88.94
257.987	98.94
258.22	99.94
258.452	88.94
258.685	88.94
258.918	96.94
259.151	84.94
259.383	98.94
259.616	89.94
259.849	84.94
260.081	97.94
260.314	106.94
260.547	105.94
260.779	106.94
261.012	87.94
261.244	108.94
261.477	109.94
261.71	100.94
261.942	107.94
262.175	90.94
262.407	94.94
262.64	104.94
262.872	83.94
263.105	102.94
263.337	100.94
263.57	107.94
263.802	100.94
264.035	92.94
264.267	97.94
264.499	109.94
264.732	113.94
264.964	109.94
265.197	103.94
265.429	106.94
265.661	97.94
265.894	97.94
266.126	109.94
266.358	97.94
266.591	107.94
266.823	112.94
267.055	84.94
267.287	76.94
267.52	97.94
267.752	111.94
267.984	118.94
268.216	102.94
268.448	103.94
268.681	104.94
268.913	117.94
269.145	96.94
269.377	105.94
269.609	119.94
269.841	103.94
270.073	94.94
270.306	110.94
270.538	99.94
270.77	103.94
271.002	105.94
271.234	106.94
271.466	106.94
271.698	102.94
271.93	107.94
272.162	109.94
272.394	108.94
272.626	91.94
272.858	91.94
273.09	111.94
273.322	106.94
273.553	94.94
273.785	96.94
274.017	111.94
274.249	90.94
274.481	98.94
274.713	100.94
274.945	117.94
275.176	99.94
275.408	106.94
275.64	120.94
275.872	105.94
276.104	112.94
276.335	118.94
276.567	109.94
276.799	110.94
277.031	109.94
277.262	115.94
277.494	120.94
277.726	118.94
277.957	115.94
278.189	94.94
278.421	111.94
278.652	99.94
278.884	106.94
279.115	113.94
279.347	110.94
279.579	102.94
279.81	105.94
280.042	114.94
280.273	100.94
280.505	104.94
280.736	112.94
280.968	110.94
281.199	108.94
281.431	112.94
281.662	106.94
281.894	110.94
282.125	115.94
282.356	103.94
282.588	117.94
282.819	114.94
283.051	122.94
283.282	121.94
283.513	118.94
283.745	130.94
283.976	109.94
284.207	117.94
284.439	126.94
284.67	123.94
284.901	117.94
285.132	109.94
285.364	110.94
285.595	118.94
285.826	122.94
286.057	126.94
286.288	118.94
286.52	113.94
286.751	107.94
286.982	123.94
287.213	127.94
287.444	124.94
287.675	115.94
287.906	113.94
288.138	109.94
288.369	112.94
288.6	134.94
288.831	112.94
289.062	143.94
289.293	126.94
289.524	99.94
289.755	110.94
289.986	119.94
290.217	113.94
290.448	125.94
290.679	108.94
290.91	113.94
291.141	114.94
291.371	130.94
291.602	113.94
291.833	129.94
292.064	105.94
292.295	110.94
292.526	124.94
292.757	130.94
292.987	127.94
293.218	118.94
293.449	123.94
293.68	128.94
293.91	129.94
294.141	136.94
294.372	127.94
294.603	119.94
294.833	130.94
295.064	124.94
295.295	117.94
295.525	115.94
295.756	119.94
295.987	115.94
296.217	139.94
296.448	138.94
296.679	126.94
296.909	120.94
297.14	123.94
297.37	124.94
297.601	130.94
297.831	122.94
298.062	111.94
298.292	131.94
298.523	146.94
298.753	124.94
298.984	123.94
299.214	127.94
299.445	128.94
299.675	125.94
299.905	122.94
300.136	122.94
300.366	113.94
300.597	121.94
300.827	121.94
301.057	124.94
301.288	136.94
301.518	121.94
301.748	135.94
301.979	160.94
302.209	146.94
302.439	112.94
302.669	116.94
302.9	137.94
303.13	124.94
303.36	123.94
303.59	119.94
303.82	121.94
304.051	142.94
304.281	116.94
304.511	113.94
304.741	114.94
304.971	131.94
305.201	127.94
305.431	123.94
305.661	123.94
305.891	126.94
306.121	119.94
306.352	126.94
306.582	146.94
306.812	115.94
307.042	125.94
307.272	116.94
307.502	123.94
307.731	117.94
307.961	141.94
308.191	124.94
308.421	119.94
308.651	128.94
308.881	116.94
309.111	125.94
309.341	131.94
309.571	117.94
309.8	126.94
310.03	128.94
310.26	131.94
310.49	112.94
310.72	119.94
310.949	134.94
311.179	123.94
311.409	121.94
311.639	120.94
311.868	112.94
312.098	128.94
312.328	132.94
312.557	129.94
312.787	136.94
313.017	126.94
313.246	142.94
313.476	123.94
313.706	128.94
313.935	134.94
314.165	136.94
314.394	144.94
314.624	130.94
314.853	136.94
315.083	134.94
315.312	135.94
315.542	137.94
315.771	136.94
316.001	116.94
316.23	131.94
316.46	121.94
316.689	138.94
316.919	134.94
317.148	143.94
317.377	131.94
317.607	136.94
317.836	130.94
318.065	132.94
318.295	119.94
318.524	140.94
318.753	115.94
318.983	126.94
319.212	139.94
319.441	113.94
319.67	129.94
319.9	141.94
320.129	113.94
320.358	141.94
320.587	138.94
320.816	137.94
321.046	132.94
321.275	136.94
321.504	134.94
321.733	131.94
321.962	134.94
322.191	113.94
322.42	121.94
322.649	120.94
322.878	121.94
323.108	139.94
323.337	129.94
323.566	123.94
323.795	120.94
324.024	126.94
324.253	140.94
324.482	134.94
324.71	126.94
324.939	143.94
325.168	134.94
325.397	133.94
325.626	124.94
325.855	129.94
326.084	127.94
326.313	135.94
326.542	124.94
326.77	148.94
326.999	148.94
327.228	121.94
327.457	143.94
327.686	135.94
327.914	120.94
328.143	137.94
328.372	141.94
328.6	130.94
328.829	136.94
329.058	133.94
329.287	136.94
329.515	138.94
329.744	153.94
329.972	137.94
330.201	140.94
330.43	138.94
330.658	130.94
330.887	135.94
331.115	142.94
331.344	141.94
331.572	158.94
331.801	141.94
332.03	136.94
332.258	138.94
332.486	142.94
332.715	148.94
332.943	155.94
333.172	164.94
333.4	168.94
333.629	167.94
333.857	155.94
334.085	146.94
334.314	152.94
334.542	157.94
334.771	150.94
334.999	155.94
335.227	156.94
335.455	150.94
335.684	144.94
335.912	152.94
336.14	150.94
336.369	149.94
336.597	159.94
336.825	154.94
337.053	145.94
337.281	147.94
337.51	135.94
337.738	144.94
337.966	134.94
338.194	131.94
338.422	135.94
338.65	135.94
338.878	148.94
339.106	143.94
339.334	156.94
339.562	144.94
339.79	148.94
340.018	146.94
340.246	121.94
340.474	140.94
340.702	141.94
340.93	137.94
341.158	151.94
341.386	137.94
341.614	143.94
341.842	138.94
342.07	121.94
342.298	144.94
342.526	152.94
342.754	148.94
342.981	135.94
343.209	136.94
343.437	179.94
343.665	150.94
343.893	150.94
344.12	163.94
344.348	159.94
344.576	138.94
344.804	135.94
345.031	146.94
345.259	149.94
345.487	130.94
345.714	145.94
345.942	137.94
346.17	141.94
346.397	140.94
346.625	152.94
346.853	143.94
347.08	110.94
347.308	139.94
347.535	150.94
347.763	150.94
347.99	138.94
348.218	139.94
348.445	135.94
348.673	137.94
348.9	146.94
349.128	136.94
349.355	147.94
349.583	129.94
349.81	131.94
350.037	146.94
350.265	145.94
350.492	130.94
350.72	112.94
350.947	144.94
351.174	120.94
351.402	143.94
351.629	131.94
351.856	146.94
352.083	120.94
352.311	130.94
352.538	143.94
352.765	138.94
352.992	154.94
353.22	127.94
353.447	111.94
353.674	120.94
353.901	135.94
354.128	131.94
354.355	139.94
354.583	136.94
354.81	141.94
355.037	141.94
355.264	151.94
355.491	143.94
355.718	135.94
355.945	144.94
356.172	135.94
356.399	135.94
356.626	141.94
356.853	127.94
357.08	138.94
357.307	129.94
357.534	122.94
357.761	137.94
357.988	144.94
358.215	129.94
358.441	115.94
358.668	137.94
358.895	120.94
359.122	149.94
359.349	131.94
359.576	122.94
359.802	144.94
360.029	121.94
360.256	106.94
360.483	126.94
360.709	116.94
360.936	144.94
361.163	144.94
361.39	129.94
361.616	134.94
361.843	152.94
362.07	136.94
362.296	143.94
362.523	140.94
362.749	140.94
362.976	132.94
363.203	142.94
363.429	144.94
363.656	132.94
363.882	136.94
364.109	140.94
364.335	129.94
364.562	123.94
364.788	138.94
365.015	137.94
365.241	124.94
365.468	146.94
365.694	127.94
365.92	128.94
366.147	120.94
366.373	143.94
366.599	124.94
366.826	118.94
367.052	135.94
367.278	136.94
367.505	138.94
367.731	151.94
367.957	140.94
368.184	127.94
368.41	137.94
368.636	129.94
368.862	145.94
369.089	120.94
369.315	129.94
369.541	150.94
369.767	141.94
369.993	129.94
370.219	139.94
370.445	145.94
370.672	136.94
370.898	130.94
371.124	132.94
371.35	123.94
371.576	126.94
371.802	138.94
372.028	135.94
372.254	132.94
372.48	148.94
372.706	139.94
372.932	139.94
373.158	173.94
373.384	147.94
373.61	154.94
373.835	140.94
374.061	133.94
374.287	127.94
374.513	149.94
374.739	138.94
374.965	150.94
375.191	155.94
375.416	164.94
375.642	155.94
375.868	146.94
376.094	158.94
376.319	153.94
376.545	147.94
376.771	127.94
376.997	148.94
377.222	138.94
377.448	148.94
377.674	152.94
377.899	157.94
378.125	130.94
378.35	142.94
378.576	134.94
378.802	130.94
379.027	157.94
379.253	141.94
379.478	150.94
379.704	141.94
379.929	150.94
380.155	154.94
380.38	127.94
380.606	144.94
380.831	157.94
381.057	165.94
381.282	142.94
381.507	154.94
381.733	148.94
381.958	160.94
382.184	143.94
382.409	142.94
382.634	148.94
382.86	158.94
383.085	140.94
383.31	145.94
383.535	152.94
383.761	158.94
383.986	156.94
384.211	158.94
384.436	163.94
384.662	159.94
384.887	160.94
385.112	162.94
385.337	161.94
385.562	166.94
385.787	161.94
386.013	171.94
386.238	130.94
386.463	159.94
386.688	178.94
386.913	173.94
387.138	137.94
387.363	153.94
387.588	171.94
387.813	168.94
388.038	157.94
388.263	176.94
388.488	168.94
388.713	156.94
388.938	158.94
389.163	165.94
389.387	164.94
389.612	152.94
389.837	162.94
390.062	148.94
390.287	152.94
390.512	162.94
390.736	151.94
390.961	152.94
391.186	158.94
391.411	182.94
391.636	160.94
391.86	172.94
392.085	186.94
392.31	155.94
392.534	175.94
392.759	170.94
392.984	167.94
393.208	174.94
393.433	174.94
393.658	177.94
393.882	152.94
394.107	172.94
394.331	163.94
394.556	174.94
394.78	178.94
395.005	168.94
395.229	172.94
395.454	181.94
395.678	166.94
395.903	162.94
396.127	159.94
396.352	157.94
396.576	176.94
396.801	170.94
397.025	179.94
397.249	170.94
397.474	171.94
397.698	187.94
397.922	178.94
398.147	172.94
398.371	186.94
398.595	178.94
398.82	199.94
399.044	192.94
399.268	215.94
399.492	249.94
399.717	253.94
399.941	227.94
400.165	196.94
400.389	208.94
400.613	184.94
400.837	208.94
401.062	179.94
401.286	168.94
401.51	187.94
401.734	199.94
401.958	185.94
402.182	173.94
402.406	189.94
402.63	178.94
402.854	186.94
403.078	189.94
403.302	208.94
403.526	202.94
403.75	201.94
403.974	195.94
404.198	195.94
404.422	200.94
404.645	210.94
404.869	187.94
405.093	195.94
405.317	202.94
405.541	191.94
405.765	203.94
405.988	195.94
406.212	199.94
406.436	199.94
406.66	207.94
406.883	211.94
407.107	236.94
407.331	207.94
407.555	210.94
407.778	216.94
408.002	193.94
408.226	200.94
408.449	190.94
408.673	201.94
408.896	199.94
409.12	209.94
409.344	201.94
409.567	192.94
409.791	198.94
410.014	185.94
410.238	199.94
410.461	201.94
410.685	195.94
410.908	191.94
411.132	205.94
411.355	190.94
411.578	202.94
411.802	174.94
412.025	182.94
412.249	184.94
412.472	185.94
412.695	184.94
412.919	182.94
413.142	177.94
413.365	169.94
413.589	183.94
413.812	192.94
414.035	185.94
414.258	170.94
414.482	198.94
414.705	199.94
414.928	192.94
415.151	188.94
415.374	178.94
415.597	183.94
415.821	190.94
416.044	187.94
416.267	182.94
416.49	156.94
416.713	173.94
416.936	186.94
417.159	200.94
417.382	174.94
417.605	179.94
417.828	190.94
418.051	193.94
418.274	193.94
418.497	176.94
418.72	182.94
418.943	187.94
419.166	200.94
419.389	198.94
419.611	199.94
419.834	187.94
420.057	196.94
420.28	181.94
420.503	186.94
420.726	183.94
420.948	186.94
421.171	191.94
421.394	182.94
421.617	174.94
421.839	188.94
422.062	204.94
422.285	196.94
422.507	182.94
422.73	172.94
422.953	185.94
423.175	195.94
423.398	171.94
423.621	201.94
423.843	200.94
424.066	188.94
424.288	187.94
424.511	201.94
424.733	184.94
424.956	191.94
425.178	186.94
425.401	182.94
425.623	185.94
425.846	177.94
426.068	183.94
426.291	180.94
426.513	186.94
426.735	180.94
426.958	158.94
427.18	179.94
427.402	180.94
427.625	169.94
427.847	171.94
428.069	159.94
428.292	147.94
428.514	171.94
428.736	168.94
428.958	175.94
429.181	178.94
429.403	159.94
429.625	168.94
429.847	162.94
430.069	157.94
430.292	178.94
430.514	162.94
430.736	183.94
430.958	163.94
431.18	172.94
431.402	168.94
431.624	165.94
431.846	184.94
432.068	167.94
432.29	174.94
432.512	185.94
432.734	169.94
432.956	179.94
433.178	166.94
433.4	184.94
433.622	169.94
433.844	161.94
434.066	164.94
434.287	179.94
434.509	184.94
434.731	190.94
434.953	186.94
435.175	183.94
435.397	184.94
435.618	188.94
435.84	167.94
436.062	165.94
436.284	156.94
436.505	172.94
436.727	174.94
436.949	184.94
437.17	167.94
437.392	168.94
437.614	160.94
437.835	170.94
438.057	159.94
438.278	162.94
438.5	153.94
438.721	153.94
438.943	164.94
439.165	162.94
439.386	156.94
439.608	166.94
439.829	175.94
440.05	185.94
440.272	178.94
440.493	170.94
440.715	173.94
440.936	176.94
441.158	182.94
441.379	164.94
441.6	195.94
441.822	191.94
442.043	191.94
442.264	174.94
442.486	195.94
442.707	193.94
442.928	165.94
443.149	185.94
443.371	185.94
443.592	208.94
443.813	186.94
444.034	203.94
444.255	187.94
444.476	206.94
444.698	229.94
444.919	226.94
445.14	495.94
445.361	312.94
445.582	205.94
445.803	173.94
446.024	194.94
446.245	195.94
446.466	192.94
446.687	171.94
446.908	185.94
447.129	171.94
447.35	177.94
447.571	167.94
447.792	170.94
448.013	163.94
448.234	162.94
448.455	167.94
448.675	169.94
448.896	173.94
449.117	164.94
449.338	163.94
449.559	169.94
449.779	160.94
450	160.94
450.221	169.94
450.442	177.94
450.662	170.94
450.883	170.94
451.104	164.94
451.324	161.94
451.545	169.94
451.766	170.94
451.986	153.94
452.207	169.94
452.428	154.94
452.648	164.94
452.869	172.94
453.089	172.94
453.31	156.94
453.53	154.94
453.751	155.94
453.971	149.94
454.192	160.94
454.412	153.94
454.633	156.94
454.853	169.94
455.073	134.94
455.294	151.94
455.514	164.94
455.734	158.94
455.955	148.94
456.175	158.94
456.395	158.94
456.616	159.94
456.836	162.94
457.056	160.94
457.276	138.94
457.497	165.94
457.717	148.94
457.937	137.94
458.157	168.94
458.377	150.94
458.598	140.94
458.818	162.94
459.038	153.94
459.258	170.94
459.478	169.94
459.698	169.94
459.918	193.94
460.138	182.94
460.358	194.94
460.578	181.94
460.798	178.94
461.018	196.94
461.238	206.94
461.458	191.94
461.678	186.94
461.898	184.94
462.118	207.94
462.338	187.94
462.558	213.94
462.777	196.94
462.997	240.94
463.217	231.94
463.437	224.94
463.657	233.94
463.876	217.94
464.096	203.94
464.316	218.94
464.536	204.94
464.755	203.94
464.975	178.94
465.195	199.94
465.414	179.94
465.634	179.94
465.854	181.94
466.073	167.94
466.293	164.94
466.512	164.94
466.732	167.94
466.951	158.94
467.171	176.94
467.391	162.94
467.61	175.94
467.829	155.94
468.049	167.94
468.268	168.94
468.488	161.94
468.707	164.94
468.927	161.94
469.146	159.94
469.365	160.94
469.585	158.94
469.804	162.94
470.023	192.94
470.243	173.94
470.462	174.94
470.681	171.94
470.901	177.94
471.12	175.94
471.339	190.94
471.558	165.94
471.777	166.94
471.997	165.94
472.216	156.94
472.435	181.94
472.654	152.94
472.873	172.94
473.092	161.94
473.311	158.94
473.53	153.94
473.749	155.94
473.968	156.94
474.187	156.94
474.406	171.94
474.625	170.94
474.844	167.94
475.063	170.94
475.282	174.94
475.501	168.94
475.72	177.94
475.939	162.94
476.158	163.94
476.377	140.94
476.596	155.94
476.814	185.94
477.033	174.94
477.252	176.94
477.471	175.94
477.69	170.94
477.908	188.94
478.127	199.94
478.346	178.94
478.564	173.94
478.783	190.94
479.002	199.94
479.22	176.94
479.439	194.94
479.658	185.94
479.876	188.94
480.095	178.94
480.313	191.94
480.532	205.94
480.751	214.94
480.969	169.94
481.188	183.94
481.406	184.94
481.624	178.94
481.843	176.94
482.061	170.94
482.28	170.94
482.498	178.94
482.717	177.94
482.935	178.94
483.153	171.94
483.372	179.94
483.59	191.94
483.808	176.94
484.027	184.94
484.245	171.94
484.463	186.94
484.681	200.94
484.9	190.94
485.118	191.94
485.336	183.94
485.554	179.94
485.772	199.94
485.99	177.94
486.209	190.94
486.427	186.94
486.645	196.94
486.863	183.94
487.081	178.94
487.299	188.94
487.517	206.94
487.735	190.94
487.953	193.94
488.171	190.94
488.389	193.94
488.607	183.94
488.825	175.94
489.043	181.94
489.261	183.94
489.479	206.94
489.696	184.94
489.914	190.94
490.132	199.94
490.35	196.94
490.568	176.94
490.786	195.94
491.003	176.94
491.221	190.94
491.439	190.94
491.657	181.94
491.874	202.94
492.092	190.94
492.31	195.94
492.527	203.94
492.745	193.94
492.963	195.94
493.18	191.94
493.398	193.94
493.615	182.94
493.833	183.94
494.05	189.94
494.268	193.94
494.485	187.94
494.703	179.94
494.92	183.94
495.138	198.94
495.355	192.94
495.573	199.94
495.79	195.94
496.008	190.94
496.225	186.94
496.442	210.94
496.66	207.94
496.877	195.94
497.094	203.94
497.312	206.94
497.529	201.94
497.746	211.94
497.963	204.94
498.181	223.94
498.398	220.94
498.615	234.94
498.832	242.94
499.049	260.94
499.267	285.94
499.484	299.94
499.701	326.94
499.918	360.94
500.135	392.94
500.352	447.94
500.569	441.94
500.786	446.94
501.003	408.94
501.22	375.94
501.437	314.94
501.654	311.94
501.871	271.94
502.088	256.94
502.305	256.94
502.522	235.94
502.739	227.94
502.956	210.94
503.172	236.94
503.389	208.94
503.606	202.94
503.823	193.94
504.04	215.94
504.256	214.94
504.473	216.94
504.69	216.94
504.907	239.94
