Data from SampD_HRD10591_00023.txt Node
Date: Mon Jan 19 11:41:29 EST 2026
User: Yrep
Spectrometer: HR+D1059
Trigger mode: 0
Integration Time (sec): 3.443000E-1
Scans to average: 1
Electric dark correction enabled: true
Nonlinearity correction enabled: false
Boxcar width: 0
XAxis mode: Wavelengths
Number of Pixels in Spectrum: 2048
>>>>>Begin Spectral Data<<<<<
223.165	-22.56
223.4	-22.56
223.635	-22.56
223.869	-15.56
224.104	-26.56
224.338	-17.56
224.573	-15.56
224.808	-22.56
225.042	-5.56
225.277	-7.56
225.511	-13.56
225.746	8.44
225.98	10.44
226.215	14.44
226.449	20.44
226.683	30.44
226.918	28.44
227.152	34.44
227.387	43.44
227.621	42.44
227.856	37.44
228.09	30.44
228.324	50.44
228.559	60.44
228.793	46.44
229.027	63.44
229.262	66.44
229.496	64.44
229.73	75.44
229.964	79.44
230.199	71.44
230.433	91.44
230.667	77.44
230.901	82.44
231.136	80.44
231.37	88.44
231.604	93.44
231.838	80.44
232.072	78.44
232.306	76.44
232.541	84.44
232.775	85.44
233.009	74.44
233.243	73.44
233.477	88.44
233.711	94.44
233.945	93.44
234.179	68.44
234.413	94.44
234.647	85.44
234.881	52.44
235.115	71.44
235.349	79.44
235.583	83.44
235.817	78.44
236.051	81.44
236.285	67.44
236.519	84.44
236.753	93.44
236.987	65.44
237.221	81.44
237.455	88.44
237.689	74.44
237.922	77.44
238.156	77.44
238.39	71.44
238.624	77.44
238.858	88.44
239.091	58.44
239.325	74.44
239.559	102.44
239.793	81.44
240.027	87.44
240.26	96.44
240.494	98.44
240.728	81.44
240.961	84.44
241.195	83.44
241.429	81.44
241.662	86.44
241.896	81.44
242.13	79.44
242.363	69.44
242.597	82.44
242.83	89.44
243.064	88.44
243.298	92.44
243.531	81.44
243.765	93.44
243.998	90.44
244.232	83.44
244.465	84.44
244.699	79.44
244.932	80.44
245.166	82.44
245.399	91.44
245.633	97.44
245.866	97.44
246.099	76.44
246.333	90.44
246.566	83.44
246.8	91.44
247.033	90.44
247.266	80.44
247.5	92.44
247.733	91.44
247.966	86.44
248.2	92.44
248.433	92.44
248.666	91.44
248.899	82.44
249.133	78.44
249.366	104.44
249.599	88.44
249.832	92.44
250.066	104.44
250.299	85.44
250.532	82.44
250.765	87.44
250.998	77.44
251.231	88.44
251.465	94.44
251.698	90.44
251.931	90.44
252.164	85.44
252.397	87.44
252.63	88.44
252.863	96.44
253.096	85.44
253.329	101.44
253.562	88.44
253.795	90.44
254.028	98.44
254.261	100.44
254.494	86.44
254.727	80.44
254.96	100.44
255.193	97.44
255.426	104.44
255.659	96.44
255.892	94.44
256.124	83.44
256.357	102.44
256.59	116.44
256.823	84.44
257.056	97.44
257.289	98.44
257.521	90.44
257.754	101.44
257.987	86.44
258.22	106.44
258.452	94.44
258.685	89.44
258.918	92.44
259.151	89.44
259.383	101.44
259.616	101.44
259.849	94.44
260.081	96.44
260.314	93.44
260.547	89.44
260.779	103.44
261.012	100.44
261.244	78.44
261.477	101.44
261.71	99.44
261.942	74.44
262.175	102.44
262.407	109.44
262.64	101.44
262.872	87.44
263.105	93.44
263.337	93.44
263.57	100.44
263.802	96.44
264.035	93.44
264.267	98.44
264.499	93.44
264.732	99.44
264.964	96.44
265.197	100.44
265.429	98.44
265.661	100.44
265.894	102.44
266.126	104.44
266.358	106.44
266.591	107.44
266.823	102.44
267.055	103.44
267.287	101.44
267.52	100.44
267.752	109.44
267.984	107.44
268.216	82.44
268.448	104.44
268.681	106.44
268.913	100.44
269.145	97.44
269.377	95.44
269.609	87.44
269.841	108.44
270.073	96.44
270.306	94.44
270.538	105.44
270.77	97.44
271.002	98.44
271.234	110.44
271.466	93.44
271.698	96.44
271.93	106.44
272.162	114.44
272.394	119.44
272.626	101.44
272.858	102.44
273.09	89.44
273.322	102.44
273.553	100.44
273.785	107.44
274.017	112.44
274.249	105.44
274.481	101.44
274.713	90.44
274.945	105.44
275.176	93.44
275.408	110.44
275.64	85.44
275.872	99.44
276.104	105.44
276.335	108.44
276.567	109.44
276.799	94.44
277.031	112.44
277.262	97.44
277.494	101.44
277.726	116.44
277.957	101.44
278.189	102.44
278.421	105.44
278.652	107.44
278.884	98.44
279.115	98.44
279.347	101.44
279.579	107.44
279.81	112.44
280.042	111.44
280.273	115.44
280.505	111.44
280.736	111.44
280.968	125.44
281.199	113.44
281.431	99.44
281.662	106.44
281.894	110.44
282.125	109.44
282.356	119.44
282.588	116.44
282.819	102.44
283.051	107.44
283.282	107.44
283.513	122.44
283.745	117.44
283.976	118.44
284.207	117.44
284.439	118.44
284.67	111.44
284.901	118.44
285.132	98.44
285.364	108.44
285.595	114.44
285.826	97.44
286.057	119.44
286.288	118.44
286.52	98.44
286.751	123.44
286.982	113.44
287.213	112.44
287.444	108.44
287.675	116.44
287.906	129.44
288.138	113.44
288.369	104.44
288.6	119.44
288.831	113.44
289.062	121.44
289.293	106.44
289.524	127.44
289.755	109.44
289.986	99.44
290.217	121.44
290.448	102.44
290.679	116.44
290.91	113.44
291.141	114.44
291.371	126.44
291.602	119.44
291.833	109.44
292.064	104.44
292.295	104.44
292.526	123.44
292.757	113.44
292.987	115.44
293.218	106.44
293.449	118.44
293.68	122.44
293.91	114.44
294.141	123.44
294.372	108.44
294.603	132.44
294.833	127.44
295.064	105.44
295.295	115.44
295.525	122.44
295.756	124.44
295.987	105.44
296.217	107.44
296.448	123.44
296.679	138.44
296.909	130.44
297.14	122.44
297.37	118.44
297.601	101.44
297.831	129.44
298.062	132.44
298.292	121.44
298.523	137.44
298.753	124.44
298.984	134.44
299.214	125.44
299.445	125.44
299.675	116.44
299.905	128.44
300.136	132.44
300.366	114.44
300.597	116.44
300.827	111.44
301.057	125.44
301.288	112.44
301.518	122.44
301.748	126.44
301.979	166.44
302.209	130.44
302.439	119.44
302.669	114.44
302.9	116.44
303.13	119.44
303.36	122.44
303.59	122.44
303.82	121.44
304.051	131.44
304.281	139.44
304.511	123.44
304.741	122.44
304.971	118.44
305.201	121.44
305.431	121.44
305.661	132.44
305.891	116.44
306.121	117.44
306.352	124.44
306.582	116.44
306.812	112.44
307.042	108.44
307.272	137.44
307.502	126.44
307.731	123.44
307.961	120.44
308.191	131.44
308.421	105.44
308.651	112.44
308.881	119.44
309.111	123.44
309.341	123.44
309.571	131.44
309.8	124.44
310.03	118.44
310.26	114.44
310.49	128.44
310.72	112.44
310.949	117.44
311.179	121.44
311.409	132.44
311.639	130.44
311.868	140.44
312.098	123.44
312.328	125.44
312.557	118.44
312.787	124.44
313.017	132.44
313.246	140.44
313.476	131.44
313.706	136.44
313.935	121.44
314.165	127.44
314.394	123.44
314.624	124.44
314.853	117.44
315.083	111.44
315.312	110.44
315.542	115.44
315.771	126.44
316.001	139.44
316.23	119.44
316.46	121.44
316.689	109.44
316.919	126.44
317.148	142.44
317.377	130.44
317.607	136.44
317.836	122.44
318.065	116.44
318.295	124.44
318.524	109.44
318.753	129.44
318.983	122.44
319.212	125.44
319.441	137.44
319.67	120.44
319.9	119.44
320.129	137.44
320.358	135.44
320.587	120.44
320.816	121.44
321.046	114.44
321.275	126.44
321.504	132.44
321.733	120.44
321.962	114.44
322.191	123.44
322.42	123.44
322.649	124.44
322.878	120.44
323.108	137.44
323.337	116.44
323.566	120.44
323.795	125.44
324.024	124.44
324.253	127.44
324.482	112.44
324.71	121.44
324.939	130.44
325.168	117.44
325.397	128.44
325.626	129.44
325.855	136.44
326.084	132.44
326.313	125.44
326.542	127.44
326.77	128.44
326.999	118.44
327.228	131.44
327.457	121.44
327.686	114.44
327.914	132.44
328.143	139.44
328.372	130.44
328.6	128.44
328.829	118.44
329.058	126.44
329.287	129.44
329.515	136.44
329.744	133.44
329.972	123.44
330.201	127.44
330.43	133.44
330.658	127.44
330.887	130.44
331.115	138.44
331.344	123.44
331.572	139.44
331.801	134.44
332.03	131.44
332.258	133.44
332.486	144.44
332.715	146.44
332.943	132.44
333.172	143.44
333.4	146.44
333.629	158.44
333.857	156.44
334.085	161.44
334.314	146.44
334.542	128.44
334.771	139.44
334.999	159.44
335.227	137.44
335.455	146.44
335.684	141.44
335.912	141.44
336.14	145.44
336.369	141.44
336.597	126.44
336.825	141.44
337.053	150.44
337.281	145.44
337.51	120.44
337.738	125.44
337.966	121.44
338.194	143.44
338.422	140.44
338.65	136.44
338.878	138.44
339.106	145.44
339.334	131.44
339.562	142.44
339.79	116.44
340.018	140.44
340.246	132.44
340.474	137.44
340.702	144.44
340.93	128.44
341.158	130.44
341.386	139.44
341.614	112.44
341.842	123.44
342.07	136.44
342.298	125.44
342.526	131.44
342.754	114.44
342.981	136.44
343.209	137.44
343.437	173.44
343.665	157.44
343.893	150.44
344.12	154.44
344.348	123.44
344.576	141.44
344.804	135.44
345.031	126.44
345.259	126.44
345.487	136.44
345.714	125.44
345.942	122.44
346.17	128.44
346.397	135.44
346.625	138.44
346.853	137.44
347.08	130.44
347.308	128.44
347.535	118.44
347.763	131.44
347.99	144.44
348.218	110.44
348.445	117.44
348.673	133.44
348.9	140.44
349.128	137.44
349.355	122.44
349.583	122.44
349.81	133.44
350.037	125.44
350.265	130.44
350.492	124.44
350.72	127.44
350.947	124.44
351.174	129.44
351.402	116.44
351.629	126.44
351.856	128.44
352.083	128.44
352.311	120.44
352.538	125.44
352.765	125.44
352.992	143.44
353.22	124.44
353.447	137.44
353.674	139.44
353.901	132.44
354.128	125.44
354.355	136.44
354.583	127.44
354.81	150.44
355.037	122.44
355.264	135.44
355.491	136.44
355.718	145.44
355.945	124.44
356.172	130.44
356.399	130.44
356.626	129.44
356.853	127.44
357.08	137.44
357.307	140.44
357.534	126.44
357.761	144.44
357.988	131.44
358.215	125.44
358.441	128.44
358.668	133.44
358.895	152.44
359.122	132.44
359.349	126.44
359.576	133.44
359.802	121.44
360.029	128.44
360.256	122.44
360.483	112.44
360.709	128.44
360.936	142.44
361.163	132.44
361.39	111.44
361.616	131.44
361.843	133.44
362.07	131.44
362.296	133.44
362.523	118.44
362.749	133.44
362.976	128.44
363.203	136.44
363.429	130.44
363.656	150.44
363.882	133.44
364.109	118.44
364.335	146.44
364.562	113.44
364.788	124.44
365.015	139.44
365.241	134.44
365.468	125.44
365.694	127.44
365.92	144.44
366.147	117.44
366.373	127.44
366.599	129.44
366.826	156.44
367.052	133.44
367.278	138.44
367.505	126.44
367.731	156.44
367.957	139.44
368.184	152.44
368.41	130.44
368.636	145.44
368.862	130.44
369.089	140.44
369.315	132.44
369.541	132.44
369.767	138.44
369.993	136.44
370.219	111.44
370.445	129.44
370.672	139.44
370.898	126.44
371.124	133.44
371.35	140.44
371.576	124.44
371.802	130.44
372.028	120.44
372.254	124.44
372.48	132.44
372.706	138.44
372.932	141.44
373.158	132.44
373.384	151.44
373.61	145.44
373.835	131.44
374.061	116.44
374.287	129.44
374.513	150.44
374.739	140.44
374.965	141.44
375.191	145.44
375.416	133.44
375.642	140.44
375.868	145.44
376.094	136.44
376.319	136.44
376.545	123.44
376.771	141.44
376.997	124.44
377.222	126.44
377.448	132.44
377.674	126.44
377.899	150.44
378.125	128.44
378.35	133.44
378.576	115.44
378.802	140.44
379.027	148.44
379.253	145.44
379.478	133.44
379.704	130.44
379.929	142.44
380.155	134.44
380.38	133.44
380.606	145.44
380.831	142.44
381.057	156.44
381.282	135.44
381.507	140.44
381.733	136.44
381.958	137.44
382.184	137.44
382.409	144.44
382.634	145.44
382.86	144.44
383.085	159.44
383.31	136.44
383.535	143.44
383.761	144.44
383.986	149.44
384.211	139.44
384.436	142.44
384.662	153.44
384.887	165.44
385.112	155.44
385.337	143.44
385.562	152.44
385.787	172.44
386.013	147.44
386.238	152.44
386.463	138.44
386.688	196.44
386.913	163.44
387.138	156.44
387.363	160.44
387.588	158.44
387.813	160.44
388.038	153.44
388.263	163.44
388.488	160.44
388.713	140.44
388.938	152.44
389.163	156.44
389.387	163.44
389.612	153.44
389.837	144.44
390.062	141.44
390.287	173.44
390.512	152.44
390.736	158.44
390.961	164.44
391.186	153.44
391.411	158.44
391.636	156.44
391.86	172.44
392.085	168.44
392.31	178.44
392.534	146.44
392.759	154.44
392.984	157.44
393.208	152.44
393.433	166.44
393.658	173.44
393.882	170.44
394.107	171.44
394.331	163.44
394.556	153.44
394.78	165.44
395.005	148.44
395.229	154.44
395.454	144.44
395.678	172.44
395.903	153.44
396.127	165.44
396.352	161.44
396.576	153.44
396.801	160.44
397.025	176.44
397.249	158.44
397.474	185.44
397.698	158.44
397.922	161.44
398.147	171.44
398.371	172.44
398.595	175.44
398.82	170.44
399.044	173.44
399.268	204.44
399.492	225.44
399.717	222.44
399.941	232.44
400.165	209.44
400.389	197.44
400.613	175.44
400.837	190.44
401.062	189.44
401.286	168.44
401.51	172.44
401.734	159.44
401.958	161.44
402.182	176.44
402.406	168.44
402.63	184.44
402.854	172.44
403.078	176.44
403.302	173.44
403.526	187.44
403.75	191.44
403.974	194.44
404.198	184.44
404.422	202.44
404.645	199.44
404.869	194.44
405.093	191.44
405.317	191.44
405.541	189.44
405.765	187.44
405.988	205.44
406.212	189.44
406.436	181.44
406.66	204.44
406.883	209.44
407.107	209.44
407.331	203.44
407.555	220.44
407.778	216.44
408.002	185.44
408.226	198.44
408.449	190.44
408.673	200.44
408.896	187.44
409.12	191.44
409.344	191.44
409.567	187.44
409.791	190.44
410.014	193.44
410.238	188.44
410.461	196.44
410.685	185.44
410.908	189.44
411.132	192.44
411.355	176.44
411.578	191.44
411.802	186.44
412.025	186.44
412.249	175.44
412.472	157.44
412.695	189.44
412.919	156.44
413.142	152.44
413.365	166.44
413.589	158.44
413.812	180.44
414.035	178.44
414.258	175.44
414.482	170.44
414.705	161.44
414.928	166.44
415.151	169.44
415.374	167.44
415.597	177.44
415.821	158.44
416.044	174.44
416.267	178.44
416.49	184.44
416.713	174.44
416.936	186.44
417.159	171.44
417.382	160.44
417.605	181.44
417.828	158.44
418.051	163.44
418.274	178.44
418.497	157.44
418.72	187.44
418.943	177.44
419.166	186.44
419.389	186.44
419.611	176.44
419.834	192.44
420.057	169.44
420.28	177.44
420.503	179.44
420.726	193.44
420.948	174.44
421.171	172.44
421.394	165.44
421.617	173.44
421.839	176.44
422.062	152.44
422.285	182.44
422.507	185.44
422.73	181.44
422.953	184.44
423.175	184.44
423.398	184.44
423.621	191.44
423.843	189.44
424.066	193.44
424.288	182.44
424.511	190.44
424.733	179.44
424.956	189.44
425.178	177.44
425.401	179.44
425.623	169.44
425.846	180.44
426.068	158.44
426.291	177.44
426.513	165.44
426.735	185.44
426.958	171.44
427.18	172.44
427.402	191.44
427.625	160.44
427.847	161.44
428.069	167.44
428.292	174.44
428.514	166.44
428.736	150.44
428.958	153.44
429.181	167.44
429.403	163.44
429.625	156.44
429.847	170.44
430.069	175.44
430.292	167.44
430.514	145.44
430.736	159.44
430.958	175.44
431.18	172.44
431.402	165.44
431.624	161.44
431.846	161.44
432.068	171.44
432.29	171.44
432.512	171.44
432.734	167.44
432.956	180.44
433.178	152.44
433.4	156.44
433.622	177.44
433.844	167.44
434.066	167.44
434.287	174.44
434.509	170.44
434.731	174.44
434.953	172.44
435.175	177.44
435.397	183.44
435.618	173.44
435.84	160.44
436.062	167.44
436.284	159.44
436.505	152.44
436.727	175.44
436.949	187.44
437.17	161.44
437.392	156.44
437.614	159.44
437.835	170.44
438.057	164.44
438.278	147.44
438.5	164.44
438.721	188.44
438.943	153.44
439.165	147.44
439.386	160.44
439.608	165.44
439.829	171.44
440.05	180.44
440.272	187.44
440.493	162.44
440.715	169.44
440.936	187.44
441.158	176.44
441.379	156.44
441.6	182.44
441.822	181.44
442.043	179.44
442.264	189.44
442.486	184.44
442.707	175.44
442.928	163.44
443.149	172.44
443.371	181.44
443.592	177.44
443.813	181.44
444.034	172.44
444.255	180.44
444.476	206.44
444.698	201.44
444.919	203.44
445.14	465.44
445.361	309.44
445.582	191.44
445.803	166.44
446.024	174.44
446.245	171.44
446.466	166.44
446.687	163.44
446.908	166.44
447.129	163.44
447.35	165.44
447.571	174.44
447.792	154.44
448.013	167.44
448.234	144.44
448.455	155.44
448.675	157.44
448.896	164.44
449.117	171.44
449.338	152.44
449.559	153.44
449.779	159.44
450	163.44
450.221	150.44
450.442	159.44
450.662	166.44
450.883	150.44
451.104	179.44
451.324	144.44
451.545	152.44
451.766	153.44
451.986	148.44
452.207	153.44
452.428	183.44
452.648	152.44
452.869	166.44
453.089	160.44
453.31	141.44
453.53	139.44
453.751	139.44
453.971	160.44
454.192	141.44
454.412	148.44
454.633	138.44
454.853	154.44
455.073	140.44
455.294	162.44
455.514	152.44
455.734	156.44
455.955	142.44
456.175	149.44
456.395	152.44
456.616	149.44
456.836	141.44
457.056	162.44
457.276	150.44
457.497	153.44
457.717	145.44
457.937	149.44
458.157	152.44
458.377	152.44
458.598	149.44
458.818	163.44
459.038	152.44
459.258	166.44
459.478	180.44
459.698	157.44
459.918	155.44
460.138	170.44
460.358	208.44
460.578	190.44
460.798	178.44
461.018	193.44
461.238	185.44
461.458	173.44
461.678	174.44
461.898	196.44
462.118	195.44
462.338	210.44
462.558	185.44
462.777	203.44
462.997	220.44
463.217	224.44
463.437	204.44
463.657	203.44
463.876	214.44
464.096	192.44
464.316	200.44
464.536	200.44
464.755	186.44
464.975	191.44
465.195	181.44
465.414	170.44
465.634	178.44
465.854	170.44
466.073	166.44
466.293	159.44
466.512	163.44
466.732	155.44
466.951	173.44
467.171	161.44
467.391	158.44
467.61	173.44
467.829	148.44
468.049	163.44
468.268	152.44
468.488	150.44
468.707	133.44
468.927	144.44
469.146	160.44
469.365	174.44
469.585	167.44
469.804	184.44
470.023	163.44
470.243	169.44
470.462	178.44
470.681	158.44
470.901	161.44
471.12	155.44
471.339	173.44
471.558	152.44
471.777	158.44
471.997	165.44
472.216	149.44
472.435	154.44
472.654	160.44
472.873	180.44
473.092	166.44
473.311	152.44
473.53	166.44
473.749	158.44
473.968	155.44
474.187	159.44
474.406	143.44
474.625	171.44
474.844	173.44
475.063	163.44
475.282	160.44
475.501	155.44
475.72	165.44
475.939	160.44
476.158	155.44
476.377	164.44
476.596	148.44
476.814	160.44
477.033	169.44
477.252	149.44
477.471	172.44
477.69	167.44
477.908	195.44
478.127	190.44
478.346	175.44
478.564	182.44
478.783	170.44
479.002	185.44
479.22	186.44
479.439	174.44
479.658	163.44
479.876	170.44
480.095	188.44
480.313	197.44
480.532	184.44
480.751	188.44
480.969	185.44
481.188	175.44
481.406	177.44
481.624	161.44
481.843	190.44
482.061	152.44
482.28	184.44
482.498	154.44
482.717	158.44
482.935	164.44
483.153	172.44
483.372	158.44
483.59	162.44
483.808	164.44
484.027	169.44
484.245	178.44
484.463	173.44
484.681	197.44
484.9	169.44
485.118	165.44
485.336	185.44
485.554	186.44
485.772	168.44
485.99	176.44
486.209	187.44
486.427	167.44
486.645	158.44
486.863	174.44
487.081	195.44
487.299	174.44
487.517	174.44
487.735	174.44
487.953	171.44
488.171	192.44
488.389	189.44
488.607	174.44
488.825	171.44
489.043	167.44
489.261	200.44
489.479	193.44
489.696	168.44
489.914	164.44
490.132	179.44
490.35	178.44
490.568	174.44
490.786	184.44
491.003	174.44
491.221	173.44
491.439	164.44
491.657	174.44
491.874	185.44
492.092	193.44
492.31	182.44
492.527	180.44
492.745	182.44
492.963	189.44
493.18	180.44
493.398	191.44
493.615	195.44
493.833	183.44
494.05	182.44
494.268	195.44
494.485	185.44
494.703	186.44
494.92	185.44
495.138	189.44
495.355	190.44
495.573	181.44
495.79	181.44
496.008	202.44
496.225	183.44
496.442	188.44
496.66	222.44
496.877	182.44
497.094	192.44
497.312	194.44
497.529	184.44
497.746	192.44
497.963	203.44
498.181	197.44
498.398	201.44
498.615	249.44
498.832	234.44
499.049	237.44
499.267	249.44
499.484	277.44
499.701	313.44
499.918	322.44
500.135	374.44
500.352	413.44
500.569	416.44
500.786	399.44
501.003	365.44
501.22	328.44
501.437	294.44
501.654	280.44
501.871	267.44
502.088	255.44
502.305	232.44
502.522	201.44
502.739	226.44
502.956	214.44
503.172	189.44
503.389	209.44
503.606	201.44
503.823	198.44
504.04	196.44
504.256	208.44
504.473	188.44
504.69	223.44
504.907	215.44
