Data from SampD_HRD10591_00026.txt Node
Date: Mon Jan 19 11:41:30 EST 2026
User: Yrep
Spectrometer: HR+D1059
Trigger mode: 0
Integration Time (sec): 3.443000E-1
Scans to average: 1
Electric dark correction enabled: true
Nonlinearity correction enabled: false
Boxcar width: 0
XAxis mode: Wavelengths
Number of Pixels in Spectrum: 2048
>>>>>Begin Spectral Data<<<<<
223.165	-26.06
223.4	-26.06
223.635	-26.06
223.869	-29.06
224.104	-29.06
224.338	0.94
224.573	-10.06
224.808	-11.06
225.042	-12.06
225.277	-20.06
225.511	6.94
225.746	9.94
225.98	2.94
226.215	11.94
226.449	20.94
226.683	24.94
226.918	24.94
227.152	33.94
227.387	36.94
227.621	40.94
227.856	35.94
228.09	29.94
228.324	51.94
228.559	59.94
228.793	45.94
229.027	62.94
229.262	65.94
229.496	66.94
229.73	62.94
229.964	75.94
230.199	72.94
230.433	78.94
230.667	89.94
230.901	99.94
231.136	78.94
231.37	90.94
231.604	94.94
231.838	77.94
232.072	84.94
232.306	78.94
232.541	66.94
232.775	81.94
233.009	94.94
233.243	85.94
233.477	84.94
233.711	91.94
233.945	77.94
234.179	82.94
234.413	91.94
234.647	84.94
234.881	81.94
235.115	80.94
235.349	77.94
235.583	97.94
235.817	81.94
236.051	77.94
236.285	92.94
236.519	72.94
236.753	91.94
236.987	79.94
237.221	73.94
237.455	80.94
237.689	93.94
237.922	79.94
238.156	84.94
238.39	84.94
238.624	75.94
238.858	88.94
239.091	75.94
239.325	85.94
239.559	68.94
239.793	90.94
240.027	100.94
240.26	68.94
240.494	82.94
240.728	76.94
240.961	79.94
241.195	88.94
241.429	86.94
241.662	86.94
241.896	79.94
242.13	68.94
242.363	83.94
242.597	80.94
242.83	87.94
243.064	86.94
243.298	88.94
243.531	90.94
243.765	84.94
243.998	93.94
244.232	82.94
244.465	73.94
244.699	84.94
244.932	86.94
245.166	96.94
245.399	94.94
245.633	94.94
245.866	82.94
246.099	98.94
246.333	95.94
246.566	88.94
246.8	88.94
247.033	90.94
247.266	104.94
247.5	88.94
247.733	80.94
247.966	102.94
248.2	78.94
248.433	88.94
248.666	97.94
248.899	89.94
249.133	91.94
249.366	99.94
249.599	84.94
249.832	93.94
250.066	83.94
250.299	89.94
250.532	93.94
250.765	85.94
250.998	85.94
251.231	91.94
251.465	95.94
251.698	92.94
251.931	104.94
252.164	98.94
252.397	105.94
252.63	90.94
252.863	96.94
253.096	99.94
253.329	97.94
253.562	88.94
253.795	97.94
254.028	94.94
254.261	91.94
254.494	99.94
254.727	94.94
254.96	104.94
255.193	87.94
255.426	88.94
255.659	77.94
255.892	108.94
256.124	89.94
256.357	91.94
256.59	91.94
256.823	89.94
257.056	92.94
257.289	95.94
257.521	101.94
257.754	101.94
257.987	98.94
258.22	101.94
258.452	93.94
258.685	102.94
258.918	92.94
259.151	101.94
259.383	108.94
259.616	92.94
259.849	98.94
260.081	107.94
260.314	103.94
260.547	94.94
260.779	100.94
261.012	98.94
261.244	91.94
261.477	114.94
261.71	115.94
261.942	93.94
262.175	86.94
262.407	108.94
262.64	93.94
262.872	98.94
263.105	101.94
263.337	109.94
263.57	105.94
263.802	103.94
264.035	102.94
264.267	109.94
264.499	97.94
264.732	102.94
264.964	109.94
265.197	94.94
265.429	91.94
265.661	103.94
265.894	106.94
266.126	111.94
266.358	102.94
266.591	109.94
266.823	121.94
267.055	87.94
267.287	113.94
267.52	97.94
267.752	109.94
267.984	102.94
268.216	111.94
268.448	115.94
268.681	98.94
268.913	111.94
269.145	117.94
269.377	106.94
269.609	107.94
269.841	98.94
270.073	100.94
270.306	93.94
270.538	112.94
270.77	122.94
271.002	115.94
271.234	94.94
271.466	120.94
271.698	100.94
271.93	112.94
272.162	122.94
272.394	124.94
272.626	115.94
272.858	106.94
273.09	102.94
273.322	99.94
273.553	114.94
273.785	121.94
274.017	108.94
274.249	102.94
274.481	86.94
274.713	110.94
274.945	115.94
275.176	97.94
275.408	114.94
275.64	106.94
275.872	114.94
276.104	106.94
276.335	109.94
276.567	97.94
276.799	109.94
277.031	106.94
277.262	114.94
277.494	125.94
277.726	108.94
277.957	95.94
278.189	96.94
278.421	106.94
278.652	113.94
278.884	120.94
279.115	111.94
279.347	104.94
279.579	112.94
279.81	115.94
280.042	105.94
280.273	113.94
280.505	118.94
280.736	119.94
280.968	92.94
281.199	122.94
281.431	107.94
281.662	117.94
281.894	100.94
282.125	126.94
282.356	99.94
282.588	106.94
282.819	114.94
283.051	119.94
283.282	118.94
283.513	138.94
283.745	118.94
283.976	130.94
284.207	120.94
284.439	98.94
284.67	111.94
284.901	118.94
285.132	125.94
285.364	103.94
285.595	112.94
285.826	128.94
286.057	116.94
286.288	115.94
286.52	105.94
286.751	110.94
286.982	118.94
287.213	120.94
287.444	132.94
287.675	100.94
287.906	128.94
288.138	120.94
288.369	116.94
288.6	124.94
288.831	126.94
289.062	125.94
289.293	124.94
289.524	126.94
289.755	130.94
289.986	118.94
290.217	127.94
290.448	128.94
290.679	140.94
290.91	117.94
291.141	128.94
291.371	120.94
291.602	125.94
291.833	119.94
292.064	138.94
292.295	124.94
292.526	116.94
292.757	129.94
292.987	130.94
293.218	127.94
293.449	128.94
293.68	129.94
293.91	121.94
294.141	148.94
294.372	124.94
294.603	130.94
294.833	116.94
295.064	126.94
295.295	123.94
295.525	125.94
295.756	108.94
295.987	132.94
296.217	131.94
296.448	121.94
296.679	120.94
296.909	132.94
297.14	143.94
297.37	128.94
297.601	121.94
297.831	123.94
298.062	124.94
298.292	130.94
298.523	138.94
298.753	110.94
298.984	124.94
299.214	139.94
299.445	120.94
299.675	132.94
299.905	134.94
300.136	134.94
300.366	114.94
300.597	102.94
300.827	132.94
301.057	124.94
301.288	136.94
301.518	128.94
301.748	133.94
301.979	145.94
302.209	139.94
302.439	120.94
302.669	126.94
302.9	129.94
303.13	128.94
303.36	136.94
303.59	120.94
303.82	142.94
304.051	133.94
304.281	126.94
304.511	146.94
304.741	136.94
304.971	140.94
305.201	123.94
305.431	126.94
305.661	139.94
305.891	126.94
306.121	125.94
306.352	126.94
306.582	138.94
306.812	133.94
307.042	109.94
307.272	120.94
307.502	114.94
307.731	133.94
307.961	142.94
308.191	125.94
308.421	121.94
308.651	130.94
308.881	107.94
309.111	129.94
309.341	115.94
309.571	129.94
309.8	129.94
310.03	130.94
310.26	129.94
310.49	132.94
310.72	127.94
310.949	131.94
311.179	132.94
311.409	128.94
311.639	124.94
311.868	136.94
312.098	144.94
312.328	131.94
312.557	145.94
312.787	123.94
313.017	142.94
313.246	142.94
313.476	141.94
313.706	141.94
313.935	132.94
314.165	136.94
314.394	134.94
314.624	131.94
314.853	124.94
315.083	118.94
315.312	139.94
315.542	133.94
315.771	134.94
316.001	133.94
316.23	134.94
316.46	127.94
316.689	124.94
316.919	120.94
317.148	132.94
317.377	145.94
317.607	123.94
317.836	124.94
318.065	136.94
318.295	136.94
318.524	128.94
318.753	127.94
318.983	116.94
319.212	119.94
319.441	142.94
319.67	128.94
319.9	119.94
320.129	131.94
320.358	129.94
320.587	126.94
320.816	114.94
321.046	115.94
321.275	123.94
321.504	114.94
321.733	130.94
321.962	129.94
322.191	135.94
322.42	129.94
322.649	136.94
322.878	129.94
323.108	133.94
323.337	130.94
323.566	129.94
323.795	133.94
324.024	125.94
324.253	125.94
324.482	146.94
324.71	138.94
324.939	136.94
325.168	137.94
325.397	140.94
325.626	123.94
325.855	125.94
326.084	139.94
326.313	144.94
326.542	143.94
326.77	141.94
326.999	145.94
327.228	123.94
327.457	136.94
327.686	144.94
327.914	145.94
328.143	141.94
328.372	108.94
328.6	125.94
328.829	147.94
329.058	161.94
329.287	132.94
329.515	133.94
329.744	128.94
329.972	148.94
330.201	129.94
330.43	148.94
330.658	131.94
330.887	134.94
331.115	150.94
331.344	147.94
331.572	167.94
331.801	144.94
332.03	140.94
332.258	156.94
332.486	159.94
332.715	147.94
332.943	160.94
333.172	157.94
333.4	163.94
333.629	179.94
333.857	157.94
334.085	154.94
334.314	159.94
334.542	160.94
334.771	139.94
334.999	156.94
335.227	162.94
335.455	157.94
335.684	151.94
335.912	152.94
336.14	165.94
336.369	172.94
336.597	156.94
336.825	151.94
337.053	136.94
337.281	154.94
337.51	147.94
337.738	165.94
337.966	144.94
338.194	141.94
338.422	144.94
338.65	150.94
338.878	134.94
339.106	137.94
339.334	149.94
339.562	147.94
339.79	136.94
340.018	142.94
340.246	143.94
340.474	141.94
340.702	137.94
340.93	131.94
341.158	128.94
341.386	150.94
341.614	124.94
341.842	150.94
342.07	140.94
342.298	138.94
342.526	137.94
342.754	138.94
342.981	142.94
343.209	155.94
343.437	185.94
343.665	143.94
343.893	153.94
344.12	160.94
344.348	170.94
344.576	150.94
344.804	153.94
345.031	126.94
345.259	133.94
345.487	133.94
345.714	133.94
345.942	139.94
346.17	149.94
346.397	144.94
346.625	149.94
346.853	136.94
347.08	138.94
347.308	152.94
347.535	140.94
347.763	142.94
347.99	153.94
348.218	126.94
348.445	131.94
348.673	129.94
348.9	137.94
349.128	145.94
349.355	128.94
349.583	116.94
349.81	141.94
350.037	164.94
350.265	146.94
350.492	141.94
350.72	136.94
350.947	127.94
351.174	150.94
351.402	156.94
351.629	116.94
351.856	160.94
352.083	132.94
352.311	141.94
352.538	119.94
352.765	127.94
352.992	136.94
353.22	136.94
353.447	133.94
353.674	126.94
353.901	129.94
354.128	131.94
354.355	136.94
354.583	131.94
354.81	134.94
355.037	124.94
355.264	141.94
355.491	136.94
355.718	141.94
355.945	133.94
356.172	139.94
356.399	156.94
356.626	146.94
356.853	134.94
357.08	161.94
357.307	129.94
357.534	145.94
357.761	157.94
357.988	131.94
358.215	152.94
358.441	142.94
358.668	140.94
358.895	129.94
359.122	157.94
359.349	134.94
359.576	124.94
359.802	147.94
360.029	156.94
360.256	141.94
360.483	136.94
360.709	127.94
360.936	150.94
361.163	148.94
361.39	145.94
361.616	126.94
361.843	136.94
362.07	134.94
362.296	154.94
362.523	144.94
362.749	147.94
362.976	142.94
363.203	139.94
363.429	140.94
363.656	125.94
363.882	136.94
364.109	149.94
364.335	149.94
364.562	136.94
364.788	142.94
365.015	129.94
365.241	152.94
365.468	157.94
365.694	136.94
365.92	130.94
366.147	136.94
366.373	131.94
366.599	131.94
366.826	156.94
367.052	125.94
367.278	140.94
367.505	138.94
367.731	150.94
367.957	138.94
368.184	125.94
368.41	138.94
368.636	130.94
368.862	138.94
369.089	148.94
369.315	145.94
369.541	162.94
369.767	155.94
369.993	133.94
370.219	131.94
370.445	123.94
370.672	141.94
370.898	152.94
371.124	131.94
371.35	147.94
371.576	143.94
371.802	146.94
372.028	153.94
372.254	154.94
372.48	151.94
372.706	149.94
372.932	153.94
373.158	147.94
373.384	152.94
373.61	160.94
373.835	164.94
374.061	137.94
374.287	137.94
374.513	155.94
374.739	151.94
374.965	148.94
375.191	135.94
375.416	150.94
375.642	141.94
375.868	164.94
376.094	158.94
376.319	159.94
376.545	137.94
376.771	138.94
376.997	151.94
377.222	162.94
377.448	152.94
377.674	155.94
377.899	144.94
378.125	127.94
378.35	142.94
378.576	139.94
378.802	160.94
379.027	138.94
379.253	153.94
379.478	149.94
379.704	142.94
379.929	158.94
380.155	134.94
380.38	154.94
380.606	136.94
380.831	145.94
381.057	155.94
381.282	158.94
381.507	137.94
381.733	157.94
381.958	150.94
382.184	150.94
382.409	145.94
382.634	158.94
382.86	148.94
383.085	168.94
383.31	166.94
383.535	167.94
383.761	150.94
383.986	156.94
384.211	164.94
384.436	174.94
384.662	156.94
384.887	165.94
385.112	176.94
385.337	169.94
385.562	163.94
385.787	163.94
386.013	163.94
386.238	158.94
386.463	148.94
386.688	191.94
386.913	166.94
387.138	157.94
387.363	167.94
387.588	174.94
387.813	169.94
388.038	171.94
388.263	170.94
388.488	185.94
388.713	167.94
388.938	165.94
389.163	168.94
389.387	174.94
389.612	142.94
389.837	159.94
390.062	157.94
390.287	169.94
390.512	152.94
390.736	158.94
390.961	165.94
391.186	184.94
391.411	169.94
391.636	180.94
391.86	173.94
392.085	174.94
392.31	174.94
392.534	188.94
392.759	176.94
392.984	159.94
393.208	170.94
393.433	196.94
393.658	176.94
393.882	184.94
394.107	179.94
394.331	178.94
394.556	173.94
394.78	186.94
395.005	183.94
395.229	178.94
395.454	175.94
395.678	176.94
395.903	177.94
396.127	175.94
396.352	187.94
396.576	170.94
396.801	172.94
397.025	140.94
397.249	172.94
397.474	184.94
397.698	174.94
397.922	180.94
398.147	188.94
398.371	175.94
398.595	190.94
398.82	188.94
399.044	204.94
399.268	226.94
399.492	258.94
399.717	268.94
399.941	239.94
400.165	229.94
400.389	204.94
400.613	196.94
400.837	203.94
401.062	191.94
401.286	182.94
401.51	202.94
401.734	189.94
401.958	195.94
402.182	195.94
402.406	198.94
402.63	190.94
402.854	210.94
403.078	179.94
403.302	205.94
403.526	213.94
403.75	221.94
403.974	221.94
404.198	217.94
404.422	209.94
404.645	211.94
404.869	224.94
405.093	218.94
405.317	203.94
405.541	212.94
405.765	211.94
405.988	197.94
406.212	194.94
406.436	195.94
406.66	194.94
406.883	226.94
407.107	204.94
407.331	211.94
407.555	221.94
407.778	223.94
408.002	216.94
408.226	217.94
408.449	210.94
408.673	202.94
408.896	215.94
409.12	212.94
409.344	219.94
409.567	217.94
409.791	207.94
410.014	207.94
410.238	205.94
410.461	198.94
410.685	200.94
410.908	208.94
411.132	223.94
411.355	193.94
411.578	205.94
411.802	221.94
412.025	197.94
412.249	196.94
412.472	176.94
412.695	192.94
412.919	198.94
413.142	205.94
413.365	197.94
413.589	194.94
413.812	184.94
414.035	209.94
414.258	202.94
414.482	196.94
414.705	188.94
414.928	208.94
415.151	195.94
415.374	204.94
415.597	176.94
415.821	176.94
416.044	180.94
416.267	182.94
416.49	191.94
416.713	201.94
416.936	185.94
417.159	196.94
417.382	182.94
417.605	197.94
417.828	212.94
418.051	200.94
418.274	187.94
418.497	200.94
418.72	208.94
418.943	202.94
419.166	212.94
419.389	219.94
419.611	191.94
419.834	221.94
420.057	194.94
420.28	195.94
420.503	192.94
420.726	191.94
420.948	185.94
421.171	195.94
421.394	180.94
421.617	197.94
421.839	189.94
422.062	191.94
422.285	184.94
422.507	195.94
422.73	177.94
422.953	167.94
423.175	207.94
423.398	200.94
423.621	204.94
423.843	225.94
424.066	210.94
424.288	200.94
424.511	206.94
424.733	207.94
424.956	211.94
425.178	181.94
425.401	206.94
425.623	194.94
425.846	189.94
426.068	189.94
426.291	186.94
426.513	183.94
426.735	189.94
426.958	185.94
427.18	195.94
427.402	191.94
427.625	189.94
427.847	169.94
428.069	172.94
428.292	169.94
428.514	190.94
428.736	173.94
428.958	176.94
429.181	176.94
429.403	171.94
429.625	171.94
429.847	175.94
430.069	162.94
430.292	171.94
430.514	176.94
430.736	178.94
430.958	179.94
431.18	165.94
431.402	179.94
431.624	184.94
431.846	169.94
432.068	176.94
432.29	180.94
432.512	173.94
432.734	182.94
432.956	174.94
433.178	182.94
433.4	182.94
433.622	189.94
433.844	184.94
434.066	186.94
434.287	185.94
434.509	183.94
434.731	173.94
434.953	186.94
435.175	193.94
435.397	185.94
435.618	201.94
435.84	185.94
436.062	173.94
436.284	164.94
436.505	177.94
436.727	165.94
436.949	181.94
437.17	170.94
437.392	185.94
437.614	160.94
437.835	164.94
438.057	161.94
438.278	168.94
438.5	167.94
438.721	166.94
438.943	177.94
439.165	172.94
439.386	185.94
439.608	193.94
439.829	193.94
440.05	180.94
440.272	162.94
440.493	186.94
440.715	172.94
440.936	176.94
441.158	192.94
441.379	188.94
441.6	205.94
441.822	202.94
442.043	204.94
442.264	189.94
442.486	189.94
442.707	193.94
442.928	192.94
443.149	186.94
443.371	195.94
443.592	192.94
443.813	204.94
444.034	192.94
444.255	203.94
444.476	200.94
444.698	217.94
444.919	216.94
445.14	460.94
445.361	338.94
445.582	195.94
445.803	172.94
446.024	182.94
446.245	186.94
446.466	196.94
446.687	177.94
446.908	167.94
447.129	174.94
447.35	174.94
447.571	173.94
447.792	175.94
448.013	175.94
448.234	154.94
448.455	168.94
448.675	159.94
448.896	168.94
449.117	172.94
449.338	176.94
449.559	185.94
449.779	161.94
450	179.94
450.221	168.94
450.442	174.94
450.662	190.94
450.883	166.94
451.104	172.94
451.324	179.94
451.545	192.94
451.766	180.94
451.986	172.94
452.207	172.94
452.428	171.94
452.648	166.94
452.869	179.94
453.089	156.94
453.31	184.94
453.53	162.94
453.751	153.94
453.971	168.94
454.192	156.94
454.412	158.94
454.633	164.94
454.853	168.94
455.073	158.94
455.294	155.94
455.514	174.94
455.734	153.94
455.955	160.94
456.175	167.94
456.395	165.94
456.616	146.94
456.836	159.94
457.056	148.94
457.276	165.94
457.497	149.94
457.717	152.94
457.937	162.94
458.157	157.94
458.377	156.94
458.598	157.94
458.818	165.94
459.038	164.94
459.258	186.94
459.478	168.94
459.698	179.94
459.918	189.94
460.138	202.94
460.358	206.94
460.578	216.94
460.798	196.94
461.018	200.94
461.238	197.94
461.458	207.94
461.678	194.94
461.898	186.94
462.118	226.94
462.338	227.94
462.558	224.94
462.777	229.94
462.997	237.94
463.217	235.94
463.437	245.94
463.657	220.94
463.876	221.94
464.096	232.94
464.316	208.94
464.536	220.94
464.755	228.94
464.975	212.94
465.195	197.94
465.414	205.94
465.634	164.94
465.854	196.94
466.073	180.94
466.293	180.94
466.512	186.94
466.732	177.94
466.951	178.94
467.171	165.94
467.391	182.94
467.61	176.94
467.829	174.94
468.049	178.94
468.268	173.94
468.488	145.94
468.707	160.94
468.927	169.94
469.146	165.94
469.365	177.94
469.585	176.94
469.804	165.94
470.023	188.94
470.243	195.94
470.462	170.94
470.681	185.94
470.901	175.94
471.12	180.94
471.339	187.94
471.558	180.94
471.777	166.94
471.997	182.94
472.216	160.94
472.435	161.94
472.654	172.94
472.873	166.94
473.092	185.94
473.311	172.94
473.53	176.94
473.749	182.94
473.968	176.94
474.187	162.94
474.406	163.94
474.625	177.94
474.844	164.94
475.063	151.94
475.282	157.94
475.501	161.94
475.72	200.94
475.939	179.94
476.158	174.94
476.377	163.94
476.596	193.94
476.814	185.94
477.033	169.94
477.252	179.94
477.471	167.94
477.69	194.94
477.908	190.94
478.127	202.94
478.346	186.94
478.564	186.94
478.783	184.94
479.002	182.94
479.22	193.94
479.439	204.94
479.658	197.94
479.876	201.94
480.095	194.94
480.313	215.94
480.532	202.94
480.751	209.94
480.969	196.94
481.188	202.94
481.406	195.94
481.624	184.94
481.843	176.94
482.061	174.94
482.28	190.94
482.498	165.94
482.717	176.94
482.935	185.94
483.153	188.94
483.372	185.94
483.59	192.94
483.808	182.94
484.027	189.94
484.245	202.94
484.463	186.94
484.681	194.94
484.9	211.94
485.118	206.94
485.336	178.94
485.554	200.94
485.772	193.94
485.99	198.94
486.209	192.94
486.427	201.94
486.645	203.94
486.863	204.94
487.081	177.94
487.299	191.94
487.517	187.94
487.735	206.94
487.953	195.94
488.171	193.94
488.389	182.94
488.607	170.94
488.825	185.94
489.043	202.94
489.261	202.94
489.479	193.94
489.696	192.94
489.914	185.94
490.132	191.94
490.35	201.94
490.568	203.94
490.786	172.94
491.003	189.94
491.221	202.94
491.439	205.94
491.657	195.94
491.874	208.94
492.092	208.94
492.31	218.94
492.527	198.94
492.745	213.94
492.963	229.94
493.18	195.94
493.398	201.94
493.615	185.94
493.833	203.94
494.05	215.94
494.268	192.94
494.485	210.94
494.703	198.94
494.92	198.94
495.138	217.94
495.355	215.94
495.573	189.94
495.79	207.94
496.008	197.94
496.225	203.94
496.442	195.94
496.66	215.94
496.877	212.94
497.094	220.94
497.312	217.94
497.529	214.94
497.746	234.94
497.963	226.94
498.181	232.94
498.398	219.94
498.615	252.94
498.832	273.94
499.049	268.94
499.267	299.94
499.484	335.94
499.701	341.94
499.918	376.94
500.135	416.94
500.352	448.94
500.569	467.94
500.786	463.94
501.003	441.94
501.22	389.94
501.437	346.94
501.654	314.94
501.871	277.94
502.088	258.94
502.305	278.94
502.522	256.94
502.739	255.94
502.956	239.94
503.172	228.94
503.389	212.94
503.606	225.94
503.823	219.94
504.04	228.94
504.256	220.94
504.473	226.94
504.69	216.94
