Data from SampD_HRD10591_00025.txt Node
Date: Mon Jan 19 11:41:29 EST 2026
User: Yrep
Spectrometer: HR+D1059
Trigger mode: 0
Integration Time (sec): 3.443000E-1
Scans to average: 1
Electric dark correction enabled: true
Nonlinearity correction enabled: false
Boxcar width: 0
XAxis mode: Wavelengths
Number of Pixels in Spectrum: 2048
>>>>>Begin Spectral Data<<<<<
223.165	-31.75
223.4	-31.75
223.635	-31.75
223.869	-26.75
224.104	-29.75
224.338	-11.75
224.573	-19.75
224.808	-17.75
225.042	-5.75
225.277	0.25
225.511	2.25
225.746	0.25
225.98	3.25
226.215	6.25
226.449	33.25
226.683	36.25
226.918	31.25
227.152	30.25
227.387	31.25
227.621	37.25
227.856	42.25
228.09	34.25
228.324	53.25
228.559	69.25
228.793	47.25
229.027	70.25
229.262	75.25
229.496	91.25
229.73	85.25
229.964	83.25
230.199	78.25
230.433	70.25
230.667	81.25
230.901	93.25
231.136	75.25
231.37	79.25
231.604	75.25
231.838	78.25
232.072	95.25
232.306	85.25
232.541	93.25
232.775	88.25
233.009	84.25
233.243	90.25
233.477	83.25
233.711	88.25
233.945	91.25
234.179	83.25
234.413	95.25
234.647	92.25
234.881	88.25
235.115	75.25
235.349	79.25
235.583	95.25
235.817	87.25
236.051	85.25
236.285	86.25
236.519	78.25
236.753	82.25
236.987	81.25
237.221	91.25
237.455	99.25
237.689	75.25
237.922	98.25
238.156	96.25
238.39	80.25
238.624	90.25
238.858	81.25
239.091	80.25
239.325	83.25
239.559	86.25
239.793	85.25
240.027	98.25
240.26	85.25
240.494	91.25
240.728	92.25
240.961	82.25
241.195	84.25
241.429	104.25
241.662	84.25
241.896	88.25
242.13	80.25
242.363	89.25
242.597	93.25
242.83	88.25
243.064	103.25
243.298	85.25
243.531	86.25
243.765	105.25
243.998	87.25
244.232	93.25
244.465	99.25
244.699	91.25
244.932	79.25
245.166	90.25
245.399	97.25
245.633	94.25
245.866	91.25
246.099	100.25
246.333	97.25
246.566	100.25
246.8	86.25
247.033	107.25
247.266	100.25
247.5	103.25
247.733	91.25
247.966	96.25
248.2	95.25
248.433	90.25
248.666	94.25
248.899	96.25
249.133	101.25
249.366	101.25
249.599	91.25
249.832	97.25
250.066	102.25
250.299	95.25
250.532	100.25
250.765	101.25
250.998	102.25
251.231	89.25
251.465	93.25
251.698	92.25
251.931	102.25
252.164	107.25
252.397	88.25
252.63	105.25
252.863	98.25
253.096	101.25
253.329	101.25
253.562	97.25
253.795	108.25
254.028	109.25
254.261	92.25
254.494	98.25
254.727	109.25
254.96	84.25
255.193	115.25
255.426	108.25
255.659	105.25
255.892	108.25
256.124	93.25
256.357	90.25
256.59	115.25
256.823	103.25
257.056	87.25
257.289	94.25
257.521	89.25
257.754	107.25
257.987	109.25
258.22	105.25
258.452	119.25
258.685	95.25
258.918	100.25
259.151	99.25
259.383	105.25
259.616	107.25
259.849	109.25
260.081	102.25
260.314	102.25
260.547	97.25
260.779	121.25
261.012	122.25
261.244	97.25
261.477	117.25
261.71	102.25
261.942	109.25
262.175	114.25
262.407	98.25
262.64	94.25
262.872	107.25
263.105	104.25
263.337	116.25
263.57	101.25
263.802	123.25
264.035	123.25
264.267	105.25
264.499	117.25
264.732	113.25
264.964	121.25
265.197	96.25
265.429	103.25
265.661	108.25
265.894	109.25
266.126	119.25
266.358	108.25
266.591	108.25
266.823	101.25
267.055	115.25
267.287	113.25
267.52	126.25
267.752	119.25
267.984	109.25
268.216	107.25
268.448	99.25
268.681	123.25
268.913	116.25
269.145	116.25
269.377	119.25
269.609	96.25
269.841	113.25
270.073	101.25
270.306	109.25
270.538	118.25
270.77	113.25
271.002	125.25
271.234	123.25
271.466	113.25
271.698	110.25
271.93	118.25
272.162	113.25
272.394	116.25
272.626	107.25
272.858	106.25
273.09	126.25
273.322	126.25
273.553	109.25
273.785	113.25
274.017	117.25
274.249	113.25
274.481	118.25
274.713	127.25
274.945	147.25
275.176	113.25
275.408	127.25
275.64	118.25
275.872	125.25
276.104	117.25
276.335	123.25
276.567	122.25
276.799	115.25
277.031	131.25
277.262	131.25
277.494	119.25
277.726	124.25
277.957	121.25
278.189	116.25
278.421	107.25
278.652	119.25
278.884	137.25
279.115	137.25
279.347	121.25
279.579	114.25
279.81	115.25
280.042	108.25
280.273	111.25
280.505	110.25
280.736	123.25
280.968	133.25
281.199	121.25
281.431	124.25
281.662	122.25
281.894	130.25
282.125	124.25
282.356	122.25
282.588	124.25
282.819	138.25
283.051	134.25
283.282	119.25
283.513	114.25
283.745	116.25
283.976	123.25
284.207	125.25
284.439	139.25
284.67	147.25
284.901	125.25
285.132	117.25
285.364	123.25
285.595	143.25
285.826	131.25
286.057	146.25
286.288	136.25
286.52	137.25
286.751	132.25
286.982	140.25
287.213	127.25
287.444	124.25
287.675	137.25
287.906	125.25
288.138	131.25
288.369	136.25
288.6	131.25
288.831	130.25
289.062	140.25
289.293	140.25
289.524	144.25
289.755	134.25
289.986	135.25
290.217	138.25
290.448	138.25
290.679	144.25
290.91	139.25
291.141	121.25
291.371	142.25
291.602	133.25
291.833	130.25
292.064	129.25
292.295	140.25
292.526	133.25
292.757	127.25
292.987	133.25
293.218	139.25
293.449	141.25
293.68	140.25
293.91	134.25
294.141	139.25
294.372	139.25
294.603	147.25
294.833	128.25
295.064	137.25
295.295	134.25
295.525	127.25
295.756	132.25
295.987	138.25
296.217	131.25
296.448	133.25
296.679	141.25
296.909	156.25
297.14	137.25
297.37	144.25
297.601	137.25
297.831	119.25
298.062	142.25
298.292	131.25
298.523	142.25
298.753	155.25
298.984	130.25
299.214	133.25
299.445	153.25
299.675	155.25
299.905	150.25
300.136	141.25
300.366	107.25
300.597	143.25
300.827	153.25
301.057	149.25
301.288	162.25
301.518	139.25
301.748	140.25
301.979	176.25
302.209	137.25
302.439	139.25
302.669	151.25
302.9	143.25
303.13	139.25
303.36	137.25
303.59	153.25
303.82	152.25
304.051	157.25
304.281	148.25
304.511	152.25
304.741	135.25
304.971	127.25
305.201	155.25
305.431	153.25
305.661	156.25
305.891	157.25
306.121	162.25
306.352	141.25
306.582	138.25
306.812	142.25
307.042	153.25
307.272	140.25
307.502	140.25
307.731	157.25
307.961	134.25
308.191	145.25
308.421	154.25
308.651	147.25
308.881	151.25
309.111	153.25
309.341	151.25
309.571	134.25
309.8	147.25
310.03	138.25
310.26	143.25
310.49	134.25
310.72	137.25
310.949	143.25
311.179	147.25
311.409	141.25
311.639	145.25
311.868	158.25
312.098	138.25
312.328	135.25
312.557	148.25
312.787	154.25
313.017	157.25
313.246	146.25
313.476	146.25
313.706	157.25
313.935	149.25
314.165	157.25
314.394	142.25
314.624	154.25
314.853	142.25
315.083	147.25
315.312	147.25
315.542	158.25
315.771	150.25
316.001	159.25
316.23	138.25
316.46	147.25
316.689	145.25
316.919	166.25
317.148	160.25
317.377	172.25
317.607	175.25
317.836	140.25
318.065	137.25
318.295	146.25
318.524	118.25
318.753	153.25
318.983	139.25
319.212	142.25
319.441	151.25
319.67	149.25
319.9	147.25
320.129	162.25
320.358	167.25
320.587	167.25
320.816	146.25
321.046	139.25
321.275	148.25
321.504	142.25
321.733	144.25
321.962	139.25
322.191	150.25
322.42	138.25
322.649	162.25
322.878	144.25
323.108	138.25
323.337	150.25
323.566	150.25
323.795	159.25
324.024	163.25
324.253	159.25
324.482	139.25
324.71	135.25
324.939	165.25
325.168	151.25
325.397	145.25
325.626	149.25
325.855	158.25
326.084	155.25
326.313	167.25
326.542	150.25
326.77	159.25
326.999	143.25
327.228	140.25
327.457	150.25
327.686	168.25
327.914	159.25
328.143	152.25
328.372	161.25
328.6	156.25
328.829	169.25
329.058	155.25
329.287	157.25
329.515	167.25
329.744	166.25
329.972	164.25
330.201	180.25
330.43	167.25
330.658	166.25
330.887	175.25
331.115	171.25
331.344	159.25
331.572	161.25
331.801	152.25
332.03	182.25
332.258	180.25
332.486	167.25
332.715	165.25
332.943	190.25
333.172	188.25
333.4	177.25
333.629	198.25
333.857	187.25
334.085	204.25
334.314	194.25
334.542	186.25
334.771	178.25
334.999	160.25
335.227	175.25
335.455	175.25
335.684	172.25
335.912	163.25
336.14	173.25
336.369	171.25
336.597	175.25
336.825	167.25
337.053	182.25
337.281	171.25
337.51	176.25
337.738	170.25
337.966	161.25
338.194	168.25
338.422	162.25
338.65	168.25
338.878	163.25
339.106	164.25
339.334	176.25
339.562	144.25
339.79	162.25
340.018	177.25
340.246	162.25
340.474	148.25
340.702	157.25
340.93	161.25
341.158	173.25
341.386	164.25
341.614	175.25
341.842	159.25
342.07	166.25
342.298	168.25
342.526	159.25
342.754	167.25
342.981	169.25
343.209	163.25
343.437	210.25
343.665	176.25
343.893	190.25
344.12	193.25
344.348	178.25
344.576	184.25
344.804	175.25
345.031	166.25
345.259	158.25
345.487	172.25
345.714	178.25
345.942	147.25
346.17	146.25
346.397	170.25
346.625	150.25
346.853	140.25
347.08	166.25
347.308	168.25
347.535	153.25
347.763	161.25
347.99	158.25
348.218	153.25
348.445	163.25
348.673	174.25
348.9	165.25
349.128	168.25
349.355	169.25
349.583	173.25
349.81	170.25
350.037	162.25
350.265	163.25
350.492	144.25
350.72	160.25
350.947	142.25
351.174	153.25
351.402	155.25
351.629	137.25
351.856	152.25
352.083	135.25
352.311	163.25
352.538	158.25
352.765	154.25
352.992	178.25
353.22	157.25
353.447	141.25
353.674	175.25
353.901	164.25
354.128	172.25
354.355	148.25
354.583	158.25
354.81	146.25
355.037	162.25
355.264	153.25
355.491	154.25
355.718	153.25
355.945	163.25
356.172	155.25
356.399	159.25
356.626	145.25
356.853	168.25
357.08	162.25
357.307	166.25
357.534	165.25
357.761	173.25
357.988	172.25
358.215	149.25
358.441	171.25
358.668	169.25
358.895	147.25
359.122	161.25
359.349	157.25
359.576	163.25
359.802	167.25
360.029	158.25
360.256	166.25
360.483	145.25
360.709	142.25
360.936	176.25
361.163	161.25
361.39	160.25
361.616	170.25
361.843	156.25
362.07	174.25
362.296	168.25
362.523	143.25
362.749	166.25
362.976	166.25
363.203	175.25
363.429	160.25
363.656	156.25
363.882	170.25
364.109	185.25
364.335	171.25
364.562	161.25
364.788	151.25
365.015	156.25
365.241	145.25
365.468	149.25
365.694	153.25
365.92	160.25
366.147	150.25
366.373	152.25
366.599	159.25
366.826	150.25
367.052	161.25
367.278	156.25
367.505	156.25
367.731	165.25
367.957	160.25
368.184	159.25
368.41	163.25
368.636	177.25
368.862	157.25
369.089	164.25
369.315	157.25
369.541	162.25
369.767	158.25
369.993	160.25
370.219	156.25
370.445	157.25
370.672	152.25
370.898	152.25
371.124	182.25
371.35	175.25
371.576	151.25
371.802	174.25
372.028	174.25
372.254	160.25
372.48	175.25
372.706	171.25
372.932	171.25
373.158	183.25
373.384	173.25
373.61	169.25
373.835	156.25
374.061	165.25
374.287	169.25
374.513	165.25
374.739	168.25
374.965	190.25
375.191	174.25
375.416	180.25
375.642	167.25
375.868	181.25
376.094	173.25
376.319	181.25
376.545	158.25
376.771	164.25
376.997	165.25
377.222	170.25
377.448	177.25
377.674	173.25
377.899	164.25
378.125	154.25
378.35	175.25
378.576	165.25
378.802	177.25
379.027	186.25
379.253	179.25
379.478	177.25
379.704	165.25
379.929	174.25
380.155	151.25
380.38	175.25
380.606	175.25
380.831	150.25
381.057	188.25
381.282	154.25
381.507	173.25
381.733	175.25
381.958	177.25
382.184	169.25
382.409	175.25
382.634	171.25
382.86	174.25
383.085	190.25
383.31	191.25
383.535	172.25
383.761	174.25
383.986	187.25
384.211	197.25
384.436	186.25
384.662	197.25
384.887	188.25
385.112	188.25
385.337	198.25
385.562	198.25
385.787	196.25
386.013	198.25
386.238	181.25
386.463	193.25
386.688	230.25
386.913	184.25
387.138	166.25
387.363	178.25
387.588	204.25
387.813	195.25
388.038	178.25
388.263	182.25
388.488	188.25
388.713	182.25
388.938	185.25
389.163	194.25
389.387	191.25
389.612	181.25
389.837	182.25
390.062	186.25
390.287	202.25
390.512	188.25
390.736	177.25
390.961	196.25
391.186	187.25
391.411	193.25
391.636	217.25
391.86	208.25
392.085	196.25
392.31	208.25
392.534	191.25
392.759	198.25
392.984	187.25
393.208	205.25
393.433	209.25
393.658	210.25
393.882	207.25
394.107	196.25
394.331	178.25
394.556	202.25
394.78	199.25
395.005	192.25
395.229	214.25
395.454	214.25
395.678	197.25
395.903	198.25
396.127	212.25
396.352	198.25
396.576	213.25
396.801	212.25
397.025	206.25
397.249	211.25
397.474	231.25
397.698	207.25
397.922	219.25
398.147	193.25
398.371	210.25
398.595	222.25
398.82	236.25
399.044	223.25
399.268	258.25
399.492	287.25
399.717	313.25
399.941	279.25
400.165	260.25
400.389	235.25
400.613	241.25
400.837	221.25
401.062	230.25
401.286	203.25
401.51	215.25
401.734	226.25
401.958	229.25
402.182	218.25
402.406	227.25
402.63	233.25
402.854	237.25
403.078	245.25
403.302	248.25
403.526	254.25
403.75	249.25
403.974	244.25
404.198	267.25
404.422	257.25
404.645	244.25
404.869	243.25
405.093	242.25
405.317	245.25
405.541	256.25
405.765	236.25
405.988	231.25
406.212	228.25
406.436	239.25
406.66	247.25
406.883	248.25
407.107	253.25
407.331	262.25
407.555	246.25
407.778	263.25
408.002	247.25
408.226	260.25
408.449	242.25
408.673	258.25
408.896	255.25
409.12	238.25
409.344	233.25
409.567	229.25
409.791	250.25
410.014	245.25
410.238	243.25
410.461	235.25
410.685	235.25
410.908	229.25
411.132	247.25
411.355	239.25
411.578	257.25
411.802	220.25
412.025	238.25
412.249	224.25
412.472	231.25
412.695	213.25
412.919	227.25
413.142	216.25
413.365	214.25
413.589	220.25
413.812	225.25
414.035	230.25
414.258	226.25
414.482	220.25
414.705	224.25
414.928	227.25
415.151	229.25
415.374	231.25
415.597	228.25
415.821	226.25
416.044	206.25
416.267	211.25
416.49	218.25
416.713	211.25
416.936	216.25
417.159	213.25
417.382	226.25
417.605	222.25
417.828	227.25
418.051	227.25
418.274	239.25
418.497	234.25
418.72	227.25
418.943	228.25
419.166	247.25
419.389	243.25
419.611	238.25
419.834	233.25
420.057	221.25
420.28	220.25
420.503	219.25
420.726	215.25
420.948	216.25
421.171	220.25
421.394	203.25
421.617	217.25
421.839	213.25
422.062	226.25
422.285	240.25
422.507	227.25
422.73	238.25
422.953	229.25
423.175	233.25
423.398	238.25
423.621	243.25
423.843	229.25
424.066	235.25
424.288	254.25
424.511	227.25
424.733	233.25
424.956	225.25
425.178	228.25
425.401	238.25
425.623	230.25
425.846	208.25
426.068	215.25
426.291	218.25
426.513	196.25
426.735	205.25
426.958	212.25
427.18	210.25
427.402	201.25
427.625	211.25
427.847	191.25
428.069	193.25
428.292	213.25
428.514	207.25
428.736	228.25
428.958	189.25
429.181	222.25
429.403	213.25
429.625	193.25
429.847	215.25
430.069	204.25
430.292	196.25
430.514	195.25
430.736	198.25
430.958	217.25
431.18	220.25
431.402	213.25
431.624	205.25
431.846	205.25
432.068	186.25
432.29	213.25
432.512	218.25
432.734	214.25
432.956	203.25
433.178	229.25
433.4	215.25
433.622	196.25
433.844	202.25
434.066	225.25
434.287	204.25
434.509	214.25
434.731	221.25
434.953	207.25
435.175	217.25
435.397	215.25
435.618	208.25
435.84	203.25
436.062	205.25
436.284	211.25
436.505	208.25
436.727	214.25
436.949	208.25
437.17	211.25
437.392	203.25
437.614	201.25
437.835	196.25
438.057	191.25
438.278	205.25
438.5	214.25
438.721	181.25
438.943	214.25
439.165	201.25
439.386	196.25
439.608	198.25
439.829	199.25
440.05	205.25
440.272	203.25
440.493	199.25
440.715	217.25
440.936	235.25
441.158	231.25
441.379	231.25
441.6	237.25
441.822	217.25
442.043	219.25
442.264	222.25
442.486	228.25
442.707	207.25
442.928	221.25
443.149	235.25
443.371	226.25
443.592	212.25
443.813	222.25
444.034	223.25
444.255	238.25
444.476	235.25
444.698	269.25
444.919	266.25
445.14	491.25
445.361	347.25
445.582	229.25
445.803	203.25
446.024	225.25
446.245	198.25
446.466	215.25
446.687	211.25
446.908	221.25
447.129	194.25
447.35	173.25
447.571	193.25
447.792	203.25
448.013	197.25
448.234	209.25
448.455	204.25
448.675	201.25
448.896	198.25
449.117	199.25
449.338	181.25
449.559	191.25
449.779	195.25
450	198.25
450.221	200.25
450.442	212.25
450.662	213.25
450.883	199.25
451.104	214.25
451.324	198.25
451.545	192.25
451.766	192.25
451.986	198.25
452.207	198.25
452.428	187.25
452.648	190.25
452.869	215.25
453.089	205.25
453.31	190.25
453.53	195.25
453.751	200.25
453.971	173.25
454.192	188.25
454.412	189.25
454.633	194.25
454.853	183.25
455.073	174.25
455.294	180.25
455.514	199.25
455.734	201.25
455.955	204.25
456.175	186.25
456.395	192.25
456.616	188.25
456.836	190.25
457.056	179.25
457.276	191.25
457.497	185.25
457.717	186.25
457.937	191.25
458.157	195.25
458.377	187.25
458.598	211.25
458.818	202.25
459.038	196.25
459.258	207.25
459.478	203.25
459.698	203.25
459.918	223.25
460.138	235.25
460.358	223.25
460.578	245.25
460.798	231.25
461.018	237.25
461.238	227.25
461.458	238.25
461.678	217.25
461.898	240.25
462.118	257.25
462.338	252.25
462.558	253.25
462.777	249.25
462.997	286.25
463.217	303.25
463.437	282.25
463.657	272.25
463.876	258.25
464.096	249.25
464.316	252.25
464.536	263.25
464.755	249.25
464.975	237.25
465.195	229.25
465.414	239.25
465.634	222.25
465.854	228.25
466.073	194.25
466.293	200.25
466.512	213.25
466.732	188.25
466.951	193.25
467.171	217.25
467.391	211.25
467.61	190.25
467.829	195.25
468.049	199.25
468.268	187.25
468.488	188.25
468.707	199.25
468.927	191.25
469.146	202.25
469.365	198.25
469.585	204.25
469.804	211.25
470.023	209.25
470.243	224.25
470.462	207.25
470.681	189.25
470.901	201.25
471.12	204.25
471.339	213.25
471.558	196.25
471.777	212.25
471.997	198.25
472.216	193.25
472.435	197.25
472.654	182.25
472.873	203.25
473.092	177.25
473.311	187.25
473.53	185.25
473.749	186.25
473.968	212.25
474.187	202.25
474.406	190.25
474.625	195.25
474.844	194.25
475.063	186.25
475.282	201.25
475.501	189.25
475.72	201.25
475.939	180.25
476.158	204.25
476.377	205.25
476.596	199.25
476.814	208.25
477.033	205.25
477.252	208.25
477.471	209.25
477.69	220.25
477.908	213.25
478.127	221.25
478.346	210.25
478.564	214.25
478.783	226.25
479.002	237.25
479.22	226.25
479.439	222.25
479.658	223.25
479.876	228.25
480.095	231.25
480.313	249.25
480.532	227.25
480.751	237.25
480.969	241.25
481.188	219.25
481.406	226.25
481.624	217.25
481.843	211.25
482.061	208.25
482.28	227.25
482.498	203.25
482.717	212.25
482.935	226.25
483.153	218.25
483.372	219.25
483.59	207.25
483.808	195.25
484.027	205.25
484.245	203.25
484.463	199.25
484.681	231.25
484.9	237.25
485.118	213.25
485.336	220.25
485.554	234.25
485.772	234.25
485.99	213.25
486.209	218.25
486.427	213.25
486.645	226.25
486.863	222.25
487.081	212.25
487.299	211.25
487.517	226.25
487.735	246.25
487.953	229.25
488.171	211.25
488.389	228.25
488.607	230.25
488.825	204.25
489.043	241.25
489.261	239.25
489.479	223.25
489.696	226.25
489.914	215.25
490.132	215.25
490.35	233.25
490.568	227.25
490.786	219.25
491.003	215.25
491.221	227.25
491.439	237.25
491.657	217.25
491.874	231.25
492.092	239.25
492.31	245.25
492.527	227.25
492.745	220.25
492.963	227.25
493.18	228.25
493.398	238.25
493.615	235.25
493.833	239.25
494.05	223.25
494.268	228.25
494.485	242.25
494.703	227.25
494.92	244.25
495.138	256.25
495.355	244.25
495.573	239.25
495.79	239.25
496.008	242.25
496.225	235.25
496.442	220.25
496.66	231.25
496.877	263.25
497.094	255.25
497.312	256.25
497.529	248.25
497.746	255.25
497.963	278.25
498.181	262.25
498.398	275.25
498.615	301.25
498.832	317.25
499.049	335.25
499.267	369.25
499.484	374.25
499.701	401.25
499.918	453.25
500.135	497.25
500.352	563.25
500.569	578.25
500.786	564.25
501.003	531.25
501.22	443.25
501.437	422.25
501.654	353.25
501.871	348.25
502.088	333.25
502.305	318.25
502.522	286.25
502.739	272.25
502.956	275.25
503.172	267.25
503.389	260.25
503.606	247.25
503.823	243.25
504.04	258.25
504.256	273.25
