Data from SampD_HRD10591_00080.txt Node
Date: Mon Jan 19 11:41:48 EST 2026
User: Yrep
Spectrometer: HR+D1059
Trigger mode: 0
Integration Time (sec): 3.443000E-1
Scans to average: 1
Electric dark correction enabled: true
Nonlinearity correction enabled: false
Boxcar width: 0
XAxis mode: Wavelengths
Number of Pixels in Spectrum: 2048
>>>>>Begin Spectral Data<<<<<
223.165	-21.5
223.4	-21.5
223.635	-21.5
223.869	-25.5
224.104	-32.5
224.338	-16.5
224.573	-22.5
224.808	-0.5
225.042	-17.5
225.277	-5.5
225.511	-4.5
225.746	12.5
225.98	9.5
226.215	7.5
226.449	16.5
226.683	16.5
226.918	34.5
227.152	49.5
227.387	40.5
227.621	37.5
227.856	41.5
228.09	33.5
228.324	64.5
228.559	50.5
228.793	70.5
229.027	73.5
229.262	65.5
229.496	73.5
229.73	73.5
229.964	81.5
230.199	74.5
230.433	72.5
230.667	85.5
230.901	78.5
231.136	81.5
231.37	83.5
231.604	86.5
231.838	93.5
232.072	91.5
232.306	88.5
232.541	90.5
232.775	90.5
233.009	85.5
233.243	89.5
233.477	78.5
233.711	86.5
233.945	82.5
234.179	78.5
234.413	91.5
234.647	84.5
234.881	86.5
235.115	83.5
235.349	96.5
235.583	76.5
235.817	100.5
236.051	97.5
236.285	87.5
236.519	91.5
236.753	82.5
236.987	89.5
237.221	83.5
237.455	76.5
237.689	83.5
237.922	86.5
238.156	84.5
238.39	77.5
238.624	82.5
238.858	85.5
239.091	87.5
239.325	66.5
239.559	79.5
239.793	78.5
240.027	83.5
240.26	86.5
240.494	82.5
240.728	95.5
240.961	78.5
241.195	82.5
241.429	91.5
241.662	71.5
241.896	85.5
242.13	73.5
242.363	87.5
242.597	94.5
242.83	80.5
243.064	70.5
243.298	77.5
243.531	90.5
243.765	84.5
243.998	88.5
244.232	87.5
244.465	84.5
244.699	85.5
244.932	86.5
245.166	83.5
245.399	90.5
245.633	101.5
245.866	72.5
246.099	79.5
246.333	75.5
246.566	77.5
246.8	92.5
247.033	90.5
247.266	82.5
247.5	79.5
247.733	106.5
247.966	85.5
248.2	87.5
248.433	86.5
248.666	75.5
248.899	77.5
249.133	67.5
249.366	94.5
249.599	93.5
249.832	92.5
250.066	105.5
250.299	100.5
250.532	77.5
250.765	96.5
250.998	79.5
251.231	92.5
251.465	82.5
251.698	80.5
251.931	90.5
252.164	99.5
252.397	94.5
252.63	82.5
252.863	77.5
253.096	97.5
253.329	102.5
253.562	95.5
253.795	93.5
254.028	102.5
254.261	93.5
254.494	85.5
254.727	88.5
254.96	103.5
255.193	98.5
255.426	79.5
255.659	97.5
255.892	95.5
256.124	91.5
256.357	86.5
256.59	93.5
256.823	97.5
257.056	93.5
257.289	94.5
257.521	107.5
257.754	107.5
257.987	89.5
258.22	99.5
258.452	98.5
258.685	98.5
258.918	86.5
259.151	89.5
259.383	87.5
259.616	94.5
259.849	82.5
260.081	96.5
260.314	91.5
260.547	86.5
260.779	96.5
261.012	99.5
261.244	95.5
261.477	112.5
261.71	87.5
261.942	91.5
262.175	114.5
262.407	110.5
262.64	89.5
262.872	78.5
263.105	110.5
263.337	113.5
263.57	93.5
263.802	106.5
264.035	113.5
264.267	102.5
264.499	98.5
264.732	100.5
264.964	111.5
265.197	103.5
265.429	108.5
265.661	93.5
265.894	91.5
266.126	113.5
266.358	92.5
266.591	96.5
266.823	90.5
267.055	95.5
267.287	109.5
267.52	115.5
267.752	102.5
267.984	92.5
268.216	106.5
268.448	90.5
268.681	107.5
268.913	96.5
269.145	96.5
269.377	120.5
269.609	111.5
269.841	103.5
270.073	102.5
270.306	117.5
270.538	94.5
270.77	110.5
271.002	113.5
271.234	107.5
271.466	91.5
271.698	101.5
271.93	97.5
272.162	98.5
272.394	102.5
272.626	92.5
272.858	92.5
273.09	104.5
273.322	107.5
273.553	111.5
273.785	117.5
274.017	110.5
274.249	100.5
274.481	94.5
274.713	100.5
274.945	107.5
275.176	101.5
275.408	102.5
275.64	109.5
275.872	102.5
276.104	102.5
276.335	106.5
276.567	118.5
276.799	99.5
277.031	106.5
277.262	100.5
277.494	123.5
277.726	116.5
277.957	105.5
278.189	93.5
278.421	115.5
278.652	105.5
278.884	118.5
279.115	105.5
279.347	105.5
279.579	103.5
279.81	109.5
280.042	94.5
280.273	111.5
280.505	105.5
280.736	106.5
280.968	111.5
281.199	122.5
281.431	110.5
281.662	123.5
281.894	119.5
282.125	111.5
282.356	109.5
282.588	109.5
282.819	131.5
283.051	100.5
283.282	97.5
283.513	120.5
283.745	112.5
283.976	111.5
284.207	102.5
284.439	111.5
284.67	106.5
284.901	127.5
285.132	101.5
285.364	101.5
285.595	116.5
285.826	104.5
286.057	111.5
286.288	112.5
286.52	108.5
286.751	114.5
286.982	111.5
287.213	113.5
287.444	105.5
287.675	118.5
287.906	117.5
288.138	127.5
288.369	116.5
288.6	120.5
288.831	120.5
289.062	130.5
289.293	117.5
289.524	130.5
289.755	121.5
289.986	121.5
290.217	116.5
290.448	123.5
290.679	129.5
290.91	104.5
291.141	106.5
291.371	124.5
291.602	121.5
291.833	127.5
292.064	119.5
292.295	124.5
292.526	126.5
292.757	124.5
292.987	115.5
293.218	125.5
293.449	119.5
293.68	126.5
293.91	109.5
294.141	123.5
294.372	129.5
294.603	124.5
294.833	122.5
295.064	108.5
295.295	110.5
295.525	118.5
295.756	126.5
295.987	114.5
296.217	123.5
296.448	112.5
296.679	124.5
296.909	139.5
297.14	128.5
297.37	126.5
297.601	109.5
297.831	128.5
298.062	125.5
298.292	122.5
298.523	116.5
298.753	123.5
298.984	128.5
299.214	114.5
299.445	116.5
299.675	114.5
299.905	131.5
300.136	121.5
300.366	126.5
300.597	127.5
300.827	130.5
301.057	126.5
301.288	115.5
301.518	129.5
301.748	118.5
301.979	173.5
302.209	135.5
302.439	139.5
302.669	129.5
302.9	125.5
303.13	132.5
303.36	124.5
303.59	127.5
303.82	120.5
304.051	123.5
304.281	137.5
304.511	135.5
304.741	141.5
304.971	117.5
305.201	134.5
305.431	131.5
305.661	134.5
305.891	122.5
306.121	123.5
306.352	114.5
306.582	125.5
306.812	123.5
307.042	115.5
307.272	131.5
307.502	140.5
307.731	121.5
307.961	134.5
308.191	114.5
308.421	142.5
308.651	126.5
308.881	123.5
309.111	121.5
309.341	120.5
309.571	138.5
309.8	132.5
310.03	131.5
310.26	113.5
310.49	114.5
310.72	126.5
310.949	132.5
311.179	118.5
311.409	130.5
311.639	129.5
311.868	119.5
312.098	156.5
312.328	126.5
312.557	130.5
312.787	138.5
313.017	131.5
313.246	123.5
313.476	142.5
313.706	121.5
313.935	132.5
314.165	133.5
314.394	133.5
314.624	135.5
314.853	128.5
315.083	117.5
315.312	128.5
315.542	126.5
315.771	137.5
316.001	125.5
316.23	143.5
316.46	137.5
316.689	126.5
316.919	132.5
317.148	148.5
317.377	129.5
317.607	135.5
317.836	131.5
318.065	129.5
318.295	117.5
318.524	122.5
318.753	123.5
318.983	133.5
319.212	130.5
319.441	117.5
319.67	111.5
319.9	121.5
320.129	125.5
320.358	128.5
320.587	143.5
320.816	123.5
321.046	130.5
321.275	140.5
321.504	117.5
321.733	127.5
321.962	121.5
322.191	128.5
322.42	125.5
322.649	134.5
322.878	135.5
323.108	141.5
323.337	132.5
323.566	131.5
323.795	146.5
324.024	141.5
324.253	139.5
324.482	125.5
324.71	137.5
324.939	131.5
325.168	144.5
325.397	123.5
325.626	137.5
325.855	129.5
326.084	119.5
326.313	142.5
326.542	135.5
326.77	119.5
326.999	138.5
327.228	132.5
327.457	139.5
327.686	128.5
327.914	137.5
328.143	139.5
328.372	123.5
328.6	125.5
328.829	137.5
329.058	141.5
329.287	143.5
329.515	131.5
329.744	143.5
329.972	127.5
330.201	128.5
330.43	126.5
330.658	146.5
330.887	134.5
331.115	145.5
331.344	163.5
331.572	140.5
331.801	127.5
332.03	113.5
332.258	157.5
332.486	149.5
332.715	145.5
332.943	161.5
333.172	154.5
333.4	132.5
333.629	159.5
333.857	152.5
334.085	162.5
334.314	163.5
334.542	154.5
334.771	158.5
334.999	164.5
335.227	157.5
335.455	155.5
335.684	178.5
335.912	154.5
336.14	144.5
336.369	158.5
336.597	147.5
336.825	139.5
337.053	151.5
337.281	159.5
337.51	137.5
337.738	161.5
337.966	149.5
338.194	145.5
338.422	140.5
338.65	146.5
338.878	154.5
339.106	140.5
339.334	151.5
339.562	127.5
339.79	139.5
340.018	142.5
340.246	141.5
340.474	132.5
340.702	143.5
340.93	155.5
341.158	145.5
341.386	138.5
341.614	139.5
341.842	136.5
342.07	149.5
342.298	143.5
342.526	140.5
342.754	129.5
342.981	136.5
343.209	138.5
343.437	166.5
343.665	144.5
343.893	166.5
344.12	158.5
344.348	159.5
344.576	146.5
344.804	147.5
345.031	127.5
345.259	138.5
345.487	153.5
345.714	134.5
345.942	129.5
346.17	116.5
346.397	147.5
346.625	132.5
346.853	136.5
347.08	134.5
347.308	134.5
347.535	131.5
347.763	126.5
347.99	143.5
348.218	138.5
348.445	138.5
348.673	129.5
348.9	141.5
349.128	144.5
349.355	121.5
349.583	146.5
349.81	143.5
350.037	129.5
350.265	157.5
350.492	127.5
350.72	132.5
350.947	145.5
351.174	137.5
351.402	139.5
351.629	127.5
351.856	143.5
352.083	115.5
352.311	142.5
352.538	130.5
352.765	137.5
352.992	153.5
353.22	149.5
353.447	143.5
353.674	149.5
353.901	138.5
354.128	137.5
354.355	130.5
354.583	135.5
354.81	131.5
355.037	143.5
355.264	148.5
355.491	137.5
355.718	121.5
355.945	140.5
356.172	143.5
356.399	150.5
356.626	134.5
356.853	145.5
357.08	132.5
357.307	130.5
357.534	135.5
357.761	157.5
357.988	143.5
358.215	137.5
358.441	134.5
358.668	129.5
358.895	119.5
359.122	139.5
359.349	132.5
359.576	125.5
359.802	135.5
360.029	137.5
360.256	151.5
360.483	137.5
360.709	147.5
360.936	144.5
361.163	132.5
361.39	134.5
361.616	133.5
361.843	147.5
362.07	129.5
362.296	139.5
362.523	150.5
362.749	149.5
362.976	126.5
363.203	136.5
363.429	147.5
363.656	132.5
363.882	141.5
364.109	143.5
364.335	130.5
364.562	142.5
364.788	141.5
365.015	158.5
365.241	128.5
365.468	117.5
365.694	130.5
365.92	154.5
366.147	146.5
366.373	122.5
366.599	143.5
366.826	135.5
367.052	128.5
367.278	151.5
367.505	130.5
367.731	157.5
367.957	149.5
368.184	132.5
368.41	128.5
368.636	128.5
368.862	149.5
369.089	141.5
369.315	135.5
369.541	128.5
369.767	121.5
369.993	131.5
370.219	127.5
370.445	146.5
370.672	145.5
370.898	142.5
371.124	143.5
371.35	130.5
371.576	139.5
371.802	142.5
372.028	131.5
372.254	132.5
372.48	135.5
372.706	155.5
372.932	134.5
373.158	128.5
373.384	133.5
373.61	157.5
373.835	140.5
374.061	146.5
374.287	148.5
374.513	129.5
374.739	163.5
374.965	156.5
375.191	157.5
375.416	153.5
375.642	150.5
375.868	137.5
376.094	167.5
376.319	149.5
376.545	137.5
376.771	142.5
376.997	159.5
377.222	157.5
377.448	133.5
377.674	134.5
377.899	137.5
378.125	129.5
378.35	153.5
378.576	137.5
378.802	141.5
379.027	149.5
379.253	141.5
379.478	153.5
379.704	127.5
379.929	137.5
380.155	149.5
380.38	134.5
380.606	131.5
380.831	141.5
381.057	157.5
381.282	122.5
381.507	126.5
381.733	161.5
381.958	151.5
382.184	141.5
382.409	138.5
382.634	165.5
382.86	147.5
383.085	149.5
383.31	165.5
383.535	165.5
383.761	142.5
383.986	150.5
384.211	149.5
384.436	158.5
384.662	164.5
384.887	160.5
385.112	165.5
385.337	169.5
385.562	145.5
385.787	157.5
386.013	176.5
386.238	157.5
386.463	159.5
386.688	184.5
386.913	159.5
387.138	165.5
387.363	155.5
387.588	154.5
387.813	171.5
388.038	160.5
388.263	178.5
388.488	161.5
388.713	166.5
388.938	143.5
389.163	162.5
389.387	145.5
389.612	140.5
389.837	156.5
390.062	164.5
390.287	163.5
390.512	158.5
390.736	152.5
390.961	140.5
391.186	159.5
391.411	175.5
391.636	154.5
391.86	172.5
392.085	178.5
392.31	164.5
392.534	165.5
392.759	166.5
392.984	181.5
393.208	178.5
393.433	157.5
393.658	169.5
393.882	149.5
394.107	162.5
394.331	160.5
394.556	157.5
394.78	167.5
395.005	183.5
395.229	164.5
395.454	166.5
395.678	167.5
395.903	173.5
396.127	161.5
396.352	180.5
396.576	160.5
396.801	172.5
397.025	143.5
397.249	182.5
397.474	173.5
397.698	177.5
397.922	187.5
398.147	166.5
398.371	164.5
398.595	174.5
398.82	180.5
399.044	192.5
399.268	211.5
399.492	217.5
399.717	257.5
399.941	230.5
400.165	230.5
400.389	188.5
400.613	188.5
400.837	188.5
401.062	183.5
401.286	183.5
401.51	182.5
401.734	178.5
401.958	199.5
402.182	190.5
402.406	183.5
402.63	175.5
402.854	207.5
403.078	199.5
403.302	204.5
403.526	189.5
403.75	197.5
403.974	207.5
404.198	212.5
404.422	205.5
404.645	199.5
404.869	193.5
405.093	194.5
405.317	181.5
405.541	190.5
405.765	197.5
405.988	183.5
406.212	196.5
406.436	183.5
406.66	183.5
406.883	213.5
407.107	213.5
407.331	213.5
407.555	191.5
407.778	193.5
408.002	192.5
408.226	207.5
408.449	218.5
408.673	214.5
408.896	204.5
409.12	202.5
409.344	201.5
409.567	204.5
409.791	202.5
410.014	193.5
410.238	187.5
410.461	197.5
410.685	192.5
410.908	187.5
411.132	188.5
411.355	189.5
411.578	179.5
411.802	181.5
412.025	184.5
412.249	196.5
412.472	200.5
412.695	186.5
412.919	170.5
413.142	172.5
413.365	179.5
413.589	195.5
413.812	182.5
414.035	185.5
414.258	177.5
414.482	181.5
414.705	198.5
414.928	192.5
415.151	173.5
415.374	187.5
415.597	182.5
415.821	179.5
416.044	191.5
416.267	191.5
416.49	167.5
416.713	191.5
416.936	190.5
417.159	178.5
417.382	176.5
417.605	173.5
417.828	185.5
418.051	180.5
418.274	189.5
418.497	179.5
418.72	184.5
418.943	185.5
419.166	210.5
419.389	187.5
419.611	194.5
419.834	183.5
420.057	178.5
420.28	171.5
420.503	186.5
420.726	186.5
420.948	178.5
421.171	189.5
421.394	195.5
421.617	168.5
421.839	192.5
422.062	189.5
422.285	188.5
422.507	206.5
422.73	180.5
422.953	191.5
423.175	189.5
423.398	198.5
423.621	186.5
423.843	195.5
424.066	210.5
424.288	187.5
424.511	179.5
424.733	194.5
424.956	175.5
425.178	187.5
425.401	194.5
425.623	201.5
425.846	180.5
426.068	175.5
426.291	186.5
426.513	176.5
426.735	175.5
426.958	174.5
427.18	186.5
427.402	177.5
427.625	171.5
427.847	169.5
428.069	162.5
428.292	178.5
428.514	172.5
428.736	163.5
428.958	159.5
429.181	159.5
429.403	168.5
429.625	157.5
429.847	175.5
430.069	167.5
430.292	174.5
430.514	147.5
430.736	156.5
430.958	167.5
431.18	178.5
431.402	154.5
431.624	150.5
431.846	155.5
432.068	176.5
432.29	174.5
432.512	175.5
432.734	164.5
432.956	166.5
433.178	190.5
433.4	193.5
433.622	179.5
433.844	169.5
434.066	163.5
434.287	171.5
434.509	177.5
434.731	166.5
434.953	171.5
435.175	192.5
435.397	189.5
435.618	167.5
435.84	173.5
436.062	159.5
436.284	168.5
436.505	173.5
436.727	176.5
436.949	167.5
437.17	162.5
437.392	153.5
437.614	159.5
437.835	165.5
438.057	177.5
438.278	167.5
438.5	168.5
438.721	160.5
438.943	146.5
439.165	190.5
439.386	166.5
439.608	185.5
439.829	171.5
440.05	177.5
440.272	172.5
440.493	188.5
440.715	171.5
440.936	166.5
441.158	165.5
441.379	187.5
441.6	183.5
441.822	194.5
442.043	181.5
442.264	204.5
442.486	185.5
442.707	185.5
442.928	187.5
443.149	173.5
443.371	189.5
443.592	188.5
443.813	182.5
444.034	199.5
444.255	191.5
444.476	212.5
444.698	195.5
444.919	194.5
445.14	436.5
445.361	290.5
445.582	190.5
445.803	177.5
446.024	173.5
446.245	178.5
446.466	175.5
446.687	177.5
446.908	165.5
447.129	171.5
447.35	175.5
447.571	180.5
447.792	158.5
448.013	175.5
448.234	162.5
448.455	145.5
448.675	155.5
448.896	175.5
449.117	149.5
449.338	158.5
449.559	153.5
449.779	145.5
450	164.5
450.221	167.5
450.442	165.5
450.662	176.5
450.883	170.5
451.104	170.5
451.324	164.5
451.545	161.5
451.766	163.5
451.986	163.5
452.207	176.5
452.428	160.5
452.648	163.5
452.869	172.5
453.089	148.5
453.31	163.5
453.53	157.5
453.751	161.5
453.971	162.5
454.192	146.5
454.412	155.5
454.633	152.5
454.853	158.5
455.073	170.5
455.294	157.5
455.514	160.5
455.734	165.5
455.955	158.5
456.175	143.5
456.395	125.5
456.616	153.5
456.836	163.5
457.056	157.5
457.276	150.5
457.497	147.5
457.717	160.5
457.937	167.5
458.157	156.5
458.377	157.5
458.598	147.5
458.818	150.5
459.038	144.5
459.258	181.5
459.478	169.5
459.698	157.5
459.918	164.5
460.138	195.5
460.358	185.5
460.578	208.5
460.798	195.5
461.018	181.5
461.238	191.5
461.458	191.5
461.678	191.5
461.898	201.5
462.118	202.5
462.338	189.5
462.558	203.5
462.777	216.5
462.997	219.5
463.217	229.5
463.437	217.5
463.657	225.5
463.876	211.5
464.096	219.5
464.316	195.5
464.536	205.5
464.755	201.5
464.975	190.5
465.195	197.5
465.414	194.5
465.634	154.5
465.854	172.5
466.073	170.5
466.293	157.5
466.512	170.5
466.732	161.5
466.951	169.5
467.171	174.5
467.391	179.5
467.61	173.5
467.829	172.5
468.049	178.5
468.268	166.5
468.488	162.5
468.707	157.5
468.927	151.5
469.146	163.5
469.365	177.5
469.585	174.5
469.804	159.5
470.023	165.5
470.243	177.5
470.462	171.5
470.681	173.5
470.901	179.5
471.12	159.5
471.339	164.5
471.558	159.5
471.777	153.5
471.997	162.5
472.216	173.5
472.435	171.5
472.654	165.5
472.873	165.5
473.092	157.5
473.311	149.5
473.53	142.5
473.749	155.5
473.968	171.5
474.187	158.5
474.406	160.5
474.625	162.5
474.844	174.5
475.063	161.5
475.282	167.5
475.501	147.5
475.72	158.5
475.939	151.5
476.158	158.5
476.377	164.5
476.596	161.5
476.814	173.5
477.033	173.5
477.252	165.5
477.471	165.5
477.69	168.5
477.908	180.5
478.127	198.5
478.346	163.5
478.564	187.5
478.783	177.5
479.002	182.5
479.22	189.5
479.439	190.5
479.658	190.5
479.876	198.5
480.095	166.5
480.313	194.5
480.532	223.5
480.751	190.5
480.969	185.5
481.188	189.5
481.406	177.5
481.624	188.5
481.843	166.5
482.061	172.5
482.28	179.5
482.498	162.5
482.717	175.5
482.935	179.5
483.153	163.5
483.372	167.5
483.59	176.5
483.808	167.5
484.027	184.5
484.245	171.5
484.463	164.5
484.681	205.5
484.9	190.5
485.118	184.5
485.336	175.5
485.554	165.5
485.772	185.5
485.99	172.5
486.209	165.5
486.427	177.5
486.645	180.5
486.863	173.5
487.081	184.5
487.299	174.5
487.517	179.5
487.735	191.5
487.953	196.5
488.171	193.5
488.389	205.5
488.607	192.5
488.825	177.5
489.043	179.5
489.261	190.5
489.479	170.5
489.696	185.5
489.914	194.5
490.132	192.5
490.35	183.5
490.568	186.5
490.786	193.5
491.003	187.5
491.221	183.5
491.439	183.5
491.657	215.5
491.874	202.5
492.092	192.5
492.31	206.5
492.527	194.5
492.745	203.5
492.963	214.5
493.18	185.5
493.398	194.5
493.615	188.5
493.833	192.5
494.05	184.5
494.268	187.5
494.485	201.5
494.703	182.5
494.92	188.5
495.138	187.5
495.355	194.5
495.573	197.5
495.79	204.5
496.008	210.5
496.225	197.5
496.442	203.5
496.66	207.5
496.877	191.5
497.094	189.5
497.312	186.5
497.529	203.5
497.746	214.5
497.963	206.5
498.181	193.5
498.398	233.5
498.615	219.5
498.832	230.5
499.049	259.5
499.267	276.5
499.484	305.5
499.701	327.5
499.918	341.5
500.135	380.5
500.352	431.5
500.569	421.5
500.786	414.5
501.003	411.5
501.22	359.5
501.437	329.5
501.654	288.5
501.871	257.5
502.088	248.5
502.305	250.5
502.522	239.5
502.739	225.5
502.956	218.5
503.172	197.5
503.389	193.5
503.606	205.5
503.823	196.5
504.04	224.5
504.256	211.5
504.473	237.5
504.69	220.5
504.907	223.5
505.123	201.5
505.34	199.5
505.557	200.5
505.773	187.5
505.99	176.5
506.207	172.5
506.423	178.5
506.64	189.5
506.856	173.5
507.073	179.5
507.289	173.5
507.506	177.5
507.722	170.5
507.939	173.5
508.155	179.5
508.372	162.5
508.588	177.5
508.805	173.5
509.021	158.5
509.238	180.5
509.454	175.5
509.67	171.5
509.887	187.5
510.103	186.5
510.319	161.5
510.536	154.5
510.752	160.5
510.968	165.5
511.184	164.5
511.401	162.5
511.617	161.5
511.833	184.5
512.049	163.5
512.265	153.5
512.481	158.5
512.698	161.5
512.914	163.5
513.13	181.5
513.346	184.5
513.562	160.5
513.778	171.5
513.994	171.5
514.21	155.5
514.426	169.5
514.642	186.5
514.858	173.5
515.074	176.5
515.29	185.5
515.506	176.5
515.721	172.5
515.937	183.5
516.153	173.5
516.369	188.5
516.585	191.5
516.801	185.5
517.016	219.5
517.232	192.5
517.448	201.5
517.664	197.5
517.879	201.5
518.095	205.5
518.311	184.5
518.527	180.5
518.742	191.5
518.958	197.5
519.173	179.5
519.389	180.5
519.605	173.5
519.82	186.5
520.036	175.5
520.251	161.5
520.467	166.5
520.682	170.5
520.898	164.5
521.113	170.5
521.329	176.5
521.544	162.5
521.76	162.5
521.975	159.5
522.19	182.5
522.406	155.5
522.621	155.5
522.836	177.5
523.052	160.5
