Data from SampD_HRD10591_00062.txt Node
Date: Mon Jan 19 11:41:42 EST 2026
User: Yrep
Spectrometer: HR+D1059
Trigger mode: 0
Integration Time (sec): 3.443000E-1
Scans to average: 1
Electric dark correction enabled: true
Nonlinearity correction enabled: false
Boxcar width: 0
XAxis mode: Wavelengths
Number of Pixels in Spectrum: 2048
>>>>>Begin Spectral Data<<<<<
223.165	-13.62
223.4	-13.62
223.635	-13.62
223.869	-24.62
224.104	-19.62
224.338	-19.62
224.573	-29.62
224.808	-14.62
225.042	-4.62
225.277	-5.62
225.511	-3.62
225.746	7.38
225.98	19.38
226.215	19.38
226.449	17.38
226.683	23.38
226.918	13.38
227.152	35.38
227.387	45.38
227.621	45.38
227.856	50.38
228.09	40.38
228.324	58.38
228.559	54.38
228.793	68.38
229.027	67.38
229.262	61.38
229.496	71.38
229.73	80.38
229.964	84.38
230.199	80.38
230.433	76.38
230.667	75.38
230.901	75.38
231.136	82.38
231.37	90.38
231.604	66.38
231.838	85.38
232.072	68.38
232.306	82.38
232.541	79.38
232.775	86.38
233.009	85.38
233.243	80.38
233.477	95.38
233.711	88.38
233.945	83.38
234.179	101.38
234.413	101.38
234.647	83.38
234.881	81.38
235.115	73.38
235.349	89.38
235.583	99.38
235.817	93.38
236.051	83.38
236.285	84.38
236.519	92.38
236.753	96.38
236.987	85.38
237.221	66.38
237.455	75.38
237.689	73.38
237.922	91.38
238.156	64.38
238.39	82.38
238.624	89.38
238.858	84.38
239.091	90.38
239.325	85.38
239.559	93.38
239.793	92.38
240.027	82.38
240.26	83.38
240.494	83.38
240.728	71.38
240.961	75.38
241.195	95.38
241.429	77.38
241.662	87.38
241.896	79.38
242.13	91.38
242.363	59.38
242.597	73.38
242.83	87.38
243.064	69.38
243.298	97.38
243.531	75.38
243.765	83.38
243.998	89.38
244.232	103.38
244.465	96.38
244.699	79.38
244.932	88.38
245.166	86.38
245.399	98.38
245.633	84.38
245.866	82.38
246.099	89.38
246.333	90.38
246.566	90.38
246.8	74.38
247.033	87.38
247.266	85.38
247.5	95.38
247.733	75.38
247.966	97.38
248.2	98.38
248.433	92.38
248.666	85.38
248.899	98.38
249.133	97.38
249.366	91.38
249.599	90.38
249.832	90.38
250.066	97.38
250.299	89.38
250.532	94.38
250.765	94.38
250.998	84.38
251.231	92.38
251.465	86.38
251.698	107.38
251.931	96.38
252.164	100.38
252.397	83.38
252.63	88.38
252.863	97.38
253.096	80.38
253.329	84.38
253.562	82.38
253.795	86.38
254.028	87.38
254.261	81.38
254.494	96.38
254.727	98.38
254.96	93.38
255.193	95.38
255.426	96.38
255.659	93.38
255.892	101.38
256.124	96.38
256.357	107.38
256.59	108.38
256.823	87.38
257.056	92.38
257.289	101.38
257.521	99.38
257.754	95.38
257.987	89.38
258.22	109.38
258.452	104.38
258.685	103.38
258.918	93.38
259.151	93.38
259.383	102.38
259.616	93.38
259.849	93.38
260.081	104.38
260.314	102.38
260.547	91.38
260.779	99.38
261.012	90.38
261.244	91.38
261.477	108.38
261.71	99.38
261.942	106.38
262.175	89.38
262.407	110.38
262.64	109.38
262.872	104.38
263.105	92.38
263.337	102.38
263.57	95.38
263.802	91.38
264.035	106.38
264.267	94.38
264.499	97.38
264.732	110.38
264.964	102.38
265.197	121.38
265.429	100.38
265.661	94.38
265.894	98.38
266.126	122.38
266.358	92.38
266.591	94.38
266.823	96.38
267.055	106.38
267.287	105.38
267.52	103.38
267.752	97.38
267.984	101.38
268.216	114.38
268.448	120.38
268.681	111.38
268.913	116.38
269.145	100.38
269.377	99.38
269.609	102.38
269.841	87.38
270.073	103.38
270.306	93.38
270.538	100.38
270.77	95.38
271.002	117.38
271.234	110.38
271.466	108.38
271.698	102.38
271.93	102.38
272.162	108.38
272.394	110.38
272.626	89.38
272.858	107.38
273.09	109.38
273.322	101.38
273.553	101.38
273.785	120.38
274.017	106.38
274.249	98.38
274.481	98.38
274.713	93.38
274.945	101.38
275.176	107.38
275.408	102.38
275.64	110.38
275.872	109.38
276.104	102.38
276.335	111.38
276.567	115.38
276.799	98.38
277.031	101.38
277.262	115.38
277.494	134.38
277.726	112.38
277.957	113.38
278.189	91.38
278.421	106.38
278.652	101.38
278.884	120.38
279.115	116.38
279.347	123.38
279.579	125.38
279.81	107.38
280.042	119.38
280.273	107.38
280.505	115.38
280.736	117.38
280.968	117.38
281.199	110.38
281.431	118.38
281.662	116.38
281.894	120.38
282.125	105.38
282.356	107.38
282.588	111.38
282.819	121.38
283.051	110.38
283.282	121.38
283.513	119.38
283.745	114.38
283.976	109.38
284.207	127.38
284.439	130.38
284.67	122.38
284.901	113.38
285.132	113.38
285.364	123.38
285.595	129.38
285.826	120.38
286.057	114.38
286.288	110.38
286.52	115.38
286.751	115.38
286.982	129.38
287.213	121.38
287.444	130.38
287.675	105.38
287.906	123.38
288.138	123.38
288.369	108.38
288.6	111.38
288.831	110.38
289.062	125.38
289.293	119.38
289.524	116.38
289.755	127.38
289.986	106.38
290.217	114.38
290.448	116.38
290.679	114.38
290.91	130.38
291.141	116.38
291.371	118.38
291.602	118.38
291.833	128.38
292.064	113.38
292.295	103.38
292.526	116.38
292.757	110.38
292.987	106.38
293.218	115.38
293.449	118.38
293.68	119.38
293.91	115.38
294.141	126.38
294.372	114.38
294.603	122.38
294.833	121.38
295.064	113.38
295.295	144.38
295.525	120.38
295.756	122.38
295.987	130.38
296.217	131.38
296.448	110.38
296.679	126.38
296.909	130.38
297.14	113.38
297.37	124.38
297.601	125.38
297.831	119.38
298.062	139.38
298.292	127.38
298.523	133.38
298.753	133.38
298.984	111.38
299.214	133.38
299.445	121.38
299.675	133.38
299.905	118.38
300.136	107.38
300.366	118.38
300.597	128.38
300.827	124.38
301.057	137.38
301.288	141.38
301.518	122.38
301.748	125.38
301.979	162.38
302.209	135.38
302.439	114.38
302.669	129.38
302.9	139.38
303.13	135.38
303.36	116.38
303.59	136.38
303.82	130.38
304.051	124.38
304.281	137.38
304.511	126.38
304.741	125.38
304.971	111.38
305.201	129.38
305.431	123.38
305.661	126.38
305.891	134.38
306.121	139.38
306.352	134.38
306.582	124.38
306.812	127.38
307.042	124.38
307.272	144.38
307.502	139.38
307.731	131.38
307.961	134.38
308.191	122.38
308.421	128.38
308.651	117.38
308.881	116.38
309.111	120.38
309.341	126.38
309.571	122.38
309.8	115.38
310.03	133.38
310.26	127.38
310.49	122.38
310.72	131.38
310.949	135.38
311.179	142.38
311.409	117.38
311.639	137.38
311.868	119.38
312.098	134.38
312.328	137.38
312.557	119.38
312.787	121.38
313.017	113.38
313.246	126.38
313.476	134.38
313.706	134.38
313.935	121.38
314.165	135.38
314.394	132.38
314.624	144.38
314.853	123.38
315.083	129.38
315.312	127.38
315.542	137.38
315.771	133.38
316.001	139.38
316.23	126.38
316.46	137.38
316.689	126.38
316.919	133.38
317.148	133.38
317.377	138.38
317.607	135.38
317.836	131.38
318.065	149.38
318.295	137.38
318.524	110.38
318.753	121.38
318.983	139.38
319.212	137.38
319.441	141.38
319.67	127.38
319.9	119.38
320.129	145.38
320.358	125.38
320.587	127.38
320.816	116.38
321.046	143.38
321.275	143.38
321.504	128.38
321.733	141.38
321.962	131.38
322.191	122.38
322.42	122.38
322.649	128.38
322.878	120.38
323.108	126.38
323.337	131.38
323.566	115.38
323.795	127.38
324.024	143.38
324.253	132.38
324.482	133.38
324.71	125.38
324.939	139.38
325.168	129.38
325.397	140.38
325.626	132.38
325.855	141.38
326.084	144.38
326.313	135.38
326.542	131.38
326.77	135.38
326.999	140.38
327.228	127.38
327.457	137.38
327.686	143.38
327.914	137.38
328.143	132.38
328.372	137.38
328.6	143.38
328.829	145.38
329.058	133.38
329.287	132.38
329.515	131.38
329.744	151.38
329.972	132.38
330.201	138.38
330.43	139.38
330.658	155.38
330.887	119.38
331.115	129.38
331.344	141.38
331.572	142.38
331.801	143.38
332.03	146.38
332.258	151.38
332.486	141.38
332.715	153.38
332.943	158.38
333.172	169.38
333.4	148.38
333.629	169.38
333.857	161.38
334.085	167.38
334.314	165.38
334.542	155.38
334.771	157.38
334.999	154.38
335.227	167.38
335.455	157.38
335.684	164.38
335.912	146.38
336.14	148.38
336.369	159.38
336.597	140.38
336.825	151.38
337.053	149.38
337.281	142.38
337.51	147.38
337.738	153.38
337.966	133.38
338.194	141.38
338.422	138.38
338.65	141.38
338.878	142.38
339.106	142.38
339.334	144.38
339.562	130.38
339.79	126.38
340.018	123.38
340.246	115.38
340.474	138.38
340.702	147.38
340.93	140.38
341.158	146.38
341.386	138.38
341.614	137.38
341.842	125.38
342.07	135.38
342.298	130.38
342.526	146.38
342.754	155.38
342.981	142.38
343.209	143.38
343.437	161.38
343.665	153.38
343.893	161.38
344.12	162.38
344.348	150.38
344.576	149.38
344.804	145.38
345.031	138.38
345.259	138.38
345.487	126.38
345.714	138.38
345.942	134.38
346.17	135.38
346.397	149.38
346.625	143.38
346.853	157.38
347.08	126.38
347.308	138.38
347.535	127.38
347.763	146.38
347.99	137.38
348.218	146.38
348.445	143.38
348.673	140.38
348.9	153.38
349.128	150.38
349.355	131.38
349.583	140.38
349.81	140.38
350.037	134.38
350.265	143.38
350.492	138.38
350.72	134.38
350.947	157.38
351.174	130.38
351.402	129.38
351.629	138.38
351.856	123.38
352.083	131.38
352.311	145.38
352.538	125.38
352.765	127.38
352.992	146.38
353.22	139.38
353.447	116.38
353.674	149.38
353.901	149.38
354.128	149.38
354.355	123.38
354.583	131.38
354.81	131.38
355.037	134.38
355.264	133.38
355.491	143.38
355.718	119.38
355.945	145.38
356.172	134.38
356.399	153.38
356.626	140.38
356.853	112.38
357.08	128.38
357.307	133.38
357.534	125.38
357.761	121.38
357.988	141.38
358.215	122.38
358.441	139.38
358.668	139.38
358.895	129.38
359.122	125.38
359.349	129.38
359.576	151.38
359.802	137.38
360.029	133.38
360.256	128.38
360.483	127.38
360.709	131.38
360.936	130.38
361.163	130.38
361.39	134.38
361.616	131.38
361.843	117.38
362.07	144.38
362.296	124.38
362.523	129.38
362.749	124.38
362.976	130.38
363.203	146.38
363.429	136.38
363.656	128.38
363.882	123.38
364.109	147.38
364.335	133.38
364.562	132.38
364.788	127.38
365.015	142.38
365.241	119.38
365.468	141.38
365.694	116.38
365.92	130.38
366.147	125.38
366.373	121.38
366.599	123.38
366.826	130.38
367.052	133.38
367.278	138.38
367.505	129.38
367.731	151.38
367.957	130.38
368.184	134.38
368.41	149.38
368.636	138.38
368.862	129.38
369.089	148.38
369.315	130.38
369.541	151.38
369.767	149.38
369.993	139.38
370.219	129.38
370.445	149.38
370.672	130.38
370.898	139.38
371.124	134.38
371.35	141.38
371.576	146.38
371.802	159.38
372.028	149.38
372.254	148.38
372.48	141.38
372.706	134.38
372.932	138.38
373.158	157.38
373.384	156.38
373.61	142.38
373.835	145.38
374.061	127.38
374.287	153.38
374.513	152.38
374.739	142.38
374.965	165.38
375.191	146.38
375.416	144.38
375.642	145.38
375.868	146.38
376.094	134.38
376.319	129.38
376.545	126.38
376.771	135.38
376.997	155.38
377.222	148.38
377.448	137.38
377.674	137.38
377.899	152.38
378.125	147.38
378.35	145.38
378.576	130.38
378.802	133.38
379.027	148.38
379.253	156.38
379.478	149.38
379.704	144.38
379.929	137.38
380.155	130.38
380.38	153.38
380.606	150.38
380.831	130.38
381.057	153.38
381.282	149.38
381.507	146.38
381.733	155.38
381.958	148.38
382.184	141.38
382.409	141.38
382.634	140.38
382.86	154.38
383.085	146.38
383.31	157.38
383.535	157.38
383.761	135.38
383.986	150.38
384.211	146.38
384.436	145.38
384.662	150.38
384.887	165.38
385.112	148.38
385.337	146.38
385.562	146.38
385.787	153.38
386.013	167.38
386.238	174.38
386.463	171.38
386.688	190.38
386.913	150.38
387.138	148.38
387.363	153.38
387.588	172.38
387.813	166.38
388.038	164.38
388.263	141.38
388.488	164.38
388.713	140.38
388.938	153.38
389.163	149.38
389.387	145.38
389.612	153.38
389.837	146.38
390.062	172.38
390.287	141.38
390.512	158.38
390.736	137.38
390.961	153.38
391.186	158.38
391.411	156.38
391.636	161.38
391.86	156.38
392.085	166.38
392.31	165.38
392.534	159.38
392.759	158.38
392.984	156.38
393.208	172.38
393.433	162.38
393.658	164.38
393.882	178.38
394.107	162.38
394.331	159.38
394.556	164.38
394.78	185.38
395.005	168.38
395.229	181.38
395.454	179.38
395.678	165.38
395.903	179.38
396.127	181.38
396.352	161.38
396.576	157.38
396.801	171.38
397.025	155.38
397.249	172.38
397.474	187.38
397.698	171.38
397.922	162.38
398.147	162.38
398.371	181.38
398.595	169.38
398.82	185.38
399.044	180.38
399.268	197.38
399.492	232.38
399.717	238.38
399.941	229.38
400.165	213.38
400.389	194.38
400.613	191.38
400.837	187.38
401.062	189.38
401.286	176.38
401.51	189.38
401.734	183.38
401.958	177.38
402.182	191.38
402.406	204.38
402.63	185.38
402.854	207.38
403.078	195.38
403.302	195.38
403.526	206.38
403.75	204.38
403.974	206.38
404.198	198.38
404.422	211.38
404.645	200.38
404.869	189.38
405.093	198.38
405.317	193.38
405.541	209.38
405.765	187.38
405.988	179.38
406.212	190.38
406.436	194.38
406.66	188.38
406.883	205.38
407.107	196.38
407.331	209.38
407.555	213.38
407.778	218.38
408.002	202.38
408.226	190.38
408.449	209.38
408.673	199.38
408.896	187.38
409.12	206.38
409.344	198.38
409.567	197.38
409.791	198.38
410.014	208.38
410.238	181.38
410.461	187.38
410.685	205.38
410.908	195.38
411.132	191.38
411.355	173.38
411.578	185.38
411.802	197.38
412.025	193.38
412.249	166.38
412.472	174.38
412.695	173.38
412.919	168.38
413.142	192.38
413.365	182.38
413.589	181.38
413.812	195.38
414.035	188.38
414.258	201.38
414.482	175.38
414.705	181.38
414.928	181.38
415.151	186.38
415.374	181.38
415.597	181.38
415.821	176.38
416.044	187.38
416.267	181.38
416.49	166.38
416.713	182.38
416.936	172.38
417.159	173.38
417.382	184.38
417.605	178.38
417.828	189.38
418.051	190.38
418.274	177.38
418.497	182.38
418.72	160.38
418.943	191.38
419.166	193.38
419.389	203.38
419.611	187.38
419.834	185.38
420.057	198.38
420.28	175.38
420.503	173.38
420.726	174.38
420.948	176.38
421.171	162.38
421.394	193.38
421.617	175.38
421.839	186.38
422.062	203.38
422.285	196.38
422.507	203.38
422.73	205.38
422.953	187.38
423.175	179.38
423.398	204.38
423.621	190.38
423.843	194.38
424.066	198.38
424.288	173.38
424.511	183.38
424.733	197.38
424.956	194.38
425.178	190.38
425.401	194.38
425.623	195.38
425.846	199.38
426.068	176.38
426.291	178.38
426.513	171.38
426.735	186.38
426.958	167.38
427.18	171.38
427.402	185.38
427.625	181.38
427.847	166.38
428.069	183.38
428.292	165.38
428.514	167.38
428.736	161.38
428.958	181.38
429.181	197.38
429.403	178.38
429.625	177.38
429.847	182.38
430.069	170.38
430.292	149.38
430.514	171.38
430.736	167.38
430.958	180.38
431.18	161.38
431.402	157.38
431.624	182.38
431.846	173.38
432.068	174.38
432.29	170.38
432.512	177.38
432.734	175.38
432.956	169.38
433.178	194.38
433.4	184.38
433.622	173.38
433.844	177.38
434.066	191.38
434.287	163.38
434.509	177.38
434.731	188.38
434.953	175.38
435.175	190.38
435.397	201.38
435.618	162.38
435.84	165.38
436.062	183.38
436.284	172.38
436.505	178.38
436.727	164.38
436.949	173.38
437.17	175.38
437.392	176.38
437.614	172.38
437.835	165.38
438.057	172.38
438.278	169.38
438.5	174.38
438.721	163.38
438.943	155.38
439.165	158.38
439.386	168.38
439.608	173.38
439.829	177.38
440.05	179.38
440.272	161.38
440.493	183.38
440.715	169.38
440.936	187.38
441.158	183.38
441.379	188.38
441.6	185.38
441.822	196.38
442.043	194.38
442.264	186.38
442.486	183.38
442.707	196.38
442.928	187.38
443.149	187.38
443.371	179.38
443.592	194.38
443.813	180.38
444.034	189.38
444.255	192.38
444.476	214.38
444.698	198.38
444.919	201.38
445.14	406.38
445.361	265.38
445.582	194.38
445.803	180.38
446.024	193.38
446.245	174.38
446.466	190.38
446.687	176.38
446.908	193.38
447.129	161.38
447.35	180.38
447.571	187.38
447.792	168.38
448.013	146.38
448.234	161.38
448.455	159.38
448.675	159.38
448.896	162.38
449.117	158.38
449.338	160.38
449.559	154.38
449.779	154.38
450	167.38
450.221	163.38
450.442	161.38
450.662	169.38
450.883	175.38
451.104	174.38
451.324	171.38
451.545	164.38
451.766	163.38
451.986	157.38
452.207	180.38
452.428	161.38
452.648	154.38
452.869	167.38
453.089	149.38
453.31	160.38
453.53	161.38
453.751	154.38
453.971	171.38
454.192	164.38
454.412	141.38
454.633	167.38
454.853	165.38
455.073	149.38
455.294	149.38
455.514	165.38
455.734	150.38
455.955	151.38
456.175	157.38
456.395	146.38
456.616	166.38
456.836	150.38
457.056	157.38
457.276	143.38
457.497	175.38
457.717	148.38
457.937	161.38
458.157	151.38
458.377	148.38
458.598	148.38
458.818	155.38
459.038	159.38
459.258	167.38
459.478	174.38
459.698	188.38
459.918	188.38
460.138	176.38
460.358	184.38
460.578	211.38
460.798	185.38
461.018	183.38
461.238	180.38
461.458	184.38
461.678	178.38
461.898	197.38
462.118	211.38
462.338	214.38
462.558	205.38
462.777	191.38
462.997	237.38
463.217	241.38
463.437	254.38
463.657	215.38
463.876	204.38
464.096	224.38
464.316	220.38
464.536	197.38
464.755	193.38
464.975	168.38
465.195	187.38
465.414	180.38
465.634	176.38
465.854	182.38
466.073	168.38
466.293	174.38
466.512	174.38
466.732	164.38
466.951	177.38
467.171	163.38
467.391	160.38
467.61	154.38
467.829	162.38
468.049	182.38
468.268	171.38
468.488	175.38
468.707	180.38
468.927	159.38
469.146	166.38
469.365	162.38
469.585	157.38
469.804	151.38
470.023	172.38
470.243	178.38
470.462	174.38
470.681	171.38
470.901	178.38
471.12	167.38
471.339	168.38
471.558	167.38
471.777	171.38
471.997	175.38
472.216	164.38
472.435	183.38
472.654	163.38
472.873	164.38
473.092	155.38
473.311	149.38
473.53	155.38
473.749	162.38
473.968	163.38
474.187	179.38
474.406	176.38
474.625	165.38
474.844	173.38
475.063	166.38
475.282	155.38
475.501	159.38
475.72	176.38
475.939	167.38
476.158	154.38
476.377	153.38
476.596	161.38
476.814	159.38
477.033	163.38
477.252	175.38
477.471	157.38
477.69	171.38
477.908	184.38
478.127	201.38
478.346	180.38
478.564	163.38
478.783	197.38
479.002	171.38
479.22	180.38
479.439	193.38
479.658	184.38
479.876	185.38
480.095	193.38
480.313	196.38
480.532	175.38
480.751	206.38
480.969	205.38
481.188	192.38
481.406	175.38
481.624	175.38
481.843	179.38
482.061	179.38
482.28	193.38
482.498	158.38
482.717	167.38
482.935	176.38
483.153	177.38
483.372	165.38
483.59	178.38
483.808	176.38
484.027	207.38
484.245	198.38
484.463	184.38
484.681	180.38
484.9	173.38
485.118	191.38
485.336	167.38
485.554	182.38
485.772	180.38
485.99	191.38
486.209	185.38
486.427	190.38
486.645	168.38
486.863	179.38
487.081	185.38
487.299	199.38
487.517	174.38
487.735	194.38
487.953	198.38
488.171	189.38
488.389	188.38
488.607	178.38
488.825	171.38
489.043	183.38
489.261	203.38
489.479	193.38
489.696	184.38
489.914	187.38
490.132	179.38
490.35	198.38
490.568	186.38
490.786	182.38
491.003	185.38
491.221	194.38
491.439	186.38
491.657	189.38
491.874	206.38
492.092	193.38
492.31	209.38
492.527	190.38
492.745	194.38
492.963	192.38
493.18	191.38
493.398	183.38
493.615	193.38
493.833	194.38
494.05	196.38
494.268	194.38
494.485	209.38
494.703	200.38
494.92	194.38
495.138	196.38
495.355	205.38
495.573	199.38
495.79	187.38
496.008	213.38
496.225	215.38
496.442	201.38
496.66	191.38
496.877	193.38
497.094	212.38
497.312	209.38
497.529	206.38
497.746	207.38
497.963	199.38
498.181	214.38
498.398	225.38
498.615	223.38
498.832	254.38
499.049	258.38
499.267	294.38
499.484	291.38
499.701	330.38
499.918	363.38
500.135	370.38
500.352	442.38
500.569	437.38
500.786	414.38
501.003	410.38
501.22	359.38
501.437	337.38
501.654	286.38
501.871	263.38
502.088	245.38
502.305	241.38
502.522	228.38
502.739	228.38
502.956	233.38
503.172	222.38
503.389	212.38
503.606	209.38
503.823	205.38
504.04	224.38
504.256	203.38
504.473	206.38
504.69	228.38
