Data from SampD_HRD10591_00012.txt Node
Date: Mon Jan 19 11:41:25 EST 2026
User: Yrep
Spectrometer: HR+D1059
Trigger mode: 0
Integration Time (sec): 3.443000E-1
Scans to average: 1
Electric dark correction enabled: true
Nonlinearity correction enabled: false
Boxcar width: 0
XAxis mode: Wavelengths
Number of Pixels in Spectrum: 2048
>>>>>Begin Spectral Data<<<<<
223.165	-28.19
223.4	-28.19
223.635	-28.19
223.869	-36.19
224.104	-25.19
224.338	-8.19
224.573	-3.19
224.808	-18.19
225.042	-4.19
225.277	-6.19
225.511	4.81
225.746	-3.19
225.98	4.81
226.215	21.81
226.449	16.81
226.683	17.81
226.918	24.81
227.152	41.81
227.387	36.81
227.621	45.81
227.856	35.81
228.09	44.81
228.324	37.81
228.559	50.81
228.793	73.81
229.027	73.81
229.262	55.81
229.496	80.81
229.73	80.81
229.964	84.81
230.199	75.81
230.433	55.81
230.667	64.81
230.901	79.81
231.136	71.81
231.37	76.81
231.604	68.81
231.838	65.81
232.072	75.81
232.306	78.81
232.541	76.81
232.775	82.81
233.009	85.81
233.243	77.81
233.477	81.81
233.711	80.81
233.945	92.81
234.179	75.81
234.413	86.81
234.647	82.81
234.881	79.81
235.115	83.81
235.349	83.81
235.583	78.81
235.817	83.81
236.051	75.81
236.285	62.81
236.519	73.81
236.753	84.81
236.987	87.81
237.221	89.81
237.455	86.81
237.689	72.81
237.922	76.81
238.156	75.81
238.39	64.81
238.624	75.81
238.858	95.81
239.091	73.81
239.325	91.81
239.559	79.81
239.793	92.81
240.027	100.81
240.26	90.81
240.494	90.81
240.728	88.81
240.961	74.81
241.195	80.81
241.429	83.81
241.662	82.81
241.896	68.81
242.13	75.81
242.363	65.81
242.597	89.81
242.83	88.81
243.064	83.81
243.298	76.81
243.531	76.81
243.765	73.81
243.998	88.81
244.232	90.81
244.465	83.81
244.699	87.81
244.932	95.81
245.166	88.81
245.399	79.81
245.633	66.81
245.866	72.81
246.099	68.81
246.333	79.81
246.566	75.81
246.8	95.81
247.033	76.81
247.266	69.81
247.5	89.81
247.733	88.81
247.966	92.81
248.2	84.81
248.433	78.81
248.666	84.81
248.899	89.81
249.133	82.81
249.366	88.81
249.599	74.81
249.832	80.81
250.066	87.81
250.299	102.81
250.532	73.81
250.765	87.81
250.998	79.81
251.231	93.81
251.465	93.81
251.698	78.81
251.931	100.81
252.164	95.81
252.397	84.81
252.63	91.81
252.863	78.81
253.096	88.81
253.329	103.81
253.562	91.81
253.795	79.81
254.028	83.81
254.261	91.81
254.494	98.81
254.727	108.81
254.96	97.81
255.193	94.81
255.426	83.81
255.659	93.81
255.892	92.81
256.124	84.81
256.357	87.81
256.59	95.81
256.823	91.81
257.056	108.81
257.289	84.81
257.521	91.81
257.754	95.81
257.987	93.81
258.22	95.81
258.452	89.81
258.685	94.81
258.918	101.81
259.151	92.81
259.383	102.81
259.616	92.81
259.849	78.81
260.081	87.81
260.314	92.81
260.547	74.81
260.779	73.81
261.012	86.81
261.244	89.81
261.477	114.81
261.71	93.81
261.942	95.81
262.175	90.81
262.407	95.81
262.64	88.81
262.872	92.81
263.105	97.81
263.337	97.81
263.57	91.81
263.802	108.81
264.035	89.81
264.267	81.81
264.499	93.81
264.732	85.81
264.964	96.81
265.197	87.81
265.429	100.81
265.661	98.81
265.894	99.81
266.126	101.81
266.358	96.81
266.591	101.81
266.823	100.81
267.055	100.81
267.287	100.81
267.52	85.81
267.752	96.81
267.984	99.81
268.216	96.81
268.448	109.81
268.681	99.81
268.913	85.81
269.145	88.81
269.377	104.81
269.609	93.81
269.841	103.81
270.073	98.81
270.306	95.81
270.538	100.81
270.77	100.81
271.002	79.81
271.234	95.81
271.466	96.81
271.698	94.81
271.93	104.81
272.162	83.81
272.394	100.81
272.626	122.81
272.858	96.81
273.09	92.81
273.322	109.81
273.553	99.81
273.785	111.81
274.017	107.81
274.249	97.81
274.481	92.81
274.713	98.81
274.945	94.81
275.176	121.81
275.408	100.81
275.64	108.81
275.872	119.81
276.104	105.81
276.335	105.81
276.567	103.81
276.799	111.81
277.031	100.81
277.262	111.81
277.494	107.81
277.726	114.81
277.957	127.81
278.189	115.81
278.421	98.81
278.652	105.81
278.884	103.81
279.115	112.81
279.347	114.81
279.579	104.81
279.81	110.81
280.042	105.81
280.273	111.81
280.505	123.81
280.736	96.81
280.968	110.81
281.199	106.81
281.431	117.81
281.662	103.81
281.894	122.81
282.125	120.81
282.356	94.81
282.588	110.81
282.819	107.81
283.051	103.81
283.282	109.81
283.513	111.81
283.745	115.81
283.976	105.81
284.207	123.81
284.439	101.81
284.67	110.81
284.901	109.81
285.132	109.81
285.364	111.81
285.595	111.81
285.826	122.81
286.057	128.81
286.288	112.81
286.52	96.81
286.751	128.81
286.982	109.81
287.213	99.81
287.444	116.81
287.675	115.81
287.906	108.81
288.138	112.81
288.369	108.81
288.6	125.81
288.831	127.81
289.062	107.81
289.293	113.81
289.524	103.81
289.755	116.81
289.986	106.81
290.217	111.81
290.448	113.81
290.679	130.81
290.91	101.81
291.141	108.81
291.371	116.81
291.602	116.81
291.833	115.81
292.064	108.81
292.295	107.81
292.526	129.81
292.757	127.81
292.987	115.81
293.218	116.81
293.449	127.81
293.68	117.81
293.91	102.81
294.141	119.81
294.372	120.81
294.603	119.81
294.833	124.81
295.064	117.81
295.295	102.81
295.525	118.81
295.756	116.81
295.987	109.81
296.217	137.81
296.448	121.81
296.679	108.81
296.909	117.81
297.14	128.81
297.37	125.81
297.601	117.81
297.831	117.81
298.062	123.81
298.292	119.81
298.523	131.81
298.753	120.81
298.984	127.81
299.214	124.81
299.445	112.81
299.675	125.81
299.905	117.81
300.136	112.81
300.366	121.81
300.597	123.81
300.827	113.81
301.057	106.81
301.288	129.81
301.518	108.81
301.748	117.81
301.979	162.81
302.209	116.81
302.439	111.81
302.669	117.81
302.9	120.81
303.13	145.81
303.36	124.81
303.59	111.81
303.82	115.81
304.051	143.81
304.281	126.81
304.511	130.81
304.741	130.81
304.971	124.81
305.201	114.81
305.431	119.81
305.661	117.81
305.891	123.81
306.121	121.81
306.352	121.81
306.582	121.81
306.812	123.81
307.042	121.81
307.272	122.81
307.502	128.81
307.731	124.81
307.961	132.81
308.191	108.81
308.421	127.81
308.651	140.81
308.881	105.81
309.111	114.81
309.341	115.81
309.571	116.81
309.8	120.81
310.03	130.81
310.26	127.81
310.49	120.81
310.72	127.81
310.949	108.81
311.179	124.81
311.409	124.81
311.639	117.81
311.868	121.81
312.098	123.81
312.328	122.81
312.557	138.81
312.787	128.81
313.017	133.81
313.246	130.81
313.476	113.81
313.706	116.81
313.935	131.81
314.165	140.81
314.394	118.81
314.624	121.81
314.853	123.81
315.083	138.81
315.312	124.81
315.542	123.81
315.771	122.81
316.001	103.81
316.23	122.81
316.46	116.81
316.689	128.81
316.919	131.81
317.148	115.81
317.377	134.81
317.607	130.81
317.836	150.81
318.065	140.81
318.295	114.81
318.524	118.81
318.753	131.81
318.983	130.81
319.212	118.81
319.441	126.81
319.67	143.81
319.9	115.81
320.129	112.81
320.358	125.81
320.587	136.81
320.816	119.81
321.046	108.81
321.275	120.81
321.504	132.81
321.733	108.81
321.962	124.81
322.191	128.81
322.42	121.81
322.649	123.81
322.878	135.81
323.108	144.81
323.337	128.81
323.566	115.81
323.795	131.81
324.024	126.81
324.253	117.81
324.482	125.81
324.71	127.81
324.939	120.81
325.168	128.81
325.397	129.81
325.626	123.81
325.855	127.81
326.084	122.81
326.313	135.81
326.542	131.81
326.77	124.81
326.999	117.81
327.228	138.81
327.457	127.81
327.686	149.81
327.914	137.81
328.143	128.81
328.372	125.81
328.6	124.81
328.829	123.81
329.058	117.81
329.287	136.81
329.515	128.81
329.744	135.81
329.972	121.81
330.201	121.81
330.43	145.81
330.658	143.81
330.887	129.81
331.115	128.81
331.344	136.81
331.572	140.81
331.801	135.81
332.03	126.81
332.258	141.81
332.486	143.81
332.715	156.81
332.943	140.81
333.172	147.81
333.4	138.81
333.629	156.81
333.857	137.81
334.085	163.81
334.314	151.81
334.542	138.81
334.771	149.81
334.999	147.81
335.227	148.81
335.455	147.81
335.684	151.81
335.912	152.81
336.14	140.81
336.369	139.81
336.597	148.81
336.825	138.81
337.053	125.81
337.281	142.81
337.51	128.81
337.738	151.81
337.966	134.81
338.194	125.81
338.422	122.81
338.65	141.81
338.878	132.81
339.106	127.81
339.334	157.81
339.562	125.81
339.79	138.81
340.018	135.81
340.246	114.81
340.474	132.81
340.702	123.81
340.93	135.81
341.158	130.81
341.386	121.81
341.614	122.81
341.842	144.81
342.07	127.81
342.298	133.81
342.526	131.81
342.754	147.81
342.981	140.81
343.209	138.81
343.437	172.81
343.665	140.81
343.893	146.81
344.12	136.81
344.348	153.81
344.576	129.81
344.804	137.81
345.031	135.81
345.259	129.81
345.487	129.81
345.714	125.81
345.942	131.81
346.17	145.81
346.397	111.81
346.625	116.81
346.853	133.81
347.08	145.81
347.308	138.81
347.535	133.81
347.763	129.81
347.99	120.81
348.218	136.81
348.445	119.81
348.673	125.81
348.9	148.81
349.128	137.81
349.355	122.81
349.583	133.81
349.81	125.81
350.037	135.81
350.265	129.81
350.492	131.81
350.72	124.81
350.947	132.81
351.174	133.81
351.402	126.81
351.629	136.81
351.856	130.81
352.083	125.81
352.311	116.81
352.538	132.81
352.765	127.81
352.992	154.81
353.22	128.81
353.447	108.81
353.674	126.81
353.901	137.81
354.128	126.81
354.355	126.81
354.583	127.81
354.81	125.81
355.037	131.81
355.264	137.81
355.491	137.81
355.718	121.81
355.945	135.81
356.172	115.81
356.399	122.81
356.626	130.81
356.853	123.81
357.08	130.81
357.307	129.81
357.534	126.81
357.761	128.81
357.988	135.81
358.215	126.81
358.441	144.81
358.668	122.81
358.895	135.81
359.122	153.81
359.349	123.81
359.576	135.81
359.802	122.81
360.029	129.81
360.256	120.81
360.483	128.81
360.709	125.81
360.936	151.81
361.163	124.81
361.39	146.81
361.616	123.81
361.843	124.81
362.07	127.81
362.296	127.81
362.523	125.81
362.749	137.81
362.976	141.81
363.203	130.81
363.429	123.81
363.656	129.81
363.882	130.81
364.109	137.81
364.335	129.81
364.562	133.81
364.788	121.81
365.015	125.81
365.241	135.81
365.468	128.81
365.694	118.81
365.92	125.81
366.147	120.81
366.373	120.81
366.599	131.81
366.826	139.81
367.052	138.81
367.278	132.81
367.505	137.81
367.731	153.81
367.957	130.81
368.184	122.81
368.41	139.81
368.636	133.81
368.862	114.81
369.089	144.81
369.315	130.81
369.541	137.81
369.767	137.81
369.993	118.81
370.219	138.81
370.445	151.81
370.672	128.81
370.898	135.81
371.124	134.81
371.35	138.81
371.576	143.81
371.802	135.81
372.028	130.81
372.254	132.81
372.48	135.81
372.706	145.81
372.932	140.81
373.158	126.81
373.384	141.81
373.61	135.81
373.835	137.81
374.061	128.81
374.287	151.81
374.513	139.81
374.739	144.81
374.965	147.81
375.191	152.81
375.416	135.81
375.642	141.81
375.868	151.81
376.094	144.81
376.319	128.81
376.545	125.81
376.771	137.81
376.997	124.81
377.222	143.81
377.448	131.81
377.674	132.81
377.899	135.81
378.125	125.81
378.35	129.81
378.576	131.81
378.802	140.81
379.027	136.81
379.253	159.81
379.478	152.81
379.704	120.81
379.929	117.81
380.155	137.81
380.38	154.81
380.606	135.81
380.831	149.81
381.057	141.81
381.282	136.81
381.507	129.81
381.733	139.81
381.958	149.81
382.184	133.81
382.409	143.81
382.634	152.81
382.86	144.81
383.085	133.81
383.31	148.81
383.535	141.81
383.761	151.81
383.986	139.81
384.211	149.81
384.436	138.81
384.662	150.81
384.887	161.81
385.112	165.81
385.337	165.81
385.562	148.81
385.787	141.81
386.013	155.81
386.238	146.81
386.463	148.81
386.688	181.81
386.913	153.81
387.138	151.81
387.363	160.81
387.588	151.81
387.813	157.81
388.038	153.81
388.263	153.81
388.488	155.81
388.713	144.81
388.938	155.81
389.163	139.81
389.387	145.81
389.612	159.81
389.837	132.81
390.062	167.81
390.287	145.81
390.512	139.81
390.736	151.81
390.961	151.81
391.186	156.81
391.411	149.81
391.636	153.81
391.86	149.81
392.085	162.81
392.31	165.81
392.534	163.81
392.759	143.81
392.984	156.81
393.208	169.81
393.433	166.81
393.658	165.81
393.882	146.81
394.107	141.81
394.331	139.81
394.556	177.81
394.78	155.81
395.005	175.81
395.229	156.81
395.454	172.81
395.678	152.81
395.903	171.81
396.127	157.81
396.352	142.81
396.576	165.81
396.801	159.81
397.025	153.81
397.249	160.81
397.474	162.81
397.698	169.81
397.922	163.81
398.147	159.81
398.371	164.81
398.595	169.81
398.82	163.81
399.044	171.81
399.268	189.81
399.492	241.81
399.717	248.81
399.941	207.81
400.165	204.81
400.389	188.81
400.613	168.81
400.837	157.81
401.062	185.81
401.286	169.81
401.51	181.81
401.734	171.81
401.958	190.81
402.182	179.81
402.406	180.81
402.63	173.81
402.854	184.81
403.078	173.81
403.302	186.81
403.526	194.81
403.75	177.81
403.974	179.81
404.198	181.81
404.422	201.81
404.645	187.81
404.869	192.81
405.093	189.81
405.317	194.81
405.541	177.81
405.765	188.81
405.988	171.81
406.212	176.81
406.436	183.81
406.66	194.81
406.883	206.81
407.107	199.81
407.331	203.81
407.555	200.81
407.778	184.81
408.002	184.81
408.226	197.81
408.449	178.81
408.673	194.81
408.896	177.81
409.12	183.81
409.344	184.81
409.567	171.81
409.791	196.81
410.014	190.81
410.238	175.81
410.461	190.81
410.685	176.81
410.908	177.81
411.132	186.81
411.355	159.81
411.578	171.81
411.802	171.81
412.025	173.81
412.249	180.81
412.472	166.81
412.695	180.81
412.919	184.81
413.142	182.81
413.365	177.81
413.589	171.81
413.812	172.81
414.035	189.81
414.258	164.81
414.482	168.81
414.705	177.81
414.928	178.81
415.151	157.81
415.374	160.81
415.597	165.81
415.821	178.81
416.044	177.81
416.267	171.81
416.49	163.81
416.713	163.81
416.936	156.81
417.159	162.81
417.382	180.81
417.605	173.81
417.828	178.81
418.051	173.81
418.274	190.81
418.497	186.81
418.72	185.81
418.943	184.81
419.166	182.81
419.389	191.81
419.611	185.81
419.834	184.81
420.057	193.81
420.28	183.81
420.503	177.81
420.726	178.81
420.948	175.81
421.171	171.81
421.394	155.81
421.617	168.81
421.839	184.81
422.062	179.81
422.285	166.81
422.507	184.81
422.73	179.81
422.953	164.81
423.175	178.81
423.398	177.81
423.621	199.81
423.843	185.81
424.066	190.81
424.288	175.81
424.511	203.81
424.733	180.81
424.956	180.81
425.178	188.81
425.401	163.81
425.623	181.81
425.846	179.81
426.068	176.81
426.291	183.81
426.513	157.81
426.735	148.81
426.958	170.81
427.18	179.81
427.402	158.81
427.625	159.81
427.847	163.81
428.069	163.81
428.292	160.81
428.514	157.81
428.736	156.81
428.958	164.81
429.181	161.81
429.403	171.81
429.625	143.81
429.847	179.81
430.069	154.81
430.292	164.81
430.514	166.81
430.736	153.81
430.958	158.81
431.18	144.81
431.402	155.81
431.624	168.81
431.846	157.81
432.068	184.81
432.29	171.81
432.512	167.81
432.734	155.81
432.956	158.81
433.178	175.81
433.4	190.81
433.622	183.81
433.844	172.81
434.066	153.81
434.287	171.81
434.509	169.81
434.731	162.81
434.953	174.81
435.175	164.81
435.397	175.81
435.618	151.81
435.84	169.81
436.062	155.81
436.284	162.81
436.505	172.81
436.727	158.81
436.949	153.81
437.17	164.81
437.392	172.81
437.614	164.81
437.835	145.81
438.057	167.81
438.278	155.81
438.5	153.81
438.721	167.81
438.943	179.81
439.165	156.81
439.386	163.81
439.608	169.81
439.829	161.81
440.05	186.81
440.272	165.81
440.493	165.81
440.715	161.81
440.936	157.81
441.158	178.81
441.379	174.81
441.6	184.81
441.822	174.81
442.043	184.81
442.264	166.81
442.486	171.81
442.707	159.81
442.928	162.81
443.149	179.81
443.371	199.81
443.592	179.81
443.813	181.81
444.034	203.81
444.255	172.81
444.476	181.81
444.698	183.81
444.919	197.81
445.14	449.81
445.361	317.81
445.582	170.81
445.803	173.81
446.024	191.81
446.245	184.81
446.466	158.81
446.687	164.81
446.908	174.81
447.129	168.81
447.35	175.81
447.571	164.81
447.792	147.81
448.013	153.81
448.234	161.81
448.455	157.81
448.675	162.81
448.896	157.81
449.117	153.81
449.338	158.81
449.559	155.81
449.779	152.81
450	144.81
450.221	151.81
450.442	150.81
450.662	157.81
450.883	156.81
451.104	161.81
451.324	161.81
451.545	153.81
451.766	138.81
451.986	164.81
452.207	157.81
452.428	152.81
452.648	147.81
452.869	153.81
453.089	152.81
453.31	157.81
453.53	146.81
453.751	144.81
453.971	153.81
454.192	141.81
454.412	157.81
454.633	145.81
454.853	148.81
455.073	128.81
455.294	143.81
455.514	149.81
455.734	161.81
455.955	162.81
456.175	153.81
456.395	127.81
456.616	130.81
456.836	155.81
457.056	149.81
457.276	143.81
457.497	141.81
457.717	151.81
457.937	147.81
458.157	145.81
458.377	139.81
458.598	132.81
458.818	143.81
459.038	146.81
459.258	144.81
459.478	175.81
459.698	173.81
459.918	162.81
460.138	175.81
460.358	183.81
460.578	184.81
460.798	172.81
461.018	189.81
461.238	179.81
461.458	193.81
461.678	182.81
461.898	192.81
462.118	188.81
462.338	170.81
462.558	189.81
462.777	196.81
462.997	218.81
463.217	229.81
463.437	200.81
463.657	193.81
463.876	196.81
464.096	192.81
464.316	191.81
464.536	189.81
464.755	196.81
464.975	177.81
465.195	190.81
465.414	170.81
465.634	170.81
465.854	164.81
466.073	170.81
466.293	167.81
466.512	152.81
466.732	130.81
466.951	151.81
467.171	158.81
467.391	165.81
467.61	151.81
467.829	158.81
468.049	152.81
468.268	154.81
468.488	141.81
468.707	160.81
468.927	146.81
469.146	155.81
469.365	167.81
469.585	161.81
469.804	160.81
470.023	144.81
470.243	172.81
470.462	151.81
470.681	169.81
470.901	165.81
471.12	153.81
471.339	157.81
471.558	161.81
471.777	144.81
471.997	178.81
472.216	169.81
472.435	161.81
472.654	143.81
472.873	163.81
473.092	163.81
473.311	165.81
473.53	170.81
473.749	152.81
473.968	155.81
474.187	156.81
474.406	151.81
474.625	153.81
474.844	145.81
475.063	140.81
475.282	155.81
475.501	137.81
475.72	171.81
475.939	166.81
476.158	160.81
476.377	180.81
476.596	154.81
476.814	155.81
477.033	165.81
477.252	146.81
477.471	156.81
477.69	164.81
477.908	158.81
478.127	166.81
478.346	173.81
478.564	173.81
478.783	151.81
479.002	188.81
479.22	179.81
479.439	186.81
479.658	183.81
479.876	171.81
480.095	175.81
480.313	191.81
480.532	171.81
480.751	195.81
480.969	186.81
481.188	183.81
481.406	176.81
481.624	185.81
481.843	157.81
482.061	176.81
482.28	179.81
482.498	184.81
482.717	159.81
482.935	189.81
483.153	175.81
483.372	171.81
483.59	171.81
483.808	160.81
484.027	173.81
484.245	175.81
484.463	187.81
484.681	175.81
484.9	177.81
485.118	180.81
485.336	180.81
485.554	171.81
485.772	176.81
485.99	186.81
486.209	175.81
486.427	166.81
486.645	181.81
486.863	177.81
487.081	177.81
487.299	186.81
487.517	183.81
487.735	178.81
487.953	171.81
488.171	171.81
488.389	176.81
488.607	166.81
488.825	165.81
489.043	171.81
489.261	173.81
489.479	184.81
489.696	180.81
489.914	170.81
490.132	181.81
490.35	182.81
490.568	180.81
490.786	191.81
491.003	176.81
491.221	169.81
491.439	181.81
491.657	183.81
491.874	197.81
492.092	172.81
492.31	197.81
492.527	176.81
492.745	183.81
492.963	178.81
493.18	180.81
493.398	183.81
493.615	180.81
493.833	180.81
494.05	178.81
494.268	183.81
494.485	182.81
494.703	195.81
494.92	188.81
495.138	179.81
495.355	176.81
495.573	197.81
495.79	169.81
496.008	193.81
496.225	185.81
496.442	194.81
496.66	211.81
496.877	177.81
497.094	192.81
497.312	182.81
497.529	199.81
497.746	210.81
497.963	206.81
498.181	187.81
498.398	209.81
498.615	219.81
498.832	212.81
499.049	235.81
499.267	263.81
499.484	288.81
499.701	295.81
499.918	312.81
500.135	373.81
500.352	394.81
500.569	415.81
500.786	411.81
501.003	363.81
501.22	332.81
501.437	313.81
501.654	268.81
501.871	250.81
502.088	243.81
502.305	243.81
502.522	243.81
502.739	212.81
502.956	190.81
503.172	225.81
503.389	196.81
503.606	186.81
503.823	199.81
504.04	205.81
504.256	180.81
504.473	199.81
504.69	209.81
504.907	203.81
505.123	175.81
