Data from SampD_HRD10591_00050.txt Node
Date: Mon Jan 19 11:41:38 EST 2026
User: Yrep
Spectrometer: HR+D1059
Trigger mode: 0
Integration Time (sec): 3.443000E-1
Scans to average: 1
Electric dark correction enabled: true
Nonlinearity correction enabled: false
Boxcar width: 0
XAxis mode: Wavelengths
Number of Pixels in Spectrum: 2048
>>>>>Begin Spectral Data<<<<<
223.165	-18.5
223.4	-18.5
223.635	-18.5
223.869	-10.5
224.104	-21.5
224.338	-31.5
224.573	-26.5
224.808	-10.5
225.042	-5.5
225.277	-4.5
225.511	6.5
225.746	5.5
225.98	4.5
226.215	29.5
226.449	6.5
226.683	17.5
226.918	20.5
227.152	38.5
227.387	45.5
227.621	56.5
227.856	55.5
228.09	51.5
228.324	41.5
228.559	62.5
228.793	79.5
229.027	66.5
229.262	57.5
229.496	47.5
229.73	67.5
229.964	70.5
230.199	80.5
230.433	54.5
230.667	75.5
230.901	95.5
231.136	76.5
231.37	76.5
231.604	67.5
231.838	85.5
232.072	78.5
232.306	89.5
232.541	72.5
232.775	88.5
233.009	78.5
233.243	81.5
233.477	97.5
233.711	89.5
233.945	75.5
234.179	83.5
234.413	84.5
234.647	71.5
234.881	78.5
235.115	86.5
235.349	84.5
235.583	87.5
235.817	80.5
236.051	80.5
236.285	65.5
236.519	93.5
236.753	77.5
236.987	88.5
237.221	85.5
237.455	77.5
237.689	80.5
237.922	91.5
238.156	88.5
238.39	90.5
238.624	82.5
238.858	94.5
239.091	85.5
239.325	84.5
239.559	101.5
239.793	73.5
240.027	97.5
240.26	85.5
240.494	95.5
240.728	92.5
240.961	85.5
241.195	80.5
241.429	81.5
241.662	71.5
241.896	79.5
242.13	84.5
242.363	89.5
242.597	79.5
242.83	84.5
243.064	73.5
243.298	90.5
243.531	84.5
243.765	100.5
243.998	82.5
244.232	93.5
244.465	96.5
244.699	84.5
244.932	78.5
245.166	91.5
245.399	79.5
245.633	85.5
245.866	94.5
246.099	88.5
246.333	82.5
246.566	83.5
246.8	76.5
247.033	82.5
247.266	92.5
247.5	90.5
247.733	100.5
247.966	96.5
248.2	78.5
248.433	89.5
248.666	71.5
248.899	85.5
249.133	90.5
249.366	110.5
249.599	103.5
249.832	85.5
250.066	83.5
250.299	89.5
250.532	88.5
250.765	104.5
250.998	86.5
251.231	86.5
251.465	90.5
251.698	91.5
251.931	88.5
252.164	72.5
252.397	94.5
252.63	98.5
252.863	108.5
253.096	107.5
253.329	77.5
253.562	98.5
253.795	92.5
254.028	108.5
254.261	101.5
254.494	96.5
254.727	103.5
254.96	96.5
255.193	100.5
255.426	91.5
255.659	94.5
255.892	103.5
256.124	90.5
256.357	89.5
256.59	105.5
256.823	91.5
257.056	94.5
257.289	88.5
257.521	99.5
257.754	93.5
257.987	101.5
258.22	98.5
258.452	86.5
258.685	88.5
258.918	89.5
259.151	106.5
259.383	105.5
259.616	93.5
259.849	93.5
260.081	100.5
260.314	93.5
260.547	100.5
260.779	98.5
261.012	102.5
261.244	103.5
261.477	115.5
261.71	82.5
261.942	87.5
262.175	87.5
262.407	92.5
262.64	94.5
262.872	102.5
263.105	97.5
263.337	109.5
263.57	106.5
263.802	91.5
264.035	96.5
264.267	101.5
264.499	92.5
264.732	96.5
264.964	102.5
265.197	109.5
265.429	100.5
265.661	104.5
265.894	102.5
266.126	96.5
266.358	111.5
266.591	109.5
266.823	106.5
267.055	110.5
267.287	97.5
267.52	104.5
267.752	119.5
267.984	116.5
268.216	111.5
268.448	101.5
268.681	86.5
268.913	112.5
269.145	101.5
269.377	114.5
269.609	112.5
269.841	101.5
270.073	103.5
270.306	98.5
270.538	103.5
270.77	93.5
271.002	114.5
271.234	116.5
271.466	98.5
271.698	77.5
271.93	119.5
272.162	95.5
272.394	116.5
272.626	107.5
272.858	122.5
273.09	92.5
273.322	102.5
273.553	111.5
273.785	111.5
274.017	111.5
274.249	106.5
274.481	118.5
274.713	109.5
274.945	99.5
275.176	97.5
275.408	99.5
275.64	102.5
275.872	100.5
276.104	131.5
276.335	118.5
276.567	111.5
276.799	126.5
277.031	100.5
277.262	101.5
277.494	122.5
277.726	115.5
277.957	106.5
278.189	111.5
278.421	95.5
278.652	111.5
278.884	117.5
279.115	109.5
279.347	127.5
279.579	123.5
279.81	116.5
280.042	106.5
280.273	101.5
280.505	110.5
280.736	121.5
280.968	132.5
281.199	121.5
281.431	120.5
281.662	110.5
281.894	115.5
282.125	111.5
282.356	106.5
282.588	119.5
282.819	114.5
283.051	94.5
283.282	106.5
283.513	119.5
283.745	123.5
283.976	97.5
284.207	111.5
284.439	123.5
284.67	127.5
284.901	107.5
285.132	103.5
285.364	118.5
285.595	119.5
285.826	103.5
286.057	118.5
286.288	113.5
286.52	119.5
286.751	118.5
286.982	115.5
287.213	120.5
287.444	118.5
287.675	130.5
287.906	129.5
288.138	111.5
288.369	115.5
288.6	112.5
288.831	116.5
289.062	116.5
289.293	109.5
289.524	117.5
289.755	113.5
289.986	134.5
290.217	128.5
290.448	108.5
290.679	122.5
290.91	125.5
291.141	119.5
291.371	113.5
291.602	112.5
291.833	127.5
292.064	117.5
292.295	122.5
292.526	129.5
292.757	120.5
292.987	125.5
293.218	117.5
293.449	117.5
293.68	110.5
293.91	106.5
294.141	119.5
294.372	120.5
294.603	119.5
294.833	121.5
295.064	121.5
295.295	128.5
295.525	120.5
295.756	131.5
295.987	129.5
296.217	126.5
296.448	122.5
296.679	114.5
296.909	119.5
297.14	123.5
297.37	118.5
297.601	112.5
297.831	117.5
298.062	111.5
298.292	112.5
298.523	115.5
298.753	126.5
298.984	132.5
299.214	134.5
299.445	118.5
299.675	122.5
299.905	112.5
300.136	126.5
300.366	116.5
300.597	122.5
300.827	125.5
301.057	125.5
301.288	125.5
301.518	123.5
301.748	119.5
301.979	141.5
302.209	128.5
302.439	138.5
302.669	121.5
302.9	127.5
303.13	124.5
303.36	128.5
303.59	126.5
303.82	133.5
304.051	127.5
304.281	130.5
304.511	125.5
304.741	124.5
304.971	128.5
305.201	118.5
305.431	140.5
305.661	131.5
305.891	136.5
306.121	113.5
306.352	117.5
306.582	108.5
306.812	127.5
307.042	110.5
307.272	124.5
307.502	129.5
307.731	128.5
307.961	124.5
308.191	113.5
308.421	138.5
308.651	115.5
308.881	129.5
309.111	127.5
309.341	117.5
309.571	120.5
309.8	126.5
310.03	110.5
310.26	112.5
310.49	125.5
310.72	120.5
310.949	126.5
311.179	124.5
311.409	128.5
311.639	123.5
311.868	132.5
312.098	133.5
312.328	132.5
312.557	130.5
312.787	122.5
313.017	121.5
313.246	125.5
313.476	134.5
313.706	114.5
313.935	130.5
314.165	138.5
314.394	138.5
314.624	125.5
314.853	121.5
315.083	111.5
315.312	148.5
315.542	144.5
315.771	141.5
316.001	128.5
316.23	128.5
316.46	114.5
316.689	124.5
316.919	129.5
317.148	133.5
317.377	132.5
317.607	143.5
317.836	124.5
318.065	111.5
318.295	127.5
318.524	127.5
318.753	124.5
318.983	112.5
319.212	117.5
319.441	130.5
319.67	142.5
319.9	117.5
320.129	129.5
320.358	128.5
320.587	125.5
320.816	137.5
321.046	126.5
321.275	151.5
321.504	119.5
321.733	124.5
321.962	124.5
322.191	119.5
322.42	149.5
322.649	137.5
322.878	127.5
323.108	129.5
323.337	136.5
323.566	127.5
323.795	125.5
324.024	147.5
324.253	138.5
324.482	136.5
324.71	129.5
324.939	127.5
325.168	142.5
325.397	117.5
325.626	142.5
325.855	137.5
326.084	113.5
326.313	127.5
326.542	143.5
326.77	132.5
326.999	129.5
327.228	145.5
327.457	130.5
327.686	135.5
327.914	131.5
328.143	139.5
328.372	122.5
328.6	134.5
328.829	124.5
329.058	134.5
329.287	141.5
329.515	141.5
329.744	141.5
329.972	142.5
330.201	146.5
330.43	130.5
330.658	134.5
330.887	142.5
331.115	127.5
331.344	135.5
331.572	147.5
331.801	124.5
332.03	135.5
332.258	153.5
332.486	157.5
332.715	153.5
332.943	150.5
333.172	137.5
333.4	147.5
333.629	156.5
333.857	167.5
334.085	168.5
334.314	152.5
334.542	146.5
334.771	143.5
334.999	145.5
335.227	159.5
335.455	142.5
335.684	158.5
335.912	148.5
336.14	135.5
336.369	148.5
336.597	152.5
336.825	137.5
337.053	127.5
337.281	133.5
337.51	141.5
337.738	137.5
337.966	136.5
338.194	145.5
338.422	133.5
338.65	146.5
338.878	149.5
339.106	137.5
339.334	154.5
339.562	122.5
339.79	134.5
340.018	118.5
340.246	128.5
340.474	125.5
340.702	139.5
340.93	145.5
341.158	148.5
341.386	133.5
341.614	154.5
341.842	123.5
342.07	124.5
342.298	130.5
342.526	137.5
342.754	131.5
342.981	141.5
343.209	141.5
343.437	171.5
343.665	164.5
343.893	149.5
344.12	158.5
344.348	160.5
344.576	134.5
344.804	145.5
345.031	142.5
345.259	140.5
345.487	137.5
345.714	132.5
345.942	129.5
346.17	126.5
346.397	123.5
346.625	123.5
346.853	135.5
347.08	120.5
347.308	140.5
347.535	128.5
347.763	147.5
347.99	133.5
348.218	136.5
348.445	130.5
348.673	129.5
348.9	134.5
349.128	152.5
349.355	142.5
349.583	129.5
349.81	151.5
350.037	122.5
350.265	131.5
350.492	131.5
350.72	146.5
350.947	118.5
351.174	129.5
351.402	122.5
351.629	120.5
351.856	125.5
352.083	121.5
352.311	128.5
352.538	131.5
352.765	142.5
352.992	161.5
353.22	137.5
353.447	134.5
353.674	130.5
353.901	133.5
354.128	137.5
354.355	131.5
354.583	121.5
354.81	154.5
355.037	129.5
355.264	131.5
355.491	129.5
355.718	142.5
355.945	145.5
356.172	140.5
356.399	145.5
356.626	136.5
356.853	140.5
357.08	149.5
357.307	135.5
357.534	146.5
357.761	131.5
357.988	131.5
358.215	143.5
358.441	136.5
358.668	124.5
358.895	140.5
359.122	142.5
359.349	138.5
359.576	125.5
359.802	129.5
360.029	136.5
360.256	133.5
360.483	129.5
360.709	110.5
360.936	141.5
361.163	140.5
361.39	136.5
361.616	138.5
361.843	144.5
362.07	129.5
362.296	129.5
362.523	140.5
362.749	140.5
362.976	146.5
363.203	142.5
363.429	130.5
363.656	147.5
363.882	112.5
364.109	137.5
364.335	143.5
364.562	132.5
364.788	126.5
365.015	158.5
365.241	141.5
365.468	139.5
365.694	126.5
365.92	140.5
366.147	128.5
366.373	142.5
366.599	124.5
366.826	146.5
367.052	137.5
367.278	136.5
367.505	115.5
367.731	144.5
367.957	142.5
368.184	141.5
368.41	144.5
368.636	149.5
368.862	120.5
369.089	132.5
369.315	141.5
369.541	134.5
369.767	129.5
369.993	132.5
370.219	133.5
370.445	131.5
370.672	145.5
370.898	134.5
371.124	126.5
371.35	147.5
371.576	132.5
371.802	140.5
372.028	144.5
372.254	140.5
372.48	141.5
372.706	147.5
372.932	132.5
373.158	128.5
373.384	148.5
373.61	137.5
373.835	156.5
374.061	150.5
374.287	145.5
374.513	156.5
374.739	142.5
374.965	136.5
375.191	152.5
375.416	136.5
375.642	145.5
375.868	154.5
376.094	134.5
376.319	125.5
376.545	135.5
376.771	126.5
376.997	135.5
377.222	130.5
377.448	136.5
377.674	146.5
377.899	138.5
378.125	149.5
378.35	144.5
378.576	144.5
378.802	136.5
379.027	128.5
379.253	129.5
379.478	134.5
379.704	138.5
379.929	127.5
380.155	156.5
380.38	144.5
380.606	136.5
380.831	132.5
381.057	145.5
381.282	138.5
381.507	145.5
381.733	144.5
381.958	154.5
382.184	153.5
382.409	142.5
382.634	152.5
382.86	150.5
383.085	128.5
383.31	137.5
383.535	143.5
383.761	157.5
383.986	156.5
384.211	152.5
384.436	158.5
384.662	142.5
384.887	161.5
385.112	153.5
385.337	152.5
385.562	147.5
385.787	165.5
386.013	158.5
386.238	156.5
386.463	157.5
386.688	194.5
386.913	150.5
387.138	143.5
387.363	153.5
387.588	155.5
387.813	165.5
388.038	167.5
388.263	167.5
388.488	155.5
388.713	171.5
388.938	159.5
389.163	158.5
389.387	170.5
389.612	153.5
389.837	137.5
390.062	159.5
390.287	141.5
390.512	158.5
390.736	139.5
390.961	156.5
391.186	152.5
391.411	158.5
391.636	158.5
391.86	154.5
392.085	153.5
392.31	165.5
392.534	144.5
392.759	156.5
392.984	165.5
393.208	176.5
393.433	182.5
393.658	172.5
393.882	150.5
394.107	153.5
394.331	142.5
394.556	169.5
394.78	158.5
395.005	161.5
395.229	156.5
395.454	169.5
395.678	157.5
395.903	168.5
396.127	169.5
396.352	168.5
396.576	157.5
396.801	183.5
397.025	180.5
397.249	156.5
397.474	178.5
397.698	176.5
397.922	173.5
398.147	173.5
398.371	150.5
398.595	174.5
398.82	184.5
399.044	185.5
399.268	216.5
399.492	214.5
399.717	221.5
399.941	223.5
400.165	211.5
400.389	191.5
400.613	185.5
400.837	190.5
401.062	178.5
401.286	177.5
401.51	160.5
401.734	150.5
401.958	179.5
402.182	172.5
402.406	171.5
402.63	184.5
402.854	191.5
403.078	178.5
403.302	192.5
403.526	186.5
403.75	184.5
403.974	190.5
404.198	180.5
404.422	192.5
404.645	201.5
404.869	187.5
405.093	200.5
405.317	189.5
405.541	201.5
405.765	175.5
405.988	182.5
406.212	194.5
406.436	175.5
406.66	206.5
406.883	206.5
407.107	194.5
407.331	187.5
407.555	197.5
407.778	210.5
408.002	199.5
408.226	190.5
408.449	183.5
408.673	203.5
408.896	193.5
409.12	187.5
409.344	208.5
409.567	183.5
409.791	201.5
410.014	204.5
410.238	192.5
410.461	190.5
410.685	193.5
410.908	201.5
411.132	194.5
411.355	177.5
411.578	178.5
411.802	165.5
412.025	169.5
412.249	183.5
412.472	161.5
412.695	169.5
412.919	171.5
413.142	184.5
413.365	182.5
413.589	180.5
413.812	169.5
414.035	191.5
414.258	183.5
414.482	177.5
414.705	188.5
414.928	198.5
415.151	176.5
415.374	186.5
415.597	185.5
415.821	176.5
416.044	183.5
416.267	186.5
416.49	149.5
416.713	173.5
416.936	183.5
417.159	184.5
417.382	177.5
417.605	154.5
417.828	171.5
418.051	186.5
418.274	184.5
418.497	179.5
418.72	185.5
418.943	191.5
419.166	174.5
419.389	191.5
419.611	191.5
419.834	186.5
420.057	188.5
420.28	183.5
420.503	179.5
420.726	176.5
420.948	167.5
421.171	159.5
421.394	184.5
421.617	180.5
421.839	184.5
422.062	180.5
422.285	178.5
422.507	184.5
422.73	182.5
422.953	200.5
423.175	183.5
423.398	183.5
423.621	201.5
423.843	189.5
424.066	187.5
424.288	199.5
424.511	190.5
424.733	168.5
424.956	187.5
425.178	180.5
425.401	170.5
425.623	178.5
425.846	178.5
426.068	178.5
426.291	174.5
426.513	168.5
426.735	191.5
426.958	173.5
427.18	154.5
427.402	174.5
427.625	174.5
427.847	161.5
428.069	167.5
428.292	171.5
428.514	174.5
428.736	160.5
428.958	163.5
429.181	164.5
429.403	158.5
429.625	174.5
429.847	147.5
430.069	160.5
430.292	174.5
430.514	152.5
430.736	164.5
430.958	167.5
431.18	176.5
431.402	154.5
431.624	177.5
431.846	169.5
432.068	164.5
432.29	180.5
432.512	185.5
432.734	147.5
432.956	177.5
433.178	180.5
433.4	174.5
433.622	161.5
433.844	180.5
434.066	163.5
434.287	166.5
434.509	160.5
434.731	180.5
434.953	181.5
435.175	168.5
435.397	175.5
435.618	162.5
435.84	170.5
436.062	181.5
436.284	182.5
436.505	150.5
436.727	162.5
436.949	165.5
437.17	182.5
437.392	182.5
437.614	174.5
437.835	146.5
438.057	149.5
438.278	168.5
438.5	168.5
438.721	153.5
438.943	167.5
439.165	167.5
439.386	180.5
439.608	172.5
439.829	167.5
440.05	173.5
440.272	168.5
440.493	153.5
440.715	161.5
440.936	171.5
441.158	186.5
441.379	169.5
441.6	189.5
441.822	178.5
442.043	173.5
442.264	185.5
442.486	160.5
442.707	169.5
442.928	172.5
443.149	183.5
443.371	186.5
443.592	176.5
443.813	169.5
444.034	181.5
444.255	190.5
444.476	197.5
444.698	199.5
444.919	207.5
445.14	462.5
445.361	319.5
445.582	198.5
445.803	170.5
446.024	180.5
446.245	193.5
446.466	170.5
446.687	165.5
446.908	176.5
447.129	184.5
447.35	164.5
447.571	151.5
447.792	162.5
448.013	161.5
448.234	153.5
448.455	168.5
448.675	150.5
448.896	154.5
449.117	181.5
449.338	166.5
449.559	153.5
449.779	171.5
450	151.5
450.221	160.5
450.442	145.5
450.662	139.5
450.883	169.5
451.104	166.5
451.324	165.5
451.545	153.5
451.766	159.5
451.986	151.5
452.207	178.5
452.428	160.5
452.648	169.5
452.869	153.5
453.089	174.5
453.31	148.5
453.53	142.5
453.751	166.5
453.971	148.5
454.192	128.5
454.412	160.5
454.633	162.5
454.853	149.5
455.073	144.5
455.294	137.5
455.514	154.5
455.734	147.5
455.955	160.5
456.175	159.5
456.395	143.5
456.616	151.5
456.836	159.5
457.056	151.5
457.276	160.5
457.497	149.5
457.717	148.5
457.937	141.5
458.157	142.5
458.377	152.5
458.598	168.5
458.818	170.5
459.038	171.5
459.258	156.5
459.478	163.5
459.698	164.5
459.918	167.5
460.138	176.5
460.358	192.5
460.578	205.5
460.798	201.5
461.018	188.5
461.238	188.5
461.458	186.5
461.678	184.5
461.898	193.5
462.118	188.5
462.338	173.5
462.558	179.5
462.777	197.5
462.997	225.5
463.217	226.5
463.437	201.5
463.657	187.5
463.876	214.5
464.096	208.5
464.316	199.5
464.536	216.5
464.755	209.5
464.975	189.5
465.195	186.5
465.414	179.5
465.634	167.5
465.854	159.5
466.073	164.5
466.293	160.5
466.512	173.5
466.732	156.5
466.951	164.5
467.171	157.5
467.391	167.5
467.61	154.5
467.829	153.5
468.049	157.5
468.268	170.5
468.488	158.5
468.707	165.5
468.927	176.5
469.146	163.5
469.365	164.5
469.585	181.5
469.804	146.5
470.023	152.5
470.243	163.5
470.462	170.5
470.681	173.5
470.901	156.5
471.12	160.5
471.339	160.5
471.558	173.5
471.777	166.5
471.997	154.5
472.216	161.5
472.435	158.5
472.654	147.5
472.873	159.5
473.092	157.5
473.311	151.5
473.53	154.5
473.749	149.5
473.968	158.5
474.187	146.5
474.406	145.5
474.625	145.5
474.844	151.5
475.063	150.5
475.282	160.5
475.501	153.5
475.72	176.5
475.939	156.5
476.158	160.5
476.377	161.5
476.596	170.5
476.814	166.5
477.033	160.5
477.252	154.5
477.471	175.5
477.69	172.5
477.908	173.5
478.127	175.5
478.346	187.5
478.564	174.5
478.783	163.5
479.002	181.5
479.22	182.5
479.439	182.5
479.658	186.5
479.876	190.5
480.095	175.5
480.313	192.5
480.532	192.5
480.751	178.5
480.969	185.5
481.188	168.5
481.406	178.5
481.624	173.5
481.843	166.5
482.061	174.5
482.28	160.5
482.498	164.5
482.717	167.5
482.935	174.5
483.153	168.5
483.372	164.5
483.59	177.5
483.808	183.5
484.027	171.5
484.245	168.5
484.463	182.5
484.681	160.5
484.9	172.5
485.118	173.5
485.336	175.5
485.554	177.5
485.772	186.5
485.99	170.5
486.209	173.5
486.427	157.5
486.645	170.5
486.863	175.5
487.081	188.5
487.299	186.5
487.517	181.5
487.735	180.5
487.953	196.5
488.171	181.5
488.389	185.5
488.607	163.5
488.825	180.5
489.043	158.5
489.261	189.5
489.479	166.5
489.696	187.5
489.914	183.5
490.132	175.5
490.35	177.5
490.568	183.5
490.786	175.5
491.003	177.5
491.221	188.5
491.439	161.5
491.657	178.5
491.874	204.5
492.092	199.5
492.31	200.5
492.527	186.5
492.745	189.5
492.963	176.5
493.18	193.5
493.398	185.5
493.615	194.5
493.833	170.5
494.05	195.5
494.268	168.5
494.485	199.5
494.703	183.5
494.92	185.5
495.138	193.5
495.355	207.5
495.573	193.5
495.79	196.5
496.008	209.5
496.225	180.5
496.442	178.5
496.66	200.5
496.877	184.5
497.094	204.5
497.312	192.5
497.529	197.5
497.746	196.5
497.963	185.5
498.181	191.5
498.398	200.5
498.615	221.5
498.832	228.5
499.049	248.5
499.267	252.5
499.484	280.5
499.701	289.5
499.918	316.5
500.135	356.5
500.352	389.5
500.569	382.5
500.786	399.5
501.003	368.5
501.22	334.5
501.437	301.5
501.654	255.5
501.871	252.5
502.088	238.5
502.305	234.5
502.522	220.5
502.739	222.5
502.956	210.5
503.172	200.5
503.389	208.5
503.606	196.5
503.823	196.5
504.04	195.5
504.256	208.5
504.473	212.5
504.69	219.5
504.907	208.5
505.123	193.5
505.34	191.5
505.557	189.5
505.773	170.5
505.99	159.5
506.207	175.5
506.423	176.5
506.64	176.5
506.856	170.5
507.073	156.5
507.289	176.5
507.506	174.5
507.722	165.5
507.939	180.5
508.155	173.5
508.372	154.5
508.588	172.5
508.805	169.5
509.021	176.5
509.238	180.5
509.454	147.5
509.67	163.5
509.887	155.5
510.103	157.5
510.319	170.5
510.536	157.5
510.752	170.5
510.968	166.5
511.184	158.5
511.401	160.5
511.617	164.5
511.833	159.5
512.049	174.5
512.265	166.5
512.481	155.5
512.698	166.5
512.914	167.5
513.13	153.5
513.346	167.5
513.562	165.5
513.778	170.5
513.994	151.5
514.21	158.5
514.426	184.5
514.642	176.5
514.858	152.5
515.074	183.5
515.29	159.5
515.506	165.5
515.721	174.5
515.937	170.5
516.153	164.5
516.369	184.5
516.585	176.5
516.801	182.5
517.016	202.5
517.232	200.5
517.448	195.5
517.664	204.5
517.879	206.5
518.095	198.5
518.311	208.5
518.527	206.5
518.742	184.5
518.958	191.5
519.173	184.5
519.389	174.5
519.605	167.5
519.82	171.5
520.036	172.5
520.251	167.5
520.467	176.5
520.682	174.5
520.898	159.5
521.113	159.5
521.329	167.5
521.544	156.5
521.76	158.5
521.975	165.5
522.19	174.5
522.406	171.5
522.621	162.5
522.836	163.5
