Data from SampD_HRD10591_00011.txt Node
Date: Mon Jan 19 11:41:24 EST 2026
User: Yrep
Spectrometer: HR+D1059
Trigger mode: 0
Integration Time (sec): 3.443000E-1
Scans to average: 1
Electric dark correction enabled: true
Nonlinearity correction enabled: false
Boxcar width: 0
XAxis mode: Wavelengths
Number of Pixels in Spectrum: 2048
>>>>>Begin Spectral Data<<<<<
223.165	-17.06
223.4	-17.06
223.635	-17.06
223.869	-20.06
224.104	-31.06
224.338	-10.06
224.573	-8.06
224.808	-18.06
225.042	-9.06
225.277	-7.06
225.511	-4.06
225.746	16.94
225.98	-5.06
226.215	10.94
226.449	23.94
226.683	10.94
226.918	24.94
227.152	41.94
227.387	34.94
227.621	38.94
227.856	45.94
228.09	38.94
228.324	46.94
228.559	60.94
228.793	61.94
229.027	69.94
229.262	70.94
229.496	67.94
229.73	74.94
229.964	87.94
230.199	74.94
230.433	71.94
230.667	86.94
230.901	80.94
231.136	78.94
231.37	95.94
231.604	74.94
231.838	82.94
232.072	76.94
232.306	95.94
232.541	88.94
232.775	77.94
233.009	86.94
233.243	85.94
233.477	92.94
233.711	92.94
233.945	74.94
234.179	91.94
234.413	102.94
234.647	81.94
234.881	83.94
235.115	93.94
235.349	87.94
235.583	81.94
235.817	84.94
236.051	85.94
236.285	76.94
236.519	84.94
236.753	96.94
236.987	103.94
237.221	77.94
237.455	98.94
237.689	83.94
237.922	91.94
238.156	87.94
238.39	83.94
238.624	83.94
238.858	89.94
239.091	85.94
239.325	74.94
239.559	84.94
239.793	100.94
240.027	99.94
240.26	84.94
240.494	83.94
240.728	83.94
240.961	69.94
241.195	94.94
241.429	81.94
241.662	78.94
241.896	96.94
242.13	70.94
242.363	84.94
242.597	85.94
242.83	69.94
243.064	83.94
243.298	107.94
243.531	99.94
243.765	91.94
243.998	96.94
244.232	97.94
244.465	76.94
244.699	85.94
244.932	68.94
245.166	76.94
245.399	77.94
245.633	98.94
245.866	95.94
246.099	86.94
246.333	81.94
246.566	86.94
246.8	87.94
247.033	84.94
247.266	91.94
247.5	98.94
247.733	86.94
247.966	97.94
248.2	87.94
248.433	94.94
248.666	88.94
248.899	95.94
249.133	94.94
249.366	100.94
249.599	84.94
249.832	81.94
250.066	103.94
250.299	98.94
250.532	103.94
250.765	99.94
250.998	80.94
251.231	93.94
251.465	88.94
251.698	93.94
251.931	83.94
252.164	88.94
252.397	102.94
252.63	90.94
252.863	104.94
253.096	80.94
253.329	92.94
253.562	101.94
253.795	97.94
254.028	99.94
254.261	91.94
254.494	82.94
254.727	107.94
254.96	90.94
255.193	93.94
255.426	96.94
255.659	109.94
255.892	95.94
256.124	86.94
256.357	89.94
256.59	108.94
256.823	91.94
257.056	88.94
257.289	90.94
257.521	87.94
257.754	98.94
257.987	92.94
258.22	100.94
258.452	91.94
258.685	88.94
258.918	100.94
259.151	97.94
259.383	98.94
259.616	98.94
259.849	85.94
260.081	86.94
260.314	94.94
260.547	107.94
260.779	95.94
261.012	99.94
261.244	90.94
261.477	118.94
261.71	111.94
261.942	99.94
262.175	94.94
262.407	102.94
262.64	104.94
262.872	102.94
263.105	98.94
263.337	105.94
263.57	102.94
263.802	103.94
264.035	113.94
264.267	97.94
264.499	108.94
264.732	110.94
264.964	84.94
265.197	107.94
265.429	93.94
265.661	92.94
265.894	96.94
266.126	116.94
266.358	106.94
266.591	116.94
266.823	105.94
267.055	106.94
267.287	114.94
267.52	107.94
267.752	99.94
267.984	108.94
268.216	99.94
268.448	105.94
268.681	115.94
268.913	109.94
269.145	126.94
269.377	118.94
269.609	101.94
269.841	98.94
270.073	113.94
270.306	119.94
270.538	104.94
270.77	95.94
271.002	115.94
271.234	119.94
271.466	115.94
271.698	104.94
271.93	113.94
272.162	102.94
272.394	117.94
272.626	99.94
272.858	109.94
273.09	100.94
273.322	105.94
273.553	101.94
273.785	119.94
274.017	107.94
274.249	112.94
274.481	108.94
274.713	101.94
274.945	116.94
275.176	110.94
275.408	96.94
275.64	96.94
275.872	115.94
276.104	108.94
276.335	116.94
276.567	119.94
276.799	114.94
277.031	112.94
277.262	104.94
277.494	114.94
277.726	110.94
277.957	99.94
278.189	103.94
278.421	105.94
278.652	131.94
278.884	121.94
279.115	109.94
279.347	103.94
279.579	103.94
279.81	109.94
280.042	105.94
280.273	123.94
280.505	105.94
280.736	120.94
280.968	120.94
281.199	124.94
281.431	111.94
281.662	123.94
281.894	102.94
282.125	117.94
282.356	114.94
282.588	118.94
282.819	107.94
283.051	103.94
283.282	100.94
283.513	112.94
283.745	110.94
283.976	115.94
284.207	106.94
284.439	123.94
284.67	116.94
284.901	109.94
285.132	108.94
285.364	109.94
285.595	120.94
285.826	95.94
286.057	118.94
286.288	105.94
286.52	119.94
286.751	113.94
286.982	126.94
287.213	117.94
287.444	123.94
287.675	118.94
287.906	116.94
288.138	110.94
288.369	122.94
288.6	119.94
288.831	120.94
289.062	139.94
289.293	128.94
289.524	121.94
289.755	135.94
289.986	109.94
290.217	118.94
290.448	122.94
290.679	126.94
290.91	125.94
291.141	110.94
291.371	130.94
291.602	116.94
291.833	135.94
292.064	130.94
292.295	126.94
292.526	121.94
292.757	119.94
292.987	113.94
293.218	127.94
293.449	119.94
293.68	122.94
293.91	128.94
294.141	145.94
294.372	116.94
294.603	118.94
294.833	120.94
295.064	124.94
295.295	134.94
295.525	119.94
295.756	125.94
295.987	120.94
296.217	133.94
296.448	124.94
296.679	126.94
296.909	128.94
297.14	145.94
297.37	122.94
297.601	125.94
297.831	86.94
298.062	133.94
298.292	112.94
298.523	140.94
298.753	125.94
298.984	127.94
299.214	124.94
299.445	126.94
299.675	135.94
299.905	133.94
300.136	128.94
300.366	123.94
300.597	127.94
300.827	138.94
301.057	123.94
301.288	135.94
301.518	138.94
301.748	115.94
301.979	166.94
302.209	114.94
302.439	129.94
302.669	114.94
302.9	121.94
303.13	117.94
303.36	128.94
303.59	123.94
303.82	121.94
304.051	121.94
304.281	121.94
304.511	133.94
304.741	129.94
304.971	135.94
305.201	142.94
305.431	131.94
305.661	134.94
305.891	119.94
306.121	120.94
306.352	129.94
306.582	134.94
306.812	125.94
307.042	133.94
307.272	124.94
307.502	125.94
307.731	138.94
307.961	124.94
308.191	122.94
308.421	124.94
308.651	123.94
308.881	127.94
309.111	122.94
309.341	136.94
309.571	130.94
309.8	114.94
310.03	123.94
310.26	127.94
310.49	122.94
310.72	128.94
310.949	119.94
311.179	134.94
311.409	121.94
311.639	130.94
311.868	114.94
312.098	118.94
312.328	127.94
312.557	139.94
312.787	120.94
313.017	135.94
313.246	124.94
313.476	139.94
313.706	131.94
313.935	126.94
314.165	130.94
314.394	136.94
314.624	126.94
314.853	124.94
315.083	139.94
315.312	141.94
315.542	142.94
315.771	118.94
316.001	128.94
316.23	146.94
316.46	108.94
316.689	125.94
316.919	123.94
317.148	132.94
317.377	133.94
317.607	142.94
317.836	110.94
318.065	125.94
318.295	126.94
318.524	120.94
318.753	132.94
318.983	153.94
319.212	126.94
319.441	130.94
319.67	120.94
319.9	138.94
320.129	121.94
320.358	143.94
320.587	126.94
320.816	139.94
321.046	136.94
321.275	128.94
321.504	127.94
321.733	133.94
321.962	138.94
322.191	140.94
322.42	125.94
322.649	128.94
322.878	132.94
323.108	133.94
323.337	125.94
323.566	127.94
323.795	129.94
324.024	120.94
324.253	101.94
324.482	128.94
324.71	134.94
324.939	117.94
325.168	141.94
325.397	119.94
325.626	132.94
325.855	142.94
326.084	130.94
326.313	141.94
326.542	135.94
326.77	140.94
326.999	130.94
327.228	124.94
327.457	133.94
327.686	140.94
327.914	131.94
328.143	144.94
328.372	144.94
328.6	126.94
328.829	133.94
329.058	150.94
329.287	136.94
329.515	114.94
329.744	156.94
329.972	147.94
330.201	115.94
330.43	134.94
330.658	120.94
330.887	127.94
331.115	134.94
331.344	135.94
331.572	141.94
331.801	149.94
332.03	147.94
332.258	141.94
332.486	144.94
332.715	143.94
332.943	151.94
333.172	166.94
333.4	141.94
333.629	179.94
333.857	159.94
334.085	161.94
334.314	153.94
334.542	161.94
334.771	152.94
334.999	164.94
335.227	152.94
335.455	160.94
335.684	157.94
335.912	155.94
336.14	147.94
336.369	169.94
336.597	154.94
336.825	163.94
337.053	160.94
337.281	154.94
337.51	151.94
337.738	157.94
337.966	132.94
338.194	137.94
338.422	154.94
338.65	154.94
338.878	148.94
339.106	135.94
339.334	149.94
339.562	118.94
339.79	132.94
340.018	133.94
340.246	144.94
340.474	142.94
340.702	159.94
340.93	154.94
341.158	154.94
341.386	130.94
341.614	132.94
341.842	158.94
342.07	136.94
342.298	150.94
342.526	153.94
342.754	132.94
342.981	142.94
343.209	156.94
343.437	185.94
343.665	140.94
343.893	169.94
344.12	163.94
344.348	156.94
344.576	141.94
344.804	153.94
345.031	132.94
345.259	137.94
345.487	152.94
345.714	133.94
345.942	143.94
346.17	150.94
346.397	134.94
346.625	133.94
346.853	117.94
347.08	126.94
347.308	134.94
347.535	149.94
347.763	152.94
347.99	149.94
348.218	143.94
348.445	140.94
348.673	125.94
348.9	122.94
349.128	144.94
349.355	148.94
349.583	138.94
349.81	126.94
350.037	117.94
350.265	138.94
350.492	133.94
350.72	129.94
350.947	137.94
351.174	139.94
351.402	127.94
351.629	131.94
351.856	130.94
352.083	123.94
352.311	126.94
352.538	120.94
352.765	129.94
352.992	145.94
353.22	139.94
353.447	125.94
353.674	133.94
353.901	140.94
354.128	141.94
354.355	127.94
354.583	156.94
354.81	135.94
355.037	142.94
355.264	150.94
355.491	149.94
355.718	150.94
355.945	164.94
356.172	147.94
356.399	130.94
356.626	135.94
356.853	139.94
357.08	127.94
357.307	134.94
357.534	137.94
357.761	139.94
357.988	132.94
358.215	131.94
358.441	132.94
358.668	142.94
358.895	142.94
359.122	142.94
359.349	131.94
359.576	138.94
359.802	138.94
360.029	132.94
360.256	142.94
360.483	124.94
360.709	131.94
360.936	149.94
361.163	132.94
361.39	144.94
361.616	132.94
361.843	139.94
362.07	126.94
362.296	153.94
362.523	140.94
362.749	128.94
362.976	130.94
363.203	148.94
363.429	124.94
363.656	124.94
363.882	135.94
364.109	126.94
364.335	121.94
364.562	140.94
364.788	131.94
365.015	143.94
365.241	142.94
365.468	159.94
365.694	112.94
365.92	134.94
366.147	140.94
366.373	134.94
366.599	126.94
366.826	141.94
367.052	140.94
367.278	147.94
367.505	132.94
367.731	158.94
367.957	141.94
368.184	133.94
368.41	131.94
368.636	142.94
368.862	144.94
369.089	132.94
369.315	140.94
369.541	152.94
369.767	147.94
369.993	144.94
370.219	131.94
370.445	125.94
370.672	138.94
370.898	157.94
371.124	153.94
371.35	145.94
371.576	127.94
371.802	135.94
372.028	144.94
372.254	146.94
372.48	146.94
372.706	143.94
372.932	158.94
373.158	147.94
373.384	144.94
373.61	148.94
373.835	143.94
374.061	131.94
374.287	154.94
374.513	151.94
374.739	158.94
374.965	149.94
375.191	160.94
375.416	154.94
375.642	164.94
375.868	144.94
376.094	130.94
376.319	156.94
376.545	147.94
376.771	141.94
376.997	149.94
377.222	142.94
377.448	149.94
377.674	145.94
377.899	157.94
378.125	156.94
378.35	157.94
378.576	150.94
378.802	131.94
379.027	146.94
379.253	144.94
379.478	159.94
379.704	145.94
379.929	150.94
380.155	158.94
380.38	146.94
380.606	128.94
380.831	145.94
381.057	164.94
381.282	151.94
381.507	145.94
381.733	143.94
381.958	161.94
382.184	133.94
382.409	143.94
382.634	159.94
382.86	155.94
383.085	144.94
383.31	147.94
383.535	163.94
383.761	169.94
383.986	170.94
384.211	166.94
384.436	155.94
384.662	153.94
384.887	142.94
385.112	154.94
385.337	168.94
385.562	173.94
385.787	164.94
386.013	156.94
386.238	152.94
386.463	170.94
386.688	176.94
386.913	151.94
387.138	154.94
387.363	168.94
387.588	163.94
387.813	174.94
388.038	157.94
388.263	176.94
388.488	152.94
388.713	166.94
388.938	166.94
389.163	166.94
389.387	156.94
389.612	161.94
389.837	161.94
390.062	155.94
390.287	147.94
390.512	162.94
390.736	170.94
390.961	145.94
391.186	162.94
391.411	160.94
391.636	171.94
391.86	180.94
392.085	167.94
392.31	183.94
392.534	180.94
392.759	169.94
392.984	161.94
393.208	176.94
393.433	181.94
393.658	181.94
393.882	184.94
394.107	164.94
394.331	155.94
394.556	163.94
394.78	170.94
395.005	162.94
395.229	179.94
395.454	169.94
395.678	164.94
395.903	185.94
396.127	162.94
396.352	174.94
396.576	179.94
396.801	175.94
397.025	176.94
397.249	169.94
397.474	184.94
397.698	167.94
397.922	164.94
398.147	182.94
398.371	172.94
398.595	180.94
398.82	188.94
399.044	210.94
399.268	211.94
399.492	247.94
399.717	266.94
399.941	231.94
400.165	224.94
400.389	200.94
400.613	190.94
400.837	180.94
401.062	186.94
401.286	197.94
401.51	186.94
401.734	182.94
401.958	190.94
402.182	171.94
402.406	191.94
402.63	190.94
402.854	199.94
403.078	198.94
403.302	186.94
403.526	211.94
403.75	196.94
403.974	200.94
404.198	207.94
404.422	193.94
404.645	204.94
404.869	207.94
405.093	203.94
405.317	200.94
405.541	205.94
405.765	202.94
405.988	190.94
406.212	195.94
406.436	209.94
406.66	202.94
406.883	212.94
407.107	208.94
407.331	218.94
407.555	224.94
407.778	220.94
408.002	204.94
408.226	210.94
408.449	213.94
408.673	192.94
408.896	197.94
409.12	200.94
409.344	209.94
409.567	194.94
409.791	208.94
410.014	211.94
410.238	204.94
410.461	199.94
410.685	187.94
410.908	192.94
411.132	206.94
411.355	180.94
411.578	200.94
411.802	178.94
412.025	176.94
412.249	182.94
412.472	194.94
412.695	179.94
412.919	187.94
413.142	192.94
413.365	189.94
413.589	173.94
413.812	180.94
414.035	193.94
414.258	190.94
414.482	191.94
414.705	184.94
414.928	194.94
415.151	182.94
415.374	190.94
415.597	181.94
415.821	187.94
416.044	181.94
416.267	184.94
416.49	184.94
416.713	178.94
416.936	176.94
417.159	176.94
417.382	175.94
417.605	183.94
417.828	186.94
418.051	200.94
418.274	211.94
418.497	188.94
418.72	188.94
418.943	176.94
419.166	216.94
419.389	194.94
419.611	192.94
419.834	187.94
420.057	189.94
420.28	196.94
420.503	198.94
420.726	190.94
420.948	187.94
421.171	191.94
421.394	199.94
421.617	184.94
421.839	174.94
422.062	182.94
422.285	179.94
422.507	204.94
422.73	204.94
422.953	189.94
423.175	189.94
423.398	212.94
423.621	204.94
423.843	197.94
424.066	182.94
424.288	214.94
424.511	188.94
424.733	198.94
424.956	202.94
425.178	188.94
425.401	182.94
425.623	181.94
425.846	188.94
426.068	182.94
426.291	194.94
426.513	181.94
426.735	178.94
426.958	183.94
427.18	171.94
427.402	180.94
427.625	182.94
427.847	167.94
428.069	180.94
428.292	178.94
428.514	183.94
428.736	178.94
428.958	182.94
429.181	172.94
429.403	178.94
429.625	170.94
429.847	156.94
430.069	184.94
430.292	176.94
430.514	178.94
430.736	174.94
430.958	170.94
431.18	166.94
431.402	180.94
431.624	162.94
431.846	166.94
432.068	175.94
432.29	187.94
432.512	169.94
432.734	171.94
432.956	175.94
433.178	183.94
433.4	182.94
433.622	177.94
433.844	196.94
434.066	184.94
434.287	188.94
434.509	174.94
434.731	183.94
434.953	178.94
435.175	190.94
435.397	186.94
435.618	174.94
435.84	174.94
436.062	164.94
436.284	176.94
436.505	175.94
436.727	175.94
436.949	173.94
437.17	187.94
437.392	174.94
437.614	168.94
437.835	177.94
438.057	157.94
438.278	168.94
438.5	160.94
438.721	155.94
438.943	171.94
439.165	190.94
439.386	179.94
439.608	185.94
439.829	173.94
440.05	172.94
440.272	168.94
440.493	171.94
440.715	174.94
440.936	189.94
441.158	191.94
441.379	181.94
441.6	181.94
441.822	184.94
442.043	200.94
442.264	180.94
442.486	191.94
442.707	194.94
442.928	188.94
443.149	177.94
443.371	196.94
443.592	199.94
443.813	198.94
444.034	186.94
444.255	187.94
444.476	206.94
444.698	210.94
444.919	198.94
445.14	455.94
445.361	307.94
445.582	190.94
445.803	169.94
446.024	178.94
446.245	206.94
446.466	176.94
446.687	181.94
446.908	180.94
447.129	172.94
447.35	177.94
447.571	168.94
447.792	157.94
448.013	173.94
448.234	166.94
448.455	168.94
448.675	158.94
448.896	162.94
449.117	187.94
449.338	167.94
449.559	168.94
449.779	165.94
450	175.94
450.221	156.94
450.442	164.94
450.662	174.94
450.883	163.94
451.104	178.94
451.324	168.94
451.545	187.94
451.766	152.94
451.986	174.94
452.207	165.94
452.428	165.94
452.648	179.94
452.869	166.94
453.089	174.94
453.31	150.94
453.53	153.94
453.751	162.94
453.971	147.94
454.192	151.94
454.412	151.94
454.633	158.94
454.853	166.94
455.073	133.94
455.294	142.94
455.514	163.94
455.734	157.94
455.955	166.94
456.175	172.94
456.395	169.94
456.616	168.94
456.836	165.94
457.056	148.94
457.276	151.94
457.497	148.94
457.717	160.94
457.937	164.94
458.157	165.94
458.377	140.94
458.598	161.94
458.818	163.94
459.038	179.94
459.258	169.94
459.478	165.94
459.698	169.94
459.918	176.94
460.138	168.94
460.358	179.94
460.578	202.94
460.798	212.94
461.018	196.94
461.238	190.94
461.458	193.94
461.678	191.94
461.898	199.94
462.118	206.94
462.338	209.94
462.558	204.94
462.777	224.94
462.997	229.94
463.217	238.94
463.437	241.94
463.657	222.94
463.876	206.94
464.096	210.94
464.316	214.94
464.536	202.94
464.755	204.94
464.975	210.94
465.195	195.94
465.414	182.94
465.634	202.94
465.854	186.94
466.073	160.94
466.293	175.94
466.512	168.94
466.732	170.94
466.951	160.94
467.171	173.94
467.391	169.94
467.61	181.94
467.829	172.94
468.049	171.94
468.268	167.94
468.488	164.94
468.707	165.94
468.927	169.94
469.146	173.94
469.365	142.94
469.585	178.94
469.804	167.94
470.023	160.94
470.243	162.94
470.462	200.94
470.681	179.94
470.901	174.94
471.12	174.94
471.339	182.94
471.558	167.94
471.777	168.94
471.997	173.94
472.216	172.94
472.435	164.94
472.654	176.94
472.873	174.94
473.092	169.94
473.311	155.94
473.53	167.94
473.749	170.94
473.968	178.94
474.187	171.94
474.406	174.94
474.625	170.94
474.844	167.94
475.063	163.94
475.282	168.94
475.501	174.94
475.72	185.94
475.939	167.94
476.158	155.94
476.377	165.94
476.596	161.94
476.814	170.94
477.033	166.94
477.252	159.94
477.471	168.94
477.69	181.94
477.908	191.94
478.127	186.94
478.346	185.94
478.564	179.94
478.783	183.94
479.002	184.94
479.22	184.94
479.439	198.94
479.658	193.94
479.876	192.94
480.095	197.94
480.313	197.94
480.532	219.94
480.751	176.94
480.969	181.94
481.188	181.94
481.406	187.94
481.624	176.94
481.843	178.94
482.061	179.94
482.28	174.94
482.498	158.94
482.717	173.94
482.935	179.94
483.153	187.94
483.372	187.94
483.59	183.94
483.808	194.94
484.027	192.94
484.245	181.94
484.463	182.94
484.681	205.94
484.9	190.94
485.118	206.94
485.336	179.94
485.554	195.94
485.772	190.94
485.99	190.94
486.209	181.94
486.427	186.94
486.645	187.94
486.863	188.94
487.081	169.94
487.299	187.94
487.517	175.94
487.735	187.94
487.953	189.94
488.171	186.94
488.389	176.94
488.607	172.94
488.825	177.94
489.043	192.94
489.261	169.94
489.479	181.94
489.696	187.94
489.914	177.94
490.132	193.94
490.35	185.94
490.568	186.94
490.786	183.94
491.003	168.94
491.221	185.94
491.439	172.94
491.657	182.94
491.874	179.94
492.092	189.94
492.31	184.94
492.527	175.94
492.745	210.94
492.963	207.94
493.18	209.94
493.398	207.94
493.615	190.94
493.833	206.94
494.05	199.94
494.268	206.94
494.485	199.94
494.703	199.94
494.92	180.94
495.138	203.94
495.355	196.94
495.573	195.94
495.79	180.94
496.008	192.94
496.225	191.94
496.442	187.94
496.66	220.94
496.877	189.94
497.094	217.94
497.312	203.94
497.529	195.94
497.746	212.94
497.963	206.94
498.181	220.94
498.398	222.94
498.615	226.94
498.832	252.94
499.049	259.94
499.267	260.94
499.484	295.94
499.701	328.94
499.918	354.94
500.135	402.94
500.352	432.94
500.569	452.94
500.786	423.94
501.003	382.94
501.22	362.94
501.437	321.94
501.654	302.94
501.871	274.94
502.088	260.94
502.305	268.94
502.522	242.94
502.739	246.94
502.956	229.94
503.172	227.94
503.389	229.94
503.606	210.94
503.823	208.94
504.04	209.94
504.256	227.94
504.473	216.94
504.69	229.94
