Data from SampD_HRD10591_00046.txt Node
Date: Mon Jan 19 11:41:36 EST 2026
User: Yrep
Spectrometer: HR+D1059
Trigger mode: 0
Integration Time (sec): 3.443000E-1
Scans to average: 1
Electric dark correction enabled: true
Nonlinearity correction enabled: false
Boxcar width: 0
XAxis mode: Wavelengths
Number of Pixels in Spectrum: 2048
>>>>>Begin Spectral Data<<<<<
223.165	-32.88
223.4	-32.88
223.635	-32.88
223.869	-20.88
224.104	-21.88
224.338	-5.88
224.573	-13.88
224.808	-10.88
225.042	-7.88
225.277	2.12
225.511	2.12
225.746	19.12
225.98	4.12
226.215	19.12
226.449	11.12
226.683	13.12
226.918	21.12
227.152	22.12
227.387	31.12
227.621	43.12
227.856	52.12
228.09	47.12
228.324	46.12
228.559	54.12
228.793	51.12
229.027	74.12
229.262	74.12
229.496	86.12
229.73	70.12
229.964	83.12
230.199	76.12
230.433	76.12
230.667	86.12
230.901	57.12
231.136	91.12
231.37	82.12
231.604	94.12
231.838	78.12
232.072	85.12
232.306	84.12
232.541	81.12
232.775	78.12
233.009	106.12
233.243	81.12
233.477	85.12
233.711	77.12
233.945	76.12
234.179	95.12
234.413	97.12
234.647	76.12
234.881	77.12
235.115	83.12
235.349	70.12
235.583	99.12
235.817	87.12
236.051	83.12
236.285	82.12
236.519	77.12
236.753	94.12
236.987	69.12
237.221	82.12
237.455	85.12
237.689	70.12
237.922	79.12
238.156	83.12
238.39	72.12
238.624	78.12
238.858	80.12
239.091	86.12
239.325	76.12
239.559	84.12
239.793	72.12
240.027	101.12
240.26	86.12
240.494	92.12
240.728	76.12
240.961	93.12
241.195	98.12
241.429	82.12
241.662	78.12
241.896	78.12
242.13	91.12
242.363	77.12
242.597	90.12
242.83	88.12
243.064	87.12
243.298	70.12
243.531	86.12
243.765	92.12
243.998	92.12
244.232	98.12
244.465	93.12
244.699	96.12
244.932	99.12
245.166	86.12
245.399	70.12
245.633	105.12
245.866	69.12
246.099	83.12
246.333	97.12
246.566	69.12
246.8	99.12
247.033	78.12
247.266	90.12
247.5	87.12
247.733	93.12
247.966	88.12
248.2	105.12
248.433	82.12
248.666	89.12
248.899	98.12
249.133	82.12
249.366	94.12
249.599	93.12
249.832	85.12
250.066	93.12
250.299	103.12
250.532	108.12
250.765	86.12
250.998	82.12
251.231	79.12
251.465	101.12
251.698	91.12
251.931	93.12
252.164	94.12
252.397	104.12
252.63	85.12
252.863	86.12
253.096	92.12
253.329	84.12
253.562	83.12
253.795	90.12
254.028	102.12
254.261	96.12
254.494	100.12
254.727	103.12
254.96	74.12
255.193	103.12
255.426	71.12
255.659	98.12
255.892	103.12
256.124	100.12
256.357	112.12
256.59	106.12
256.823	98.12
257.056	94.12
257.289	78.12
257.521	95.12
257.754	85.12
257.987	83.12
258.22	85.12
258.452	101.12
258.685	99.12
258.918	99.12
259.151	94.12
259.383	102.12
259.616	103.12
259.849	95.12
260.081	100.12
260.314	101.12
260.547	84.12
260.779	87.12
261.012	111.12
261.244	110.12
261.477	116.12
261.71	86.12
261.942	103.12
262.175	102.12
262.407	95.12
262.64	105.12
262.872	92.12
263.105	94.12
263.337	96.12
263.57	96.12
263.802	92.12
264.035	86.12
264.267	96.12
264.499	103.12
264.732	96.12
264.964	98.12
265.197	91.12
265.429	115.12
265.661	94.12
265.894	94.12
266.126	98.12
266.358	117.12
266.591	111.12
266.823	104.12
267.055	98.12
267.287	105.12
267.52	107.12
267.752	112.12
267.984	101.12
268.216	91.12
268.448	108.12
268.681	111.12
268.913	118.12
269.145	99.12
269.377	103.12
269.609	98.12
269.841	105.12
270.073	120.12
270.306	107.12
270.538	101.12
270.77	91.12
271.002	84.12
271.234	110.12
271.466	108.12
271.698	87.12
271.93	96.12
272.162	110.12
272.394	110.12
272.626	106.12
272.858	112.12
273.09	107.12
273.322	104.12
273.553	99.12
273.785	105.12
274.017	108.12
274.249	118.12
274.481	92.12
274.713	105.12
274.945	107.12
275.176	102.12
275.408	105.12
275.64	114.12
275.872	105.12
276.104	123.12
276.335	102.12
276.567	121.12
276.799	98.12
277.031	120.12
277.262	111.12
277.494	109.12
277.726	100.12
277.957	103.12
278.189	108.12
278.421	121.12
278.652	111.12
278.884	105.12
279.115	121.12
279.347	127.12
279.579	114.12
279.81	99.12
280.042	107.12
280.273	102.12
280.505	107.12
280.736	99.12
280.968	109.12
281.199	130.12
281.431	114.12
281.662	108.12
281.894	99.12
282.125	108.12
282.356	102.12
282.588	106.12
282.819	115.12
283.051	102.12
283.282	128.12
283.513	131.12
283.745	106.12
283.976	99.12
284.207	116.12
284.439	128.12
284.67	125.12
284.901	113.12
285.132	116.12
285.364	113.12
285.595	116.12
285.826	108.12
286.057	116.12
286.288	110.12
286.52	114.12
286.751	110.12
286.982	116.12
287.213	108.12
287.444	108.12
287.675	117.12
287.906	110.12
288.138	117.12
288.369	119.12
288.6	116.12
288.831	123.12
289.062	128.12
289.293	127.12
289.524	111.12
289.755	119.12
289.986	115.12
290.217	116.12
290.448	124.12
290.679	122.12
290.91	118.12
291.141	123.12
291.371	117.12
291.602	119.12
291.833	108.12
292.064	122.12
292.295	119.12
292.526	113.12
292.757	118.12
292.987	118.12
293.218	112.12
293.449	118.12
293.68	125.12
293.91	113.12
294.141	104.12
294.372	124.12
294.603	134.12
294.833	124.12
295.064	114.12
295.295	111.12
295.525	116.12
295.756	117.12
295.987	119.12
296.217	129.12
296.448	106.12
296.679	116.12
296.909	128.12
297.14	104.12
297.37	134.12
297.601	117.12
297.831	126.12
298.062	135.12
298.292	110.12
298.523	131.12
298.753	121.12
298.984	117.12
299.214	142.12
299.445	131.12
299.675	130.12
299.905	128.12
300.136	111.12
300.366	95.12
300.597	130.12
300.827	103.12
301.057	107.12
301.288	104.12
301.518	122.12
301.748	136.12
301.979	165.12
302.209	133.12
302.439	131.12
302.669	123.12
302.9	136.12
303.13	129.12
303.36	129.12
303.59	130.12
303.82	117.12
304.051	122.12
304.281	125.12
304.511	122.12
304.741	134.12
304.971	125.12
305.201	137.12
305.431	129.12
305.661	119.12
305.891	120.12
306.121	123.12
306.352	115.12
306.582	119.12
306.812	117.12
307.042	124.12
307.272	117.12
307.502	123.12
307.731	126.12
307.961	114.12
308.191	128.12
308.421	130.12
308.651	116.12
308.881	122.12
309.111	128.12
309.341	131.12
309.571	119.12
309.8	119.12
310.03	123.12
310.26	117.12
310.49	120.12
310.72	128.12
310.949	126.12
311.179	121.12
311.409	111.12
311.639	119.12
311.868	122.12
312.098	129.12
312.328	142.12
312.557	131.12
312.787	137.12
313.017	126.12
313.246	127.12
313.476	130.12
313.706	139.12
313.935	119.12
314.165	104.12
314.394	123.12
314.624	124.12
314.853	136.12
315.083	119.12
315.312	143.12
315.542	123.12
315.771	133.12
316.001	113.12
316.23	114.12
316.46	133.12
316.689	125.12
316.919	118.12
317.148	124.12
317.377	118.12
317.607	127.12
317.836	120.12
318.065	134.12
318.295	123.12
318.524	132.12
318.753	127.12
318.983	134.12
319.212	145.12
319.441	116.12
319.67	137.12
319.9	129.12
320.129	127.12
320.358	128.12
320.587	131.12
320.816	118.12
321.046	120.12
321.275	130.12
321.504	111.12
321.733	129.12
321.962	132.12
322.191	139.12
322.42	110.12
322.649	114.12
322.878	119.12
323.108	121.12
323.337	129.12
323.566	133.12
323.795	141.12
324.024	127.12
324.253	135.12
324.482	127.12
324.71	135.12
324.939	134.12
325.168	130.12
325.397	137.12
325.626	114.12
325.855	148.12
326.084	128.12
326.313	127.12
326.542	135.12
326.77	116.12
326.999	127.12
327.228	132.12
327.457	121.12
327.686	141.12
327.914	125.12
328.143	135.12
328.372	129.12
328.6	135.12
328.829	128.12
329.058	117.12
329.287	125.12
329.515	124.12
329.744	140.12
329.972	123.12
330.201	132.12
330.43	122.12
330.658	116.12
330.887	142.12
331.115	139.12
331.344	144.12
331.572	154.12
331.801	128.12
332.03	128.12
332.258	147.12
332.486	149.12
332.715	142.12
332.943	141.12
333.172	172.12
333.4	154.12
333.629	150.12
333.857	154.12
334.085	145.12
334.314	140.12
334.542	159.12
334.771	144.12
334.999	159.12
335.227	151.12
335.455	155.12
335.684	160.12
335.912	140.12
336.14	135.12
336.369	139.12
336.597	142.12
336.825	150.12
337.053	140.12
337.281	146.12
337.51	140.12
337.738	145.12
337.966	126.12
338.194	127.12
338.422	120.12
338.65	132.12
338.878	130.12
339.106	126.12
339.334	147.12
339.562	138.12
339.79	131.12
340.018	138.12
340.246	140.12
340.474	129.12
340.702	136.12
340.93	141.12
341.158	135.12
341.386	133.12
341.614	141.12
341.842	126.12
342.07	122.12
342.298	125.12
342.526	143.12
342.754	128.12
342.981	125.12
343.209	131.12
343.437	172.12
343.665	142.12
343.893	151.12
344.12	161.12
344.348	146.12
344.576	151.12
344.804	130.12
345.031	138.12
345.259	129.12
345.487	136.12
345.714	143.12
345.942	129.12
346.17	137.12
346.397	133.12
346.625	129.12
346.853	129.12
347.08	138.12
347.308	151.12
347.535	134.12
347.763	128.12
347.99	132.12
348.218	134.12
348.445	131.12
348.673	128.12
348.9	125.12
349.128	156.12
349.355	140.12
349.583	119.12
349.81	132.12
350.037	131.12
350.265	118.12
350.492	134.12
350.72	147.12
350.947	140.12
351.174	130.12
351.402	120.12
351.629	137.12
351.856	133.12
352.083	139.12
352.311	120.12
352.538	120.12
352.765	117.12
352.992	154.12
353.22	131.12
353.447	118.12
353.674	130.12
353.901	149.12
354.128	139.12
354.355	138.12
354.583	151.12
354.81	142.12
355.037	145.12
355.264	132.12
355.491	130.12
355.718	144.12
355.945	134.12
356.172	131.12
356.399	138.12
356.626	122.12
356.853	123.12
357.08	154.12
357.307	148.12
357.534	143.12
357.761	125.12
357.988	145.12
358.215	146.12
358.441	133.12
358.668	134.12
358.895	129.12
359.122	120.12
359.349	134.12
359.576	143.12
359.802	134.12
360.029	150.12
360.256	141.12
360.483	124.12
360.709	123.12
360.936	145.12
361.163	134.12
361.39	132.12
361.616	142.12
361.843	135.12
362.07	128.12
362.296	151.12
362.523	139.12
362.749	133.12
362.976	131.12
363.203	148.12
363.429	130.12
363.656	134.12
363.882	146.12
364.109	150.12
364.335	136.12
364.562	132.12
364.788	132.12
365.015	128.12
365.241	119.12
365.468	130.12
365.694	125.12
365.92	140.12
366.147	146.12
366.373	126.12
366.599	144.12
366.826	136.12
367.052	129.12
367.278	145.12
367.505	123.12
367.731	154.12
367.957	125.12
368.184	133.12
368.41	118.12
368.636	132.12
368.862	126.12
369.089	127.12
369.315	128.12
369.541	145.12
369.767	145.12
369.993	122.12
370.219	132.12
370.445	134.12
370.672	122.12
370.898	139.12
371.124	129.12
371.35	154.12
371.576	149.12
371.802	142.12
372.028	122.12
372.254	151.12
372.48	147.12
372.706	142.12
372.932	135.12
373.158	134.12
373.384	127.12
373.61	141.12
373.835	136.12
374.061	156.12
374.287	145.12
374.513	127.12
374.739	147.12
374.965	135.12
375.191	145.12
375.416	156.12
375.642	154.12
375.868	159.12
376.094	152.12
376.319	152.12
376.545	134.12
376.771	133.12
376.997	124.12
377.222	144.12
377.448	147.12
377.674	143.12
377.899	130.12
378.125	122.12
378.35	139.12
378.576	163.12
378.802	145.12
379.027	128.12
379.253	130.12
379.478	127.12
379.704	152.12
379.929	139.12
380.155	158.12
380.38	135.12
380.606	139.12
380.831	152.12
381.057	161.12
381.282	144.12
381.507	129.12
381.733	140.12
381.958	143.12
382.184	150.12
382.409	144.12
382.634	141.12
382.86	154.12
383.085	155.12
383.31	135.12
383.535	147.12
383.761	131.12
383.986	147.12
384.211	155.12
384.436	155.12
384.662	159.12
384.887	150.12
385.112	160.12
385.337	157.12
385.562	158.12
385.787	143.12
386.013	160.12
386.238	180.12
386.463	162.12
386.688	178.12
386.913	161.12
387.138	146.12
387.363	164.12
387.588	153.12
387.813	153.12
388.038	142.12
388.263	154.12
388.488	144.12
388.713	146.12
388.938	156.12
389.163	148.12
389.387	145.12
389.612	164.12
389.837	160.12
390.062	166.12
390.287	149.12
390.512	162.12
390.736	146.12
390.961	148.12
391.186	172.12
391.411	174.12
391.636	159.12
391.86	159.12
392.085	172.12
392.31	152.12
392.534	158.12
392.759	156.12
392.984	157.12
393.208	170.12
393.433	182.12
393.658	162.12
393.882	157.12
394.107	164.12
394.331	158.12
394.556	177.12
394.78	155.12
395.005	163.12
395.229	152.12
395.454	163.12
395.678	162.12
395.903	159.12
396.127	166.12
396.352	164.12
396.576	174.12
396.801	163.12
397.025	166.12
397.249	154.12
397.474	172.12
397.698	150.12
397.922	157.12
398.147	167.12
398.371	172.12
398.595	174.12
398.82	179.12
399.044	189.12
399.268	195.12
399.492	228.12
399.717	218.12
399.941	211.12
400.165	206.12
400.389	206.12
400.613	174.12
400.837	168.12
401.062	179.12
401.286	166.12
401.51	176.12
401.734	186.12
401.958	169.12
402.182	170.12
402.406	181.12
402.63	196.12
402.854	164.12
403.078	180.12
403.302	203.12
403.526	192.12
403.75	200.12
403.974	169.12
404.198	180.12
404.422	203.12
404.645	183.12
404.869	192.12
405.093	190.12
405.317	178.12
405.541	198.12
405.765	175.12
405.988	177.12
406.212	188.12
406.436	174.12
406.66	198.12
406.883	207.12
407.107	199.12
407.331	200.12
407.555	198.12
407.778	199.12
408.002	215.12
408.226	189.12
408.449	194.12
408.673	198.12
408.896	192.12
409.12	194.12
409.344	183.12
409.567	189.12
409.791	201.12
410.014	188.12
410.238	183.12
410.461	169.12
410.685	200.12
410.908	190.12
411.132	181.12
411.355	181.12
411.578	174.12
411.802	190.12
412.025	186.12
412.249	183.12
412.472	159.12
412.695	167.12
412.919	169.12
413.142	171.12
413.365	168.12
413.589	170.12
413.812	179.12
414.035	174.12
414.258	182.12
414.482	168.12
414.705	178.12
414.928	172.12
415.151	198.12
415.374	180.12
415.597	164.12
415.821	180.12
416.044	177.12
416.267	186.12
416.49	170.12
416.713	180.12
416.936	186.12
417.159	164.12
417.382	170.12
417.605	176.12
417.828	185.12
418.051	185.12
418.274	185.12
418.497	180.12
418.72	184.12
418.943	199.12
419.166	210.12
419.389	197.12
419.611	192.12
419.834	188.12
420.057	186.12
420.28	185.12
420.503	171.12
420.726	163.12
420.948	173.12
421.171	179.12
421.394	167.12
421.617	172.12
421.839	170.12
422.062	178.12
422.285	172.12
422.507	184.12
422.73	183.12
422.953	177.12
423.175	199.12
423.398	182.12
423.621	183.12
423.843	183.12
424.066	187.12
424.288	200.12
424.511	183.12
424.733	184.12
424.956	172.12
425.178	187.12
425.401	184.12
425.623	170.12
425.846	166.12
426.068	179.12
426.291	172.12
426.513	177.12
426.735	181.12
426.958	166.12
427.18	167.12
427.402	178.12
427.625	175.12
427.847	154.12
428.069	172.12
428.292	168.12
428.514	167.12
428.736	168.12
428.958	171.12
429.181	186.12
429.403	176.12
429.625	168.12
429.847	147.12
430.069	167.12
430.292	180.12
430.514	140.12
430.736	176.12
430.958	184.12
431.18	177.12
431.402	177.12
431.624	176.12
431.846	159.12
432.068	165.12
432.29	157.12
432.512	174.12
432.734	172.12
432.956	182.12
433.178	174.12
433.4	179.12
433.622	180.12
433.844	157.12
434.066	151.12
434.287	174.12
434.509	166.12
434.731	179.12
434.953	173.12
435.175	196.12
435.397	185.12
435.618	172.12
435.84	169.12
436.062	166.12
436.284	167.12
436.505	158.12
436.727	165.12
436.949	168.12
437.17	169.12
437.392	159.12
437.614	158.12
437.835	161.12
438.057	134.12
438.278	166.12
438.5	178.12
438.721	164.12
438.943	168.12
439.165	158.12
439.386	150.12
439.608	161.12
439.829	172.12
440.05	168.12
440.272	175.12
440.493	166.12
440.715	172.12
440.936	187.12
441.158	182.12
441.379	180.12
441.6	186.12
441.822	198.12
442.043	188.12
442.264	171.12
442.486	177.12
442.707	181.12
442.928	175.12
443.149	186.12
443.371	179.12
443.592	184.12
443.813	186.12
444.034	180.12
444.255	191.12
444.476	196.12
444.698	194.12
444.919	207.12
445.14	424.12
445.361	314.12
445.582	186.12
445.803	172.12
446.024	192.12
446.245	192.12
446.466	172.12
446.687	171.12
446.908	189.12
447.129	172.12
447.35	172.12
447.571	165.12
447.792	175.12
448.013	167.12
448.234	166.12
448.455	150.12
448.675	154.12
448.896	159.12
449.117	141.12
449.338	144.12
449.559	154.12
449.779	167.12
450	141.12
450.221	159.12
450.442	148.12
450.662	152.12
450.883	150.12
451.104	176.12
451.324	152.12
451.545	163.12
451.766	159.12
451.986	159.12
452.207	154.12
452.428	160.12
452.648	159.12
452.869	147.12
453.089	160.12
453.31	141.12
453.53	151.12
453.751	159.12
453.971	175.12
454.192	150.12
454.412	151.12
454.633	138.12
454.853	148.12
455.073	164.12
455.294	154.12
455.514	144.12
455.734	138.12
455.955	158.12
456.175	159.12
456.395	156.12
456.616	143.12
456.836	147.12
457.056	149.12
457.276	131.12
457.497	135.12
457.717	164.12
457.937	143.12
458.157	160.12
458.377	159.12
458.598	167.12
458.818	159.12
459.038	175.12
459.258	158.12
459.478	152.12
459.698	170.12
459.918	173.12
460.138	184.12
460.358	198.12
460.578	191.12
460.798	189.12
461.018	179.12
461.238	184.12
461.458	186.12
461.678	188.12
461.898	192.12
462.118	195.12
462.338	181.12
462.558	219.12
462.777	211.12
462.997	206.12
463.217	227.12
463.437	213.12
463.657	207.12
463.876	204.12
464.096	188.12
464.316	184.12
464.536	197.12
464.755	193.12
464.975	198.12
465.195	196.12
465.414	180.12
465.634	172.12
465.854	160.12
466.073	164.12
466.293	158.12
466.512	161.12
466.732	165.12
466.951	173.12
467.171	172.12
467.391	159.12
467.61	158.12
467.829	168.12
468.049	166.12
468.268	157.12
468.488	164.12
468.707	160.12
468.927	174.12
469.146	162.12
469.365	159.12
469.585	170.12
469.804	156.12
470.023	166.12
470.243	168.12
470.462	173.12
470.681	160.12
470.901	167.12
471.12	180.12
471.339	177.12
471.558	175.12
471.777	173.12
471.997	165.12
472.216	170.12
472.435	169.12
472.654	158.12
472.873	174.12
473.092	165.12
473.311	148.12
473.53	154.12
473.749	162.12
473.968	151.12
474.187	158.12
474.406	160.12
474.625	158.12
474.844	174.12
475.063	167.12
475.282	165.12
475.501	143.12
475.72	170.12
475.939	167.12
476.158	176.12
476.377	164.12
476.596	159.12
476.814	165.12
477.033	167.12
477.252	179.12
477.471	176.12
477.69	177.12
477.908	160.12
478.127	178.12
478.346	172.12
478.564	183.12
478.783	175.12
479.002	187.12
479.22	184.12
479.439	196.12
479.658	176.12
479.876	191.12
480.095	193.12
480.313	187.12
480.532	175.12
480.751	165.12
480.969	179.12
481.188	184.12
481.406	182.12
481.624	186.12
481.843	175.12
482.061	179.12
482.28	164.12
482.498	164.12
482.717	172.12
482.935	181.12
483.153	170.12
483.372	179.12
483.59	180.12
483.808	170.12
484.027	179.12
484.245	175.12
484.463	181.12
484.681	181.12
484.9	183.12
485.118	178.12
485.336	172.12
485.554	189.12
485.772	174.12
485.99	179.12
486.209	186.12
486.427	183.12
486.645	179.12
486.863	200.12
487.081	188.12
487.299	174.12
487.517	191.12
487.735	187.12
487.953	184.12
488.171	179.12
488.389	168.12
488.607	181.12
488.825	186.12
489.043	172.12
489.261	191.12
489.479	172.12
489.696	186.12
489.914	175.12
490.132	176.12
490.35	171.12
490.568	182.12
490.786	182.12
491.003	176.12
491.221	186.12
491.439	182.12
491.657	183.12
491.874	182.12
492.092	172.12
492.31	196.12
492.527	187.12
492.745	182.12
492.963	176.12
493.18	186.12
493.398	199.12
493.615	183.12
493.833	187.12
494.05	191.12
494.268	195.12
494.485	194.12
494.703	175.12
494.92	195.12
495.138	186.12
495.355	180.12
495.573	197.12
495.79	184.12
496.008	191.12
496.225	184.12
496.442	186.12
496.66	203.12
496.877	200.12
497.094	195.12
497.312	183.12
497.529	199.12
497.746	205.12
497.963	192.12
498.181	192.12
498.398	220.12
498.615	226.12
498.832	231.12
499.049	241.12
499.267	258.12
499.484	271.12
499.701	320.12
499.918	333.12
500.135	357.12
500.352	408.12
500.569	428.12
500.786	412.12
501.003	392.12
501.22	325.12
501.437	298.12
501.654	263.12
501.871	235.12
502.088	236.12
502.305	262.12
502.522	231.12
502.739	215.12
502.956	214.12
503.172	209.12
503.389	197.12
503.606	169.12
503.823	208.12
504.04	215.12
504.256	204.12
504.473	191.12
504.69	205.12
