Data from SampD_HRD10591_00010.txt Node
Date: Mon Jan 19 11:41:24 EST 2026
User: Yrep
Spectrometer: HR+D1059
Trigger mode: 0
Integration Time (sec): 3.443000E-1
Scans to average: 1
Electric dark correction enabled: true
Nonlinearity correction enabled: false
Boxcar width: 0
XAxis mode: Wavelengths
Number of Pixels in Spectrum: 2048
>>>>>Begin Spectral Data<<<<<
223.165	-14.25
223.4	-14.25
223.635	-14.25
223.869	-24.25
224.104	-31.25
224.338	-23.25
224.573	-1.25
224.808	-11.25
225.042	10.75
225.277	-4.25
225.511	-0.25
225.746	0.75
225.98	9.75
226.215	10.75
226.449	12.75
226.683	14.75
226.918	18.75
227.152	31.75
227.387	23.75
227.621	54.75
227.856	48.75
228.09	45.75
228.324	46.75
228.559	60.75
228.793	63.75
229.027	60.75
229.262	77.75
229.496	78.75
229.73	80.75
229.964	83.75
230.199	81.75
230.433	75.75
230.667	86.75
230.901	87.75
231.136	93.75
231.37	80.75
231.604	91.75
231.838	78.75
232.072	79.75
232.306	91.75
232.541	98.75
232.775	78.75
233.009	95.75
233.243	87.75
233.477	88.75
233.711	87.75
233.945	90.75
234.179	76.75
234.413	91.75
234.647	83.75
234.881	87.75
235.115	88.75
235.349	91.75
235.583	91.75
235.817	89.75
236.051	80.75
236.285	94.75
236.519	93.75
236.753	84.75
236.987	75.75
237.221	74.75
237.455	99.75
237.689	93.75
237.922	85.75
238.156	112.75
238.39	80.75
238.624	75.75
238.858	89.75
239.091	81.75
239.325	87.75
239.559	84.75
239.793	82.75
240.027	88.75
240.26	97.75
240.494	93.75
240.728	92.75
240.961	93.75
241.195	87.75
241.429	94.75
241.662	101.75
241.896	96.75
242.13	96.75
242.363	86.75
242.597	82.75
242.83	102.75
243.064	104.75
243.298	100.75
243.531	84.75
243.765	87.75
243.998	98.75
244.232	101.75
244.465	103.75
244.699	88.75
244.932	96.75
245.166	99.75
245.399	103.75
245.633	86.75
245.866	84.75
246.099	90.75
246.333	80.75
246.566	96.75
246.8	91.75
247.033	78.75
247.266	88.75
247.5	85.75
247.733	99.75
247.966	108.75
248.2	110.75
248.433	82.75
248.666	90.75
248.899	110.75
249.133	97.75
249.366	99.75
249.599	95.75
249.832	109.75
250.066	106.75
250.299	91.75
250.532	106.75
250.765	103.75
250.998	84.75
251.231	103.75
251.465	99.75
251.698	112.75
251.931	101.75
252.164	111.75
252.397	115.75
252.63	112.75
252.863	103.75
253.096	116.75
253.329	112.75
253.562	93.75
253.795	119.75
254.028	108.75
254.261	106.75
254.494	101.75
254.727	100.75
254.96	97.75
255.193	116.75
255.426	117.75
255.659	101.75
255.892	126.75
256.124	110.75
256.357	108.75
256.59	126.75
256.823	117.75
257.056	101.75
257.289	103.75
257.521	107.75
257.754	116.75
257.987	106.75
258.22	108.75
258.452	106.75
258.685	114.75
258.918	128.75
259.151	101.75
259.383	104.75
259.616	106.75
259.849	114.75
260.081	99.75
260.314	115.75
260.547	120.75
260.779	111.75
261.012	118.75
261.244	118.75
261.477	128.75
261.71	115.75
261.942	111.75
262.175	119.75
262.407	117.75
262.64	115.75
262.872	135.75
263.105	131.75
263.337	126.75
263.57	119.75
263.802	134.75
264.035	111.75
264.267	125.75
264.499	118.75
264.732	123.75
264.964	121.75
265.197	112.75
265.429	118.75
265.661	129.75
265.894	120.75
266.126	113.75
266.358	123.75
266.591	115.75
266.823	115.75
267.055	110.75
267.287	121.75
267.52	110.75
267.752	117.75
267.984	126.75
268.216	126.75
268.448	129.75
268.681	117.75
268.913	141.75
269.145	140.75
269.377	114.75
269.609	100.75
269.841	142.75
270.073	126.75
270.306	129.75
270.538	137.75
270.77	117.75
271.002	132.75
271.234	141.75
271.466	127.75
271.698	117.75
271.93	129.75
272.162	136.75
272.394	117.75
272.626	133.75
272.858	138.75
273.09	133.75
273.322	127.75
273.553	130.75
273.785	131.75
274.017	122.75
274.249	139.75
274.481	127.75
274.713	120.75
274.945	148.75
275.176	129.75
275.408	131.75
275.64	131.75
275.872	141.75
276.104	145.75
276.335	139.75
276.567	150.75
276.799	156.75
277.031	143.75
277.262	151.75
277.494	160.75
277.726	144.75
277.957	133.75
278.189	131.75
278.421	131.75
278.652	145.75
278.884	148.75
279.115	146.75
279.347	151.75
279.579	141.75
279.81	134.75
280.042	127.75
280.273	151.75
280.505	151.75
280.736	144.75
280.968	154.75
281.199	154.75
281.431	152.75
281.662	143.75
281.894	156.75
282.125	146.75
282.356	133.75
282.588	145.75
282.819	134.75
283.051	142.75
283.282	139.75
283.513	158.75
283.745	132.75
283.976	158.75
284.207	140.75
284.439	158.75
284.67	148.75
284.901	133.75
285.132	132.75
285.364	151.75
285.595	154.75
285.826	142.75
286.057	158.75
286.288	164.75
286.52	161.75
286.751	141.75
286.982	154.75
287.213	155.75
287.444	152.75
287.675	144.75
287.906	175.75
288.138	144.75
288.369	154.75
288.6	164.75
288.831	155.75
289.062	155.75
289.293	162.75
289.524	157.75
289.755	166.75
289.986	141.75
290.217	159.75
290.448	165.75
290.679	188.75
290.91	162.75
291.141	150.75
291.371	162.75
291.602	157.75
291.833	145.75
292.064	158.75
292.295	157.75
292.526	173.75
292.757	166.75
292.987	161.75
293.218	158.75
293.449	152.75
293.68	161.75
293.91	168.75
294.141	169.75
294.372	157.75
294.603	161.75
294.833	157.75
295.064	165.75
295.295	158.75
295.525	158.75
295.756	152.75
295.987	161.75
296.217	165.75
296.448	155.75
296.679	169.75
296.909	159.75
297.14	167.75
297.37	174.75
297.601	158.75
297.831	150.75
298.062	163.75
298.292	168.75
298.523	186.75
298.753	164.75
298.984	180.75
299.214	155.75
299.445	179.75
299.675	150.75
299.905	164.75
300.136	171.75
300.366	172.75
300.597	178.75
300.827	172.75
301.057	154.75
301.288	169.75
301.518	185.75
301.748	166.75
301.979	213.75
302.209	167.75
302.439	176.75
302.669	179.75
302.9	188.75
303.13	164.75
303.36	186.75
303.59	171.75
303.82	163.75
304.051	180.75
304.281	173.75
304.511	178.75
304.741	174.75
304.971	169.75
305.201	185.75
305.431	180.75
305.661	162.75
305.891	174.75
306.121	173.75
306.352	177.75
306.582	159.75
306.812	166.75
307.042	169.75
307.272	169.75
307.502	163.75
307.731	184.75
307.961	186.75
308.191	175.75
308.421	176.75
308.651	166.75
308.881	170.75
309.111	166.75
309.341	171.75
309.571	174.75
309.8	166.75
310.03	189.75
310.26	164.75
310.49	164.75
310.72	178.75
310.949	164.75
311.179	164.75
311.409	165.75
311.639	168.75
311.868	172.75
312.098	169.75
312.328	175.75
312.557	187.75
312.787	186.75
313.017	187.75
313.246	182.75
313.476	180.75
313.706	173.75
313.935	185.75
314.165	179.75
314.394	177.75
314.624	179.75
314.853	192.75
315.083	178.75
315.312	201.75
315.542	175.75
315.771	172.75
316.001	184.75
316.23	185.75
316.46	178.75
316.689	174.75
316.919	206.75
317.148	164.75
317.377	198.75
317.607	188.75
317.836	172.75
318.065	179.75
318.295	194.75
318.524	171.75
318.753	174.75
318.983	194.75
319.212	188.75
319.441	184.75
319.67	185.75
319.9	168.75
320.129	187.75
320.358	179.75
320.587	187.75
320.816	184.75
321.046	178.75
321.275	203.75
321.504	178.75
321.733	183.75
321.962	183.75
322.191	165.75
322.42	176.75
322.649	180.75
322.878	190.75
323.108	181.75
323.337	188.75
323.566	182.75
323.795	191.75
324.024	170.75
324.253	173.75
324.482	189.75
324.71	178.75
324.939	177.75
325.168	196.75
325.397	182.75
325.626	186.75
325.855	196.75
326.084	199.75
326.313	193.75
326.542	180.75
326.77	190.75
326.999	195.75
327.228	184.75
327.457	186.75
327.686	222.75
327.914	204.75
328.143	193.75
328.372	194.75
328.6	175.75
328.829	190.75
329.058	188.75
329.287	188.75
329.515	191.75
329.744	204.75
329.972	196.75
330.201	196.75
330.43	191.75
330.658	187.75
330.887	196.75
331.115	188.75
331.344	193.75
331.572	187.75
331.801	197.75
332.03	214.75
332.258	212.75
332.486	203.75
332.715	217.75
332.943	225.75
333.172	227.75
333.4	248.75
333.629	233.75
333.857	242.75
334.085	253.75
334.314	242.75
334.542	244.75
334.771	232.75
334.999	235.75
335.227	208.75
335.455	237.75
335.684	218.75
335.912	220.75
336.14	214.75
336.369	217.75
336.597	209.75
336.825	204.75
337.053	217.75
337.281	221.75
337.51	197.75
337.738	211.75
337.966	200.75
338.194	213.75
338.422	188.75
338.65	212.75
338.878	195.75
339.106	203.75
339.334	205.75
339.562	203.75
339.79	190.75
340.018	179.75
340.246	176.75
340.474	198.75
340.702	192.75
340.93	192.75
341.158	203.75
341.386	188.75
341.614	196.75
341.842	200.75
342.07	202.75
342.298	193.75
342.526	201.75
342.754	195.75
342.981	194.75
343.209	220.75
343.437	234.75
343.665	243.75
343.893	228.75
344.12	230.75
344.348	216.75
344.576	228.75
344.804	188.75
345.031	202.75
345.259	209.75
345.487	199.75
345.714	208.75
345.942	209.75
346.17	214.75
346.397	189.75
346.625	188.75
346.853	182.75
347.08	192.75
347.308	191.75
347.535	190.75
347.763	195.75
347.99	203.75
348.218	213.75
348.445	187.75
348.673	192.75
348.9	200.75
349.128	193.75
349.355	184.75
349.583	194.75
349.81	195.75
350.037	198.75
350.265	188.75
350.492	198.75
350.72	196.75
350.947	184.75
351.174	186.75
351.402	195.75
351.629	183.75
351.856	185.75
352.083	174.75
352.311	189.75
352.538	173.75
352.765	183.75
352.992	220.75
353.22	177.75
353.447	192.75
353.674	171.75
353.901	192.75
354.128	204.75
354.355	181.75
354.583	190.75
354.81	192.75
355.037	196.75
355.264	188.75
355.491	190.75
355.718	200.75
355.945	183.75
356.172	206.75
356.399	196.75
356.626	200.75
356.853	184.75
357.08	223.75
357.307	196.75
357.534	184.75
357.761	192.75
357.988	207.75
358.215	199.75
358.441	207.75
358.668	195.75
358.895	183.75
359.122	198.75
359.349	179.75
359.576	194.75
359.802	195.75
360.029	192.75
360.256	204.75
360.483	189.75
360.709	202.75
360.936	202.75
361.163	182.75
361.39	183.75
361.616	205.75
361.843	195.75
362.07	196.75
362.296	195.75
362.523	180.75
362.749	180.75
362.976	190.75
363.203	199.75
363.429	184.75
363.656	183.75
363.882	191.75
364.109	191.75
364.335	205.75
364.562	183.75
364.788	190.75
365.015	187.75
365.241	183.75
365.468	218.75
365.694	192.75
365.92	199.75
366.147	182.75
366.373	186.75
366.599	192.75
366.826	202.75
367.052	189.75
367.278	194.75
367.505	186.75
367.731	218.75
367.957	187.75
368.184	209.75
368.41	209.75
368.636	197.75
368.862	211.75
369.089	200.75
369.315	196.75
369.541	186.75
369.767	197.75
369.993	204.75
370.219	194.75
370.445	192.75
370.672	203.75
370.898	182.75
371.124	203.75
371.35	215.75
371.576	213.75
371.802	184.75
372.028	207.75
372.254	204.75
372.48	209.75
372.706	185.75
372.932	211.75
373.158	211.75
373.384	208.75
373.61	211.75
373.835	195.75
374.061	206.75
374.287	213.75
374.513	196.75
374.739	222.75
374.965	223.75
375.191	208.75
375.416	214.75
375.642	207.75
375.868	208.75
376.094	203.75
376.319	203.75
376.545	198.75
376.771	212.75
376.997	205.75
377.222	203.75
377.448	198.75
377.674	199.75
377.899	204.75
378.125	204.75
378.35	209.75
378.576	198.75
378.802	173.75
379.027	189.75
379.253	203.75
379.478	213.75
379.704	191.75
379.929	208.75
380.155	200.75
380.38	206.75
380.606	210.75
380.831	196.75
381.057	212.75
381.282	216.75
381.507	207.75
381.733	206.75
381.958	196.75
382.184	194.75
382.409	200.75
382.634	228.75
382.86	219.75
383.085	218.75
383.31	210.75
383.535	226.75
383.761	230.75
383.986	228.75
384.211	250.75
384.436	238.75
384.662	241.75
384.887	223.75
385.112	227.75
385.337	231.75
385.562	234.75
385.787	232.75
386.013	253.75
386.238	249.75
386.463	238.75
386.688	265.75
386.913	219.75
387.138	229.75
387.363	219.75
387.588	237.75
387.813	239.75
388.038	235.75
388.263	230.75
388.488	246.75
388.713	206.75
388.938	232.75
389.163	232.75
389.387	244.75
389.612	231.75
389.837	223.75
390.062	222.75
390.287	234.75
390.512	237.75
390.736	239.75
390.961	236.75
391.186	235.75
391.411	244.75
391.636	245.75
391.86	264.75
392.085	257.75
392.31	247.75
392.534	240.75
392.759	247.75
392.984	239.75
393.208	239.75
393.433	262.75
393.658	266.75
393.882	247.75
394.107	248.75
394.331	253.75
394.556	254.75
394.78	244.75
395.005	244.75
395.229	260.75
395.454	253.75
395.678	247.75
395.903	245.75
396.127	244.75
396.352	255.75
396.576	240.75
396.801	247.75
397.025	248.75
397.249	254.75
397.474	251.75
397.698	266.75
397.922	257.75
398.147	235.75
398.371	244.75
398.595	270.75
398.82	280.75
399.044	295.75
399.268	332.75
399.492	381.75
399.717	395.75
399.941	378.75
400.165	332.75
400.389	274.75
400.613	294.75
400.837	288.75
401.062	281.75
401.286	277.75
401.51	271.75
401.734	282.75
401.958	272.75
402.182	267.75
402.406	284.75
402.63	298.75
402.854	282.75
403.078	279.75
403.302	319.75
403.526	307.75
403.75	306.75
403.974	325.75
404.198	345.75
404.422	319.75
404.645	311.75
404.869	298.75
405.093	312.75
405.317	311.75
405.541	315.75
405.765	305.75
405.988	286.75
406.212	305.75
406.436	291.75
406.66	310.75
406.883	319.75
407.107	343.75
407.331	333.75
407.555	343.75
407.778	320.75
408.002	310.75
408.226	313.75
408.449	310.75
408.673	308.75
408.896	301.75
409.12	307.75
409.344	307.75
409.567	303.75
409.791	301.75
410.014	290.75
410.238	316.75
410.461	283.75
410.685	293.75
410.908	272.75
411.132	301.75
411.355	281.75
411.578	277.75
411.802	287.75
412.025	292.75
412.249	264.75
412.472	275.75
412.695	286.75
412.919	282.75
413.142	289.75
413.365	297.75
413.589	271.75
413.812	272.75
414.035	297.75
414.258	274.75
414.482	256.75
414.705	272.75
414.928	287.75
415.151	269.75
415.374	280.75
415.597	267.75
415.821	278.75
416.044	282.75
416.267	263.75
416.49	263.75
416.713	275.75
416.936	278.75
417.159	260.75
417.382	261.75
417.605	266.75
417.828	284.75
418.051	269.75
418.274	254.75
418.497	288.75
418.72	282.75
418.943	284.75
419.166	302.75
419.389	309.75
419.611	311.75
419.834	285.75
420.057	292.75
420.28	261.75
420.503	270.75
420.726	268.75
420.948	270.75
421.171	288.75
421.394	276.75
421.617	271.75
421.839	257.75
422.062	270.75
422.285	288.75
422.507	293.75
422.73	284.75
422.953	303.75
423.175	277.75
423.398	282.75
423.621	296.75
423.843	296.75
424.066	290.75
424.288	302.75
424.511	300.75
424.733	291.75
424.956	282.75
425.178	263.75
425.401	282.75
425.623	297.75
425.846	270.75
426.068	273.75
426.291	269.75
426.513	266.75
426.735	256.75
426.958	253.75
427.18	261.75
427.402	275.75
427.625	266.75
427.847	255.75
428.069	242.75
428.292	250.75
428.514	249.75
428.736	252.75
428.958	229.75
429.181	248.75
429.403	249.75
429.625	248.75
429.847	254.75
430.069	248.75
430.292	247.75
430.514	228.75
430.736	266.75
430.958	255.75
431.18	262.75
431.402	250.75
431.624	251.75
431.846	249.75
432.068	250.75
432.29	240.75
432.512	270.75
432.734	253.75
432.956	246.75
433.178	259.75
433.4	266.75
433.622	263.75
433.844	258.75
434.066	249.75
434.287	255.75
434.509	278.75
434.731	274.75
434.953	267.75
435.175	268.75
435.397	259.75
435.618	246.75
435.84	269.75
436.062	243.75
436.284	236.75
436.505	253.75
436.727	267.75
436.949	280.75
437.17	256.75
437.392	236.75
437.614	238.75
437.835	222.75
438.057	227.75
438.278	236.75
438.5	229.75
438.721	228.75
438.943	243.75
439.165	270.75
439.386	252.75
439.608	246.75
439.829	253.75
440.05	249.75
440.272	260.75
440.493	235.75
440.715	269.75
440.936	249.75
441.158	272.75
441.379	279.75
441.6	271.75
441.822	280.75
442.043	293.75
442.264	242.75
442.486	252.75
442.707	266.75
442.928	263.75
443.149	279.75
443.371	290.75
443.592	264.75
443.813	272.75
444.034	285.75
444.255	303.75
444.476	316.75
444.698	316.75
444.919	328.75
445.14	562.75
445.361	396.75
445.582	279.75
445.803	275.75
446.024	238.75
446.245	269.75
446.466	259.75
446.687	246.75
446.908	224.75
447.129	245.75
447.35	244.75
447.571	251.75
447.792	253.75
448.013	233.75
448.234	240.75
448.455	234.75
448.675	235.75
448.896	222.75
449.117	212.75
449.338	234.75
449.559	233.75
449.779	237.75
450	244.75
450.221	218.75
450.442	240.75
450.662	229.75
450.883	227.75
451.104	230.75
451.324	231.75
451.545	235.75
451.766	247.75
451.986	227.75
452.207	250.75
452.428	231.75
452.648	233.75
452.869	242.75
453.089	240.75
453.31	240.75
453.53	229.75
453.751	232.75
453.971	244.75
454.192	222.75
454.412	224.75
454.633	220.75
454.853	227.75
455.073	229.75
455.294	224.75
455.514	226.75
455.734	205.75
455.955	215.75
456.175	234.75
456.395	220.75
456.616	222.75
456.836	234.75
457.056	214.75
457.276	211.75
457.497	222.75
457.717	223.75
457.937	212.75
458.157	232.75
458.377	224.75
458.598	226.75
458.818	234.75
459.038	228.75
459.258	230.75
459.478	252.75
459.698	264.75
459.918	270.75
460.138	278.75
460.358	290.75
460.578	273.75
460.798	285.75
461.018	273.75
461.238	289.75
461.458	292.75
461.678	289.75
461.898	294.75
462.118	307.75
462.338	309.75
462.558	306.75
462.777	307.75
462.997	364.75
463.217	364.75
463.437	363.75
463.657	331.75
463.876	296.75
464.096	332.75
464.316	309.75
464.536	311.75
464.755	317.75
464.975	296.75
465.195	271.75
465.414	269.75
465.634	259.75
465.854	250.75
466.073	238.75
466.293	244.75
466.512	236.75
466.732	250.75
466.951	245.75
467.171	245.75
467.391	236.75
467.61	219.75
467.829	243.75
468.049	246.75
468.268	229.75
468.488	226.75
468.707	225.75
468.927	245.75
469.146	234.75
469.365	244.75
469.585	251.75
469.804	247.75
470.023	246.75
470.243	241.75
470.462	252.75
470.681	254.75
470.901	252.75
471.12	231.75
471.339	240.75
471.558	232.75
471.777	259.75
471.997	232.75
472.216	234.75
472.435	228.75
472.654	242.75
472.873	236.75
473.092	225.75
473.311	232.75
473.53	224.75
473.749	236.75
473.968	238.75
474.187	230.75
474.406	222.75
474.625	256.75
474.844	235.75
475.063	223.75
475.282	241.75
475.501	238.75
475.72	255.75
475.939	236.75
476.158	222.75
476.377	227.75
476.596	237.75
476.814	240.75
477.033	261.75
477.252	254.75
477.471	258.75
477.69	271.75
477.908	259.75
478.127	264.75
478.346	269.75
478.564	280.75
478.783	263.75
479.002	282.75
479.22	266.75
479.439	294.75
479.658	253.75
479.876	269.75
480.095	270.75
480.313	300.75
480.532	280.75
480.751	297.75
480.969	280.75
481.188	285.75
481.406	279.75
481.624	282.75
481.843	269.75
482.061	247.75
482.28	235.75
482.498	248.75
482.717	248.75
482.935	277.75
483.153	259.75
483.372	254.75
483.59	259.75
483.808	275.75
484.027	263.75
484.245	264.75
484.463	262.75
484.681	272.75
484.9	255.75
485.118	280.75
485.336	263.75
485.554	259.75
485.772	265.75
485.99	270.75
486.209	266.75
486.427	251.75
486.645	268.75
486.863	256.75
487.081	270.75
487.299	274.75
487.517	273.75
487.735	270.75
487.953	287.75
488.171	278.75
488.389	255.75
488.607	262.75
488.825	263.75
489.043	253.75
489.261	262.75
489.479	257.75
489.696	256.75
489.914	273.75
490.132	268.75
490.35	271.75
490.568	267.75
490.786	261.75
491.003	274.75
491.221	280.75
491.439	277.75
491.657	287.75
491.874	271.75
492.092	287.75
492.31	278.75
492.527	271.75
492.745	287.75
492.963	279.75
493.18	278.75
493.398	289.75
493.615	274.75
493.833	290.75
494.05	299.75
494.268	272.75
494.485	304.75
494.703	286.75
494.92	265.75
495.138	262.75
495.355	275.75
495.573	280.75
495.79	296.75
496.008	300.75
496.225	290.75
496.442	276.75
496.66	292.75
496.877	303.75
497.094	307.75
497.312	322.75
497.529	306.75
497.746	313.75
497.963	326.75
498.181	331.75
498.398	330.75
498.615	361.75
498.832	386.75
499.049	410.75
499.267	445.75
499.484	475.75
499.701	518.75
499.918	543.75
500.135	621.75
500.352	700.75
500.569	714.75
500.786	727.75
501.003	637.75
501.22	586.75
501.437	546.75
501.654	469.75
501.871	422.75
502.088	398.75
502.305	397.75
502.522	358.75
502.739	351.75
502.956	335.75
503.172	321.75
503.389	314.75
503.606	320.75
503.823	309.75
