Data from SampD_HRD10591_00039.txt Node
Date: Mon Jan 19 11:41:34 EST 2026
User: Yrep
Spectrometer: HR+D1059
Trigger mode: 0
Integration Time (sec): 3.443000E-1
Scans to average: 1
Electric dark correction enabled: true
Nonlinearity correction enabled: false
Boxcar width: 0
XAxis mode: Wavelengths
Number of Pixels in Spectrum: 2048
>>>>>Begin Spectral Data<<<<<
223.165	-31
223.4	-31
223.635	-31
223.869	-34
224.104	-15
224.338	-14
224.573	-14
224.808	-13
225.042	3
225.277	5
225.511	4
225.746	2
225.98	13
226.215	1
226.449	16
226.683	20
226.918	28
227.152	29
227.387	29
227.621	40
227.856	51
228.09	40
228.324	57
228.559	57
228.793	66
229.027	78
229.262	76
229.496	70
229.73	78
229.964	81
230.199	77
230.433	74
230.667	73
230.901	87
231.136	72
231.37	99
231.604	76
231.838	87
232.072	88
232.306	84
232.541	89
232.775	84
233.009	82
233.243	84
233.477	100
233.711	95
233.945	92
234.179	96
234.413	97
234.647	89
234.881	79
235.115	83
235.349	81
235.583	100
235.817	92
236.051	88
236.285	80
236.519	105
236.753	89
236.987	81
237.221	92
237.455	74
237.689	92
237.922	90
238.156	76
238.39	80
238.624	74
238.858	83
239.091	96
239.325	93
239.559	76
239.793	98
240.027	89
240.26	79
240.494	89
240.728	78
240.961	88
241.195	97
241.429	93
241.662	88
241.896	86
242.13	81
242.363	77
242.597	101
242.83	97
243.064	84
243.298	100
243.531	83
243.765	95
243.998	87
244.232	79
244.465	82
244.699	77
244.932	71
245.166	84
245.399	111
245.633	93
245.866	96
246.099	100
246.333	80
246.566	68
246.8	96
247.033	99
247.266	105
247.5	90
247.733	105
247.966	88
248.2	91
248.433	94
248.666	88
248.899	104
249.133	104
249.366	107
249.599	82
249.832	98
250.066	108
250.299	103
250.532	96
250.765	86
250.998	88
251.231	93
251.465	83
251.698	85
251.931	101
252.164	92
252.397	102
252.63	104
252.863	92
253.096	83
253.329	104
253.562	86
253.795	96
254.028	100
254.261	89
254.494	99
254.727	102
254.96	101
255.193	95
255.426	92
255.659	112
255.892	108
256.124	98
256.357	99
256.59	99
256.823	100
257.056	100
257.289	93
257.521	110
257.754	99
257.987	96
258.22	96
258.452	101
258.685	99
258.918	105
259.151	95
259.383	108
259.616	94
259.849	119
260.081	128
260.314	97
260.547	97
260.779	104
261.012	104
261.244	84
261.477	107
261.71	102
261.942	105
262.175	98
262.407	92
262.64	106
262.872	98
263.105	96
263.337	103
263.57	99
263.802	92
264.035	97
264.267	107
264.499	105
264.732	106
264.964	103
265.197	112
265.429	98
265.661	106
265.894	96
266.126	110
266.358	96
266.591	109
266.823	112
267.055	106
267.287	112
267.52	101
267.752	118
267.984	117
268.216	114
268.448	118
268.681	104
268.913	114
269.145	118
269.377	108
269.609	95
269.841	108
270.073	105
270.306	118
270.538	120
270.77	104
271.002	111
271.234	116
271.466	104
271.698	110
271.93	106
272.162	102
272.394	114
272.626	105
272.858	110
273.09	113
273.322	100
273.553	93
273.785	116
274.017	131
274.249	109
274.481	117
274.713	109
274.945	122
275.176	116
275.408	107
275.64	124
275.872	113
276.104	130
276.335	110
276.567	121
276.799	115
277.031	106
277.262	118
277.494	114
277.726	116
277.957	99
278.189	114
278.421	122
278.652	104
278.884	119
279.115	117
279.347	116
279.579	129
279.81	118
280.042	113
280.273	111
280.505	111
280.736	109
280.968	135
281.199	117
281.431	111
281.662	101
281.894	114
282.125	108
282.356	116
282.588	116
282.819	121
283.051	116
283.282	114
283.513	140
283.745	130
283.976	120
284.207	125
284.439	116
284.67	115
284.901	111
285.132	116
285.364	118
285.595	119
285.826	113
286.057	111
286.288	127
286.52	110
286.751	119
286.982	119
287.213	130
287.444	148
287.675	130
287.906	123
288.138	122
288.369	117
288.6	124
288.831	109
289.062	120
289.293	125
289.524	126
289.755	124
289.986	115
290.217	125
290.448	135
290.679	125
290.91	134
291.141	126
291.371	127
291.602	125
291.833	119
292.064	130
292.295	122
292.526	111
292.757	106
292.987	117
293.218	114
293.449	129
293.68	126
293.91	119
294.141	144
294.372	128
294.603	133
294.833	130
295.064	138
295.295	114
295.525	110
295.756	122
295.987	121
296.217	129
296.448	126
296.679	129
296.909	143
297.14	124
297.37	149
297.601	132
297.831	130
298.062	127
298.292	116
298.523	143
298.753	135
298.984	121
299.214	125
299.445	132
299.675	126
299.905	129
300.136	125
300.366	117
300.597	147
300.827	148
301.057	128
301.288	148
301.518	135
301.748	115
301.979	168
302.209	126
302.439	119
302.669	129
302.9	136
303.13	132
303.36	142
303.59	142
303.82	129
304.051	117
304.281	145
304.511	150
304.741	140
304.971	121
305.201	129
305.431	144
305.661	141
305.891	132
306.121	136
306.352	125
306.582	120
306.812	116
307.042	134
307.272	130
307.502	118
307.731	122
307.961	121
308.191	125
308.421	127
308.651	144
308.881	132
309.111	135
309.341	142
309.571	136
309.8	124
310.03	132
310.26	127
310.49	143
310.72	124
310.949	133
311.179	130
311.409	133
311.639	136
311.868	136
312.098	142
312.328	124
312.557	130
312.787	136
313.017	142
313.246	135
313.476	132
313.706	119
313.935	123
314.165	119
314.394	124
314.624	141
314.853	158
315.083	129
315.312	141
315.542	156
315.771	147
316.001	132
316.23	144
316.46	126
316.689	131
316.919	141
317.148	133
317.377	125
317.607	144
317.836	152
318.065	129
318.295	137
318.524	136
318.753	147
318.983	140
319.212	135
319.441	125
319.67	150
319.9	129
320.129	128
320.358	139
320.587	130
320.816	133
321.046	132
321.275	149
321.504	142
321.733	135
321.962	152
322.191	136
322.42	140
322.649	136
322.878	134
323.108	149
323.337	139
323.566	118
323.795	139
324.024	148
324.253	127
324.482	145
324.71	138
324.939	150
325.168	155
325.397	120
325.626	144
325.855	129
326.084	137
326.313	142
326.542	137
326.77	151
326.999	137
327.228	143
327.457	144
327.686	148
327.914	156
328.143	150
328.372	135
328.6	143
328.829	142
329.058	131
329.287	133
329.515	143
329.744	150
329.972	137
330.201	150
330.43	140
330.658	140
330.887	137
331.115	135
331.344	129
331.572	160
331.801	152
332.03	148
332.258	154
332.486	145
332.715	146
332.943	165
333.172	168
333.4	156
333.629	167
333.857	160
334.085	174
334.314	157
334.542	145
334.771	162
334.999	172
335.227	170
335.455	157
335.684	177
335.912	144
336.14	151
336.369	168
336.597	163
336.825	165
337.053	142
337.281	152
337.51	145
337.738	156
337.966	139
338.194	147
338.422	146
338.65	132
338.878	137
339.106	146
339.334	160
339.562	152
339.79	152
340.018	158
340.246	144
340.474	127
340.702	142
340.93	140
341.158	143
341.386	145
341.614	136
341.842	148
342.07	143
342.298	154
342.526	143
342.754	145
342.981	165
343.209	153
343.437	162
343.665	151
343.893	156
344.12	162
344.348	147
344.576	147
344.804	143
345.031	149
345.259	144
345.487	147
345.714	132
345.942	141
346.17	153
346.397	151
346.625	141
346.853	138
347.08	133
347.308	156
347.535	152
347.763	142
347.99	146
348.218	150
348.445	162
348.673	142
348.9	147
349.128	150
349.355	144
349.583	135
349.81	129
350.037	147
350.265	142
350.492	130
350.72	143
350.947	152
351.174	124
351.402	157
351.629	146
351.856	132
352.083	142
352.311	153
352.538	129
352.765	149
352.992	161
353.22	160
353.447	133
353.674	145
353.901	134
354.128	145
354.355	125
354.583	142
354.81	146
355.037	152
355.264	140
355.491	148
355.718	135
355.945	138
356.172	146
356.399	130
356.626	133
356.853	137
357.08	139
357.307	140
357.534	142
357.761	163
357.988	130
358.215	137
358.441	137
358.668	144
358.895	144
359.122	143
359.349	129
359.576	124
359.802	145
360.029	148
360.256	154
360.483	156
360.709	149
360.936	152
361.163	137
361.39	154
361.616	142
361.843	153
362.07	138
362.296	142
362.523	152
362.749	147
362.976	133
363.203	132
363.429	146
363.656	137
363.882	130
364.109	155
364.335	144
364.562	125
364.788	119
365.015	132
365.241	149
365.468	129
365.694	145
365.92	143
366.147	131
366.373	125
366.599	127
366.826	148
367.052	131
367.278	145
367.505	135
367.731	180
367.957	138
368.184	144
368.41	143
368.636	149
368.862	143
369.089	129
369.315	147
369.541	142
369.767	151
369.993	146
370.219	142
370.445	137
370.672	146
370.898	143
371.124	143
371.35	147
371.576	173
371.802	141
372.028	140
372.254	143
372.48	150
372.706	133
372.932	160
373.158	142
373.384	161
373.61	160
373.835	147
374.061	156
374.287	168
374.513	155
374.739	145
374.965	155
375.191	164
375.416	161
375.642	150
375.868	154
376.094	143
376.319	146
376.545	138
376.771	137
376.997	143
377.222	151
377.448	161
377.674	144
377.899	150
378.125	140
378.35	140
378.576	136
378.802	143
379.027	130
379.253	159
379.478	156
379.704	142
379.929	146
380.155	139
380.38	152
380.606	136
380.831	142
381.057	156
381.282	156
381.507	148
381.733	148
381.958	164
382.184	144
382.409	158
382.634	151
382.86	151
383.085	150
383.31	151
383.535	149
383.761	145
383.986	164
384.211	152
384.436	165
384.662	165
384.887	164
385.112	172
385.337	150
385.562	165
385.787	148
386.013	170
386.238	168
386.463	183
386.688	209
386.913	166
387.138	169
387.363	153
387.588	170
387.813	162
388.038	167
388.263	161
388.488	161
388.713	169
388.938	170
389.163	171
389.387	163
389.612	145
389.837	172
390.062	171
390.287	172
390.512	176
390.736	175
390.961	162
391.186	156
391.411	181
391.636	170
391.86	181
392.085	166
392.31	156
392.534	179
392.759	184
392.984	189
393.208	151
393.433	185
393.658	175
393.882	173
394.107	176
394.331	176
394.556	174
394.78	158
395.005	182
395.229	163
395.454	166
395.678	179
395.903	178
396.127	170
396.352	168
396.576	164
396.801	177
397.025	177
397.249	176
397.474	199
397.698	182
397.922	187
398.147	155
398.371	173
398.595	177
398.82	178
399.044	207
399.268	208
399.492	245
399.717	272
399.941	238
400.165	218
400.389	212
400.613	200
400.837	188
401.062	190
401.286	210
401.51	191
401.734	183
401.958	181
402.182	193
402.406	198
402.63	195
402.854	192
403.078	207
403.302	192
403.526	209
403.75	208
403.974	220
404.198	224
404.422	211
404.645	209
404.869	214
405.093	206
405.317	206
405.541	219
405.765	213
405.988	182
406.212	205
406.436	193
406.66	215
406.883	219
407.107	222
407.331	213
407.555	218
407.778	225
408.002	218
408.226	218
408.449	201
408.673	200
408.896	211
409.12	208
409.344	215
409.567	204
409.791	202
410.014	208
410.238	206
410.461	208
410.685	206
410.908	185
411.132	226
411.355	188
411.578	208
411.802	186
412.025	192
412.249	194
412.472	191
412.695	188
412.919	189
413.142	197
413.365	195
413.589	180
413.812	182
414.035	176
414.258	190
414.482	180
414.705	212
414.928	213
415.151	192
415.374	172
415.597	196
415.821	196
416.044	191
416.267	203
416.49	198
416.713	191
416.936	194
417.159	188
417.382	193
417.605	190
417.828	185
418.051	183
418.274	189
418.497	189
418.72	187
418.943	185
419.166	215
419.389	198
419.611	206
419.834	205
420.057	199
420.28	204
420.503	191
420.726	197
420.948	197
421.171	201
421.394	189
421.617	197
421.839	186
422.062	201
422.285	194
422.507	198
422.73	195
422.953	205
423.175	212
423.398	182
423.621	196
423.843	196
424.066	183
424.288	210
424.511	201
424.733	194
424.956	188
425.178	192
425.401	192
425.623	193
425.846	183
426.068	194
426.291	176
426.513	180
426.735	182
426.958	198
427.18	178
427.402	180
427.625	171
427.847	194
428.069	184
428.292	172
428.514	169
428.736	160
428.958	189
429.181	169
429.403	180
429.625	158
429.847	171
430.069	186
430.292	180
430.514	185
430.736	186
430.958	189
431.18	179
431.402	165
431.624	181
431.846	167
432.068	173
432.29	180
432.512	193
432.734	193
432.956	197
433.178	192
433.4	162
433.622	180
433.844	180
434.066	174
434.287	188
434.509	181
434.731	198
434.953	184
435.175	196
435.397	200
435.618	183
435.84	195
436.062	171
436.284	183
436.505	188
436.727	160
436.949	168
437.17	185
437.392	176
437.614	168
437.835	172
438.057	170
438.278	180
438.5	185
438.721	191
438.943	178
439.165	166
439.386	190
439.608	182
439.829	181
440.05	188
440.272	177
440.493	174
440.715	180
440.936	199
441.158	205
441.379	186
441.6	196
441.822	193
442.043	211
442.264	176
442.486	189
442.707	190
442.928	193
443.149	183
443.371	182
443.592	177
443.813	192
444.034	204
444.255	202
444.476	187
444.698	206
444.919	215
445.14	473
445.361	311
445.582	201
445.803	191
446.024	198
446.245	190
446.466	191
446.687	193
446.908	185
447.129	192
447.35	183
447.571	188
447.792	176
448.013	155
448.234	178
448.455	182
448.675	182
448.896	168
449.117	174
449.338	160
449.559	176
449.779	165
450	165
450.221	168
450.442	176
450.662	161
450.883	169
451.104	174
451.324	167
451.545	182
451.766	166
451.986	158
452.207	177
452.428	155
452.648	183
452.869	165
453.089	166
453.31	159
453.53	158
453.751	168
453.971	168
454.192	154
454.412	171
454.633	159
454.853	153
455.073	152
455.294	163
455.514	178
455.734	176
455.955	177
456.175	172
456.395	159
456.616	163
456.836	157
457.056	154
457.276	145
457.497	152
457.717	169
457.937	171
458.157	174
458.377	149
458.598	174
458.818	176
459.038	167
459.258	151
459.478	174
459.698	186
459.918	199
460.138	200
460.358	202
460.578	197
460.798	206
461.018	190
461.238	180
461.458	187
461.678	205
461.898	202
462.118	207
462.338	205
462.558	216
462.777	218
462.997	228
463.217	233
463.437	256
463.657	208
463.876	206
464.096	201
464.316	217
464.536	197
464.755	194
464.975	201
465.195	200
465.414	196
465.634	188
465.854	183
466.073	188
466.293	188
466.512	193
466.732	176
466.951	176
467.171	181
467.391	182
467.61	177
467.829	178
468.049	167
468.268	166
468.488	166
468.707	181
468.927	176
469.146	181
469.365	189
469.585	170
469.804	186
470.023	194
470.243	165
470.462	198
470.681	189
470.901	182
471.12	166
471.339	186
471.558	177
471.777	171
471.997	183
472.216	167
472.435	162
472.654	185
472.873	188
473.092	176
473.311	162
473.53	162
473.749	184
473.968	187
474.187	160
474.406	164
474.625	175
474.844	169
475.063	166
475.282	176
475.501	164
475.72	182
475.939	185
476.158	178
476.377	188
476.596	161
476.814	183
477.033	179
477.252	188
477.471	183
477.69	181
477.908	201
478.127	196
478.346	196
478.564	203
478.783	189
479.002	203
479.22	186
479.439	177
479.658	207
479.876	198
480.095	200
480.313	203
480.532	216
480.751	210
480.969	197
481.188	201
481.406	199
481.624	179
481.843	187
482.061	193
482.28	172
482.498	184
482.717	179
482.935	193
483.153	198
483.372	193
483.59	180
483.808	175
484.027	185
484.245	178
484.463	176
484.681	193
484.9	181
485.118	185
485.336	185
485.554	187
485.772	204
485.99	191
486.209	179
486.427	181
486.645	191
486.863	209
487.081	194
487.299	200
487.517	182
487.735	201
487.953	199
488.171	213
488.389	194
488.607	189
488.825	187
489.043	188
489.261	181
489.479	209
489.696	190
489.914	186
490.132	178
490.35	199
490.568	197
490.786	198
491.003	194
491.221	194
491.439	198
491.657	193
491.874	208
492.092	198
492.31	209
492.527	201
492.745	213
492.963	196
493.18	196
493.398	207
493.615	205
493.833	189
494.05	198
494.268	193
494.485	225
494.703	196
494.92	197
495.138	199
495.355	203
495.573	219
495.79	217
496.008	193
496.225	208
496.442	211
496.66	210
496.877	214
497.094	218
497.312	224
497.529	222
497.746	215
497.963	226
498.181	217
498.398	228
498.615	244
498.832	257
499.049	268
499.267	288
499.484	313
499.701	350
499.918	355
500.135	415
500.352	428
500.569	440
500.786	438
501.003	418
501.22	373
501.437	317
501.654	302
501.871	265
502.088	264
502.305	253
502.522	265
502.739	257
502.956	244
503.172	226
503.389	232
503.606	212
503.823	207
504.04	233
504.256	244
504.473	223
504.69	250
504.907	229
505.123	206
505.34	200
505.557	215
505.773	208
505.99	194
506.207	191
506.423	188
506.64	195
506.856	188
507.073	168
507.289	178
507.506	193
507.722	174
507.939	185
508.155	195
508.372	172
508.588	188
508.805	185
509.021	192
509.238	173
509.454	181
509.67	173
509.887	170
510.103	170
510.319	174
510.536	176
510.752	182
510.968	170
511.184	154
511.401	159
511.617	175
511.833	192
512.049	186
512.265	175
512.481	198
512.698	186
512.914	169
513.13	162
513.346	186
513.562	175
513.778	180
513.994	188
514.21	182
514.426	166
514.642	188
514.858	183
515.074	179
515.29	192
515.506	189
515.721	176
515.937	201
516.153	197
516.369	169
516.585	182
516.801	191
517.016	201
517.232	208
517.448	222
517.664	217
517.879	220
518.095	221
518.311	230
518.527	209
518.742	202
518.958	203
519.173	196
519.389	200
519.605	179
519.82	173
520.036	188
520.251	175
520.467	182
520.682	174
520.898	177
521.113	175
521.329	177
521.544	165
521.76	168
521.975	197
522.19	174
522.406	169
522.621	177
522.836	167
523.052	175
523.267	180
523.482	169
523.698	173
523.913	170
524.128	167
524.343	167
524.559	176
524.774	174
524.989	182
525.204	180
525.419	177
525.634	170
525.849	170
526.064	181
526.28	176
526.495	183
526.71	160
526.925	169
527.14	151
527.355	167
527.57	162
527.785	160
527.999	154
528.214	181
528.429	166
528.644	172
528.859	164
529.074	177
529.289	170
529.503	170
529.718	176
529.933	156
530.148	175
530.363	169
530.577	169
530.792	170
531.007	166
531.221	175
531.436	170
531.651	158
531.865	170
532.08	176
532.295	181
532.509	163
532.724	167
532.938	169
533.153	173
533.367	163
533.582	184
533.796	180
534.011	157
534.225	176
534.44	165
534.654	187
534.868	177
535.083	169
535.297	187
535.511	190
535.726	171
535.94	176
536.154	169
536.369	147
536.583	144
536.797	176
537.011	174
537.225	170
537.44	177
537.654	160
537.868	160
538.082	164
538.296	171
538.51	174
538.724	172
538.938	157
539.153	162
539.367	150
539.581	161
539.795	153
540.009	164
540.222	164
540.436	158
540.65	160
540.864	168
541.078	162
541.292	173
541.506	146
541.72	175
541.934	174
542.147	165
542.361	176
542.575	151
542.789	157
543.002	176
543.216	166
543.43	170
543.644	156
543.857	168
544.071	170
544.285	177
544.498	167
544.712	171
544.925	162
545.139	165
545.352	175
545.566	186
545.779	190
545.993	177
546.206	167
546.42	163
546.633	181
546.847	201
547.06	156
547.274	163
547.487	163
547.7	184
547.914	184
548.127	180
548.34	162
548.554	171
548.767	172
548.98	162
549.193	166
549.407	181
549.62	165
549.833	162
550.046	167
550.259	158
550.473	181
550.686	174
550.899	174
551.112	181
551.325	178
551.538	161
551.751	166
551.964	164
552.177	177
552.39	176
552.603	163
552.816	174
553.029	176
553.242	167
553.455	190
553.667	197
553.88	184
554.093	164
554.306	180
554.519	177
554.732	169
554.944	178
555.157	176
555.37	166
555.583	154
555.795	178
556.008	156
556.221	154
556.433	148
556.646	157
556.859	174
557.071	150
557.284	144
557.496	160
557.709	162
557.921	157
558.134	150
558.346	169
558.559	149
558.771	157
558.984	167
559.196	170
559.409	153
559.621	164
559.833	157
560.046	167
560.258	152
560.47	160
560.683	164
560.895	160
561.107	160
561.32	158
561.532	146
561.744	168
561.956	160
562.168	165
562.381	158
562.593	158
562.805	151
563.017	148
563.229	149
563.441	159
563.653	172
563.865	141
564.077	156
564.289	163
564.501	150
564.713	148
564.925	165
565.137	160
565.349	174
565.561	166
565.773	175
565.985	168
566.197	171
566.408	190
566.62	187
