Data from SampD_HRD10591_00073.txt Node
Date: Mon Jan 19 11:41:46 EST 2026
User: Yrep
Spectrometer: HR+D1059
Trigger mode: 0
Integration Time (sec): 3.443000E-1
Scans to average: 1
Electric dark correction enabled: true
Nonlinearity correction enabled: false
Boxcar width: 0
XAxis mode: Wavelengths
Number of Pixels in Spectrum: 2048
>>>>>Begin Spectral Data<<<<<
223.165	-15.75
223.4	-15.75
223.635	-15.75
223.869	-17.75
224.104	-22.75
224.338	-23.75
224.573	-16.75
224.808	-14.75
225.042	-3.75
225.277	-9.75
225.511	-12.75
225.746	1.25
225.98	12.25
226.215	16.25
226.449	23.25
226.683	23.25
226.918	24.25
227.152	37.25
227.387	32.25
227.621	52.25
227.856	45.25
228.09	29.25
228.324	62.25
228.559	64.25
228.793	59.25
229.027	57.25
229.262	62.25
229.496	62.25
229.73	76.25
229.964	87.25
230.199	70.25
230.433	54.25
230.667	79.25
230.901	78.25
231.136	84.25
231.37	79.25
231.604	75.25
231.838	90.25
232.072	73.25
232.306	85.25
232.541	73.25
232.775	82.25
233.009	101.25
233.243	88.25
233.477	85.25
233.711	88.25
233.945	86.25
234.179	87.25
234.413	84.25
234.647	87.25
234.881	92.25
235.115	92.25
235.349	83.25
235.583	101.25
235.817	88.25
236.051	84.25
236.285	98.25
236.519	82.25
236.753	92.25
236.987	84.25
237.221	83.25
237.455	90.25
237.689	88.25
237.922	86.25
238.156	86.25
238.39	88.25
238.624	80.25
238.858	89.25
239.091	84.25
239.325	84.25
239.559	92.25
239.793	88.25
240.027	104.25
240.26	96.25
240.494	87.25
240.728	87.25
240.961	91.25
241.195	103.25
241.429	93.25
241.662	83.25
241.896	80.25
242.13	76.25
242.363	90.25
242.597	85.25
242.83	88.25
243.064	101.25
243.298	99.25
243.531	86.25
243.765	87.25
243.998	97.25
244.232	96.25
244.465	93.25
244.699	96.25
244.932	93.25
245.166	88.25
245.399	91.25
245.633	96.25
245.866	104.25
246.099	101.25
246.333	96.25
246.566	99.25
246.8	99.25
247.033	99.25
247.266	89.25
247.5	101.25
247.733	103.25
247.966	80.25
248.2	85.25
248.433	93.25
248.666	95.25
248.899	93.25
249.133	86.25
249.366	94.25
249.599	95.25
249.832	89.25
250.066	100.25
250.299	89.25
250.532	96.25
250.765	95.25
250.998	75.25
251.231	89.25
251.465	90.25
251.698	90.25
251.931	102.25
252.164	114.25
252.397	88.25
252.63	98.25
252.863	100.25
253.096	104.25
253.329	96.25
253.562	109.25
253.795	85.25
254.028	102.25
254.261	108.25
254.494	94.25
254.727	118.25
254.96	105.25
255.193	90.25
255.426	87.25
255.659	104.25
255.892	104.25
256.124	102.25
256.357	97.25
256.59	100.25
256.823	102.25
257.056	96.25
257.289	112.25
257.521	87.25
257.754	90.25
257.987	112.25
258.22	101.25
258.452	103.25
258.685	89.25
258.918	88.25
259.151	92.25
259.383	114.25
259.616	109.25
259.849	102.25
260.081	109.25
260.314	103.25
260.547	95.25
260.779	96.25
261.012	97.25
261.244	99.25
261.477	121.25
261.71	101.25
261.942	90.25
262.175	106.25
262.407	105.25
262.64	103.25
262.872	84.25
263.105	105.25
263.337	107.25
263.57	94.25
263.802	103.25
264.035	108.25
264.267	110.25
264.499	112.25
264.732	116.25
264.964	105.25
265.197	103.25
265.429	114.25
265.661	102.25
265.894	104.25
266.126	109.25
266.358	106.25
266.591	92.25
266.823	102.25
267.055	105.25
267.287	97.25
267.52	111.25
267.752	101.25
267.984	102.25
268.216	105.25
268.448	112.25
268.681	111.25
268.913	118.25
269.145	115.25
269.377	102.25
269.609	91.25
269.841	120.25
270.073	99.25
270.306	116.25
270.538	111.25
270.77	105.25
271.002	107.25
271.234	111.25
271.466	117.25
271.698	113.25
271.93	115.25
272.162	115.25
272.394	113.25
272.626	113.25
272.858	106.25
273.09	115.25
273.322	102.25
273.553	114.25
273.785	122.25
274.017	112.25
274.249	110.25
274.481	98.25
274.713	110.25
274.945	118.25
275.176	121.25
275.408	125.25
275.64	125.25
275.872	121.25
276.104	116.25
276.335	121.25
276.567	110.25
276.799	117.25
277.031	109.25
277.262	128.25
277.494	123.25
277.726	120.25
277.957	116.25
278.189	114.25
278.421	105.25
278.652	118.25
278.884	107.25
279.115	113.25
279.347	112.25
279.579	129.25
279.81	116.25
280.042	123.25
280.273	120.25
280.505	111.25
280.736	106.25
280.968	120.25
281.199	128.25
281.431	119.25
281.662	132.25
281.894	117.25
282.125	125.25
282.356	123.25
282.588	122.25
282.819	123.25
283.051	115.25
283.282	116.25
283.513	117.25
283.745	114.25
283.976	137.25
284.207	124.25
284.439	126.25
284.67	144.25
284.901	125.25
285.132	129.25
285.364	113.25
285.595	130.25
285.826	124.25
286.057	143.25
286.288	124.25
286.52	114.25
286.751	118.25
286.982	136.25
287.213	124.25
287.444	122.25
287.675	125.25
287.906	119.25
288.138	135.25
288.369	135.25
288.6	113.25
288.831	117.25
289.062	116.25
289.293	122.25
289.524	120.25
289.755	112.25
289.986	119.25
290.217	127.25
290.448	132.25
290.679	145.25
290.91	132.25
291.141	119.25
291.371	138.25
291.602	142.25
291.833	129.25
292.064	125.25
292.295	133.25
292.526	139.25
292.757	124.25
292.987	131.25
293.218	130.25
293.449	130.25
293.68	128.25
293.91	122.25
294.141	156.25
294.372	131.25
294.603	117.25
294.833	121.25
295.064	127.25
295.295	122.25
295.525	134.25
295.756	133.25
295.987	139.25
296.217	121.25
296.448	140.25
296.679	138.25
296.909	135.25
297.14	126.25
297.37	135.25
297.601	140.25
297.831	148.25
298.062	119.25
298.292	115.25
298.523	126.25
298.753	134.25
298.984	131.25
299.214	135.25
299.445	130.25
299.675	135.25
299.905	131.25
300.136	151.25
300.366	124.25
300.597	144.25
300.827	137.25
301.057	123.25
301.288	139.25
301.518	133.25
301.748	153.25
301.979	165.25
302.209	151.25
302.439	145.25
302.669	142.25
302.9	143.25
303.13	136.25
303.36	145.25
303.59	136.25
303.82	133.25
304.051	130.25
304.281	133.25
304.511	135.25
304.741	136.25
304.971	140.25
305.201	142.25
305.431	147.25
305.661	134.25
305.891	126.25
306.121	151.25
306.352	138.25
306.582	144.25
306.812	148.25
307.042	118.25
307.272	114.25
307.502	132.25
307.731	136.25
307.961	135.25
308.191	119.25
308.421	136.25
308.651	134.25
308.881	152.25
309.111	129.25
309.341	129.25
309.571	134.25
309.8	131.25
310.03	144.25
310.26	128.25
310.49	134.25
310.72	134.25
310.949	124.25
311.179	132.25
311.409	140.25
311.639	151.25
311.868	158.25
312.098	154.25
312.328	159.25
312.557	135.25
312.787	143.25
313.017	150.25
313.246	149.25
313.476	160.25
313.706	145.25
313.935	144.25
314.165	143.25
314.394	144.25
314.624	136.25
314.853	155.25
315.083	132.25
315.312	133.25
315.542	144.25
315.771	132.25
316.001	148.25
316.23	159.25
316.46	143.25
316.689	139.25
316.919	127.25
317.148	145.25
317.377	154.25
317.607	142.25
317.836	135.25
318.065	139.25
318.295	124.25
318.524	132.25
318.753	140.25
318.983	130.25
319.212	155.25
319.441	144.25
319.67	146.25
319.9	119.25
320.129	141.25
320.358	149.25
320.587	136.25
320.816	131.25
321.046	163.25
321.275	136.25
321.504	139.25
321.733	143.25
321.962	140.25
322.191	140.25
322.42	157.25
322.649	147.25
322.878	142.25
323.108	154.25
323.337	133.25
323.566	134.25
323.795	139.25
324.024	155.25
324.253	151.25
324.482	149.25
324.71	146.25
324.939	162.25
325.168	148.25
325.397	143.25
325.626	159.25
325.855	131.25
326.084	140.25
326.313	146.25
326.542	155.25
326.77	147.25
326.999	149.25
327.228	144.25
327.457	137.25
327.686	159.25
327.914	143.25
328.143	161.25
328.372	145.25
328.6	142.25
328.829	144.25
329.058	135.25
329.287	144.25
329.515	135.25
329.744	152.25
329.972	132.25
330.201	139.25
330.43	150.25
330.658	148.25
330.887	148.25
331.115	167.25
331.344	146.25
331.572	170.25
331.801	151.25
332.03	155.25
332.258	161.25
332.486	163.25
332.715	170.25
332.943	162.25
333.172	177.25
333.4	177.25
333.629	175.25
333.857	187.25
334.085	183.25
334.314	179.25
334.542	167.25
334.771	174.25
334.999	163.25
335.227	169.25
335.455	159.25
335.684	164.25
335.912	177.25
336.14	165.25
336.369	159.25
336.597	154.25
336.825	166.25
337.053	165.25
337.281	157.25
337.51	146.25
337.738	173.25
337.966	148.25
338.194	156.25
338.422	166.25
338.65	177.25
338.878	180.25
339.106	156.25
339.334	165.25
339.562	160.25
339.79	146.25
340.018	165.25
340.246	143.25
340.474	144.25
340.702	164.25
340.93	145.25
341.158	136.25
341.386	149.25
341.614	149.25
341.842	151.25
342.07	146.25
342.298	166.25
342.526	149.25
342.754	174.25
342.981	157.25
343.209	162.25
343.437	191.25
343.665	161.25
343.893	166.25
344.12	167.25
344.348	168.25
344.576	180.25
344.804	147.25
345.031	161.25
345.259	155.25
345.487	160.25
345.714	139.25
345.942	154.25
346.17	151.25
346.397	150.25
346.625	158.25
346.853	135.25
347.08	150.25
347.308	144.25
347.535	145.25
347.763	155.25
347.99	174.25
348.218	143.25
348.445	132.25
348.673	153.25
348.9	163.25
349.128	161.25
349.355	136.25
349.583	139.25
349.81	147.25
350.037	147.25
350.265	161.25
350.492	141.25
350.72	151.25
350.947	142.25
351.174	152.25
351.402	168.25
351.629	156.25
351.856	143.25
352.083	145.25
352.311	156.25
352.538	134.25
352.765	157.25
352.992	167.25
353.22	152.25
353.447	155.25
353.674	140.25
353.901	156.25
354.128	156.25
354.355	142.25
354.583	155.25
354.81	140.25
355.037	132.25
355.264	143.25
355.491	146.25
355.718	132.25
355.945	146.25
356.172	148.25
356.399	145.25
356.626	154.25
356.853	150.25
357.08	169.25
357.307	139.25
357.534	150.25
357.761	153.25
357.988	159.25
358.215	162.25
358.441	137.25
358.668	148.25
358.895	142.25
359.122	140.25
359.349	133.25
359.576	144.25
359.802	134.25
360.029	144.25
360.256	143.25
360.483	143.25
360.709	148.25
360.936	165.25
361.163	151.25
361.39	135.25
361.616	157.25
361.843	157.25
362.07	153.25
362.296	155.25
362.523	144.25
362.749	163.25
362.976	157.25
363.203	158.25
363.429	139.25
363.656	158.25
363.882	133.25
364.109	151.25
364.335	153.25
364.562	156.25
364.788	157.25
365.015	147.25
365.241	148.25
365.468	152.25
365.694	143.25
365.92	158.25
366.147	140.25
366.373	127.25
366.599	144.25
366.826	152.25
367.052	135.25
367.278	145.25
367.505	145.25
367.731	163.25
367.957	167.25
368.184	156.25
368.41	157.25
368.636	171.25
368.862	159.25
369.089	167.25
369.315	168.25
369.541	160.25
369.767	147.25
369.993	146.25
370.219	160.25
370.445	164.25
370.672	174.25
370.898	159.25
371.124	140.25
371.35	145.25
371.576	152.25
371.802	169.25
372.028	164.25
372.254	140.25
372.48	151.25
372.706	154.25
372.932	169.25
373.158	167.25
373.384	167.25
373.61	165.25
373.835	159.25
374.061	166.25
374.287	152.25
374.513	151.25
374.739	150.25
374.965	156.25
375.191	167.25
375.416	173.25
375.642	153.25
375.868	155.25
376.094	161.25
376.319	148.25
376.545	157.25
376.771	167.25
376.997	162.25
377.222	157.25
377.448	160.25
377.674	162.25
377.899	159.25
378.125	155.25
378.35	168.25
378.576	145.25
378.802	152.25
379.027	158.25
379.253	173.25
379.478	140.25
379.704	164.25
379.929	161.25
380.155	166.25
380.38	148.25
380.606	149.25
380.831	160.25
381.057	175.25
381.282	133.25
381.507	155.25
381.733	163.25
381.958	173.25
382.184	165.25
382.409	159.25
382.634	172.25
382.86	163.25
383.085	177.25
383.31	165.25
383.535	180.25
383.761	182.25
383.986	181.25
384.211	177.25
384.436	156.25
384.662	170.25
384.887	167.25
385.112	179.25
385.337	172.25
385.562	176.25
385.787	179.25
386.013	181.25
386.238	178.25
386.463	164.25
386.688	205.25
386.913	175.25
387.138	175.25
387.363	194.25
387.588	182.25
387.813	173.25
388.038	195.25
388.263	182.25
388.488	164.25
388.713	177.25
388.938	173.25
389.163	162.25
389.387	169.25
389.612	180.25
389.837	184.25
390.062	178.25
390.287	175.25
390.512	169.25
390.736	185.25
390.961	166.25
391.186	190.25
391.411	167.25
391.636	180.25
391.86	188.25
392.085	180.25
392.31	193.25
392.534	185.25
392.759	197.25
392.984	179.25
393.208	177.25
393.433	169.25
393.658	182.25
393.882	175.25
394.107	177.25
394.331	181.25
394.556	181.25
394.78	191.25
395.005	191.25
395.229	189.25
395.454	200.25
395.678	177.25
395.903	192.25
396.127	188.25
396.352	179.25
396.576	176.25
396.801	182.25
397.025	176.25
397.249	205.25
397.474	188.25
397.698	200.25
397.922	203.25
398.147	201.25
398.371	183.25
398.595	217.25
398.82	220.25
399.044	211.25
399.268	231.25
399.492	269.25
399.717	275.25
399.941	252.25
400.165	252.25
400.389	222.25
400.613	217.25
400.837	207.25
401.062	202.25
401.286	217.25
401.51	204.25
401.734	193.25
401.958	208.25
402.182	218.25
402.406	205.25
402.63	200.25
402.854	216.25
403.078	212.25
403.302	232.25
403.526	233.25
403.75	240.25
403.974	241.25
404.198	217.25
404.422	240.25
404.645	215.25
404.869	222.25
405.093	232.25
405.317	200.25
405.541	218.25
405.765	228.25
405.988	210.25
406.212	220.25
406.436	216.25
406.66	228.25
406.883	213.25
407.107	241.25
407.331	242.25
407.555	242.25
407.778	233.25
408.002	229.25
408.226	229.25
408.449	225.25
408.673	227.25
408.896	226.25
409.12	210.25
409.344	224.25
409.567	228.25
409.791	230.25
410.014	229.25
410.238	226.25
410.461	223.25
410.685	217.25
410.908	217.25
411.132	224.25
411.355	211.25
411.578	223.25
411.802	226.25
412.025	221.25
412.249	207.25
412.472	214.25
412.695	206.25
412.919	205.25
413.142	214.25
413.365	209.25
413.589	201.25
413.812	193.25
414.035	221.25
414.258	206.25
414.482	213.25
414.705	216.25
414.928	211.25
415.151	211.25
415.374	227.25
415.597	197.25
415.821	194.25
416.044	201.25
416.267	212.25
416.49	215.25
416.713	216.25
416.936	218.25
417.159	195.25
417.382	199.25
417.605	209.25
417.828	204.25
418.051	200.25
418.274	236.25
418.497	191.25
418.72	198.25
418.943	229.25
419.166	208.25
419.389	235.25
419.611	211.25
419.834	210.25
420.057	201.25
420.28	213.25
420.503	213.25
420.726	194.25
420.948	198.25
421.171	208.25
421.394	213.25
421.617	209.25
421.839	242.25
422.062	220.25
422.285	199.25
422.507	211.25
422.73	213.25
422.953	230.25
423.175	187.25
423.398	220.25
423.621	214.25
423.843	215.25
424.066	226.25
424.288	211.25
424.511	216.25
424.733	219.25
424.956	215.25
425.178	201.25
425.401	201.25
425.623	193.25
425.846	201.25
426.068	205.25
426.291	212.25
426.513	200.25
426.735	197.25
426.958	193.25
427.18	196.25
427.402	180.25
427.625	184.25
427.847	182.25
428.069	196.25
428.292	187.25
428.514	189.25
428.736	182.25
428.958	189.25
429.181	193.25
429.403	189.25
429.625	172.25
429.847	193.25
430.069	183.25
430.292	185.25
430.514	174.25
430.736	185.25
430.958	195.25
431.18	183.25
431.402	189.25
431.624	167.25
431.846	172.25
432.068	203.25
432.29	201.25
432.512	205.25
432.734	191.25
432.956	190.25
433.178	183.25
433.4	176.25
433.622	204.25
433.844	194.25
434.066	197.25
434.287	209.25
434.509	192.25
434.731	206.25
434.953	205.25
435.175	208.25
435.397	214.25
435.618	205.25
435.84	174.25
436.062	185.25
436.284	189.25
436.505	192.25
436.727	190.25
436.949	192.25
437.17	171.25
437.392	194.25
437.614	183.25
437.835	193.25
438.057	182.25
438.278	190.25
438.5	191.25
438.721	199.25
438.943	182.25
439.165	193.25
439.386	173.25
439.608	212.25
439.829	203.25
440.05	186.25
440.272	197.25
440.493	193.25
440.715	184.25
440.936	206.25
441.158	217.25
441.379	204.25
441.6	203.25
441.822	209.25
442.043	206.25
442.264	196.25
442.486	200.25
442.707	208.25
442.928	205.25
443.149	206.25
443.371	214.25
443.592	196.25
443.813	213.25
444.034	207.25
444.255	212.25
444.476	233.25
444.698	225.25
444.919	253.25
445.14	406.25
445.361	293.25
445.582	211.25
445.803	195.25
446.024	209.25
446.245	216.25
446.466	198.25
446.687	196.25
446.908	193.25
447.129	207.25
447.35	168.25
447.571	187.25
447.792	195.25
448.013	180.25
448.234	180.25
448.455	180.25
448.675	179.25
448.896	162.25
449.117	177.25
449.338	171.25
449.559	171.25
449.779	174.25
450	185.25
450.221	181.25
450.442	196.25
450.662	200.25
450.883	185.25
451.104	190.25
451.324	169.25
451.545	187.25
451.766	185.25
451.986	181.25
452.207	163.25
452.428	182.25
452.648	190.25
452.869	187.25
453.089	174.25
453.31	180.25
453.53	183.25
453.751	184.25
453.971	173.25
454.192	183.25
454.412	153.25
454.633	177.25
454.853	178.25
455.073	180.25
455.294	172.25
455.514	176.25
455.734	185.25
455.955	169.25
456.175	161.25
456.395	183.25
456.616	179.25
456.836	163.25
457.056	162.25
457.276	167.25
457.497	163.25
457.717	163.25
457.937	179.25
458.157	172.25
458.377	184.25
458.598	167.25
458.818	179.25
459.038	186.25
459.258	182.25
459.478	191.25
459.698	203.25
459.918	219.25
460.138	209.25
460.358	221.25
460.578	220.25
460.798	212.25
461.018	228.25
461.238	222.25
461.458	212.25
461.678	224.25
461.898	212.25
462.118	221.25
462.338	232.25
462.558	232.25
462.777	237.25
462.997	271.25
463.217	262.25
463.437	269.25
463.657	252.25
463.876	229.25
464.096	228.25
464.316	249.25
464.536	243.25
464.755	231.25
464.975	215.25
465.195	233.25
465.414	221.25
465.634	208.25
465.854	203.25
466.073	193.25
466.293	190.25
466.512	200.25
466.732	180.25
466.951	181.25
467.171	190.25
467.391	191.25
467.61	192.25
467.829	186.25
468.049	197.25
468.268	166.25
468.488	178.25
468.707	203.25
468.927	173.25
469.146	187.25
469.365	184.25
469.585	191.25
469.804	193.25
470.023	197.25
470.243	197.25
470.462	215.25
470.681	211.25
470.901	196.25
471.12	183.25
471.339	169.25
471.558	191.25
471.777	172.25
471.997	190.25
472.216	189.25
472.435	176.25
472.654	158.25
472.873	193.25
473.092	181.25
473.311	187.25
473.53	177.25
473.749	187.25
473.968	177.25
474.187	177.25
474.406	191.25
474.625	176.25
474.844	173.25
475.063	179.25
475.282	173.25
475.501	189.25
475.72	206.25
475.939	187.25
476.158	189.25
476.377	191.25
476.596	197.25
476.814	175.25
477.033	190.25
477.252	175.25
477.471	191.25
477.69	200.25
477.908	207.25
478.127	207.25
478.346	217.25
478.564	215.25
478.783	219.25
479.002	214.25
479.22	213.25
479.439	220.25
479.658	202.25
479.876	194.25
480.095	212.25
480.313	214.25
480.532	221.25
480.751	216.25
480.969	204.25
481.188	196.25
481.406	211.25
481.624	184.25
481.843	210.25
482.061	190.25
482.28	204.25
482.498	191.25
482.717	185.25
482.935	187.25
483.153	205.25
483.372	196.25
483.59	195.25
483.808	203.25
484.027	211.25
484.245	221.25
484.463	187.25
484.681	213.25
484.9	207.25
485.118	210.25
485.336	197.25
485.554	209.25
485.772	213.25
485.99	199.25
486.209	209.25
486.427	207.25
486.645	209.25
486.863	210.25
487.081	220.25
487.299	196.25
487.517	228.25
487.735	206.25
487.953	203.25
488.171	227.25
488.389	193.25
488.607	209.25
488.825	197.25
489.043	213.25
489.261	204.25
489.479	208.25
489.696	225.25
489.914	205.25
490.132	216.25
490.35	198.25
490.568	204.25
490.786	205.25
491.003	204.25
491.221	219.25
491.439	219.25
491.657	207.25
491.874	222.25
492.092	221.25
492.31	221.25
492.527	219.25
492.745	209.25
492.963	216.25
493.18	214.25
493.398	225.25
493.615	216.25
493.833	210.25
494.05	221.25
494.268	224.25
494.485	224.25
494.703	207.25
494.92	226.25
495.138	215.25
495.355	205.25
495.573	232.25
495.79	225.25
496.008	215.25
496.225	230.25
496.442	217.25
496.66	224.25
496.877	220.25
497.094	238.25
497.312	233.25
497.529	225.25
497.746	240.25
497.963	255.25
498.181	246.25
498.398	251.25
498.615	259.25
498.832	270.25
499.049	295.25
499.267	319.25
499.484	339.25
499.701	357.25
499.918	401.25
500.135	442.25
500.352	481.25
500.569	506.25
500.786	484.25
501.003	468.25
501.22	383.25
501.437	381.25
501.654	340.25
501.871	331.25
502.088	289.25
502.305	278.25
502.522	259.25
502.739	269.25
502.956	264.25
503.172	233.25
503.389	224.25
503.606	226.25
503.823	230.25
504.04	239.25
504.256	246.25
