Data from SampD_HRD10591_00077.txt Node
Date: Mon Jan 19 11:41:47 EST 2026
User: Yrep
Spectrometer: HR+D1059
Trigger mode: 0
Integration Time (sec): 3.443000E-1
Scans to average: 1
Electric dark correction enabled: true
Nonlinearity correction enabled: false
Boxcar width: 0
XAxis mode: Wavelengths
Number of Pixels in Spectrum: 2048
>>>>>Begin Spectral Data<<<<<
223.165	-32
223.4	-32
223.635	-32
223.869	-21
224.104	-28
224.338	-17
224.573	-13
224.808	-12
225.042	-17
225.277	-16
225.511	4
225.746	5
225.98	19
226.215	28
226.449	19
226.683	24
226.918	27
227.152	30
227.387	31
227.621	40
227.856	44
228.09	50
228.324	51
228.559	59
228.793	55
229.027	61
229.262	62
229.496	66
229.73	71
229.964	68
230.199	82
230.433	71
230.667	84
230.901	74
231.136	77
231.37	78
231.604	80
231.838	86
232.072	95
232.306	79
232.541	83
232.775	77
233.009	74
233.243	95
233.477	88
233.711	83
233.945	74
234.179	94
234.413	91
234.647	92
234.881	103
235.115	70
235.349	83
235.583	76
235.817	78
236.051	79
236.285	86
236.519	91
236.753	89
236.987	93
237.221	79
237.455	62
237.689	82
237.922	79
238.156	69
238.39	76
238.624	87
238.858	76
239.091	79
239.325	71
239.559	82
239.793	82
240.027	83
240.26	81
240.494	92
240.728	74
240.961	92
241.195	86
241.429	93
241.662	77
241.896	84
242.13	85
242.363	86
242.597	91
242.83	93
243.064	95
243.298	95
243.531	85
243.765	77
243.998	72
244.232	90
244.465	68
244.699	72
244.932	87
245.166	77
245.399	66
245.633	69
245.866	88
246.099	79
246.333	79
246.566	66
246.8	85
247.033	106
247.266	88
247.5	78
247.733	59
247.966	81
248.2	76
248.433	88
248.666	75
248.899	93
249.133	78
249.366	91
249.599	94
249.832	75
250.066	84
250.299	74
250.532	99
250.765	87
250.998	80
251.231	92
251.465	83
251.698	71
251.931	83
252.164	88
252.397	83
252.63	104
252.863	83
253.096	68
253.329	99
253.562	85
253.795	98
254.028	97
254.261	90
254.494	76
254.727	95
254.96	94
255.193	91
255.426	83
255.659	70
255.892	104
256.124	81
256.357	87
256.59	100
256.823	87
257.056	79
257.289	99
257.521	92
257.754	84
257.987	80
258.22	83
258.452	99
258.685	80
258.918	103
259.151	103
259.383	86
259.616	92
259.849	83
260.081	85
260.314	83
260.547	75
260.779	91
261.012	103
261.244	81
261.477	91
261.71	94
261.942	88
262.175	89
262.407	88
262.64	76
262.872	81
263.105	87
263.337	100
263.57	95
263.802	78
264.035	91
264.267	79
264.499	88
264.732	100
264.964	98
265.197	94
265.429	106
265.661	97
265.894	94
266.126	93
266.358	97
266.591	95
266.823	96
267.055	80
267.287	92
267.52	95
267.752	97
267.984	95
268.216	111
268.448	86
268.681	100
268.913	113
269.145	100
269.377	101
269.609	84
269.841	86
270.073	94
270.306	94
270.538	93
270.77	86
271.002	93
271.234	106
271.466	95
271.698	92
271.93	88
272.162	91
272.394	117
272.626	90
272.858	78
273.09	100
273.322	104
273.553	111
273.785	109
274.017	91
274.249	101
274.481	100
274.713	88
274.945	112
275.176	93
275.408	111
275.64	87
275.872	86
276.104	85
276.335	101
276.567	98
276.799	86
277.031	99
277.262	109
277.494	98
277.726	97
277.957	84
278.189	101
278.421	96
278.652	111
278.884	104
279.115	110
279.347	101
279.579	93
279.81	91
280.042	86
280.273	94
280.505	91
280.736	98
280.968	97
281.199	96
281.431	89
281.662	95
281.894	91
282.125	102
282.356	95
282.588	90
282.819	87
283.051	92
283.282	94
283.513	101
283.745	108
283.976	102
284.207	95
284.439	105
284.67	124
284.901	118
285.132	96
285.364	111
285.595	100
285.826	104
286.057	101
286.288	100
286.52	94
286.751	84
286.982	112
287.213	90
287.444	106
287.675	102
287.906	98
288.138	100
288.369	107
288.6	100
288.831	111
289.062	106
289.293	101
289.524	85
289.755	91
289.986	101
290.217	102
290.448	103
290.679	106
290.91	98
291.141	95
291.371	100
291.602	99
291.833	100
292.064	114
292.295	105
292.526	110
292.757	105
292.987	107
293.218	104
293.449	101
293.68	101
293.91	99
294.141	108
294.372	106
294.603	94
294.833	108
295.064	108
295.295	102
295.525	103
295.756	108
295.987	97
296.217	87
296.448	108
296.679	94
296.909	104
297.14	113
297.37	114
297.601	101
297.831	102
298.062	103
298.292	94
298.523	104
298.753	97
298.984	99
299.214	102
299.445	97
299.675	100
299.905	114
300.136	103
300.366	90
300.597	110
300.827	100
301.057	118
301.288	99
301.518	107
301.748	108
301.979	141
302.209	121
302.439	114
302.669	107
302.9	93
303.13	122
303.36	117
303.59	95
303.82	94
304.051	111
304.281	108
304.511	108
304.741	115
304.971	103
305.201	103
305.431	102
305.661	98
305.891	113
306.121	104
306.352	109
306.582	91
306.812	116
307.042	103
307.272	99
307.502	93
307.731	110
307.961	108
308.191	111
308.421	106
308.651	107
308.881	117
309.111	108
309.341	108
309.571	105
309.8	103
310.03	92
310.26	106
310.49	86
310.72	108
310.949	94
311.179	100
311.409	104
311.639	111
311.868	96
312.098	119
312.328	106
312.557	99
312.787	115
313.017	101
313.246	88
313.476	105
313.706	106
313.935	109
314.165	103
314.394	96
314.624	93
314.853	119
315.083	103
315.312	114
315.542	116
315.771	111
316.001	111
316.23	110
316.46	105
316.689	96
316.919	103
317.148	114
317.377	109
317.607	96
317.836	85
318.065	107
318.295	114
318.524	101
318.753	102
318.983	112
319.212	119
319.441	115
319.67	93
319.9	95
320.129	104
320.358	109
320.587	109
320.816	112
321.046	103
321.275	95
321.504	92
321.733	95
321.962	108
322.191	99
322.42	98
322.649	107
322.878	109
323.108	106
323.337	98
323.566	107
323.795	108
324.024	96
324.253	104
324.482	123
324.71	121
324.939	111
325.168	101
325.397	111
325.626	114
325.855	115
326.084	99
326.313	92
326.542	112
326.77	113
326.999	104
327.228	109
327.457	107
327.686	98
327.914	105
328.143	123
328.372	108
328.6	117
328.829	114
329.058	117
329.287	114
329.515	116
329.744	100
329.972	102
330.201	97
330.43	118
330.658	104
330.887	103
331.115	121
331.344	98
331.572	116
331.801	100
332.03	116
332.258	106
332.486	110
332.715	104
332.943	123
333.172	118
333.4	119
333.629	129
333.857	111
334.085	123
334.314	127
334.542	117
334.771	118
334.999	118
335.227	114
335.455	120
335.684	113
335.912	124
336.14	118
336.369	114
336.597	122
336.825	111
337.053	111
337.281	119
337.51	96
337.738	121
337.966	111
338.194	110
338.422	117
338.65	117
338.878	125
339.106	111
339.334	123
339.562	106
339.79	107
340.018	105
340.246	111
340.474	116
340.702	122
340.93	114
341.158	99
341.386	102
341.614	103
341.842	114
342.07	98
342.298	109
342.526	106
342.754	113
342.981	114
343.209	108
343.437	158
343.665	110
343.893	94
344.12	120
344.348	138
344.576	110
344.804	110
345.031	103
345.259	109
345.487	98
345.714	98
345.942	103
346.17	117
346.397	99
346.625	114
346.853	111
347.08	112
347.308	105
347.535	103
347.763	101
347.99	107
348.218	104
348.445	98
348.673	106
348.9	110
349.128	105
349.355	107
349.583	110
349.81	97
350.037	88
350.265	118
350.492	98
350.72	109
350.947	114
351.174	121
351.402	110
351.629	99
351.856	102
352.083	95
352.311	109
352.538	115
352.765	105
352.992	117
353.22	117
353.447	114
353.674	114
353.901	100
354.128	101
354.355	99
354.583	105
354.81	101
355.037	126
355.264	119
355.491	103
355.718	85
355.945	108
356.172	122
356.399	99
356.626	122
356.853	125
357.08	109
357.307	110
357.534	113
357.761	103
357.988	124
358.215	119
358.441	110
358.668	104
358.895	109
359.122	103
359.349	95
359.576	112
359.802	119
360.029	111
360.256	110
360.483	103
360.709	110
360.936	111
361.163	113
361.39	109
361.616	78
361.843	111
362.07	108
362.296	110
362.523	102
362.749	106
362.976	116
363.203	137
363.429	107
363.656	111
363.882	117
364.109	109
364.335	115
364.562	113
364.788	97
365.015	116
365.241	103
365.468	103
365.694	98
365.92	113
366.147	101
366.373	108
366.599	103
366.826	100
367.052	107
367.278	116
367.505	110
367.731	122
367.957	110
368.184	105
368.41	113
368.636	114
368.862	118
369.089	113
369.315	99
369.541	130
369.767	104
369.993	107
370.219	105
370.445	93
370.672	115
370.898	116
371.124	115
371.35	101
371.576	99
371.802	98
372.028	125
372.254	106
372.48	106
372.706	104
372.932	118
373.158	124
373.384	110
373.61	110
373.835	91
374.061	106
374.287	109
374.513	122
374.739	112
374.965	106
375.191	113
375.416	102
375.642	119
375.868	113
376.094	128
376.319	118
376.545	120
376.771	115
376.997	115
377.222	112
377.448	122
377.674	103
377.899	110
378.125	111
378.35	121
378.576	120
378.802	100
379.027	102
379.253	121
379.478	115
379.704	104
379.929	119
380.155	96
380.38	100
380.606	108
380.831	117
381.057	115
381.282	116
381.507	104
381.733	118
381.958	101
382.184	105
382.409	123
382.634	116
382.86	116
383.085	123
383.31	107
383.535	122
383.761	122
383.986	122
384.211	108
384.436	125
384.662	125
384.887	112
385.112	111
385.337	116
385.562	117
385.787	116
386.013	132
386.238	116
386.463	118
386.688	165
386.913	109
387.138	104
387.363	116
387.588	115
387.813	119
388.038	112
388.263	133
388.488	115
388.713	111
388.938	118
389.163	119
389.387	117
389.612	112
389.837	110
390.062	114
390.287	120
390.512	114
390.736	114
390.961	111
391.186	120
391.411	117
391.636	126
391.86	109
392.085	121
392.31	113
392.534	123
392.759	129
392.984	123
393.208	127
393.433	123
393.658	123
393.882	132
394.107	112
394.331	122
394.556	119
394.78	106
395.005	117
395.229	121
395.454	114
395.678	117
395.903	119
396.127	122
396.352	122
396.576	131
396.801	122
397.025	107
397.249	130
397.474	122
397.698	127
397.922	140
398.147	113
398.371	116
398.595	114
398.82	124
399.044	128
399.268	146
399.492	146
399.717	174
399.941	164
400.165	144
400.389	139
400.613	124
400.837	140
401.062	132
401.286	125
401.51	125
401.734	114
401.958	132
402.182	124
402.406	135
402.63	133
402.854	130
403.078	122
403.302	124
403.526	147
403.75	140
403.974	134
404.198	144
404.422	153
404.645	153
404.869	136
405.093	123
405.317	140
405.541	137
405.765	138
405.988	133
406.212	131
406.436	123
406.66	129
406.883	124
407.107	134
407.331	131
407.555	139
407.778	148
408.002	132
408.226	142
408.449	136
408.673	138
408.896	133
409.12	127
409.344	143
409.567	132
409.791	130
410.014	142
410.238	141
410.461	135
410.685	143
410.908	139
411.132	140
411.355	122
411.578	141
411.802	128
412.025	132
412.249	117
412.472	125
412.695	137
412.919	122
413.142	138
413.365	115
413.589	114
413.812	130
414.035	141
414.258	148
414.482	136
414.705	143
414.928	118
415.151	134
415.374	131
415.597	128
415.821	127
416.044	124
416.267	116
416.49	133
416.713	134
416.936	141
417.159	130
417.382	118
417.605	123
417.828	140
418.051	122
418.274	124
418.497	131
418.72	138
418.943	138
419.166	135
419.389	128
419.611	121
419.834	140
420.057	123
420.28	126
420.503	130
420.726	133
420.948	119
421.171	127
421.394	133
421.617	131
421.839	124
422.062	135
422.285	134
422.507	136
422.73	130
422.953	129
423.175	133
423.398	140
423.621	138
423.843	127
424.066	128
424.288	140
424.511	135
424.733	136
424.956	128
425.178	117
425.401	107
425.623	102
425.846	135
426.068	124
426.291	135
426.513	117
426.735	135
426.958	117
427.18	120
427.402	134
427.625	108
427.847	108
428.069	134
428.292	116
428.514	131
428.736	130
428.958	126
429.181	130
429.403	127
429.625	127
429.847	132
430.069	102
430.292	133
430.514	128
430.736	116
430.958	118
431.18	113
431.402	126
431.624	115
431.846	124
432.068	109
432.29	110
432.512	134
432.734	134
432.956	135
433.178	129
433.4	104
433.622	135
433.844	140
434.066	137
434.287	110
434.509	133
434.731	130
434.953	102
435.175	124
435.397	134
435.618	119
435.84	134
436.062	119
436.284	118
436.505	131
436.727	124
436.949	120
437.17	124
437.392	116
437.614	117
437.835	122
438.057	127
438.278	127
438.5	116
438.721	107
438.943	118
439.165	126
439.386	131
439.608	131
439.829	122
440.05	117
440.272	110
440.493	120
440.715	113
440.936	122
441.158	126
441.379	133
441.6	130
441.822	128
442.043	145
442.264	118
442.486	132
442.707	128
442.928	125
443.149	125
443.371	136
443.592	135
443.813	135
444.034	143
444.255	140
444.476	128
444.698	146
444.919	129
445.14	385
445.361	253
445.582	138
445.803	118
446.024	123
446.245	131
446.466	124
446.687	127
446.908	119
447.129	118
447.35	135
447.571	118
447.792	117
448.013	116
448.234	114
448.455	113
448.675	112
448.896	115
449.117	115
449.338	114
449.559	112
449.779	111
450	120
450.221	123
450.442	128
450.662	126
450.883	121
451.104	123
451.324	116
451.545	115
451.766	119
451.986	113
452.207	118
452.428	101
452.648	122
452.869	110
453.089	105
453.31	114
453.53	116
453.751	112
453.971	131
454.192	113
454.412	111
454.633	124
454.853	117
455.073	115
455.294	119
455.514	124
455.734	114
455.955	105
456.175	113
456.395	108
456.616	116
456.836	120
457.056	127
457.276	119
457.497	98
457.717	123
457.937	108
458.157	116
458.377	117
458.598	113
458.818	105
459.038	127
459.258	118
459.478	106
459.698	117
459.918	136
460.138	154
460.358	117
460.578	133
460.798	132
461.018	138
461.238	144
461.458	137
461.678	136
461.898	125
462.118	137
462.338	127
462.558	150
462.777	150
462.997	148
463.217	159
463.437	141
463.657	144
463.876	152
464.096	141
464.316	133
464.536	145
464.755	131
464.975	139
465.195	132
465.414	146
465.634	117
465.854	131
466.073	126
466.293	114
466.512	129
466.732	118
466.951	115
467.171	121
467.391	129
467.61	125
467.829	124
468.049	118
468.268	95
468.488	128
468.707	125
468.927	119
469.146	116
469.365	132
469.585	116
469.804	127
470.023	120
470.243	113
470.462	129
470.681	123
470.901	116
471.12	128
471.339	130
471.558	107
471.777	118
471.997	129
472.216	132
472.435	125
472.654	122
472.873	128
473.092	123
473.311	129
473.53	124
473.749	127
473.968	119
474.187	114
474.406	117
474.625	118
474.844	118
475.063	112
475.282	128
475.501	115
475.72	116
475.939	122
476.158	123
476.377	119
476.596	124
476.814	147
477.033	119
477.252	132
477.471	126
477.69	115
477.908	131
478.127	133
478.346	133
478.564	142
478.783	119
479.002	131
479.22	126
479.439	136
479.658	142
479.876	141
480.095	131
480.313	126
480.532	137
480.751	151
480.969	121
481.188	123
481.406	125
481.624	118
481.843	119
482.061	115
482.28	124
482.498	121
482.717	128
482.935	119
483.153	127
483.372	139
483.59	127
483.808	132
484.027	133
484.245	133
484.463	121
484.681	131
484.9	130
485.118	121
485.336	122
485.554	127
485.772	115
485.99	130
486.209	140
486.427	122
486.645	142
486.863	125
487.081	122
487.299	125
487.517	122
487.735	142
487.953	133
488.171	126
488.389	112
488.607	121
488.825	124
489.043	117
489.261	154
489.479	126
489.696	126
489.914	118
490.132	134
490.35	120
490.568	115
490.786	132
491.003	130
491.221	145
491.439	136
491.657	126
491.874	136
492.092	140
492.31	140
492.527	149
492.745	137
492.963	142
493.18	136
493.398	129
493.615	128
493.833	127
494.05	121
494.268	141
494.485	150
494.703	132
494.92	140
495.138	139
495.355	142
495.573	145
495.79	122
496.008	140
496.225	124
496.442	128
496.66	147
496.877	132
497.094	160
497.312	140
497.529	144
497.746	158
497.963	141
498.181	142
498.398	155
498.615	158
498.832	154
499.049	176
499.267	184
499.484	191
499.701	198
499.918	206
500.135	231
500.352	271
500.569	254
500.786	261
501.003	247
501.22	223
501.437	208
501.654	188
501.871	168
502.088	180
502.305	155
502.522	154
502.739	143
502.956	152
503.172	160
503.389	142
503.606	133
503.823	149
504.04	136
504.256	158
504.473	145
504.69	159
504.907	167
505.123	133
505.34	130
505.557	138
505.773	135
505.99	131
506.207	122
506.423	130
506.64	129
506.856	122
507.073	128
507.289	132
507.506	117
507.722	110
507.939	123
508.155	121
508.372	128
508.588	130
508.805	144
509.021	121
509.238	134
509.454	108
509.67	125
509.887	111
510.103	118
510.319	116
510.536	113
510.752	124
510.968	115
511.184	123
511.401	116
511.617	130
511.833	114
512.049	132
512.265	128
512.481	123
512.698	114
512.914	136
513.13	137
513.346	116
513.562	116
513.778	130
513.994	128
514.21	118
514.426	124
514.642	129
514.858	117
515.074	117
515.29	133
515.506	131
515.721	124
515.937	128
516.153	130
516.369	131
516.585	144
516.801	124
517.016	149
517.232	138
517.448	138
517.664	144
517.879	136
518.095	124
518.311	131
518.527	142
518.742	128
518.958	143
519.173	152
519.389	129
519.605	131
519.82	121
520.036	150
520.251	126
520.467	122
520.682	110
520.898	119
521.113	123
521.329	124
521.544	132
521.76	123
521.975	118
522.19	119
522.406	116
522.621	131
522.836	129
523.052	119
523.267	122
523.482	116
523.698	112
523.913	112
524.128	110
524.343	127
524.559	122
524.774	114
524.989	132
525.204	134
525.419	117
525.634	129
525.849	126
526.064	115
526.28	119
526.495	106
526.71	108
526.925	123
527.14	107
527.355	113
527.57	96
527.785	112
527.999	107
528.214	114
528.429	118
528.644	134
528.859	104
529.074	124
529.289	117
529.503	106
529.718	118
529.933	110
530.148	117
530.363	128
530.577	135
530.792	98
531.007	115
531.221	128
531.436	111
531.651	124
531.865	129
532.08	108
532.295	124
532.509	119
532.724	117
532.938	125
533.153	108
533.367	119
533.582	111
533.796	131
534.011	119
534.225	119
534.44	120
534.654	125
534.868	111
535.083	124
535.297	141
535.511	122
535.726	114
535.94	112
536.154	113
536.369	121
536.583	99
536.797	125
537.011	107
537.225	99
537.44	116
537.654	126
537.868	121
538.082	107
538.296	127
538.51	112
538.724	119
538.938	117
539.153	123
539.367	114
539.581	107
539.795	122
540.009	116
540.222	108
540.436	118
540.65	111
540.864	117
541.078	107
541.292	114
541.506	123
541.72	130
541.934	124
542.147	140
542.361	117
542.575	111
542.789	118
543.002	122
543.216	110
543.43	115
543.644	118
543.857	111
544.071	111
544.285	110
544.498	109
544.712	127
544.925	113
545.139	115
545.352	129
545.566	114
545.779	128
545.993	127
546.206	109
546.42	109
546.633	121
546.847	126
547.06	119
547.274	118
547.487	130
547.7	121
547.914	129
548.127	113
548.34	129
548.554	116
548.767	102
548.98	118
549.193	114
549.407	128
549.62	127
549.833	114
550.046	110
550.259	115
550.473	115
550.686	131
550.899	131
551.112	134
551.325	128
551.538	123
551.751	124
551.964	115
552.177	123
552.39	134
552.603	126
552.816	119
553.029	114
553.242	129
553.455	139
553.667	122
553.88	138
554.093	122
554.306	129
554.519	118
554.732	123
554.944	131
555.157	108
555.37	120
555.583	109
555.795	114
556.008	122
556.221	113
556.433	117
556.646	117
556.859	127
557.071	124
557.284	107
557.496	119
557.709	123
557.921	113
558.134	115
558.346	122
558.559	110
558.771	109
558.984	113
559.196	123
559.409	106
559.621	108
559.833	129
560.046	112
560.258	120
560.47	110
560.683	121
560.895	99
561.107	114
561.32	98
561.532	122
561.744	118
561.956	121
562.168	114
562.381	112
562.593	100
562.805	114
563.017	120
563.229	102
563.441	110
563.653	111
563.865	125
564.077	118
564.289	134
564.501	115
564.713	131
564.925	128
565.137	123
565.349	130
565.561	122
565.773	122
565.985	122
566.197	139
566.408	126
566.62	144
566.832	128
567.044	145
567.255	140
567.467	145
567.679	139
567.891	154
568.102	144
568.314	151
568.526	126
568.737	136
568.949	128
569.161	103
