Data from SampD_HRD10591_00037.txt Node
Date: Mon Jan 19 11:41:33 EST 2026
User: Yrep
Spectrometer: HR+D1059
Trigger mode: 0
Integration Time (sec): 3.443000E-1
Scans to average: 1
Electric dark correction enabled: true
Nonlinearity correction enabled: false
Boxcar width: 0
XAxis mode: Wavelengths
Number of Pixels in Spectrum: 2048
>>>>>Begin Spectral Data<<<<<
223.165	-17.5
223.4	-17.5
223.635	-17.5
223.869	-27.5
224.104	-25.5
224.338	-11.5
224.573	0.5
224.808	-15.5
225.042	-22.5
225.277	-20.5
225.511	11.5
225.746	20.5
225.98	4.5
226.215	16.5
226.449	26.5
226.683	22.5
226.918	13.5
227.152	24.5
227.387	24.5
227.621	33.5
227.856	54.5
228.09	38.5
228.324	37.5
228.559	48.5
228.793	67.5
229.027	60.5
229.262	59.5
229.496	81.5
229.73	81.5
229.964	77.5
230.199	79.5
230.433	85.5
230.667	77.5
230.901	77.5
231.136	72.5
231.37	88.5
231.604	93.5
231.838	95.5
232.072	80.5
232.306	84.5
232.541	92.5
232.775	86.5
233.009	84.5
233.243	69.5
233.477	84.5
233.711	82.5
233.945	74.5
234.179	86.5
234.413	103.5
234.647	81.5
234.881	92.5
235.115	91.5
235.349	81.5
235.583	88.5
235.817	93.5
236.051	85.5
236.285	80.5
236.519	81.5
236.753	80.5
236.987	85.5
237.221	86.5
237.455	72.5
237.689	75.5
237.922	88.5
238.156	86.5
238.39	82.5
238.624	84.5
238.858	72.5
239.091	88.5
239.325	72.5
239.559	90.5
239.793	79.5
240.027	91.5
240.26	69.5
240.494	94.5
240.728	89.5
240.961	81.5
241.195	74.5
241.429	72.5
241.662	80.5
241.896	82.5
242.13	86.5
242.363	84.5
242.597	85.5
242.83	86.5
243.064	81.5
243.298	84.5
243.531	81.5
243.765	97.5
243.998	76.5
244.232	94.5
244.465	89.5
244.699	86.5
244.932	80.5
245.166	94.5
245.399	81.5
245.633	96.5
245.866	80.5
246.099	89.5
246.333	82.5
246.566	89.5
246.8	77.5
247.033	90.5
247.266	80.5
247.5	79.5
247.733	90.5
247.966	91.5
248.2	78.5
248.433	84.5
248.666	86.5
248.899	84.5
249.133	96.5
249.366	88.5
249.599	81.5
249.832	87.5
250.066	82.5
250.299	86.5
250.532	92.5
250.765	92.5
250.998	90.5
251.231	94.5
251.465	92.5
251.698	94.5
251.931	82.5
252.164	88.5
252.397	95.5
252.63	98.5
252.863	96.5
253.096	90.5
253.329	111.5
253.562	67.5
253.795	98.5
254.028	81.5
254.261	91.5
254.494	94.5
254.727	103.5
254.96	91.5
255.193	96.5
255.426	87.5
255.659	87.5
255.892	85.5
256.124	88.5
256.357	90.5
256.59	91.5
256.823	91.5
257.056	105.5
257.289	92.5
257.521	96.5
257.754	94.5
257.987	90.5
258.22	101.5
258.452	94.5
258.685	98.5
258.918	84.5
259.151	91.5
259.383	112.5
259.616	92.5
259.849	99.5
260.081	84.5
260.314	110.5
260.547	97.5
260.779	88.5
261.012	91.5
261.244	103.5
261.477	116.5
261.71	98.5
261.942	89.5
262.175	94.5
262.407	93.5
262.64	85.5
262.872	115.5
263.105	115.5
263.337	99.5
263.57	84.5
263.802	92.5
264.035	105.5
264.267	92.5
264.499	96.5
264.732	86.5
264.964	98.5
265.197	106.5
265.429	108.5
265.661	94.5
265.894	98.5
266.126	96.5
266.358	89.5
266.591	93.5
266.823	93.5
267.055	107.5
267.287	85.5
267.52	97.5
267.752	102.5
267.984	97.5
268.216	104.5
268.448	101.5
268.681	119.5
268.913	110.5
269.145	108.5
269.377	94.5
269.609	94.5
269.841	114.5
270.073	103.5
270.306	104.5
270.538	114.5
270.77	113.5
271.002	114.5
271.234	97.5
271.466	99.5
271.698	109.5
271.93	113.5
272.162	113.5
272.394	114.5
272.626	106.5
272.858	99.5
273.09	110.5
273.322	112.5
273.553	89.5
273.785	108.5
274.017	98.5
274.249	114.5
274.481	104.5
274.713	88.5
274.945	119.5
275.176	93.5
275.408	100.5
275.64	121.5
275.872	111.5
276.104	102.5
276.335	86.5
276.567	104.5
276.799	93.5
277.031	110.5
277.262	117.5
277.494	101.5
277.726	110.5
277.957	114.5
278.189	84.5
278.421	91.5
278.652	112.5
278.884	118.5
279.115	116.5
279.347	112.5
279.579	100.5
279.81	99.5
280.042	105.5
280.273	100.5
280.505	100.5
280.736	107.5
280.968	101.5
281.199	115.5
281.431	122.5
281.662	121.5
281.894	99.5
282.125	122.5
282.356	107.5
282.588	98.5
282.819	120.5
283.051	114.5
283.282	121.5
283.513	115.5
283.745	124.5
283.976	107.5
284.207	108.5
284.439	119.5
284.67	133.5
284.901	108.5
285.132	108.5
285.364	112.5
285.595	109.5
285.826	140.5
286.057	114.5
286.288	103.5
286.52	117.5
286.751	114.5
286.982	110.5
287.213	94.5
287.444	120.5
287.675	125.5
287.906	128.5
288.138	121.5
288.369	106.5
288.6	125.5
288.831	111.5
289.062	120.5
289.293	119.5
289.524	106.5
289.755	112.5
289.986	114.5
290.217	117.5
290.448	117.5
290.679	130.5
290.91	140.5
291.141	145.5
291.371	129.5
291.602	110.5
291.833	121.5
292.064	128.5
292.295	101.5
292.526	116.5
292.757	102.5
292.987	118.5
293.218	114.5
293.449	120.5
293.68	117.5
293.91	125.5
294.141	126.5
294.372	124.5
294.603	130.5
294.833	124.5
295.064	126.5
295.295	103.5
295.525	123.5
295.756	129.5
295.987	131.5
296.217	143.5
296.448	121.5
296.679	110.5
296.909	137.5
297.14	121.5
297.37	136.5
297.601	113.5
297.831	123.5
298.062	107.5
298.292	115.5
298.523	116.5
298.753	118.5
298.984	127.5
299.214	127.5
299.445	125.5
299.675	138.5
299.905	135.5
300.136	120.5
300.366	118.5
300.597	125.5
300.827	119.5
301.057	121.5
301.288	115.5
301.518	113.5
301.748	123.5
301.979	170.5
302.209	140.5
302.439	134.5
302.669	114.5
302.9	121.5
303.13	113.5
303.36	131.5
303.59	123.5
303.82	128.5
304.051	130.5
304.281	127.5
304.511	133.5
304.741	129.5
304.971	123.5
305.201	124.5
305.431	121.5
305.661	125.5
305.891	130.5
306.121	132.5
306.352	109.5
306.582	110.5
306.812	122.5
307.042	117.5
307.272	119.5
307.502	116.5
307.731	129.5
307.961	124.5
308.191	115.5
308.421	125.5
308.651	121.5
308.881	122.5
309.111	122.5
309.341	100.5
309.571	117.5
309.8	140.5
310.03	134.5
310.26	129.5
310.49	124.5
310.72	131.5
310.949	128.5
311.179	113.5
311.409	122.5
311.639	125.5
311.868	120.5
312.098	112.5
312.328	133.5
312.557	139.5
312.787	110.5
313.017	144.5
313.246	130.5
313.476	121.5
313.706	111.5
313.935	132.5
314.165	127.5
314.394	132.5
314.624	132.5
314.853	148.5
315.083	129.5
315.312	131.5
315.542	138.5
315.771	128.5
316.001	138.5
316.23	145.5
316.46	129.5
316.689	123.5
316.919	126.5
317.148	117.5
317.377	142.5
317.607	142.5
317.836	116.5
318.065	136.5
318.295	116.5
318.524	124.5
318.753	123.5
318.983	114.5
319.212	121.5
319.441	130.5
319.67	123.5
319.9	132.5
320.129	126.5
320.358	136.5
320.587	140.5
320.816	131.5
321.046	129.5
321.275	134.5
321.504	128.5
321.733	123.5
321.962	141.5
322.191	124.5
322.42	135.5
322.649	131.5
322.878	136.5
323.108	135.5
323.337	129.5
323.566	130.5
323.795	143.5
324.024	135.5
324.253	130.5
324.482	129.5
324.71	128.5
324.939	136.5
325.168	118.5
325.397	133.5
325.626	137.5
325.855	125.5
326.084	132.5
326.313	133.5
326.542	137.5
326.77	135.5
326.999	127.5
327.228	110.5
327.457	126.5
327.686	137.5
327.914	142.5
328.143	127.5
328.372	129.5
328.6	123.5
328.829	131.5
329.058	127.5
329.287	123.5
329.515	130.5
329.744	136.5
329.972	120.5
330.201	136.5
330.43	131.5
330.658	126.5
330.887	138.5
331.115	124.5
331.344	137.5
331.572	156.5
331.801	152.5
332.03	144.5
332.258	132.5
332.486	138.5
332.715	134.5
332.943	156.5
333.172	141.5
333.4	145.5
333.629	158.5
333.857	152.5
334.085	169.5
334.314	166.5
334.542	162.5
334.771	154.5
334.999	145.5
335.227	143.5
335.455	135.5
335.684	156.5
335.912	150.5
336.14	157.5
336.369	128.5
336.597	149.5
336.825	143.5
337.053	139.5
337.281	140.5
337.51	148.5
337.738	138.5
337.966	149.5
338.194	144.5
338.422	140.5
338.65	140.5
338.878	160.5
339.106	130.5
339.334	141.5
339.562	137.5
339.79	127.5
340.018	135.5
340.246	135.5
340.474	131.5
340.702	130.5
340.93	125.5
341.158	128.5
341.386	137.5
341.614	133.5
341.842	143.5
342.07	148.5
342.298	146.5
342.526	125.5
342.754	136.5
342.981	152.5
343.209	136.5
343.437	175.5
343.665	153.5
343.893	150.5
344.12	159.5
344.348	146.5
344.576	126.5
344.804	141.5
345.031	146.5
345.259	131.5
345.487	126.5
345.714	144.5
345.942	122.5
346.17	132.5
346.397	136.5
346.625	134.5
346.853	136.5
347.08	126.5
347.308	153.5
347.535	136.5
347.763	120.5
347.99	141.5
348.218	143.5
348.445	143.5
348.673	132.5
348.9	132.5
349.128	143.5
349.355	129.5
349.583	134.5
349.81	130.5
350.037	131.5
350.265	152.5
350.492	122.5
350.72	124.5
350.947	135.5
351.174	133.5
351.402	128.5
351.629	130.5
351.856	139.5
352.083	125.5
352.311	127.5
352.538	127.5
352.765	138.5
352.992	159.5
353.22	143.5
353.447	130.5
353.674	150.5
353.901	136.5
354.128	129.5
354.355	144.5
354.583	151.5
354.81	152.5
355.037	123.5
355.264	135.5
355.491	110.5
355.718	127.5
355.945	132.5
356.172	129.5
356.399	141.5
356.626	126.5
356.853	131.5
357.08	126.5
357.307	130.5
357.534	120.5
357.761	132.5
357.988	143.5
358.215	142.5
358.441	129.5
358.668	137.5
358.895	131.5
359.122	141.5
359.349	139.5
359.576	134.5
359.802	137.5
360.029	121.5
360.256	130.5
360.483	124.5
360.709	136.5
360.936	146.5
361.163	133.5
361.39	136.5
361.616	139.5
361.843	141.5
362.07	134.5
362.296	136.5
362.523	138.5
362.749	128.5
362.976	142.5
363.203	133.5
363.429	125.5
363.656	146.5
363.882	138.5
364.109	137.5
364.335	126.5
364.562	129.5
364.788	131.5
365.015	142.5
365.241	128.5
365.468	139.5
365.694	118.5
365.92	122.5
366.147	131.5
366.373	118.5
366.599	130.5
366.826	124.5
367.052	139.5
367.278	133.5
367.505	160.5
367.731	160.5
367.957	145.5
368.184	134.5
368.41	138.5
368.636	126.5
368.862	150.5
369.089	131.5
369.315	124.5
369.541	138.5
369.767	152.5
369.993	133.5
370.219	136.5
370.445	152.5
370.672	139.5
370.898	141.5
371.124	132.5
371.35	135.5
371.576	129.5
371.802	125.5
372.028	138.5
372.254	144.5
372.48	152.5
372.706	145.5
372.932	133.5
373.158	154.5
373.384	147.5
373.61	132.5
373.835	151.5
374.061	134.5
374.287	139.5
374.513	154.5
374.739	163.5
374.965	160.5
375.191	150.5
375.416	145.5
375.642	146.5
375.868	151.5
376.094	138.5
376.319	141.5
376.545	130.5
376.771	148.5
376.997	131.5
377.222	137.5
377.448	144.5
377.674	132.5
377.899	136.5
378.125	140.5
378.35	151.5
378.576	154.5
378.802	142.5
379.027	138.5
379.253	152.5
379.478	148.5
379.704	140.5
379.929	152.5
380.155	153.5
380.38	140.5
380.606	140.5
380.831	147.5
381.057	151.5
381.282	149.5
381.507	132.5
381.733	150.5
381.958	154.5
382.184	133.5
382.409	129.5
382.634	145.5
382.86	162.5
383.085	160.5
383.31	151.5
383.535	159.5
383.761	150.5
383.986	148.5
384.211	143.5
384.436	151.5
384.662	149.5
384.887	153.5
385.112	152.5
385.337	148.5
385.562	150.5
385.787	170.5
386.013	174.5
386.238	161.5
386.463	168.5
386.688	181.5
386.913	161.5
387.138	148.5
387.363	156.5
387.588	157.5
387.813	165.5
388.038	157.5
388.263	177.5
388.488	173.5
388.713	156.5
388.938	146.5
389.163	133.5
389.387	142.5
389.612	157.5
389.837	159.5
390.062	163.5
390.287	145.5
390.512	160.5
390.736	146.5
390.961	158.5
391.186	161.5
391.411	165.5
391.636	169.5
391.86	155.5
392.085	170.5
392.31	164.5
392.534	178.5
392.759	150.5
392.984	163.5
393.208	156.5
393.433	177.5
393.658	162.5
393.882	157.5
394.107	154.5
394.331	158.5
394.556	156.5
394.78	169.5
395.005	157.5
395.229	164.5
395.454	176.5
395.678	161.5
395.903	160.5
396.127	159.5
396.352	168.5
396.576	162.5
396.801	165.5
397.025	160.5
397.249	160.5
397.474	165.5
397.698	174.5
397.922	172.5
398.147	182.5
398.371	163.5
398.595	176.5
398.82	181.5
399.044	180.5
399.268	229.5
399.492	236.5
399.717	242.5
399.941	217.5
400.165	196.5
400.389	186.5
400.613	164.5
400.837	188.5
401.062	190.5
401.286	176.5
401.51	200.5
401.734	170.5
401.958	189.5
402.182	173.5
402.406	181.5
402.63	185.5
402.854	187.5
403.078	201.5
403.302	201.5
403.526	200.5
403.75	187.5
403.974	182.5
404.198	188.5
404.422	189.5
404.645	195.5
404.869	171.5
405.093	206.5
405.317	190.5
405.541	182.5
405.765	196.5
405.988	179.5
406.212	189.5
406.436	194.5
406.66	194.5
406.883	201.5
407.107	218.5
407.331	200.5
407.555	210.5
407.778	223.5
408.002	202.5
408.226	205.5
408.449	196.5
408.673	197.5
408.896	197.5
409.12	192.5
409.344	201.5
409.567	193.5
409.791	207.5
410.014	200.5
410.238	190.5
410.461	194.5
410.685	185.5
410.908	197.5
411.132	198.5
411.355	178.5
411.578	185.5
411.802	184.5
412.025	186.5
412.249	196.5
412.472	180.5
412.695	180.5
412.919	165.5
413.142	182.5
413.365	172.5
413.589	177.5
413.812	195.5
414.035	201.5
414.258	174.5
414.482	179.5
414.705	174.5
414.928	178.5
415.151	185.5
415.374	173.5
415.597	193.5
415.821	176.5
416.044	186.5
416.267	185.5
416.49	198.5
416.713	180.5
416.936	182.5
417.159	167.5
417.382	177.5
417.605	171.5
417.828	174.5
418.051	173.5
418.274	189.5
418.497	168.5
418.72	180.5
418.943	178.5
419.166	185.5
419.389	201.5
419.611	195.5
419.834	183.5
420.057	195.5
420.28	171.5
420.503	183.5
420.726	184.5
420.948	164.5
421.171	174.5
421.394	172.5
421.617	189.5
421.839	174.5
422.062	185.5
422.285	178.5
422.507	174.5
422.73	184.5
422.953	181.5
423.175	187.5
423.398	193.5
423.621	194.5
423.843	203.5
424.066	184.5
424.288	188.5
424.511	188.5
424.733	208.5
424.956	176.5
425.178	186.5
425.401	180.5
425.623	184.5
425.846	165.5
426.068	178.5
426.291	170.5
426.513	177.5
426.735	186.5
426.958	192.5
427.18	183.5
427.402	168.5
427.625	171.5
427.847	166.5
428.069	170.5
428.292	164.5
428.514	174.5
428.736	148.5
428.958	159.5
429.181	158.5
429.403	189.5
429.625	166.5
429.847	182.5
430.069	172.5
430.292	168.5
430.514	160.5
430.736	156.5
430.958	182.5
431.18	173.5
431.402	170.5
431.624	167.5
431.846	157.5
432.068	187.5
432.29	178.5
432.512	173.5
432.734	166.5
432.956	179.5
433.178	179.5
433.4	183.5
433.622	175.5
433.844	167.5
434.066	165.5
434.287	174.5
434.509	171.5
434.731	174.5
434.953	156.5
435.175	178.5
435.397	179.5
435.618	171.5
435.84	172.5
436.062	169.5
436.284	161.5
436.505	167.5
436.727	168.5
436.949	188.5
437.17	174.5
437.392	159.5
437.614	161.5
437.835	162.5
438.057	161.5
438.278	159.5
438.5	161.5
438.721	158.5
438.943	160.5
439.165	161.5
439.386	162.5
439.608	173.5
439.829	176.5
440.05	170.5
440.272	177.5
440.493	166.5
440.715	167.5
440.936	186.5
441.158	174.5
441.379	172.5
441.6	179.5
441.822	193.5
442.043	178.5
442.264	177.5
442.486	170.5
442.707	161.5
442.928	194.5
443.149	185.5
443.371	197.5
443.592	183.5
443.813	179.5
444.034	189.5
444.255	187.5
444.476	203.5
444.698	193.5
444.919	209.5
445.14	457.5
445.361	303.5
445.582	196.5
445.803	185.5
446.024	172.5
446.245	171.5
446.466	174.5
446.687	174.5
446.908	171.5
447.129	171.5
447.35	158.5
447.571	172.5
447.792	171.5
448.013	169.5
448.234	169.5
448.455	138.5
448.675	170.5
448.896	178.5
449.117	174.5
449.338	153.5
449.559	162.5
449.779	152.5
450	166.5
450.221	162.5
450.442	158.5
450.662	184.5
450.883	168.5
451.104	171.5
451.324	157.5
451.545	173.5
451.766	166.5
451.986	173.5
452.207	175.5
452.428	143.5
452.648	166.5
452.869	164.5
453.089	158.5
453.31	146.5
453.53	175.5
453.751	148.5
453.971	164.5
454.192	140.5
454.412	160.5
454.633	159.5
454.853	155.5
455.073	162.5
455.294	143.5
455.514	161.5
455.734	159.5
455.955	160.5
456.175	142.5
456.395	138.5
456.616	138.5
456.836	161.5
457.056	169.5
457.276	161.5
457.497	148.5
457.717	149.5
457.937	145.5
458.157	156.5
458.377	160.5
458.598	168.5
458.818	165.5
459.038	151.5
459.258	159.5
459.478	165.5
459.698	161.5
459.918	183.5
460.138	186.5
460.358	180.5
460.578	202.5
460.798	186.5
461.018	203.5
461.238	200.5
461.458	196.5
461.678	176.5
461.898	193.5
462.118	185.5
462.338	182.5
462.558	202.5
462.777	194.5
462.997	227.5
463.217	219.5
463.437	219.5
463.657	212.5
463.876	209.5
464.096	216.5
464.316	211.5
464.536	201.5
464.755	208.5
464.975	191.5
465.195	187.5
465.414	176.5
465.634	176.5
465.854	164.5
466.073	169.5
466.293	168.5
466.512	169.5
466.732	172.5
466.951	155.5
467.171	167.5
467.391	150.5
467.61	162.5
467.829	172.5
468.049	161.5
468.268	166.5
468.488	163.5
468.707	158.5
468.927	177.5
469.146	162.5
469.365	166.5
469.585	157.5
469.804	163.5
470.023	164.5
470.243	168.5
470.462	184.5
470.681	175.5
470.901	187.5
471.12	150.5
471.339	175.5
471.558	174.5
471.777	154.5
471.997	161.5
472.216	164.5
472.435	144.5
472.654	162.5
472.873	170.5
473.092	165.5
473.311	172.5
473.53	159.5
473.749	153.5
473.968	161.5
474.187	155.5
474.406	145.5
474.625	150.5
474.844	165.5
475.063	151.5
475.282	164.5
475.501	152.5
475.72	180.5
475.939	172.5
476.158	174.5
476.377	166.5
476.596	165.5
476.814	159.5
477.033	161.5
477.252	173.5
477.471	163.5
477.69	182.5
477.908	182.5
478.127	188.5
478.346	177.5
478.564	183.5
478.783	186.5
479.002	186.5
479.22	177.5
479.439	196.5
479.658	176.5
479.876	175.5
480.095	185.5
480.313	211.5
480.532	208.5
480.751	187.5
480.969	188.5
481.188	184.5
481.406	185.5
481.624	172.5
481.843	162.5
482.061	176.5
482.28	179.5
482.498	166.5
482.717	168.5
482.935	180.5
483.153	159.5
483.372	161.5
483.59	166.5
483.808	167.5
484.027	190.5
484.245	178.5
484.463	156.5
484.681	196.5
484.9	183.5
485.118	191.5
485.336	185.5
485.554	193.5
485.772	178.5
485.99	178.5
486.209	189.5
486.427	186.5
486.645	196.5
486.863	178.5
487.081	174.5
487.299	161.5
487.517	190.5
487.735	167.5
487.953	192.5
488.171	194.5
488.389	187.5
488.607	177.5
488.825	187.5
489.043	179.5
489.261	185.5
489.479	182.5
489.696	190.5
489.914	177.5
490.132	182.5
490.35	195.5
490.568	176.5
490.786	167.5
491.003	161.5
491.221	190.5
491.439	195.5
491.657	186.5
491.874	202.5
492.092	193.5
492.31	205.5
492.527	186.5
492.745	181.5
492.963	202.5
493.18	200.5
493.398	191.5
493.615	193.5
493.833	191.5
494.05	199.5
494.268	172.5
494.485	185.5
494.703	189.5
494.92	185.5
495.138	175.5
495.355	210.5
495.573	215.5
495.79	192.5
496.008	202.5
496.225	191.5
496.442	195.5
496.66	202.5
496.877	189.5
497.094	216.5
497.312	203.5
497.529	187.5
497.746	212.5
497.963	214.5
498.181	226.5
498.398	228.5
498.615	223.5
498.832	249.5
499.049	261.5
499.267	279.5
499.484	300.5
499.701	332.5
499.918	343.5
500.135	382.5
500.352	399.5
500.569	422.5
500.786	401.5
501.003	377.5
501.22	336.5
501.437	296.5
501.654	277.5
501.871	261.5
502.088	252.5
502.305	253.5
502.522	236.5
502.739	236.5
502.956	227.5
503.172	210.5
503.389	216.5
503.606	204.5
503.823	220.5
504.04	201.5
504.256	193.5
504.473	211.5
504.69	216.5
504.907	216.5
505.123	200.5
505.34	196.5
505.557	180.5
505.773	206.5
505.99	182.5
506.207	177.5
506.423	195.5
506.64	180.5
506.856	162.5
507.073	186.5
507.289	188.5
507.506	171.5
507.722	175.5
507.939	162.5
508.155	167.5
508.372	166.5
508.588	167.5
508.805	172.5
509.021	165.5
509.238	176.5
509.454	170.5
509.67	173.5
509.887	170.5
510.103	174.5
510.319	181.5
510.536	169.5
510.752	158.5
510.968	170.5
511.184	157.5
511.401	160.5
511.617	160.5
511.833	169.5
512.049	143.5
512.265	162.5
512.481	164.5
512.698	159.5
512.914	178.5
513.13	173.5
513.346	159.5
513.562	164.5
513.778	167.5
513.994	167.5
514.21	172.5
514.426	174.5
514.642	166.5
514.858	169.5
515.074	177.5
515.29	185.5
515.506	151.5
515.721	157.5
515.937	194.5
516.153	172.5
516.369	168.5
516.585	187.5
516.801	190.5
517.016	185.5
517.232	204.5
517.448	198.5
517.664	212.5
517.879	198.5
518.095	211.5
518.311	190.5
518.527	203.5
518.742	201.5
518.958	181.5
519.173	172.5
519.389	166.5
519.605	177.5
519.82	183.5
520.036	186.5
520.251	171.5
520.467	178.5
520.682	178.5
520.898	162.5
521.113	153.5
521.329	161.5
521.544	165.5
521.76	162.5
521.975	174.5
522.19	168.5
522.406	153.5
522.621	164.5
522.836	166.5
523.052	169.5
