Data from SampD_HRD10591_00014.txt Node
Date: Mon Jan 19 11:41:25 EST 2026
User: Yrep
Spectrometer: HR+D1059
Trigger mode: 0
Integration Time (sec): 3.443000E-1
Scans to average: 1
Electric dark correction enabled: true
Nonlinearity correction enabled: false
Boxcar width: 0
XAxis mode: Wavelengths
Number of Pixels in Spectrum: 2048
>>>>>Begin Spectral Data<<<<<
223.165	-27.88
223.4	-27.88
223.635	-27.88
223.869	-28.88
224.104	-17.88
224.338	-9.88
224.573	-20.88
224.808	-10.88
225.042	4.12
225.277	-6.88
225.511	-2.88
225.746	11.12
225.98	5.12
226.215	21.12
226.449	20.12
226.683	10.12
226.918	9.12
227.152	45.12
227.387	37.12
227.621	41.12
227.856	48.12
228.09	51.12
228.324	50.12
228.559	64.12
228.793	50.12
229.027	68.12
229.262	74.12
229.496	66.12
229.73	74.12
229.964	70.12
230.199	97.12
230.433	76.12
230.667	69.12
230.901	80.12
231.136	72.12
231.37	68.12
231.604	75.12
231.838	88.12
232.072	79.12
232.306	76.12
232.541	76.12
232.775	84.12
233.009	93.12
233.243	82.12
233.477	88.12
233.711	75.12
233.945	70.12
234.179	81.12
234.413	85.12
234.647	83.12
234.881	77.12
235.115	83.12
235.349	67.12
235.583	77.12
235.817	87.12
236.051	86.12
236.285	84.12
236.519	83.12
236.753	92.12
236.987	86.12
237.221	79.12
237.455	83.12
237.689	98.12
237.922	73.12
238.156	89.12
238.39	79.12
238.624	79.12
238.858	86.12
239.091	78.12
239.325	80.12
239.559	79.12
239.793	78.12
240.027	101.12
240.26	83.12
240.494	71.12
240.728	83.12
240.961	77.12
241.195	92.12
241.429	77.12
241.662	78.12
241.896	75.12
242.13	86.12
242.363	85.12
242.597	67.12
242.83	86.12
243.064	88.12
243.298	75.12
243.531	72.12
243.765	83.12
243.998	89.12
244.232	94.12
244.465	80.12
244.699	92.12
244.932	88.12
245.166	85.12
245.399	74.12
245.633	93.12
245.866	75.12
246.099	85.12
246.333	89.12
246.566	98.12
246.8	80.12
247.033	87.12
247.266	89.12
247.5	90.12
247.733	90.12
247.966	89.12
248.2	72.12
248.433	90.12
248.666	74.12
248.899	69.12
249.133	84.12
249.366	96.12
249.599	79.12
249.832	79.12
250.066	92.12
250.299	93.12
250.532	94.12
250.765	93.12
250.998	85.12
251.231	90.12
251.465	96.12
251.698	80.12
251.931	77.12
252.164	82.12
252.397	85.12
252.63	97.12
252.863	80.12
253.096	82.12
253.329	102.12
253.562	95.12
253.795	96.12
254.028	91.12
254.261	88.12
254.494	83.12
254.727	100.12
254.96	96.12
255.193	88.12
255.426	94.12
255.659	78.12
255.892	93.12
256.124	85.12
256.357	89.12
256.59	96.12
256.823	90.12
257.056	82.12
257.289	94.12
257.521	97.12
257.754	84.12
257.987	87.12
258.22	95.12
258.452	88.12
258.685	88.12
258.918	85.12
259.151	91.12
259.383	97.12
259.616	107.12
259.849	92.12
260.081	105.12
260.314	91.12
260.547	93.12
260.779	102.12
261.012	95.12
261.244	88.12
261.477	109.12
261.71	83.12
261.942	86.12
262.175	96.12
262.407	84.12
262.64	79.12
262.872	105.12
263.105	102.12
263.337	110.12
263.57	100.12
263.802	90.12
264.035	90.12
264.267	98.12
264.499	92.12
264.732	115.12
264.964	102.12
265.197	91.12
265.429	84.12
265.661	105.12
265.894	97.12
266.126	101.12
266.358	89.12
266.591	105.12
266.823	109.12
267.055	92.12
267.287	108.12
267.52	102.12
267.752	88.12
267.984	94.12
268.216	106.12
268.448	108.12
268.681	94.12
268.913	117.12
269.145	109.12
269.377	113.12
269.609	96.12
269.841	105.12
270.073	107.12
270.306	97.12
270.538	111.12
270.77	102.12
271.002	112.12
271.234	108.12
271.466	115.12
271.698	99.12
271.93	105.12
272.162	110.12
272.394	99.12
272.626	115.12
272.858	97.12
273.09	93.12
273.322	109.12
273.553	102.12
273.785	110.12
274.017	91.12
274.249	100.12
274.481	105.12
274.713	102.12
274.945	113.12
275.176	95.12
275.408	104.12
275.64	114.12
275.872	112.12
276.104	104.12
276.335	130.12
276.567	94.12
276.799	110.12
277.031	113.12
277.262	102.12
277.494	114.12
277.726	102.12
277.957	97.12
278.189	107.12
278.421	106.12
278.652	105.12
278.884	99.12
279.115	104.12
279.347	104.12
279.579	95.12
279.81	102.12
280.042	106.12
280.273	107.12
280.505	111.12
280.736	109.12
280.968	115.12
281.199	101.12
281.431	105.12
281.662	110.12
281.894	102.12
282.125	118.12
282.356	95.12
282.588	112.12
282.819	108.12
283.051	107.12
283.282	103.12
283.513	122.12
283.745	117.12
283.976	114.12
284.207	109.12
284.439	110.12
284.67	111.12
284.901	102.12
285.132	102.12
285.364	122.12
285.595	123.12
285.826	110.12
286.057	122.12
286.288	122.12
286.52	95.12
286.751	98.12
286.982	108.12
287.213	116.12
287.444	116.12
287.675	129.12
287.906	116.12
288.138	112.12
288.369	105.12
288.6	117.12
288.831	104.12
289.062	116.12
289.293	118.12
289.524	105.12
289.755	113.12
289.986	122.12
290.217	111.12
290.448	118.12
290.679	108.12
290.91	116.12
291.141	111.12
291.371	125.12
291.602	117.12
291.833	125.12
292.064	115.12
292.295	108.12
292.526	115.12
292.757	111.12
292.987	102.12
293.218	119.12
293.449	116.12
293.68	116.12
293.91	122.12
294.141	128.12
294.372	133.12
294.603	109.12
294.833	115.12
295.064	114.12
295.295	117.12
295.525	113.12
295.756	116.12
295.987	115.12
296.217	115.12
296.448	119.12
296.679	121.12
296.909	118.12
297.14	125.12
297.37	124.12
297.601	132.12
297.831	108.12
298.062	131.12
298.292	123.12
298.523	131.12
298.753	105.12
298.984	121.12
299.214	116.12
299.445	128.12
299.675	120.12
299.905	122.12
300.136	130.12
300.366	113.12
300.597	109.12
300.827	127.12
301.057	123.12
301.288	116.12
301.518	121.12
301.748	117.12
301.979	162.12
302.209	126.12
302.439	131.12
302.669	128.12
302.9	115.12
303.13	128.12
303.36	124.12
303.59	132.12
303.82	117.12
304.051	126.12
304.281	126.12
304.511	142.12
304.741	131.12
304.971	120.12
305.201	126.12
305.431	120.12
305.661	126.12
305.891	135.12
306.121	110.12
306.352	116.12
306.582	122.12
306.812	113.12
307.042	118.12
307.272	110.12
307.502	125.12
307.731	137.12
307.961	128.12
308.191	122.12
308.421	129.12
308.651	131.12
308.881	122.12
309.111	97.12
309.341	112.12
309.571	121.12
309.8	129.12
310.03	123.12
310.26	112.12
310.49	105.12
310.72	129.12
310.949	113.12
311.179	114.12
311.409	133.12
311.639	123.12
311.868	116.12
312.098	130.12
312.328	126.12
312.557	135.12
312.787	109.12
313.017	122.12
313.246	139.12
313.476	125.12
313.706	128.12
313.935	136.12
314.165	132.12
314.394	119.12
314.624	124.12
314.853	122.12
315.083	136.12
315.312	133.12
315.542	117.12
315.771	128.12
316.001	131.12
316.23	126.12
316.46	107.12
316.689	101.12
316.919	134.12
317.148	128.12
317.377	138.12
317.607	134.12
317.836	119.12
318.065	123.12
318.295	136.12
318.524	127.12
318.753	122.12
318.983	129.12
319.212	117.12
319.441	129.12
319.67	101.12
319.9	122.12
320.129	116.12
320.358	127.12
320.587	124.12
320.816	124.12
321.046	133.12
321.275	129.12
321.504	122.12
321.733	124.12
321.962	125.12
322.191	133.12
322.42	126.12
322.649	136.12
322.878	122.12
323.108	127.12
323.337	136.12
323.566	146.12
323.795	124.12
324.024	137.12
324.253	144.12
324.482	121.12
324.71	128.12
324.939	128.12
325.168	129.12
325.397	127.12
325.626	136.12
325.855	132.12
326.084	126.12
326.313	130.12
326.542	133.12
326.77	141.12
326.999	127.12
327.228	109.12
327.457	121.12
327.686	136.12
327.914	133.12
328.143	148.12
328.372	127.12
328.6	140.12
328.829	128.12
329.058	122.12
329.287	105.12
329.515	127.12
329.744	115.12
329.972	140.12
330.201	138.12
330.43	129.12
330.658	129.12
330.887	112.12
331.115	130.12
331.344	152.12
331.572	154.12
331.801	120.12
332.03	134.12
332.258	142.12
332.486	145.12
332.715	145.12
332.943	137.12
333.172	156.12
333.4	127.12
333.629	160.12
333.857	152.12
334.085	161.12
334.314	156.12
334.542	167.12
334.771	142.12
334.999	131.12
335.227	129.12
335.455	144.12
335.684	132.12
335.912	132.12
336.14	155.12
336.369	140.12
336.597	138.12
336.825	152.12
337.053	141.12
337.281	130.12
337.51	132.12
337.738	139.12
337.966	133.12
338.194	131.12
338.422	156.12
338.65	159.12
338.878	126.12
339.106	141.12
339.334	144.12
339.562	124.12
339.79	126.12
340.018	138.12
340.246	132.12
340.474	129.12
340.702	142.12
340.93	120.12
341.158	136.12
341.386	125.12
341.614	131.12
341.842	136.12
342.07	149.12
342.298	133.12
342.526	133.12
342.754	128.12
342.981	129.12
343.209	151.12
343.437	162.12
343.665	148.12
343.893	152.12
344.12	151.12
344.348	149.12
344.576	156.12
344.804	149.12
345.031	153.12
345.259	141.12
345.487	112.12
345.714	141.12
345.942	121.12
346.17	127.12
346.397	141.12
346.625	127.12
346.853	149.12
347.08	116.12
347.308	139.12
347.535	150.12
347.763	132.12
347.99	152.12
348.218	142.12
348.445	124.12
348.673	138.12
348.9	128.12
349.128	139.12
349.355	132.12
349.583	136.12
349.81	140.12
350.037	134.12
350.265	152.12
350.492	130.12
350.72	114.12
350.947	133.12
351.174	118.12
351.402	127.12
351.629	131.12
351.856	125.12
352.083	136.12
352.311	127.12
352.538	113.12
352.765	136.12
352.992	134.12
353.22	128.12
353.447	111.12
353.674	138.12
353.901	127.12
354.128	149.12
354.355	116.12
354.583	150.12
354.81	142.12
355.037	136.12
355.264	136.12
355.491	131.12
355.718	133.12
355.945	134.12
356.172	125.12
356.399	123.12
356.626	129.12
356.853	138.12
357.08	140.12
357.307	134.12
357.534	136.12
357.761	140.12
357.988	130.12
358.215	136.12
358.441	123.12
358.668	122.12
358.895	140.12
359.122	135.12
359.349	135.12
359.576	149.12
359.802	126.12
360.029	125.12
360.256	133.12
360.483	131.12
360.709	127.12
360.936	143.12
361.163	146.12
361.39	132.12
361.616	139.12
361.843	137.12
362.07	136.12
362.296	136.12
362.523	133.12
362.749	125.12
362.976	126.12
363.203	136.12
363.429	112.12
363.656	124.12
363.882	121.12
364.109	135.12
364.335	140.12
364.562	122.12
364.788	114.12
365.015	144.12
365.241	127.12
365.468	136.12
365.694	114.12
365.92	126.12
366.147	141.12
366.373	124.12
366.599	132.12
366.826	118.12
367.052	136.12
367.278	150.12
367.505	144.12
367.731	138.12
367.957	129.12
368.184	133.12
368.41	130.12
368.636	133.12
368.862	132.12
369.089	127.12
369.315	124.12
369.541	136.12
369.767	140.12
369.993	111.12
370.219	129.12
370.445	147.12
370.672	132.12
370.898	134.12
371.124	135.12
371.35	130.12
371.576	140.12
371.802	140.12
372.028	148.12
372.254	137.12
372.48	122.12
372.706	126.12
372.932	140.12
373.158	149.12
373.384	156.12
373.61	150.12
373.835	145.12
374.061	148.12
374.287	137.12
374.513	128.12
374.739	129.12
374.965	142.12
375.191	152.12
375.416	131.12
375.642	148.12
375.868	157.12
376.094	145.12
376.319	136.12
376.545	137.12
376.771	158.12
376.997	160.12
377.222	130.12
377.448	137.12
377.674	148.12
377.899	136.12
378.125	140.12
378.35	137.12
378.576	136.12
378.802	127.12
379.027	142.12
379.253	140.12
379.478	128.12
379.704	138.12
379.929	138.12
380.155	146.12
380.38	135.12
380.606	134.12
380.831	136.12
381.057	141.12
381.282	128.12
381.507	140.12
381.733	152.12
381.958	145.12
382.184	146.12
382.409	142.12
382.634	129.12
382.86	152.12
383.085	154.12
383.31	139.12
383.535	148.12
383.761	150.12
383.986	141.12
384.211	137.12
384.436	155.12
384.662	148.12
384.887	148.12
385.112	156.12
385.337	138.12
385.562	150.12
385.787	148.12
386.013	146.12
386.238	133.12
386.463	134.12
386.688	182.12
386.913	162.12
387.138	170.12
387.363	156.12
387.588	154.12
387.813	158.12
388.038	142.12
388.263	158.12
388.488	152.12
388.713	150.12
388.938	168.12
389.163	156.12
389.387	147.12
389.612	156.12
389.837	155.12
390.062	151.12
390.287	154.12
390.512	154.12
390.736	142.12
390.961	155.12
391.186	152.12
391.411	160.12
391.636	157.12
391.86	164.12
392.085	156.12
392.31	153.12
392.534	153.12
392.759	164.12
392.984	139.12
393.208	155.12
393.433	183.12
393.658	155.12
393.882	161.12
394.107	156.12
394.331	152.12
394.556	160.12
394.78	154.12
395.005	150.12
395.229	173.12
395.454	158.12
395.678	162.12
395.903	177.12
396.127	164.12
396.352	166.12
396.576	176.12
396.801	154.12
397.025	159.12
397.249	171.12
397.474	192.12
397.698	171.12
397.922	161.12
398.147	172.12
398.371	160.12
398.595	179.12
398.82	180.12
399.044	190.12
399.268	218.12
399.492	225.12
399.717	235.12
399.941	223.12
400.165	219.12
400.389	206.12
400.613	186.12
400.837	192.12
401.062	151.12
401.286	182.12
401.51	173.12
401.734	170.12
401.958	172.12
402.182	175.12
402.406	175.12
402.63	182.12
402.854	176.12
403.078	179.12
403.302	173.12
403.526	184.12
403.75	208.12
403.974	204.12
404.198	196.12
404.422	192.12
404.645	178.12
404.869	194.12
405.093	177.12
405.317	176.12
405.541	194.12
405.765	189.12
405.988	177.12
406.212	184.12
406.436	179.12
406.66	201.12
406.883	192.12
407.107	208.12
407.331	208.12
407.555	197.12
407.778	206.12
408.002	191.12
408.226	188.12
408.449	191.12
408.673	183.12
408.896	185.12
409.12	180.12
409.344	195.12
409.567	197.12
409.791	218.12
410.014	188.12
410.238	197.12
410.461	190.12
410.685	188.12
410.908	180.12
411.132	181.12
411.355	173.12
411.578	179.12
411.802	188.12
412.025	177.12
412.249	193.12
412.472	178.12
412.695	160.12
412.919	169.12
413.142	165.12
413.365	187.12
413.589	179.12
413.812	171.12
414.035	178.12
414.258	183.12
414.482	182.12
414.705	163.12
414.928	179.12
415.151	171.12
415.374	169.12
415.597	170.12
415.821	164.12
416.044	178.12
416.267	174.12
416.49	177.12
416.713	173.12
416.936	191.12
417.159	174.12
417.382	177.12
417.605	184.12
417.828	182.12
418.051	189.12
418.274	196.12
418.497	173.12
418.72	188.12
418.943	167.12
419.166	177.12
419.389	198.12
419.611	194.12
419.834	186.12
420.057	172.12
420.28	170.12
420.503	180.12
420.726	178.12
420.948	170.12
421.171	168.12
421.394	174.12
421.617	189.12
421.839	181.12
422.062	178.12
422.285	186.12
422.507	184.12
422.73	179.12
422.953	165.12
423.175	202.12
423.398	174.12
423.621	196.12
423.843	185.12
424.066	197.12
424.288	184.12
424.511	186.12
424.733	184.12
424.956	185.12
425.178	173.12
425.401	172.12
425.623	175.12
425.846	163.12
426.068	149.12
426.291	171.12
426.513	165.12
426.735	172.12
426.958	188.12
427.18	171.12
427.402	165.12
427.625	172.12
427.847	154.12
428.069	160.12
428.292	179.12
428.514	176.12
428.736	150.12
428.958	163.12
429.181	168.12
429.403	157.12
429.625	165.12
429.847	157.12
430.069	166.12
430.292	174.12
430.514	160.12
430.736	147.12
430.958	153.12
431.18	146.12
431.402	153.12
431.624	154.12
431.846	157.12
432.068	199.12
432.29	170.12
432.512	177.12
432.734	167.12
432.956	166.12
433.178	167.12
433.4	152.12
433.622	180.12
433.844	178.12
434.066	166.12
434.287	177.12
434.509	187.12
434.731	164.12
434.953	184.12
435.175	166.12
435.397	194.12
435.618	165.12
435.84	173.12
436.062	161.12
436.284	183.12
436.505	162.12
436.727	162.12
436.949	181.12
437.17	171.12
437.392	158.12
437.614	158.12
437.835	170.12
438.057	174.12
438.278	154.12
438.5	170.12
438.721	146.12
438.943	153.12
439.165	167.12
439.386	169.12
439.608	152.12
439.829	175.12
440.05	170.12
440.272	170.12
440.493	170.12
440.715	165.12
440.936	174.12
441.158	174.12
441.379	177.12
441.6	190.12
441.822	204.12
442.043	161.12
442.264	166.12
442.486	169.12
442.707	193.12
442.928	190.12
443.149	171.12
443.371	179.12
443.592	162.12
443.813	176.12
444.034	174.12
444.255	188.12
444.476	203.12
444.698	214.12
444.919	209.12
445.14	451.12
445.361	298.12
445.582	173.12
445.803	174.12
446.024	177.12
446.245	181.12
446.466	162.12
446.687	182.12
446.908	169.12
447.129	168.12
447.35	172.12
447.571	153.12
447.792	187.12
448.013	166.12
448.234	159.12
448.455	163.12
448.675	155.12
448.896	151.12
449.117	156.12
449.338	158.12
449.559	182.12
449.779	160.12
450	168.12
450.221	160.12
450.442	162.12
450.662	145.12
450.883	153.12
451.104	161.12
451.324	147.12
451.545	164.12
451.766	144.12
451.986	155.12
452.207	161.12
452.428	161.12
452.648	158.12
452.869	157.12
453.089	149.12
453.31	155.12
453.53	158.12
453.751	154.12
453.971	138.12
454.192	161.12
454.412	158.12
454.633	131.12
454.853	154.12
455.073	155.12
455.294	158.12
455.514	146.12
455.734	152.12
455.955	157.12
456.175	131.12
456.395	153.12
456.616	141.12
456.836	140.12
457.056	152.12
457.276	154.12
457.497	142.12
457.717	165.12
457.937	147.12
458.157	152.12
458.377	155.12
458.598	150.12
458.818	157.12
459.038	154.12
459.258	183.12
459.478	167.12
459.698	171.12
459.918	186.12
460.138	159.12
460.358	195.12
460.578	201.12
460.798	180.12
461.018	177.12
461.238	193.12
461.458	184.12
461.678	182.12
461.898	193.12
462.118	191.12
462.338	201.12
462.558	194.12
462.777	205.12
462.997	218.12
463.217	224.12
463.437	214.12
463.657	212.12
463.876	195.12
464.096	195.12
464.316	217.12
464.536	196.12
464.755	195.12
464.975	191.12
465.195	181.12
465.414	173.12
465.634	170.12
465.854	165.12
466.073	162.12
466.293	165.12
466.512	163.12
466.732	156.12
466.951	163.12
467.171	162.12
467.391	144.12
467.61	155.12
467.829	163.12
468.049	154.12
468.268	148.12
468.488	165.12
468.707	168.12
468.927	158.12
469.146	173.12
469.365	159.12
469.585	162.12
469.804	165.12
470.023	167.12
470.243	179.12
470.462	161.12
470.681	162.12
470.901	165.12
471.12	166.12
471.339	140.12
471.558	139.12
471.777	170.12
471.997	173.12
472.216	145.12
472.435	163.12
472.654	138.12
472.873	148.12
473.092	153.12
473.311	150.12
473.53	144.12
473.749	160.12
473.968	186.12
474.187	166.12
474.406	163.12
474.625	150.12
474.844	162.12
475.063	159.12
475.282	162.12
475.501	156.12
475.72	174.12
475.939	163.12
476.158	158.12
476.377	159.12
476.596	177.12
476.814	171.12
477.033	156.12
477.252	166.12
477.471	152.12
477.69	166.12
477.908	167.12
478.127	167.12
478.346	176.12
478.564	193.12
478.783	184.12
479.002	184.12
479.22	168.12
479.439	202.12
479.658	181.12
479.876	174.12
480.095	177.12
480.313	195.12
480.532	187.12
480.751	190.12
480.969	185.12
481.188	169.12
481.406	174.12
481.624	161.12
481.843	149.12
482.061	164.12
482.28	188.12
482.498	169.12
482.717	174.12
482.935	150.12
483.153	166.12
483.372	165.12
483.59	170.12
483.808	166.12
484.027	179.12
484.245	174.12
484.463	170.12
484.681	203.12
484.9	178.12
485.118	183.12
485.336	163.12
485.554	167.12
485.772	176.12
485.99	186.12
486.209	190.12
486.427	194.12
486.645	173.12
486.863	178.12
487.081	179.12
487.299	163.12
487.517	185.12
487.735	175.12
487.953	182.12
488.171	188.12
488.389	175.12
488.607	174.12
488.825	170.12
489.043	179.12
489.261	200.12
489.479	164.12
489.696	189.12
489.914	171.12
490.132	198.12
490.35	181.12
490.568	182.12
490.786	164.12
491.003	174.12
491.221	159.12
491.439	182.12
491.657	197.12
491.874	192.12
492.092	200.12
492.31	195.12
492.527	184.12
492.745	182.12
492.963	212.12
493.18	199.12
493.398	196.12
493.615	189.12
493.833	172.12
494.05	191.12
494.268	190.12
494.485	194.12
494.703	176.12
494.92	189.12
495.138	176.12
495.355	181.12
495.573	176.12
495.79	177.12
496.008	187.12
496.225	181.12
496.442	177.12
496.66	200.12
496.877	184.12
497.094	194.12
497.312	208.12
497.529	207.12
497.746	201.12
497.963	208.12
498.181	210.12
498.398	210.12
498.615	210.12
498.832	227.12
499.049	243.12
499.267	252.12
499.484	294.12
499.701	286.12
499.918	324.12
500.135	376.12
500.352	404.12
500.569	400.12
500.786	425.12
501.003	381.12
501.22	330.12
501.437	298.12
501.654	272.12
501.871	251.12
502.088	236.12
502.305	245.12
502.522	230.12
502.739	228.12
502.956	227.12
503.172	211.12
503.389	204.12
503.606	211.12
503.823	192.12
504.04	196.12
504.256	203.12
504.473	196.12
504.69	215.12
504.907	224.12
505.123	196.12
