Data from SampD_HRD10591_00064.txt Node
Date: Mon Jan 19 11:41:43 EST 2026
User: Yrep
Spectrometer: HR+D1059
Trigger mode: 0
Integration Time (sec): 3.443000E-1
Scans to average: 1
Electric dark correction enabled: true
Nonlinearity correction enabled: false
Boxcar width: 0
XAxis mode: Wavelengths
Number of Pixels in Spectrum: 2048
>>>>>Begin Spectral Data<<<<<
223.165	-17.75
223.4	-17.75
223.635	-17.75
223.869	-22.75
224.104	-12.75
224.338	-10.75
224.573	-32.75
224.808	-28.75
225.042	-3.75
225.277	-9.75
225.511	-5.75
225.746	16.25
225.98	15.25
226.215	20.25
226.449	18.25
226.683	22.25
226.918	21.25
227.152	31.25
227.387	24.25
227.621	27.25
227.856	47.25
228.09	34.25
228.324	51.25
228.559	51.25
228.793	45.25
229.027	68.25
229.262	65.25
229.496	62.25
229.73	86.25
229.964	78.25
230.199	82.25
230.433	76.25
230.667	96.25
230.901	72.25
231.136	85.25
231.37	84.25
231.604	86.25
231.838	88.25
232.072	88.25
232.306	83.25
232.541	97.25
232.775	92.25
233.009	90.25
233.243	78.25
233.477	80.25
233.711	84.25
233.945	90.25
234.179	101.25
234.413	81.25
234.647	69.25
234.881	91.25
235.115	78.25
235.349	80.25
235.583	96.25
235.817	75.25
236.051	85.25
236.285	90.25
236.519	86.25
236.753	81.25
236.987	94.25
237.221	78.25
237.455	90.25
237.689	92.25
237.922	92.25
238.156	88.25
238.39	106.25
238.624	92.25
238.858	88.25
239.091	79.25
239.325	77.25
239.559	96.25
239.793	91.25
240.027	97.25
240.26	91.25
240.494	101.25
240.728	83.25
240.961	66.25
241.195	87.25
241.429	99.25
241.662	82.25
241.896	96.25
242.13	84.25
242.363	88.25
242.597	82.25
242.83	90.25
243.064	86.25
243.298	78.25
243.531	76.25
243.765	92.25
243.998	87.25
244.232	95.25
244.465	89.25
244.699	84.25
244.932	71.25
245.166	94.25
245.399	98.25
245.633	82.25
245.866	83.25
246.099	81.25
246.333	85.25
246.566	89.25
246.8	67.25
247.033	89.25
247.266	82.25
247.5	98.25
247.733	95.25
247.966	89.25
248.2	92.25
248.433	86.25
248.666	86.25
248.899	90.25
249.133	88.25
249.366	96.25
249.599	102.25
249.832	97.25
250.066	95.25
250.299	84.25
250.532	96.25
250.765	94.25
250.998	85.25
251.231	94.25
251.465	103.25
251.698	78.25
251.931	87.25
252.164	94.25
252.397	84.25
252.63	88.25
252.863	92.25
253.096	90.25
253.329	85.25
253.562	91.25
253.795	93.25
254.028	105.25
254.261	98.25
254.494	102.25
254.727	99.25
254.96	96.25
255.193	111.25
255.426	100.25
255.659	86.25
255.892	99.25
256.124	86.25
256.357	115.25
256.59	93.25
256.823	93.25
257.056	95.25
257.289	95.25
257.521	93.25
257.754	103.25
257.987	89.25
258.22	97.25
258.452	103.25
258.685	102.25
258.918	101.25
259.151	92.25
259.383	122.25
259.616	104.25
259.849	99.25
260.081	87.25
260.314	96.25
260.547	99.25
260.779	87.25
261.012	97.25
261.244	88.25
261.477	110.25
261.71	93.25
261.942	90.25
262.175	84.25
262.407	99.25
262.64	95.25
262.872	110.25
263.105	104.25
263.337	120.25
263.57	91.25
263.802	102.25
264.035	110.25
264.267	97.25
264.499	108.25
264.732	105.25
264.964	106.25
265.197	103.25
265.429	105.25
265.661	94.25
265.894	93.25
266.126	102.25
266.358	114.25
266.591	103.25
266.823	95.25
267.055	90.25
267.287	115.25
267.52	88.25
267.752	113.25
267.984	109.25
268.216	109.25
268.448	100.25
268.681	106.25
268.913	102.25
269.145	101.25
269.377	102.25
269.609	104.25
269.841	109.25
270.073	103.25
270.306	110.25
270.538	103.25
270.77	100.25
271.002	115.25
271.234	104.25
271.466	103.25
271.698	121.25
271.93	108.25
272.162	109.25
272.394	114.25
272.626	99.25
272.858	100.25
273.09	104.25
273.322	110.25
273.553	116.25
273.785	110.25
274.017	87.25
274.249	110.25
274.481	101.25
274.713	108.25
274.945	115.25
275.176	112.25
275.408	104.25
275.64	120.25
275.872	111.25
276.104	120.25
276.335	110.25
276.567	117.25
276.799	111.25
277.031	102.25
277.262	109.25
277.494	104.25
277.726	118.25
277.957	115.25
278.189	128.25
278.421	124.25
278.652	115.25
278.884	106.25
279.115	116.25
279.347	118.25
279.579	111.25
279.81	91.25
280.042	107.25
280.273	99.25
280.505	114.25
280.736	125.25
280.968	115.25
281.199	111.25
281.431	130.25
281.662	102.25
281.894	100.25
282.125	120.25
282.356	119.25
282.588	106.25
282.819	106.25
283.051	118.25
283.282	126.25
283.513	131.25
283.745	119.25
283.976	107.25
284.207	116.25
284.439	121.25
284.67	108.25
284.901	113.25
285.132	132.25
285.364	108.25
285.595	127.25
285.826	110.25
286.057	119.25
286.288	131.25
286.52	112.25
286.751	127.25
286.982	119.25
287.213	123.25
287.444	114.25
287.675	126.25
287.906	131.25
288.138	115.25
288.369	122.25
288.6	97.25
288.831	104.25
289.062	107.25
289.293	131.25
289.524	124.25
289.755	127.25
289.986	114.25
290.217	119.25
290.448	121.25
290.679	136.25
290.91	126.25
291.141	128.25
291.371	119.25
291.602	119.25
291.833	132.25
292.064	125.25
292.295	101.25
292.526	125.25
292.757	121.25
292.987	133.25
293.218	133.25
293.449	141.25
293.68	121.25
293.91	122.25
294.141	127.25
294.372	112.25
294.603	114.25
294.833	125.25
295.064	116.25
295.295	135.25
295.525	125.25
295.756	129.25
295.987	135.25
296.217	127.25
296.448	117.25
296.679	124.25
296.909	130.25
297.14	132.25
297.37	125.25
297.601	122.25
297.831	115.25
298.062	120.25
298.292	123.25
298.523	125.25
298.753	128.25
298.984	143.25
299.214	138.25
299.445	113.25
299.675	125.25
299.905	124.25
300.136	131.25
300.366	139.25
300.597	121.25
300.827	125.25
301.057	125.25
301.288	119.25
301.518	134.25
301.748	130.25
301.979	166.25
302.209	126.25
302.439	140.25
302.669	135.25
302.9	135.25
303.13	136.25
303.36	128.25
303.59	135.25
303.82	139.25
304.051	142.25
304.281	118.25
304.511	145.25
304.741	124.25
304.971	136.25
305.201	142.25
305.431	124.25
305.661	131.25
305.891	123.25
306.121	122.25
306.352	113.25
306.582	117.25
306.812	123.25
307.042	124.25
307.272	132.25
307.502	135.25
307.731	134.25
307.961	127.25
308.191	127.25
308.421	125.25
308.651	150.25
308.881	118.25
309.111	117.25
309.341	129.25
309.571	137.25
309.8	127.25
310.03	123.25
310.26	120.25
310.49	112.25
310.72	120.25
310.949	140.25
311.179	139.25
311.409	127.25
311.639	132.25
311.868	139.25
312.098	134.25
312.328	139.25
312.557	128.25
312.787	133.25
313.017	131.25
313.246	127.25
313.476	141.25
313.706	128.25
313.935	131.25
314.165	133.25
314.394	148.25
314.624	131.25
314.853	126.25
315.083	131.25
315.312	140.25
315.542	118.25
315.771	133.25
316.001	119.25
316.23	137.25
316.46	129.25
316.689	132.25
316.919	130.25
317.148	126.25
317.377	132.25
317.607	140.25
317.836	131.25
318.065	132.25
318.295	142.25
318.524	118.25
318.753	136.25
318.983	126.25
319.212	138.25
319.441	123.25
319.67	115.25
319.9	114.25
320.129	135.25
320.358	128.25
320.587	139.25
320.816	124.25
321.046	133.25
321.275	152.25
321.504	112.25
321.733	141.25
321.962	126.25
322.191	127.25
322.42	146.25
322.649	145.25
322.878	132.25
323.108	129.25
323.337	135.25
323.566	132.25
323.795	130.25
324.024	142.25
324.253	132.25
324.482	128.25
324.71	138.25
324.939	140.25
325.168	141.25
325.397	147.25
325.626	115.25
325.855	132.25
326.084	138.25
326.313	133.25
326.542	139.25
326.77	150.25
326.999	131.25
327.228	140.25
327.457	137.25
327.686	157.25
327.914	131.25
328.143	154.25
328.372	127.25
328.6	129.25
328.829	119.25
329.058	113.25
329.287	140.25
329.515	149.25
329.744	147.25
329.972	142.25
330.201	144.25
330.43	126.25
330.658	138.25
330.887	135.25
331.115	124.25
331.344	139.25
331.572	149.25
331.801	126.25
332.03	171.25
332.258	142.25
332.486	145.25
332.715	146.25
332.943	160.25
333.172	152.25
333.4	161.25
333.629	162.25
333.857	170.25
334.085	155.25
334.314	158.25
334.542	157.25
334.771	135.25
334.999	148.25
335.227	165.25
335.455	155.25
335.684	174.25
335.912	159.25
336.14	160.25
336.369	146.25
336.597	150.25
336.825	145.25
337.053	157.25
337.281	160.25
337.51	156.25
337.738	146.25
337.966	154.25
338.194	133.25
338.422	149.25
338.65	145.25
338.878	149.25
339.106	148.25
339.334	145.25
339.562	140.25
339.79	141.25
340.018	156.25
340.246	135.25
340.474	155.25
340.702	152.25
340.93	138.25
341.158	139.25
341.386	135.25
341.614	148.25
341.842	125.25
342.07	127.25
342.298	136.25
342.526	136.25
342.754	131.25
342.981	135.25
343.209	129.25
343.437	166.25
343.665	158.25
343.893	154.25
344.12	163.25
344.348	156.25
344.576	152.25
344.804	147.25
345.031	145.25
345.259	150.25
345.487	139.25
345.714	138.25
345.942	141.25
346.17	141.25
346.397	125.25
346.625	123.25
346.853	154.25
347.08	154.25
347.308	123.25
347.535	124.25
347.763	126.25
347.99	126.25
348.218	144.25
348.445	143.25
348.673	139.25
348.9	146.25
349.128	146.25
349.355	143.25
349.583	154.25
349.81	152.25
350.037	161.25
350.265	142.25
350.492	123.25
350.72	122.25
350.947	140.25
351.174	138.25
351.402	142.25
351.629	147.25
351.856	126.25
352.083	140.25
352.311	133.25
352.538	138.25
352.765	134.25
352.992	155.25
353.22	143.25
353.447	115.25
353.674	147.25
353.901	144.25
354.128	127.25
354.355	117.25
354.583	139.25
354.81	155.25
355.037	155.25
355.264	139.25
355.491	152.25
355.718	128.25
355.945	147.25
356.172	138.25
356.399	140.25
356.626	142.25
356.853	140.25
357.08	150.25
357.307	125.25
357.534	134.25
357.761	145.25
357.988	158.25
358.215	144.25
358.441	132.25
358.668	138.25
358.895	139.25
359.122	128.25
359.349	122.25
359.576	140.25
359.802	140.25
360.029	136.25
360.256	144.25
360.483	142.25
360.709	138.25
360.936	165.25
361.163	133.25
361.39	138.25
361.616	123.25
361.843	138.25
362.07	136.25
362.296	143.25
362.523	138.25
362.749	145.25
362.976	119.25
363.203	145.25
363.429	120.25
363.656	128.25
363.882	136.25
364.109	144.25
364.335	154.25
364.562	149.25
364.788	134.25
365.015	138.25
365.241	128.25
365.468	140.25
365.694	135.25
365.92	138.25
366.147	132.25
366.373	136.25
366.599	119.25
366.826	132.25
367.052	127.25
367.278	127.25
367.505	129.25
367.731	153.25
367.957	130.25
368.184	134.25
368.41	133.25
368.636	136.25
368.862	150.25
369.089	146.25
369.315	144.25
369.541	151.25
369.767	134.25
369.993	132.25
370.219	140.25
370.445	154.25
370.672	142.25
370.898	149.25
371.124	133.25
371.35	138.25
371.576	130.25
371.802	138.25
372.028	125.25
372.254	141.25
372.48	144.25
372.706	132.25
372.932	154.25
373.158	151.25
373.384	150.25
373.61	160.25
373.835	136.25
374.061	152.25
374.287	149.25
374.513	144.25
374.739	148.25
374.965	133.25
375.191	146.25
375.416	151.25
375.642	149.25
375.868	143.25
376.094	143.25
376.319	145.25
376.545	156.25
376.771	134.25
376.997	146.25
377.222	134.25
377.448	153.25
377.674	138.25
377.899	143.25
378.125	143.25
378.35	129.25
378.576	160.25
378.802	141.25
379.027	142.25
379.253	154.25
379.478	139.25
379.704	149.25
379.929	135.25
380.155	134.25
380.38	142.25
380.606	151.25
380.831	156.25
381.057	155.25
381.282	132.25
381.507	147.25
381.733	148.25
381.958	140.25
382.184	147.25
382.409	159.25
382.634	145.25
382.86	157.25
383.085	162.25
383.31	163.25
383.535	148.25
383.761	162.25
383.986	159.25
384.211	143.25
384.436	162.25
384.662	158.25
384.887	152.25
385.112	144.25
385.337	162.25
385.562	156.25
385.787	157.25
386.013	165.25
386.238	146.25
386.463	161.25
386.688	196.25
386.913	157.25
387.138	168.25
387.363	147.25
387.588	157.25
387.813	168.25
388.038	146.25
388.263	168.25
388.488	172.25
388.713	163.25
388.938	133.25
389.163	146.25
389.387	165.25
389.612	162.25
389.837	150.25
390.062	158.25
390.287	165.25
390.512	162.25
390.736	160.25
390.961	155.25
391.186	176.25
391.411	159.25
391.636	170.25
391.86	174.25
392.085	177.25
392.31	162.25
392.534	171.25
392.759	175.25
392.984	161.25
393.208	170.25
393.433	154.25
393.658	163.25
393.882	169.25
394.107	185.25
394.331	165.25
394.556	186.25
394.78	181.25
395.005	165.25
395.229	173.25
395.454	166.25
395.678	155.25
395.903	159.25
396.127	185.25
396.352	162.25
396.576	160.25
396.801	160.25
397.025	173.25
397.249	175.25
397.474	194.25
397.698	168.25
397.922	186.25
398.147	183.25
398.371	168.25
398.595	178.25
398.82	175.25
399.044	206.25
399.268	224.25
399.492	229.25
399.717	254.25
399.941	243.25
400.165	231.25
400.389	218.25
400.613	194.25
400.837	193.25
401.062	204.25
401.286	188.25
401.51	190.25
401.734	196.25
401.958	191.25
402.182	194.25
402.406	174.25
402.63	182.25
402.854	199.25
403.078	181.25
403.302	211.25
403.526	200.25
403.75	200.25
403.974	198.25
404.198	210.25
404.422	205.25
404.645	195.25
404.869	212.25
405.093	198.25
405.317	197.25
405.541	215.25
405.765	194.25
405.988	194.25
406.212	203.25
406.436	204.25
406.66	192.25
406.883	195.25
407.107	209.25
407.331	226.25
407.555	227.25
407.778	213.25
408.002	210.25
408.226	203.25
408.449	196.25
408.673	213.25
408.896	195.25
409.12	195.25
409.344	198.25
409.567	210.25
409.791	226.25
410.014	211.25
410.238	215.25
410.461	187.25
410.685	221.25
410.908	174.25
411.132	205.25
411.355	195.25
411.578	198.25
411.802	173.25
412.025	182.25
412.249	193.25
412.472	195.25
412.695	193.25
412.919	179.25
413.142	182.25
413.365	194.25
413.589	197.25
413.812	184.25
414.035	182.25
414.258	179.25
414.482	197.25
414.705	184.25
414.928	189.25
415.151	197.25
415.374	199.25
415.597	187.25
415.821	187.25
416.044	171.25
416.267	175.25
416.49	176.25
416.713	191.25
416.936	197.25
417.159	188.25
417.382	176.25
417.605	184.25
417.828	178.25
418.051	185.25
418.274	195.25
418.497	199.25
418.72	175.25
418.943	193.25
419.166	205.25
419.389	209.25
419.611	197.25
419.834	191.25
420.057	204.25
420.28	185.25
420.503	166.25
420.726	182.25
420.948	182.25
421.171	186.25
421.394	205.25
421.617	187.25
421.839	180.25
422.062	193.25
422.285	182.25
422.507	206.25
422.73	196.25
422.953	194.25
423.175	192.25
423.398	188.25
423.621	189.25
423.843	197.25
424.066	196.25
424.288	201.25
424.511	188.25
424.733	179.25
424.956	194.25
425.178	193.25
425.401	184.25
425.623	194.25
425.846	197.25
426.068	176.25
426.291	180.25
426.513	189.25
426.735	178.25
426.958	196.25
427.18	180.25
427.402	196.25
427.625	181.25
427.847	167.25
428.069	166.25
428.292	172.25
428.514	164.25
428.736	174.25
428.958	177.25
429.181	188.25
429.403	174.25
429.625	176.25
429.847	174.25
430.069	177.25
430.292	170.25
430.514	173.25
430.736	166.25
430.958	160.25
431.18	171.25
431.402	168.25
431.624	173.25
431.846	172.25
432.068	181.25
432.29	175.25
432.512	162.25
432.734	174.25
432.956	192.25
433.178	192.25
433.4	174.25
433.622	173.25
433.844	190.25
434.066	178.25
434.287	183.25
434.509	183.25
434.731	192.25
434.953	186.25
435.175	195.25
435.397	191.25
435.618	167.25
435.84	151.25
436.062	175.25
436.284	175.25
436.505	165.25
436.727	161.25
436.949	189.25
437.17	174.25
437.392	174.25
437.614	176.25
437.835	157.25
438.057	160.25
438.278	164.25
438.5	173.25
438.721	177.25
438.943	198.25
439.165	164.25
439.386	163.25
439.608	175.25
439.829	197.25
440.05	184.25
440.272	174.25
440.493	186.25
440.715	181.25
440.936	192.25
441.158	185.25
441.379	177.25
441.6	180.25
441.822	188.25
442.043	190.25
442.264	183.25
442.486	187.25
442.707	183.25
442.928	193.25
443.149	193.25
443.371	193.25
443.592	183.25
443.813	184.25
444.034	197.25
444.255	184.25
444.476	200.25
444.698	221.25
444.919	217.25
445.14	415.25
445.361	278.25
445.582	196.25
445.803	172.25
446.024	169.25
446.245	193.25
446.466	174.25
446.687	173.25
446.908	172.25
447.129	187.25
447.35	176.25
447.571	180.25
447.792	165.25
448.013	161.25
448.234	177.25
448.455	168.25
448.675	180.25
448.896	181.25
449.117	174.25
449.338	176.25
449.559	164.25
449.779	176.25
450	163.25
450.221	171.25
450.442	181.25
450.662	165.25
450.883	175.25
451.104	180.25
451.324	162.25
451.545	168.25
451.766	174.25
451.986	167.25
452.207	175.25
452.428	171.25
452.648	188.25
452.869	161.25
453.089	154.25
453.31	168.25
453.53	177.25
453.751	144.25
453.971	155.25
454.192	158.25
454.412	164.25
454.633	155.25
454.853	145.25
455.073	156.25
455.294	174.25
455.514	174.25
455.734	153.25
455.955	152.25
456.175	158.25
456.395	149.25
456.616	147.25
456.836	145.25
457.056	175.25
457.276	158.25
457.497	168.25
457.717	143.25
457.937	156.25
458.157	156.25
458.377	157.25
458.598	147.25
458.818	168.25
459.038	173.25
459.258	172.25
459.478	171.25
459.698	187.25
459.918	167.25
460.138	192.25
460.358	183.25
460.578	208.25
460.798	195.25
461.018	197.25
461.238	203.25
461.458	190.25
461.678	204.25
461.898	187.25
462.118	202.25
462.338	190.25
462.558	210.25
462.777	222.25
462.997	219.25
463.217	221.25
463.437	228.25
463.657	222.25
463.876	218.25
464.096	226.25
464.316	208.25
464.536	225.25
464.755	213.25
464.975	199.25
465.195	195.25
465.414	194.25
465.634	167.25
465.854	176.25
466.073	175.25
466.293	181.25
466.512	180.25
466.732	167.25
466.951	177.25
467.171	168.25
467.391	166.25
467.61	162.25
467.829	173.25
468.049	170.25
468.268	188.25
468.488	154.25
468.707	190.25
468.927	169.25
469.146	173.25
469.365	167.25
469.585	181.25
469.804	167.25
470.023	171.25
470.243	183.25
470.462	178.25
470.681	171.25
470.901	187.25
471.12	178.25
471.339	183.25
471.558	181.25
471.777	178.25
471.997	171.25
472.216	161.25
472.435	162.25
472.654	159.25
472.873	190.25
473.092	148.25
473.311	167.25
473.53	165.25
473.749	177.25
473.968	171.25
474.187	163.25
474.406	168.25
474.625	183.25
474.844	161.25
475.063	159.25
475.282	161.25
475.501	167.25
475.72	178.25
475.939	160.25
476.158	162.25
476.377	185.25
476.596	163.25
476.814	158.25
477.033	182.25
477.252	169.25
477.471	162.25
477.69	172.25
477.908	175.25
478.127	184.25
478.346	192.25
478.564	187.25
478.783	192.25
479.002	194.25
479.22	189.25
479.439	193.25
479.658	171.25
479.876	180.25
480.095	193.25
480.313	191.25
480.532	196.25
480.751	196.25
480.969	189.25
481.188	191.25
481.406	195.25
481.624	178.25
481.843	188.25
482.061	183.25
482.28	176.25
482.498	165.25
482.717	186.25
482.935	174.25
483.153	174.25
483.372	172.25
483.59	193.25
483.808	178.25
484.027	194.25
484.245	188.25
484.463	183.25
484.681	198.25
484.9	190.25
485.118	184.25
485.336	192.25
485.554	194.25
485.772	199.25
485.99	190.25
486.209	193.25
486.427	190.25
486.645	187.25
486.863	192.25
487.081	192.25
487.299	189.25
487.517	197.25
487.735	195.25
487.953	188.25
488.171	191.25
488.389	181.25
488.607	191.25
488.825	179.25
489.043	175.25
489.261	189.25
489.479	184.25
489.696	211.25
489.914	202.25
490.132	190.25
490.35	192.25
490.568	179.25
490.786	176.25
491.003	182.25
491.221	187.25
491.439	194.25
491.657	192.25
491.874	203.25
492.092	180.25
492.31	194.25
492.527	203.25
492.745	203.25
492.963	200.25
493.18	193.25
493.398	211.25
493.615	200.25
493.833	205.25
494.05	197.25
494.268	176.25
494.485	193.25
494.703	191.25
494.92	203.25
495.138	183.25
495.355	187.25
495.573	199.25
495.79	201.25
496.008	216.25
496.225	190.25
496.442	200.25
496.66	217.25
496.877	198.25
497.094	219.25
497.312	222.25
497.529	201.25
497.746	223.25
497.963	206.25
498.181	220.25
498.398	246.25
498.615	248.25
498.832	242.25
499.049	270.25
499.267	278.25
499.484	324.25
499.701	338.25
499.918	355.25
500.135	396.25
500.352	444.25
500.569	451.25
500.786	440.25
501.003	407.25
501.22	369.25
501.437	338.25
501.654	300.25
501.871	272.25
502.088	283.25
502.305	260.25
502.522	239.25
502.739	259.25
502.956	225.25
503.172	209.25
503.389	216.25
503.606	211.25
503.823	218.25
504.04	210.25
504.256	226.25
504.473	215.25
504.69	220.25
