Data from SampD_HRD10591_00066.txt Node
Date: Mon Jan 19 11:41:43 EST 2026
User: Yrep
Spectrometer: HR+D1059
Trigger mode: 0
Integration Time (sec): 3.443000E-1
Scans to average: 1
Electric dark correction enabled: true
Nonlinearity correction enabled: false
Boxcar width: 0
XAxis mode: Wavelengths
Number of Pixels in Spectrum: 2048
>>>>>Begin Spectral Data<<<<<
223.165	-23.25
223.4	-23.25
223.635	-23.25
223.869	-28.25
224.104	-25.25
224.338	-15.25
224.573	-21.25
224.808	-14.25
225.042	-1.25
225.277	-19.25
225.511	2.75
225.746	9.75
225.98	6.75
226.215	15.75
226.449	21.75
226.683	19.75
226.918	43.75
227.152	27.75
227.387	38.75
227.621	46.75
227.856	52.75
228.09	53.75
228.324	49.75
228.559	58.75
228.793	55.75
229.027	64.75
229.262	68.75
229.496	74.75
229.73	77.75
229.964	85.75
230.199	65.75
230.433	70.75
230.667	77.75
230.901	77.75
231.136	82.75
231.37	86.75
231.604	85.75
231.838	77.75
232.072	78.75
232.306	62.75
232.541	82.75
232.775	66.75
233.009	85.75
233.243	85.75
233.477	86.75
233.711	90.75
233.945	100.75
234.179	89.75
234.413	87.75
234.647	98.75
234.881	76.75
235.115	80.75
235.349	70.75
235.583	100.75
235.817	73.75
236.051	84.75
236.285	78.75
236.519	75.75
236.753	75.75
236.987	60.75
237.221	82.75
237.455	77.75
237.689	81.75
237.922	78.75
238.156	70.75
238.39	79.75
238.624	66.75
238.858	91.75
239.091	78.75
239.325	83.75
239.559	94.75
239.793	92.75
240.027	78.75
240.26	71.75
240.494	81.75
240.728	82.75
240.961	77.75
241.195	85.75
241.429	94.75
241.662	82.75
241.896	94.75
242.13	80.75
242.363	65.75
242.597	86.75
242.83	71.75
243.064	89.75
243.298	83.75
243.531	79.75
243.765	84.75
243.998	89.75
244.232	94.75
244.465	90.75
244.699	90.75
244.932	86.75
245.166	80.75
245.399	84.75
245.633	82.75
245.866	86.75
246.099	82.75
246.333	97.75
246.566	96.75
246.8	77.75
247.033	82.75
247.266	83.75
247.5	89.75
247.733	85.75
247.966	82.75
248.2	78.75
248.433	89.75
248.666	84.75
248.899	101.75
249.133	98.75
249.366	92.75
249.599	93.75
249.832	93.75
250.066	101.75
250.299	100.75
250.532	99.75
250.765	78.75
250.998	86.75
251.231	87.75
251.465	88.75
251.698	86.75
251.931	89.75
252.164	89.75
252.397	82.75
252.63	89.75
252.863	87.75
253.096	90.75
253.329	85.75
253.562	85.75
253.795	103.75
254.028	106.75
254.261	86.75
254.494	89.75
254.727	117.75
254.96	84.75
255.193	81.75
255.426	91.75
255.659	77.75
255.892	101.75
256.124	96.75
256.357	92.75
256.59	109.75
256.823	103.75
257.056	98.75
257.289	101.75
257.521	95.75
257.754	84.75
257.987	95.75
258.22	97.75
258.452	95.75
258.685	111.75
258.918	90.75
259.151	100.75
259.383	93.75
259.616	82.75
259.849	85.75
260.081	93.75
260.314	102.75
260.547	97.75
260.779	96.75
261.012	101.75
261.244	82.75
261.477	116.75
261.71	89.75
261.942	75.75
262.175	96.75
262.407	105.75
262.64	92.75
262.872	89.75
263.105	93.75
263.337	90.75
263.57	98.75
263.802	100.75
264.035	102.75
264.267	90.75
264.499	98.75
264.732	102.75
264.964	102.75
265.197	107.75
265.429	94.75
265.661	116.75
265.894	94.75
266.126	102.75
266.358	103.75
266.591	97.75
266.823	110.75
267.055	106.75
267.287	95.75
267.52	102.75
267.752	97.75
267.984	94.75
268.216	93.75
268.448	107.75
268.681	115.75
268.913	99.75
269.145	106.75
269.377	109.75
269.609	109.75
269.841	110.75
270.073	101.75
270.306	111.75
270.538	98.75
270.77	94.75
271.002	98.75
271.234	99.75
271.466	103.75
271.698	86.75
271.93	102.75
272.162	111.75
272.394	111.75
272.626	112.75
272.858	115.75
273.09	101.75
273.322	107.75
273.553	100.75
273.785	103.75
274.017	102.75
274.249	108.75
274.481	100.75
274.713	99.75
274.945	110.75
275.176	97.75
275.408	108.75
275.64	109.75
275.872	101.75
276.104	118.75
276.335	115.75
276.567	101.75
276.799	112.75
277.031	103.75
277.262	122.75
277.494	96.75
277.726	115.75
277.957	110.75
278.189	111.75
278.421	114.75
278.652	121.75
278.884	106.75
279.115	117.75
279.347	100.75
279.579	122.75
279.81	100.75
280.042	111.75
280.273	108.75
280.505	105.75
280.736	112.75
280.968	105.75
281.199	113.75
281.431	107.75
281.662	102.75
281.894	114.75
282.125	124.75
282.356	106.75
282.588	121.75
282.819	107.75
283.051	98.75
283.282	97.75
283.513	114.75
283.745	109.75
283.976	125.75
284.207	111.75
284.439	117.75
284.67	131.75
284.901	115.75
285.132	117.75
285.364	105.75
285.595	123.75
285.826	110.75
286.057	113.75
286.288	95.75
286.52	119.75
286.751	119.75
286.982	122.75
287.213	103.75
287.444	115.75
287.675	121.75
287.906	113.75
288.138	130.75
288.369	124.75
288.6	117.75
288.831	102.75
289.062	115.75
289.293	132.75
289.524	112.75
289.755	121.75
289.986	103.75
290.217	118.75
290.448	121.75
290.679	114.75
290.91	115.75
291.141	109.75
291.371	111.75
291.602	105.75
291.833	118.75
292.064	116.75
292.295	114.75
292.526	117.75
292.757	129.75
292.987	110.75
293.218	101.75
293.449	121.75
293.68	113.75
293.91	114.75
294.141	109.75
294.372	116.75
294.603	116.75
294.833	117.75
295.064	113.75
295.295	119.75
295.525	124.75
295.756	123.75
295.987	105.75
296.217	116.75
296.448	118.75
296.679	105.75
296.909	126.75
297.14	117.75
297.37	107.75
297.601	117.75
297.831	125.75
298.062	139.75
298.292	113.75
298.523	138.75
298.753	124.75
298.984	124.75
299.214	126.75
299.445	131.75
299.675	122.75
299.905	107.75
300.136	108.75
300.366	130.75
300.597	133.75
300.827	124.75
301.057	140.75
301.288	132.75
301.518	109.75
301.748	126.75
301.979	144.75
302.209	125.75
302.439	116.75
302.669	126.75
302.9	120.75
303.13	125.75
303.36	111.75
303.59	109.75
303.82	129.75
304.051	130.75
304.281	132.75
304.511	116.75
304.741	129.75
304.971	119.75
305.201	125.75
305.431	113.75
305.661	118.75
305.891	129.75
306.121	118.75
306.352	116.75
306.582	115.75
306.812	118.75
307.042	123.75
307.272	124.75
307.502	124.75
307.731	111.75
307.961	131.75
308.191	114.75
308.421	117.75
308.651	119.75
308.881	110.75
309.111	127.75
309.341	125.75
309.571	113.75
309.8	124.75
310.03	114.75
310.26	123.75
310.49	126.75
310.72	117.75
310.949	124.75
311.179	120.75
311.409	121.75
311.639	108.75
311.868	139.75
312.098	117.75
312.328	133.75
312.557	137.75
312.787	119.75
313.017	131.75
313.246	141.75
313.476	134.75
313.706	120.75
313.935	115.75
314.165	151.75
314.394	113.75
314.624	132.75
314.853	114.75
315.083	125.75
315.312	125.75
315.542	129.75
315.771	123.75
316.001	148.75
316.23	137.75
316.46	119.75
316.689	133.75
316.919	127.75
317.148	131.75
317.377	129.75
317.607	131.75
317.836	132.75
318.065	128.75
318.295	127.75
318.524	114.75
318.753	124.75
318.983	131.75
319.212	129.75
319.441	136.75
319.67	132.75
319.9	118.75
320.129	142.75
320.358	119.75
320.587	123.75
320.816	118.75
321.046	133.75
321.275	143.75
321.504	130.75
321.733	130.75
321.962	131.75
322.191	118.75
322.42	126.75
322.649	129.75
322.878	133.75
323.108	140.75
323.337	129.75
323.566	139.75
323.795	115.75
324.024	127.75
324.253	135.75
324.482	121.75
324.71	124.75
324.939	131.75
325.168	128.75
325.397	121.75
325.626	125.75
325.855	129.75
326.084	134.75
326.313	111.75
326.542	120.75
326.77	137.75
326.999	123.75
327.228	123.75
327.457	129.75
327.686	135.75
327.914	123.75
328.143	138.75
328.372	134.75
328.6	133.75
328.829	123.75
329.058	129.75
329.287	132.75
329.515	142.75
329.744	132.75
329.972	135.75
330.201	134.75
330.43	146.75
330.658	125.75
330.887	134.75
331.115	121.75
331.344	130.75
331.572	135.75
331.801	124.75
332.03	136.75
332.258	137.75
332.486	126.75
332.715	148.75
332.943	142.75
333.172	144.75
333.4	155.75
333.629	161.75
333.857	151.75
334.085	154.75
334.314	151.75
334.542	143.75
334.771	157.75
334.999	153.75
335.227	157.75
335.455	140.75
335.684	154.75
335.912	153.75
336.14	137.75
336.369	128.75
336.597	142.75
336.825	130.75
337.053	148.75
337.281	143.75
337.51	131.75
337.738	154.75
337.966	120.75
338.194	144.75
338.422	130.75
338.65	124.75
338.878	137.75
339.106	134.75
339.334	149.75
339.562	140.75
339.79	129.75
340.018	130.75
340.246	132.75
340.474	141.75
340.702	144.75
340.93	146.75
341.158	124.75
341.386	135.75
341.614	140.75
341.842	143.75
342.07	127.75
342.298	131.75
342.526	156.75
342.754	145.75
342.981	132.75
343.209	129.75
343.437	164.75
343.665	140.75
343.893	173.75
344.12	181.75
344.348	146.75
344.576	133.75
344.804	148.75
345.031	142.75
345.259	139.75
345.487	138.75
345.714	118.75
345.942	118.75
346.17	151.75
346.397	123.75
346.625	130.75
346.853	127.75
347.08	125.75
347.308	138.75
347.535	139.75
347.763	121.75
347.99	126.75
348.218	145.75
348.445	114.75
348.673	131.75
348.9	131.75
349.128	139.75
349.355	110.75
349.583	139.75
349.81	134.75
350.037	145.75
350.265	128.75
350.492	120.75
350.72	149.75
350.947	144.75
351.174	145.75
351.402	127.75
351.629	126.75
351.856	126.75
352.083	128.75
352.311	121.75
352.538	123.75
352.765	144.75
352.992	134.75
353.22	133.75
353.447	129.75
353.674	124.75
353.901	123.75
354.128	126.75
354.355	132.75
354.583	115.75
354.81	142.75
355.037	131.75
355.264	141.75
355.491	110.75
355.718	129.75
355.945	135.75
356.172	133.75
356.399	125.75
356.626	128.75
356.853	119.75
357.08	134.75
357.307	135.75
357.534	130.75
357.761	144.75
357.988	123.75
358.215	131.75
358.441	125.75
358.668	129.75
358.895	129.75
359.122	127.75
359.349	138.75
359.576	117.75
359.802	134.75
360.029	138.75
360.256	135.75
360.483	123.75
360.709	134.75
360.936	131.75
361.163	143.75
361.39	131.75
361.616	137.75
361.843	126.75
362.07	121.75
362.296	131.75
362.523	130.75
362.749	126.75
362.976	132.75
363.203	134.75
363.429	121.75
363.656	126.75
363.882	138.75
364.109	138.75
364.335	135.75
364.562	130.75
364.788	137.75
365.015	134.75
365.241	153.75
365.468	135.75
365.694	149.75
365.92	144.75
366.147	127.75
366.373	134.75
366.599	127.75
366.826	117.75
367.052	126.75
367.278	137.75
367.505	128.75
367.731	157.75
367.957	123.75
368.184	139.75
368.41	142.75
368.636	143.75
368.862	130.75
369.089	128.75
369.315	127.75
369.541	147.75
369.767	123.75
369.993	132.75
370.219	136.75
370.445	132.75
370.672	114.75
370.898	146.75
371.124	157.75
371.35	139.75
371.576	141.75
371.802	128.75
372.028	118.75
372.254	133.75
372.48	125.75
372.706	128.75
372.932	152.75
373.158	129.75
373.384	133.75
373.61	128.75
373.835	131.75
374.061	132.75
374.287	133.75
374.513	137.75
374.739	120.75
374.965	140.75
375.191	168.75
375.416	141.75
375.642	143.75
375.868	149.75
376.094	143.75
376.319	127.75
376.545	130.75
376.771	120.75
376.997	127.75
377.222	129.75
377.448	133.75
377.674	163.75
377.899	145.75
378.125	128.75
378.35	137.75
378.576	130.75
378.802	112.75
379.027	133.75
379.253	152.75
379.478	128.75
379.704	131.75
379.929	128.75
380.155	135.75
380.38	134.75
380.606	138.75
380.831	139.75
381.057	162.75
381.282	139.75
381.507	132.75
381.733	143.75
381.958	144.75
382.184	129.75
382.409	138.75
382.634	133.75
382.86	130.75
383.085	143.75
383.31	139.75
383.535	159.75
383.761	159.75
383.986	136.75
384.211	131.75
384.436	145.75
384.662	150.75
384.887	163.75
385.112	146.75
385.337	139.75
385.562	149.75
385.787	161.75
386.013	161.75
386.238	168.75
386.463	157.75
386.688	176.75
386.913	162.75
387.138	165.75
387.363	148.75
387.588	165.75
387.813	168.75
388.038	140.75
388.263	155.75
388.488	153.75
388.713	131.75
388.938	144.75
389.163	150.75
389.387	158.75
389.612	160.75
389.837	126.75
390.062	152.75
390.287	144.75
390.512	139.75
390.736	155.75
390.961	140.75
391.186	159.75
391.411	147.75
391.636	155.75
391.86	171.75
392.085	157.75
392.31	161.75
392.534	167.75
392.759	173.75
392.984	146.75
393.208	155.75
393.433	153.75
393.658	161.75
393.882	156.75
394.107	151.75
394.331	154.75
394.556	162.75
394.78	154.75
395.005	156.75
395.229	165.75
395.454	162.75
395.678	155.75
395.903	167.75
396.127	152.75
396.352	150.75
396.576	151.75
396.801	162.75
397.025	158.75
397.249	185.75
397.474	166.75
397.698	164.75
397.922	162.75
398.147	183.75
398.371	159.75
398.595	182.75
398.82	164.75
399.044	191.75
399.268	195.75
399.492	211.75
399.717	217.75
399.941	221.75
400.165	183.75
400.389	193.75
400.613	202.75
400.837	168.75
401.062	162.75
401.286	188.75
401.51	167.75
401.734	155.75
401.958	170.75
402.182	169.75
402.406	183.75
402.63	178.75
402.854	180.75
403.078	178.75
403.302	198.75
403.526	197.75
403.75	197.75
403.974	190.75
404.198	196.75
404.422	187.75
404.645	185.75
404.869	186.75
405.093	207.75
405.317	169.75
405.541	180.75
405.765	191.75
405.988	185.75
406.212	185.75
406.436	182.75
406.66	170.75
406.883	182.75
407.107	186.75
407.331	191.75
407.555	210.75
407.778	203.75
408.002	206.75
408.226	203.75
408.449	181.75
408.673	194.75
408.896	189.75
409.12	179.75
409.344	191.75
409.567	191.75
409.791	198.75
410.014	183.75
410.238	182.75
410.461	177.75
410.685	198.75
410.908	175.75
411.132	172.75
411.355	179.75
411.578	187.75
411.802	189.75
412.025	194.75
412.249	186.75
412.472	183.75
412.695	172.75
412.919	180.75
413.142	164.75
413.365	166.75
413.589	168.75
413.812	161.75
414.035	176.75
414.258	175.75
414.482	172.75
414.705	167.75
414.928	188.75
415.151	173.75
415.374	160.75
415.597	166.75
415.821	171.75
416.044	170.75
416.267	179.75
416.49	184.75
416.713	182.75
416.936	177.75
417.159	172.75
417.382	173.75
417.605	178.75
417.828	186.75
418.051	198.75
418.274	196.75
418.497	175.75
418.72	162.75
418.943	180.75
419.166	182.75
419.389	177.75
419.611	185.75
419.834	182.75
420.057	191.75
420.28	171.75
420.503	186.75
420.726	175.75
420.948	167.75
421.171	173.75
421.394	190.75
421.617	177.75
421.839	169.75
422.062	188.75
422.285	175.75
422.507	168.75
422.73	180.75
422.953	168.75
423.175	177.75
423.398	189.75
423.621	198.75
423.843	198.75
424.066	183.75
424.288	182.75
424.511	178.75
424.733	185.75
424.956	175.75
425.178	185.75
425.401	164.75
425.623	166.75
425.846	177.75
426.068	167.75
426.291	156.75
426.513	158.75
426.735	162.75
426.958	175.75
427.18	157.75
427.402	160.75
427.625	168.75
427.847	169.75
428.069	149.75
428.292	142.75
428.514	169.75
428.736	153.75
428.958	145.75
429.181	171.75
429.403	155.75
429.625	155.75
429.847	170.75
430.069	187.75
430.292	157.75
430.514	150.75
430.736	165.75
430.958	161.75
431.18	161.75
431.402	163.75
431.624	162.75
431.846	177.75
432.068	173.75
432.29	156.75
432.512	164.75
432.734	163.75
432.956	154.75
433.178	173.75
433.4	161.75
433.622	168.75
433.844	167.75
434.066	172.75
434.287	166.75
434.509	162.75
434.731	166.75
434.953	182.75
435.175	159.75
435.397	175.75
435.618	166.75
435.84	158.75
436.062	160.75
436.284	167.75
436.505	166.75
436.727	163.75
436.949	174.75
437.17	159.75
437.392	149.75
437.614	143.75
437.835	166.75
438.057	161.75
438.278	162.75
438.5	157.75
438.721	161.75
438.943	153.75
439.165	165.75
439.386	158.75
439.608	147.75
439.829	151.75
440.05	171.75
440.272	165.75
440.493	171.75
440.715	166.75
440.936	160.75
441.158	161.75
441.379	171.75
441.6	181.75
441.822	180.75
442.043	171.75
442.264	173.75
442.486	174.75
442.707	166.75
442.928	182.75
443.149	173.75
443.371	174.75
443.592	165.75
443.813	173.75
444.034	171.75
444.255	185.75
444.476	179.75
444.698	189.75
444.919	203.75
445.14	398.75
445.361	268.75
445.582	198.75
445.803	163.75
446.024	163.75
446.245	165.75
446.466	159.75
446.687	155.75
446.908	165.75
447.129	163.75
447.35	146.75
447.571	159.75
447.792	157.75
448.013	142.75
448.234	148.75
448.455	152.75
448.675	159.75
448.896	153.75
449.117	161.75
449.338	141.75
449.559	173.75
449.779	156.75
450	166.75
450.221	140.75
450.442	157.75
450.662	147.75
450.883	161.75
451.104	163.75
451.324	162.75
451.545	149.75
451.766	163.75
451.986	157.75
452.207	163.75
452.428	164.75
452.648	151.75
452.869	152.75
453.089	158.75
453.31	145.75
453.53	147.75
453.751	155.75
453.971	145.75
454.192	142.75
454.412	153.75
454.633	158.75
454.853	149.75
455.073	163.75
455.294	150.75
455.514	156.75
455.734	147.75
455.955	147.75
456.175	146.75
456.395	149.75
456.616	156.75
456.836	143.75
457.056	127.75
457.276	130.75
457.497	138.75
457.717	158.75
457.937	159.75
458.157	139.75
458.377	135.75
458.598	155.75
458.818	159.75
459.038	138.75
459.258	167.75
459.478	177.75
459.698	171.75
459.918	167.75
460.138	182.75
460.358	187.75
460.578	185.75
460.798	191.75
461.018	198.75
461.238	184.75
461.458	185.75
461.678	170.75
461.898	185.75
462.118	182.75
462.338	191.75
462.558	187.75
462.777	202.75
462.997	223.75
463.217	218.75
463.437	222.75
463.657	224.75
463.876	194.75
464.096	191.75
464.316	190.75
464.536	189.75
464.755	191.75
464.975	189.75
465.195	166.75
465.414	183.75
465.634	173.75
465.854	159.75
466.073	157.75
466.293	139.75
466.512	147.75
466.732	157.75
466.951	155.75
467.171	164.75
467.391	153.75
467.61	164.75
467.829	146.75
468.049	162.75
468.268	157.75
468.488	130.75
468.707	153.75
468.927	143.75
469.146	163.75
469.365	171.75
469.585	155.75
469.804	182.75
470.023	171.75
470.243	157.75
470.462	165.75
470.681	181.75
470.901	172.75
471.12	152.75
471.339	169.75
471.558	150.75
471.777	136.75
471.997	164.75
472.216	158.75
472.435	145.75
472.654	153.75
472.873	158.75
473.092	154.75
473.311	152.75
473.53	158.75
473.749	151.75
473.968	168.75
474.187	153.75
474.406	139.75
474.625	143.75
474.844	158.75
475.063	164.75
475.282	163.75
475.501	146.75
475.72	156.75
475.939	155.75
476.158	152.75
476.377	160.75
476.596	163.75
476.814	166.75
477.033	153.75
477.252	157.75
477.471	173.75
477.69	175.75
477.908	167.75
478.127	173.75
478.346	176.75
478.564	174.75
478.783	172.75
479.002	175.75
479.22	176.75
479.439	163.75
479.658	160.75
479.876	166.75
480.095	169.75
480.313	191.75
480.532	198.75
480.751	181.75
480.969	170.75
481.188	179.75
481.406	183.75
481.624	158.75
481.843	167.75
482.061	164.75
482.28	168.75
482.498	175.75
482.717	169.75
482.935	162.75
483.153	163.75
483.372	175.75
483.59	175.75
483.808	172.75
484.027	184.75
484.245	169.75
484.463	167.75
484.681	180.75
484.9	163.75
485.118	173.75
485.336	175.75
485.554	159.75
485.772	175.75
485.99	177.75
486.209	173.75
486.427	167.75
486.645	176.75
486.863	174.75
487.081	174.75
487.299	161.75
487.517	188.75
487.735	170.75
487.953	182.75
488.171	171.75
488.389	183.75
488.607	180.75
488.825	163.75
489.043	165.75
489.261	197.75
489.479	185.75
489.696	169.75
489.914	154.75
490.132	171.75
490.35	185.75
490.568	165.75
490.786	181.75
491.003	160.75
491.221	171.75
491.439	186.75
491.657	173.75
491.874	189.75
492.092	186.75
492.31	185.75
492.527	175.75
492.745	186.75
492.963	188.75
493.18	198.75
493.398	191.75
493.615	188.75
493.833	186.75
494.05	186.75
494.268	177.75
494.485	178.75
494.703	170.75
494.92	195.75
495.138	197.75
495.355	173.75
495.573	184.75
495.79	194.75
496.008	185.75
496.225	184.75
496.442	188.75
496.66	202.75
496.877	186.75
497.094	209.75
497.312	196.75
497.529	181.75
497.746	198.75
497.963	171.75
498.181	207.75
498.398	212.75
498.615	225.75
498.832	225.75
499.049	266.75
499.267	260.75
499.484	285.75
499.701	309.75
499.918	317.75
500.135	373.75
500.352	406.75
500.569	406.75
500.786	420.75
501.003	363.75
501.22	341.75
501.437	305.75
501.654	270.75
501.871	242.75
502.088	234.75
502.305	227.75
502.522	233.75
502.739	235.75
502.956	210.75
503.172	213.75
503.389	203.75
503.606	208.75
503.823	199.75
504.04	207.75
504.256	217.75
504.473	210.75
504.69	204.75
504.907	222.75
