Data from SampD_HRD10591_00067.txt Node
Date: Mon Jan 19 11:41:44 EST 2026
User: Yrep
Spectrometer: HR+D1059
Trigger mode: 0
Integration Time (sec): 3.443000E-1
Scans to average: 1
Electric dark correction enabled: true
Nonlinearity correction enabled: false
Boxcar width: 0
XAxis mode: Wavelengths
Number of Pixels in Spectrum: 2048
>>>>>Begin Spectral Data<<<<<
223.165	-21.38
223.4	-21.38
223.635	-21.38
223.869	-35.38
224.104	-33.38
224.338	-0.38
224.573	-16.38
224.808	-16.38
225.042	0.62
225.277	6.62
225.511	-6.38
225.746	7.62
225.98	16.62
226.215	13.62
226.449	22.62
226.683	23.62
226.918	5.62
227.152	32.62
227.387	52.62
227.621	51.62
227.856	50.62
228.09	41.62
228.324	44.62
228.559	49.62
228.793	53.62
229.027	78.62
229.262	57.62
229.496	55.62
229.73	70.62
229.964	79.62
230.199	69.62
230.433	81.62
230.667	90.62
230.901	65.62
231.136	75.62
231.37	74.62
231.604	84.62
231.838	83.62
232.072	82.62
232.306	77.62
232.541	91.62
232.775	87.62
233.009	99.62
233.243	81.62
233.477	79.62
233.711	99.62
233.945	83.62
234.179	85.62
234.413	84.62
234.647	79.62
234.881	90.62
235.115	87.62
235.349	78.62
235.583	87.62
235.817	78.62
236.051	83.62
236.285	73.62
236.519	81.62
236.753	86.62
236.987	76.62
237.221	71.62
237.455	82.62
237.689	62.62
237.922	72.62
238.156	82.62
238.39	65.62
238.624	73.62
238.858	99.62
239.091	93.62
239.325	74.62
239.559	76.62
239.793	85.62
240.027	95.62
240.26	83.62
240.494	84.62
240.728	87.62
240.961	81.62
241.195	85.62
241.429	85.62
241.662	76.62
241.896	74.62
242.13	78.62
242.363	89.62
242.597	77.62
242.83	86.62
243.064	86.62
243.298	85.62
243.531	80.62
243.765	87.62
243.998	77.62
244.232	94.62
244.465	86.62
244.699	93.62
244.932	91.62
245.166	85.62
245.399	87.62
245.633	84.62
245.866	82.62
246.099	70.62
246.333	81.62
246.566	70.62
246.8	87.62
247.033	81.62
247.266	85.62
247.5	93.62
247.733	89.62
247.966	84.62
248.2	92.62
248.433	93.62
248.666	97.62
248.899	82.62
249.133	84.62
249.366	112.62
249.599	87.62
249.832	98.62
250.066	80.62
250.299	93.62
250.532	89.62
250.765	70.62
250.998	84.62
251.231	96.62
251.465	85.62
251.698	82.62
251.931	88.62
252.164	93.62
252.397	84.62
252.63	64.62
252.863	75.62
253.096	80.62
253.329	95.62
253.562	75.62
253.795	85.62
254.028	94.62
254.261	85.62
254.494	78.62
254.727	91.62
254.96	92.62
255.193	88.62
255.426	82.62
255.659	80.62
255.892	89.62
256.124	89.62
256.357	92.62
256.59	98.62
256.823	93.62
257.056	94.62
257.289	101.62
257.521	96.62
257.754	88.62
257.987	94.62
258.22	98.62
258.452	68.62
258.685	95.62
258.918	88.62
259.151	92.62
259.383	83.62
259.616	82.62
259.849	99.62
260.081	93.62
260.314	89.62
260.547	88.62
260.779	96.62
261.012	90.62
261.244	79.62
261.477	100.62
261.71	66.62
261.942	88.62
262.175	90.62
262.407	75.62
262.64	82.62
262.872	84.62
263.105	70.62
263.337	103.62
263.57	96.62
263.802	100.62
264.035	73.62
264.267	86.62
264.499	91.62
264.732	95.62
264.964	91.62
265.197	112.62
265.429	87.62
265.661	85.62
265.894	103.62
266.126	105.62
266.358	81.62
266.591	96.62
266.823	102.62
267.055	87.62
267.287	84.62
267.52	83.62
267.752	94.62
267.984	111.62
268.216	84.62
268.448	93.62
268.681	94.62
268.913	84.62
269.145	101.62
269.377	82.62
269.609	96.62
269.841	105.62
270.073	82.62
270.306	94.62
270.538	86.62
270.77	93.62
271.002	95.62
271.234	94.62
271.466	115.62
271.698	74.62
271.93	88.62
272.162	91.62
272.394	92.62
272.626	90.62
272.858	95.62
273.09	96.62
273.322	107.62
273.553	99.62
273.785	86.62
274.017	104.62
274.249	92.62
274.481	81.62
274.713	96.62
274.945	93.62
275.176	86.62
275.408	94.62
275.64	94.62
275.872	99.62
276.104	98.62
276.335	106.62
276.567	103.62
276.799	89.62
277.031	77.62
277.262	93.62
277.494	105.62
277.726	109.62
277.957	91.62
278.189	91.62
278.421	94.62
278.652	104.62
278.884	99.62
279.115	100.62
279.347	85.62
279.579	102.62
279.81	94.62
280.042	102.62
280.273	81.62
280.505	96.62
280.736	92.62
280.968	87.62
281.199	93.62
281.431	110.62
281.662	100.62
281.894	101.62
282.125	94.62
282.356	93.62
282.588	101.62
282.819	93.62
283.051	98.62
283.282	106.62
283.513	105.62
283.745	108.62
283.976	96.62
284.207	110.62
284.439	103.62
284.67	102.62
284.901	94.62
285.132	98.62
285.364	89.62
285.595	105.62
285.826	98.62
286.057	97.62
286.288	83.62
286.52	109.62
286.751	107.62
286.982	110.62
287.213	94.62
287.444	117.62
287.675	92.62
287.906	125.62
288.138	105.62
288.369	103.62
288.6	102.62
288.831	103.62
289.062	110.62
289.293	92.62
289.524	100.62
289.755	113.62
289.986	95.62
290.217	110.62
290.448	92.62
290.679	103.62
290.91	93.62
291.141	108.62
291.371	114.62
291.602	84.62
291.833	117.62
292.064	108.62
292.295	92.62
292.526	94.62
292.757	94.62
292.987	95.62
293.218	102.62
293.449	93.62
293.68	100.62
293.91	92.62
294.141	102.62
294.372	102.62
294.603	103.62
294.833	92.62
295.064	104.62
295.295	103.62
295.525	90.62
295.756	107.62
295.987	112.62
296.217	97.62
296.448	102.62
296.679	100.62
296.909	119.62
297.14	104.62
297.37	112.62
297.601	111.62
297.831	110.62
298.062	104.62
298.292	100.62
298.523	121.62
298.753	100.62
298.984	89.62
299.214	116.62
299.445	90.62
299.675	95.62
299.905	116.62
300.136	94.62
300.366	87.62
300.597	109.62
300.827	116.62
301.057	109.62
301.288	112.62
301.518	116.62
301.748	93.62
301.979	146.62
302.209	109.62
302.439	107.62
302.669	96.62
302.9	103.62
303.13	96.62
303.36	106.62
303.59	116.62
303.82	109.62
304.051	102.62
304.281	107.62
304.511	102.62
304.741	109.62
304.971	104.62
305.201	109.62
305.431	108.62
305.661	103.62
305.891	96.62
306.121	109.62
306.352	92.62
306.582	106.62
306.812	101.62
307.042	104.62
307.272	107.62
307.502	113.62
307.731	116.62
307.961	123.62
308.191	103.62
308.421	107.62
308.651	111.62
308.881	109.62
309.111	92.62
309.341	91.62
309.571	112.62
309.8	104.62
310.03	113.62
310.26	107.62
310.49	107.62
310.72	113.62
310.949	88.62
311.179	120.62
311.409	103.62
311.639	101.62
311.868	131.62
312.098	102.62
312.328	120.62
312.557	117.62
312.787	115.62
313.017	112.62
313.246	100.62
313.476	102.62
313.706	105.62
313.935	106.62
314.165	111.62
314.394	85.62
314.624	106.62
314.853	123.62
315.083	113.62
315.312	110.62
315.542	98.62
315.771	112.62
316.001	99.62
316.23	92.62
316.46	115.62
316.689	107.62
316.919	116.62
317.148	124.62
317.377	116.62
317.607	102.62
317.836	103.62
318.065	105.62
318.295	106.62
318.524	100.62
318.753	113.62
318.983	113.62
319.212	104.62
319.441	117.62
319.67	114.62
319.9	93.62
320.129	97.62
320.358	103.62
320.587	101.62
320.816	107.62
321.046	106.62
321.275	124.62
321.504	95.62
321.733	112.62
321.962	103.62
322.191	111.62
322.42	105.62
322.649	97.62
322.878	112.62
323.108	105.62
323.337	108.62
323.566	102.62
323.795	113.62
324.024	107.62
324.253	120.62
324.482	132.62
324.71	112.62
324.939	119.62
325.168	102.62
325.397	102.62
325.626	105.62
325.855	100.62
326.084	109.62
326.313	119.62
326.542	99.62
326.77	117.62
326.999	120.62
327.228	105.62
327.457	109.62
327.686	113.62
327.914	105.62
328.143	121.62
328.372	101.62
328.6	113.62
328.829	104.62
329.058	112.62
329.287	94.62
329.515	76.62
329.744	103.62
329.972	100.62
330.201	114.62
330.43	100.62
330.658	101.62
330.887	98.62
331.115	111.62
331.344	108.62
331.572	93.62
331.801	101.62
332.03	105.62
332.258	128.62
332.486	121.62
332.715	121.62
332.943	127.62
333.172	111.62
333.4	112.62
333.629	118.62
333.857	120.62
334.085	120.62
334.314	123.62
334.542	134.62
334.771	122.62
334.999	112.62
335.227	114.62
335.455	119.62
335.684	116.62
335.912	121.62
336.14	121.62
336.369	120.62
336.597	120.62
336.825	118.62
337.053	125.62
337.281	117.62
337.51	109.62
337.738	112.62
337.966	114.62
338.194	112.62
338.422	117.62
338.65	124.62
338.878	112.62
339.106	119.62
339.334	108.62
339.562	119.62
339.79	107.62
340.018	103.62
340.246	120.62
340.474	112.62
340.702	111.62
340.93	112.62
341.158	120.62
341.386	110.62
341.614	112.62
341.842	113.62
342.07	108.62
342.298	107.62
342.526	117.62
342.754	98.62
342.981	120.62
343.209	107.62
343.437	142.62
343.665	134.62
343.893	126.62
344.12	121.62
344.348	117.62
344.576	107.62
344.804	108.62
345.031	98.62
345.259	112.62
345.487	120.62
345.714	111.62
345.942	115.62
346.17	114.62
346.397	111.62
346.625	104.62
346.853	110.62
347.08	116.62
347.308	101.62
347.535	111.62
347.763	108.62
347.99	112.62
348.218	120.62
348.445	118.62
348.673	119.62
348.9	93.62
349.128	105.62
349.355	109.62
349.583	121.62
349.81	117.62
350.037	111.62
350.265	116.62
350.492	115.62
350.72	103.62
350.947	104.62
351.174	115.62
351.402	110.62
351.629	120.62
351.856	109.62
352.083	110.62
352.311	139.62
352.538	108.62
352.765	123.62
352.992	112.62
353.22	104.62
353.447	107.62
353.674	110.62
353.901	122.62
354.128	108.62
354.355	105.62
354.583	103.62
354.81	119.62
355.037	109.62
355.264	118.62
355.491	108.62
355.718	91.62
355.945	115.62
356.172	108.62
356.399	109.62
356.626	109.62
356.853	102.62
357.08	117.62
357.307	123.62
357.534	114.62
357.761	115.62
357.988	112.62
358.215	111.62
358.441	105.62
358.668	109.62
358.895	113.62
359.122	115.62
359.349	109.62
359.576	123.62
359.802	102.62
360.029	108.62
360.256	120.62
360.483	109.62
360.709	117.62
360.936	129.62
361.163	93.62
361.39	113.62
361.616	104.62
361.843	97.62
362.07	121.62
362.296	103.62
362.523	93.62
362.749	110.62
362.976	128.62
363.203	113.62
363.429	108.62
363.656	105.62
363.882	109.62
364.109	105.62
364.335	120.62
364.562	115.62
364.788	94.62
365.015	140.62
365.241	113.62
365.468	126.62
365.694	104.62
365.92	129.62
366.147	100.62
366.373	99.62
366.599	109.62
366.826	117.62
367.052	112.62
367.278	127.62
367.505	103.62
367.731	129.62
367.957	103.62
368.184	111.62
368.41	103.62
368.636	106.62
368.862	126.62
369.089	107.62
369.315	113.62
369.541	108.62
369.767	115.62
369.993	99.62
370.219	106.62
370.445	94.62
370.672	100.62
370.898	117.62
371.124	129.62
371.35	118.62
371.576	117.62
371.802	109.62
372.028	111.62
372.254	109.62
372.48	115.62
372.706	121.62
372.932	107.62
373.158	117.62
373.384	136.62
373.61	110.62
373.835	122.62
374.061	103.62
374.287	111.62
374.513	120.62
374.739	109.62
374.965	121.62
375.191	102.62
375.416	108.62
375.642	119.62
375.868	126.62
376.094	104.62
376.319	116.62
376.545	122.62
376.771	110.62
376.997	128.62
377.222	114.62
377.448	120.62
377.674	112.62
377.899	119.62
378.125	119.62
378.35	120.62
378.576	105.62
378.802	126.62
379.027	124.62
379.253	114.62
379.478	115.62
379.704	103.62
379.929	126.62
380.155	117.62
380.38	111.62
380.606	105.62
380.831	120.62
381.057	128.62
381.282	116.62
381.507	108.62
381.733	119.62
381.958	118.62
382.184	120.62
382.409	104.62
382.634	125.62
382.86	127.62
383.085	127.62
383.31	120.62
383.535	116.62
383.761	125.62
383.986	128.62
384.211	115.62
384.436	100.62
384.662	123.62
384.887	130.62
385.112	113.62
385.337	114.62
385.562	120.62
385.787	126.62
386.013	122.62
386.238	126.62
386.463	127.62
386.688	154.62
386.913	115.62
387.138	118.62
387.363	119.62
387.588	123.62
387.813	110.62
388.038	115.62
388.263	123.62
388.488	102.62
388.713	116.62
388.938	129.62
389.163	120.62
389.387	117.62
389.612	116.62
389.837	105.62
390.062	115.62
390.287	133.62
390.512	109.62
390.736	128.62
390.961	125.62
391.186	124.62
391.411	112.62
391.636	108.62
391.86	120.62
392.085	135.62
392.31	130.62
392.534	126.62
392.759	121.62
392.984	123.62
393.208	123.62
393.433	142.62
393.658	134.62
393.882	130.62
394.107	119.62
394.331	128.62
394.556	113.62
394.78	124.62
395.005	120.62
395.229	122.62
395.454	125.62
395.678	117.62
395.903	130.62
396.127	126.62
396.352	108.62
396.576	114.62
396.801	131.62
397.025	123.62
397.249	120.62
397.474	151.62
397.698	128.62
397.922	116.62
398.147	119.62
398.371	126.62
398.595	136.62
398.82	127.62
399.044	130.62
399.268	147.62
399.492	142.62
399.717	170.62
399.941	167.62
400.165	148.62
400.389	135.62
400.613	139.62
400.837	126.62
401.062	134.62
401.286	141.62
401.51	140.62
401.734	135.62
401.958	149.62
402.182	136.62
402.406	117.62
402.63	131.62
402.854	141.62
403.078	142.62
403.302	139.62
403.526	127.62
403.75	136.62
403.974	147.62
404.198	152.62
404.422	148.62
404.645	135.62
404.869	132.62
405.093	120.62
405.317	132.62
405.541	136.62
405.765	142.62
405.988	124.62
406.212	135.62
406.436	137.62
406.66	144.62
406.883	149.62
407.107	141.62
407.331	136.62
407.555	171.62
407.778	155.62
408.002	144.62
408.226	143.62
408.449	152.62
408.673	136.62
408.896	136.62
409.12	127.62
409.344	152.62
409.567	140.62
409.791	134.62
410.014	142.62
410.238	157.62
410.461	130.62
410.685	135.62
410.908	136.62
411.132	132.62
411.355	146.62
411.578	128.62
411.802	134.62
412.025	127.62
412.249	140.62
412.472	135.62
412.695	144.62
412.919	132.62
413.142	128.62
413.365	133.62
413.589	131.62
413.812	128.62
414.035	132.62
414.258	130.62
414.482	146.62
414.705	139.62
414.928	153.62
415.151	134.62
415.374	135.62
415.597	127.62
415.821	134.62
416.044	134.62
416.267	129.62
416.49	129.62
416.713	134.62
416.936	127.62
417.159	114.62
417.382	118.62
417.605	130.62
417.828	126.62
418.051	136.62
418.274	133.62
418.497	137.62
418.72	139.62
418.943	149.62
419.166	135.62
419.389	142.62
419.611	139.62
419.834	135.62
420.057	141.62
420.28	123.62
420.503	137.62
420.726	132.62
420.948	129.62
421.171	125.62
421.394	139.62
421.617	135.62
421.839	149.62
422.062	136.62
422.285	131.62
422.507	129.62
422.73	132.62
422.953	133.62
423.175	146.62
423.398	143.62
423.621	140.62
423.843	140.62
424.066	125.62
424.288	134.62
424.511	136.62
424.733	135.62
424.956	151.62
425.178	136.62
425.401	136.62
425.623	143.62
425.846	127.62
426.068	139.62
426.291	133.62
426.513	123.62
426.735	135.62
426.958	128.62
427.18	119.62
427.402	121.62
427.625	117.62
427.847	132.62
428.069	139.62
428.292	128.62
428.514	128.62
428.736	122.62
428.958	120.62
429.181	148.62
429.403	127.62
429.625	117.62
429.847	138.62
430.069	126.62
430.292	129.62
430.514	117.62
430.736	131.62
430.958	133.62
431.18	128.62
431.402	126.62
431.624	119.62
431.846	113.62
432.068	130.62
432.29	135.62
432.512	133.62
432.734	130.62
432.956	150.62
433.178	143.62
433.4	122.62
433.622	132.62
433.844	133.62
434.066	128.62
434.287	122.62
434.509	117.62
434.731	139.62
434.953	139.62
435.175	125.62
435.397	139.62
435.618	133.62
435.84	134.62
436.062	132.62
436.284	130.62
436.505	134.62
436.727	127.62
436.949	125.62
437.17	133.62
437.392	123.62
437.614	122.62
437.835	114.62
438.057	127.62
438.278	130.62
438.5	125.62
438.721	139.62
438.943	124.62
439.165	110.62
439.386	131.62
439.608	128.62
439.829	129.62
440.05	123.62
440.272	123.62
440.493	129.62
440.715	126.62
440.936	147.62
441.158	129.62
441.379	123.62
441.6	143.62
441.822	135.62
442.043	136.62
442.264	140.62
442.486	136.62
442.707	134.62
442.928	155.62
443.149	145.62
443.371	135.62
443.592	132.62
443.813	138.62
444.034	121.62
444.255	139.62
444.476	142.62
444.698	141.62
444.919	159.62
445.14	324.62
445.361	229.62
445.582	137.62
445.803	121.62
446.024	137.62
446.245	144.62
446.466	135.62
446.687	107.62
446.908	131.62
447.129	129.62
447.35	127.62
447.571	139.62
447.792	121.62
448.013	114.62
448.234	140.62
448.455	116.62
448.675	128.62
448.896	121.62
449.117	114.62
449.338	117.62
449.559	119.62
449.779	111.62
450	130.62
450.221	120.62
450.442	132.62
450.662	110.62
450.883	121.62
451.104	127.62
451.324	128.62
451.545	123.62
451.766	125.62
451.986	115.62
452.207	127.62
452.428	134.62
452.648	130.62
452.869	124.62
453.089	127.62
453.31	123.62
453.53	130.62
453.751	114.62
453.971	144.62
454.192	125.62
454.412	111.62
454.633	129.62
454.853	116.62
455.073	123.62
455.294	113.62
455.514	115.62
455.734	122.62
455.955	120.62
456.175	117.62
456.395	119.62
456.616	120.62
456.836	123.62
457.056	127.62
457.276	125.62
457.497	108.62
457.717	119.62
457.937	115.62
458.157	114.62
458.377	115.62
458.598	118.62
458.818	124.62
459.038	107.62
459.258	125.62
459.478	133.62
459.698	124.62
459.918	119.62
460.138	125.62
460.358	131.62
460.578	145.62
460.798	146.62
461.018	140.62
461.238	156.62
461.458	152.62
461.678	133.62
461.898	134.62
462.118	143.62
462.338	137.62
462.558	141.62
462.777	136.62
462.997	165.62
463.217	155.62
463.437	153.62
463.657	152.62
463.876	137.62
464.096	155.62
464.316	143.62
464.536	143.62
464.755	155.62
464.975	132.62
465.195	139.62
465.414	147.62
465.634	127.62
465.854	125.62
466.073	118.62
466.293	116.62
466.512	121.62
466.732	108.62
466.951	133.62
467.171	140.62
467.391	134.62
467.61	115.62
467.829	120.62
468.049	123.62
468.268	114.62
468.488	117.62
468.707	119.62
468.927	113.62
469.146	122.62
469.365	127.62
469.585	121.62
469.804	141.62
470.023	139.62
470.243	134.62
470.462	137.62
470.681	121.62
470.901	123.62
471.12	122.62
471.339	126.62
471.558	131.62
471.777	119.62
471.997	109.62
472.216	109.62
472.435	120.62
472.654	117.62
472.873	135.62
473.092	132.62
473.311	136.62
473.53	122.62
473.749	127.62
473.968	123.62
474.187	117.62
474.406	118.62
474.625	126.62
474.844	116.62
475.063	123.62
475.282	138.62
475.501	132.62
475.72	139.62
475.939	114.62
476.158	112.62
476.377	122.62
476.596	113.62
476.814	112.62
477.033	108.62
477.252	140.62
477.471	136.62
477.69	125.62
477.908	128.62
478.127	146.62
478.346	123.62
478.564	141.62
478.783	143.62
479.002	129.62
479.22	131.62
479.439	147.62
479.658	140.62
479.876	132.62
480.095	139.62
480.313	146.62
480.532	137.62
480.751	137.62
480.969	135.62
481.188	130.62
481.406	136.62
481.624	139.62
481.843	127.62
482.061	119.62
482.28	116.62
482.498	115.62
482.717	129.62
482.935	139.62
483.153	147.62
483.372	108.62
483.59	129.62
483.808	128.62
484.027	126.62
484.245	145.62
484.463	143.62
484.681	151.62
484.9	140.62
485.118	145.62
485.336	137.62
485.554	133.62
485.772	144.62
485.99	133.62
486.209	129.62
486.427	129.62
486.645	126.62
486.863	125.62
487.081	128.62
487.299	139.62
487.517	136.62
487.735	126.62
487.953	138.62
488.171	149.62
488.389	124.62
488.607	144.62
488.825	125.62
489.043	130.62
489.261	130.62
489.479	132.62
489.696	129.62
489.914	120.62
490.132	145.62
490.35	139.62
490.568	133.62
490.786	140.62
491.003	129.62
491.221	127.62
491.439	143.62
491.657	150.62
491.874	144.62
492.092	157.62
492.31	156.62
492.527	119.62
492.745	138.62
492.963	155.62
493.18	129.62
493.398	148.62
493.615	125.62
493.833	120.62
494.05	129.62
494.268	127.62
494.485	144.62
494.703	140.62
494.92	133.62
495.138	135.62
495.355	140.62
495.573	137.62
495.79	130.62
496.008	149.62
496.225	131.62
496.442	142.62
496.66	133.62
496.877	148.62
497.094	155.62
497.312	157.62
497.529	149.62
497.746	144.62
497.963	152.62
498.181	153.62
498.398	155.62
498.615	157.62
498.832	170.62
499.049	162.62
499.267	170.62
499.484	197.62
499.701	213.62
499.918	226.62
500.135	232.62
500.352	269.62
500.569	264.62
500.786	271.62
501.003	241.62
501.22	208.62
501.437	201.62
501.654	183.62
501.871	171.62
502.088	173.62
502.305	164.62
502.522	161.62
502.739	152.62
502.956	158.62
503.172	149.62
503.389	152.62
503.606	148.62
503.823	136.62
504.04	153.62
504.256	142.62
504.473	149.62
504.69	143.62
504.907	174.62
505.123	151.62
505.34	154.62
505.557	147.62
505.773	145.62
505.99	144.62
506.207	125.62
506.423	122.62
