Data from SampD_HRD10591_00045.txt Node
Date: Mon Jan 19 11:41:36 EST 2026
User: Yrep
Spectrometer: HR+D1059
Trigger mode: 0
Integration Time (sec): 3.443000E-1
Scans to average: 1
Electric dark correction enabled: true
Nonlinearity correction enabled: false
Boxcar width: 0
XAxis mode: Wavelengths
Number of Pixels in Spectrum: 2048
>>>>>Begin Spectral Data<<<<<
223.165	-25.62
223.4	-25.62
223.635	-25.62
223.869	-6.62
224.104	-22.62
224.338	-17.62
224.573	-15.62
224.808	-10.62
225.042	-6.62
225.277	-16.62
225.511	-1.62
225.746	10.38
225.98	-0.62
226.215	14.38
226.449	24.38
226.683	14.38
226.918	34.38
227.152	26.38
227.387	33.38
227.621	42.38
227.856	35.38
228.09	48.38
228.324	38.38
228.559	61.38
228.793	64.38
229.027	72.38
229.262	64.38
229.496	84.38
229.73	64.38
229.964	81.38
230.199	79.38
230.433	82.38
230.667	83.38
230.901	78.38
231.136	90.38
231.37	83.38
231.604	81.38
231.838	76.38
232.072	81.38
232.306	86.38
232.541	84.38
232.775	74.38
233.009	99.38
233.243	94.38
233.477	79.38
233.711	78.38
233.945	81.38
234.179	81.38
234.413	77.38
234.647	86.38
234.881	84.38
235.115	82.38
235.349	72.38
235.583	80.38
235.817	90.38
236.051	87.38
236.285	95.38
236.519	79.38
236.753	85.38
236.987	91.38
237.221	76.38
237.455	85.38
237.689	87.38
237.922	87.38
238.156	76.38
238.39	66.38
238.624	66.38
238.858	80.38
239.091	76.38
239.325	85.38
239.559	90.38
239.793	74.38
240.027	80.38
240.26	67.38
240.494	84.38
240.728	81.38
240.961	91.38
241.195	81.38
241.429	78.38
241.662	74.38
241.896	80.38
242.13	77.38
242.363	81.38
242.597	79.38
242.83	87.38
243.064	74.38
243.298	83.38
243.531	79.38
243.765	90.38
243.998	78.38
244.232	89.38
244.465	96.38
244.699	86.38
244.932	97.38
245.166	88.38
245.399	100.38
245.633	84.38
245.866	90.38
246.099	74.38
246.333	70.38
246.566	97.38
246.8	75.38
247.033	76.38
247.266	74.38
247.5	88.38
247.733	68.38
247.966	102.38
248.2	82.38
248.433	80.38
248.666	77.38
248.899	81.38
249.133	83.38
249.366	101.38
249.599	68.38
249.832	89.38
250.066	88.38
250.299	84.38
250.532	82.38
250.765	84.38
250.998	76.38
251.231	93.38
251.465	87.38
251.698	89.38
251.931	88.38
252.164	85.38
252.397	85.38
252.63	73.38
252.863	81.38
253.096	93.38
253.329	96.38
253.562	78.38
253.795	90.38
254.028	93.38
254.261	76.38
254.494	78.38
254.727	87.38
254.96	100.38
255.193	86.38
255.426	92.38
255.659	94.38
255.892	88.38
256.124	92.38
256.357	81.38
256.59	97.38
256.823	71.38
257.056	91.38
257.289	92.38
257.521	92.38
257.754	66.38
257.987	96.38
258.22	99.38
258.452	72.38
258.685	98.38
258.918	100.38
259.151	80.38
259.383	90.38
259.616	80.38
259.849	78.38
260.081	106.38
260.314	78.38
260.547	80.38
260.779	89.38
261.012	86.38
261.244	95.38
261.477	111.38
261.71	87.38
261.942	67.38
262.175	94.38
262.407	86.38
262.64	90.38
262.872	96.38
263.105	80.38
263.337	92.38
263.57	86.38
263.802	89.38
264.035	89.38
264.267	99.38
264.499	96.38
264.732	98.38
264.964	86.38
265.197	88.38
265.429	89.38
265.661	99.38
265.894	93.38
266.126	106.38
266.358	89.38
266.591	101.38
266.823	87.38
267.055	83.38
267.287	94.38
267.52	86.38
267.752	103.38
267.984	98.38
268.216	92.38
268.448	90.38
268.681	102.38
268.913	84.38
269.145	91.38
269.377	91.38
269.609	94.38
269.841	101.38
270.073	101.38
270.306	79.38
270.538	84.38
270.77	97.38
271.002	82.38
271.234	95.38
271.466	96.38
271.698	89.38
271.93	105.38
272.162	81.38
272.394	90.38
272.626	101.38
272.858	100.38
273.09	95.38
273.322	90.38
273.553	78.38
273.785	89.38
274.017	88.38
274.249	87.38
274.481	105.38
274.713	100.38
274.945	108.38
275.176	89.38
275.408	108.38
275.64	96.38
275.872	78.38
276.104	102.38
276.335	103.38
276.567	99.38
276.799	98.38
277.031	85.38
277.262	84.38
277.494	104.38
277.726	105.38
277.957	86.38
278.189	102.38
278.421	101.38
278.652	94.38
278.884	101.38
279.115	91.38
279.347	94.38
279.579	97.38
279.81	85.38
280.042	97.38
280.273	97.38
280.505	87.38
280.736	90.38
280.968	104.38
281.199	95.38
281.431	100.38
281.662	102.38
281.894	98.38
282.125	105.38
282.356	104.38
282.588	97.38
282.819	94.38
283.051	97.38
283.282	89.38
283.513	111.38
283.745	127.38
283.976	107.38
284.207	106.38
284.439	102.38
284.67	85.38
284.901	98.38
285.132	115.38
285.364	89.38
285.595	116.38
285.826	103.38
286.057	101.38
286.288	98.38
286.52	92.38
286.751	94.38
286.982	98.38
287.213	111.38
287.444	95.38
287.675	115.38
287.906	108.38
288.138	99.38
288.369	100.38
288.6	129.38
288.831	95.38
289.062	97.38
289.293	111.38
289.524	99.38
289.755	95.38
289.986	97.38
290.217	110.38
290.448	102.38
290.679	96.38
290.91	106.38
291.141	101.38
291.371	94.38
291.602	100.38
291.833	108.38
292.064	102.38
292.295	113.38
292.526	102.38
292.757	102.38
292.987	109.38
293.218	110.38
293.449	105.38
293.68	119.38
293.91	113.38
294.141	108.38
294.372	114.38
294.603	114.38
294.833	102.38
295.064	97.38
295.295	101.38
295.525	103.38
295.756	98.38
295.987	102.38
296.217	104.38
296.448	106.38
296.679	119.38
296.909	104.38
297.14	94.38
297.37	100.38
297.601	94.38
297.831	90.38
298.062	103.38
298.292	104.38
298.523	115.38
298.753	108.38
298.984	97.38
299.214	100.38
299.445	105.38
299.675	96.38
299.905	110.38
300.136	102.38
300.366	96.38
300.597	94.38
300.827	105.38
301.057	114.38
301.288	105.38
301.518	102.38
301.748	111.38
301.979	144.38
302.209	117.38
302.439	92.38
302.669	93.38
302.9	106.38
303.13	111.38
303.36	100.38
303.59	101.38
303.82	97.38
304.051	109.38
304.281	107.38
304.511	102.38
304.741	101.38
304.971	112.38
305.201	85.38
305.431	107.38
305.661	108.38
305.891	98.38
306.121	101.38
306.352	98.38
306.582	91.38
306.812	110.38
307.042	92.38
307.272	113.38
307.502	107.38
307.731	102.38
307.961	97.38
308.191	95.38
308.421	96.38
308.651	110.38
308.881	110.38
309.111	114.38
309.341	95.38
309.571	96.38
309.8	114.38
310.03	100.38
310.26	102.38
310.49	107.38
310.72	103.38
310.949	103.38
311.179	105.38
311.409	101.38
311.639	90.38
311.868	108.38
312.098	106.38
312.328	106.38
312.557	113.38
312.787	114.38
313.017	129.38
313.246	112.38
313.476	113.38
313.706	109.38
313.935	102.38
314.165	100.38
314.394	99.38
314.624	107.38
314.853	112.38
315.083	109.38
315.312	120.38
315.542	116.38
315.771	111.38
316.001	114.38
316.23	103.38
316.46	103.38
316.689	94.38
316.919	98.38
317.148	101.38
317.377	112.38
317.607	104.38
317.836	95.38
318.065	109.38
318.295	101.38
318.524	109.38
318.753	96.38
318.983	105.38
319.212	111.38
319.441	108.38
319.67	97.38
319.9	87.38
320.129	116.38
320.358	105.38
320.587	100.38
320.816	100.38
321.046	104.38
321.275	110.38
321.504	105.38
321.733	105.38
321.962	113.38
322.191	105.38
322.42	89.38
322.649	123.38
322.878	107.38
323.108	106.38
323.337	100.38
323.566	125.38
323.795	105.38
324.024	110.38
324.253	114.38
324.482	111.38
324.71	112.38
324.939	106.38
325.168	98.38
325.397	101.38
325.626	96.38
325.855	110.38
326.084	100.38
326.313	105.38
326.542	101.38
326.77	117.38
326.999	127.38
327.228	115.38
327.457	100.38
327.686	109.38
327.914	110.38
328.143	115.38
328.372	107.38
328.6	109.38
328.829	100.38
329.058	87.38
329.287	105.38
329.515	106.38
329.744	109.38
329.972	115.38
330.201	107.38
330.43	109.38
330.658	120.38
330.887	104.38
331.115	116.38
331.344	111.38
331.572	122.38
331.801	104.38
332.03	105.38
332.258	111.38
332.486	114.38
332.715	117.38
332.943	116.38
333.172	119.38
333.4	119.38
333.629	114.38
333.857	109.38
334.085	124.38
334.314	112.38
334.542	125.38
334.771	102.38
334.999	114.38
335.227	127.38
335.455	116.38
335.684	115.38
335.912	107.38
336.14	100.38
336.369	125.38
336.597	130.38
336.825	115.38
337.053	104.38
337.281	114.38
337.51	92.38
337.738	125.38
337.966	110.38
338.194	99.38
338.422	107.38
338.65	100.38
338.878	140.38
339.106	114.38
339.334	123.38
339.562	128.38
339.79	116.38
340.018	112.38
340.246	108.38
340.474	100.38
340.702	103.38
340.93	110.38
341.158	105.38
341.386	111.38
341.614	116.38
341.842	106.38
342.07	105.38
342.298	114.38
342.526	114.38
342.754	119.38
342.981	112.38
343.209	125.38
343.437	140.38
343.665	125.38
343.893	115.38
344.12	105.38
344.348	113.38
344.576	102.38
344.804	122.38
345.031	130.38
345.259	120.38
345.487	111.38
345.714	107.38
345.942	109.38
346.17	102.38
346.397	97.38
346.625	99.38
346.853	107.38
347.08	118.38
347.308	118.38
347.535	113.38
347.763	109.38
347.99	121.38
348.218	106.38
348.445	117.38
348.673	108.38
348.9	111.38
349.128	106.38
349.355	112.38
349.583	104.38
349.81	108.38
350.037	113.38
350.265	116.38
350.492	108.38
350.72	107.38
350.947	98.38
351.174	111.38
351.402	98.38
351.629	117.38
351.856	109.38
352.083	109.38
352.311	114.38
352.538	107.38
352.765	125.38
352.992	117.38
353.22	124.38
353.447	115.38
353.674	109.38
353.901	111.38
354.128	116.38
354.355	105.38
354.583	98.38
354.81	105.38
355.037	98.38
355.264	102.38
355.491	132.38
355.718	98.38
355.945	120.38
356.172	101.38
356.399	107.38
356.626	94.38
356.853	100.38
357.08	101.38
357.307	101.38
357.534	116.38
357.761	116.38
357.988	112.38
358.215	115.38
358.441	108.38
358.668	108.38
358.895	106.38
359.122	100.38
359.349	101.38
359.576	108.38
359.802	100.38
360.029	104.38
360.256	117.38
360.483	106.38
360.709	114.38
360.936	124.38
361.163	107.38
361.39	112.38
361.616	114.38
361.843	101.38
362.07	114.38
362.296	105.38
362.523	97.38
362.749	100.38
362.976	117.38
363.203	117.38
363.429	106.38
363.656	120.38
363.882	114.38
364.109	110.38
364.335	111.38
364.562	103.38
364.788	94.38
365.015	108.38
365.241	113.38
365.468	117.38
365.694	99.38
365.92	97.38
366.147	86.38
366.373	87.38
366.599	112.38
366.826	98.38
367.052	115.38
367.278	119.38
367.505	107.38
367.731	121.38
367.957	102.38
368.184	99.38
368.41	97.38
368.636	112.38
368.862	110.38
369.089	85.38
369.315	96.38
369.541	110.38
369.767	115.38
369.993	106.38
370.219	85.38
370.445	93.38
370.672	94.38
370.898	91.38
371.124	102.38
371.35	95.38
371.576	103.38
371.802	113.38
372.028	132.38
372.254	112.38
372.48	110.38
372.706	100.38
372.932	106.38
373.158	92.38
373.384	117.38
373.61	102.38
373.835	103.38
374.061	115.38
374.287	108.38
374.513	100.38
374.739	101.38
374.965	119.38
375.191	112.38
375.416	116.38
375.642	115.38
375.868	109.38
376.094	104.38
376.319	92.38
376.545	112.38
376.771	114.38
376.997	108.38
377.222	113.38
377.448	116.38
377.674	108.38
377.899	132.38
378.125	105.38
378.35	111.38
378.576	105.38
378.802	87.38
379.027	106.38
379.253	112.38
379.478	118.38
379.704	97.38
379.929	116.38
380.155	90.38
380.38	106.38
380.606	91.38
380.831	109.38
381.057	115.38
381.282	101.38
381.507	117.38
381.733	110.38
381.958	99.38
382.184	93.38
382.409	100.38
382.634	112.38
382.86	92.38
383.085	119.38
383.31	104.38
383.535	109.38
383.761	120.38
383.986	112.38
384.211	115.38
384.436	123.38
384.662	98.38
384.887	123.38
385.112	113.38
385.337	116.38
385.562	109.38
385.787	119.38
386.013	113.38
386.238	118.38
386.463	115.38
386.688	158.38
386.913	106.38
387.138	116.38
387.363	116.38
387.588	114.38
387.813	138.38
388.038	97.38
388.263	103.38
388.488	106.38
388.713	101.38
388.938	105.38
389.163	107.38
389.387	113.38
389.612	116.38
389.837	114.38
390.062	114.38
390.287	111.38
390.512	125.38
390.736	116.38
390.961	124.38
391.186	114.38
391.411	109.38
391.636	110.38
391.86	123.38
392.085	93.38
392.31	124.38
392.534	99.38
392.759	127.38
392.984	115.38
393.208	137.38
393.433	111.38
393.658	109.38
393.882	116.38
394.107	108.38
394.331	113.38
394.556	121.38
394.78	119.38
395.005	104.38
395.229	112.38
395.454	127.38
395.678	112.38
395.903	109.38
396.127	118.38
396.352	106.38
396.576	113.38
396.801	125.38
397.025	123.38
397.249	118.38
397.474	126.38
397.698	119.38
397.922	127.38
398.147	117.38
398.371	119.38
398.595	134.38
398.82	114.38
399.044	126.38
399.268	143.38
399.492	139.38
399.717	145.38
399.941	137.38
400.165	152.38
400.389	110.38
400.613	116.38
400.837	131.38
401.062	131.38
401.286	128.38
401.51	125.38
401.734	110.38
401.958	138.38
402.182	127.38
402.406	140.38
402.63	131.38
402.854	133.38
403.078	130.38
403.302	129.38
403.526	144.38
403.75	137.38
403.974	119.38
404.198	136.38
404.422	151.38
404.645	135.38
404.869	123.38
405.093	133.38
405.317	121.38
405.541	122.38
405.765	124.38
405.988	126.38
406.212	116.38
406.436	129.38
406.66	140.38
406.883	145.38
407.107	126.38
407.331	144.38
407.555	133.38
407.778	123.38
408.002	114.38
408.226	144.38
408.449	124.38
408.673	129.38
408.896	131.38
409.12	140.38
409.344	124.38
409.567	126.38
409.791	127.38
410.014	131.38
410.238	125.38
410.461	119.38
410.685	116.38
410.908	113.38
411.132	135.38
411.355	122.38
411.578	131.38
411.802	117.38
412.025	134.38
412.249	119.38
412.472	107.38
412.695	122.38
412.919	127.38
413.142	136.38
413.365	130.38
413.589	132.38
413.812	104.38
414.035	135.38
414.258	132.38
414.482	124.38
414.705	135.38
414.928	130.38
415.151	124.38
415.374	125.38
415.597	117.38
415.821	114.38
416.044	113.38
416.267	114.38
416.49	129.38
416.713	119.38
416.936	132.38
417.159	103.38
417.382	117.38
417.605	112.38
417.828	129.38
418.051	130.38
418.274	120.38
418.497	117.38
418.72	121.38
418.943	124.38
419.166	132.38
419.389	125.38
419.611	129.38
419.834	132.38
420.057	115.38
420.28	127.38
420.503	116.38
420.726	122.38
420.948	126.38
421.171	128.38
421.394	111.38
421.617	125.38
421.839	117.38
422.062	114.38
422.285	111.38
422.507	125.38
422.73	116.38
422.953	129.38
423.175	130.38
423.398	123.38
423.621	120.38
423.843	120.38
424.066	122.38
424.288	131.38
424.511	131.38
424.733	125.38
424.956	120.38
425.178	126.38
425.401	122.38
425.623	130.38
425.846	121.38
426.068	111.38
426.291	112.38
426.513	132.38
426.735	125.38
426.958	104.38
427.18	127.38
427.402	115.38
427.625	112.38
427.847	124.38
428.069	105.38
428.292	115.38
428.514	129.38
428.736	104.38
428.958	118.38
429.181	112.38
429.403	116.38
429.625	93.38
429.847	112.38
430.069	126.38
430.292	122.38
430.514	120.38
430.736	113.38
430.958	114.38
431.18	118.38
431.402	112.38
431.624	130.38
431.846	126.38
432.068	119.38
432.29	114.38
432.512	114.38
432.734	134.38
432.956	139.38
433.178	132.38
433.4	108.38
433.622	123.38
433.844	130.38
434.066	127.38
434.287	122.38
434.509	122.38
434.731	135.38
434.953	126.38
435.175	126.38
435.397	117.38
435.618	118.38
435.84	129.38
436.062	114.38
436.284	128.38
436.505	118.38
436.727	132.38
436.949	124.38
437.17	129.38
437.392	107.38
437.614	125.38
437.835	120.38
438.057	116.38
438.278	109.38
438.5	111.38
438.721	116.38
438.943	117.38
439.165	128.38
439.386	109.38
439.608	125.38
439.829	125.38
440.05	141.38
440.272	125.38
440.493	118.38
440.715	123.38
440.936	136.38
441.158	120.38
441.379	128.38
441.6	132.38
441.822	114.38
442.043	106.38
442.264	117.38
442.486	136.38
442.707	113.38
442.928	126.38
443.149	135.38
443.371	115.38
443.592	130.38
443.813	119.38
444.034	107.38
444.255	116.38
444.476	117.38
444.698	119.38
444.919	111.38
445.14	388.38
445.361	246.38
445.582	132.38
445.803	129.38
446.024	102.38
446.245	123.38
446.466	126.38
446.687	129.38
446.908	120.38
447.129	116.38
447.35	138.38
447.571	120.38
447.792	118.38
448.013	119.38
448.234	116.38
448.455	115.38
448.675	120.38
448.896	118.38
449.117	120.38
449.338	97.38
449.559	131.38
449.779	114.38
450	106.38
450.221	117.38
450.442	120.38
450.662	131.38
450.883	117.38
451.104	113.38
451.324	118.38
451.545	113.38
451.766	119.38
451.986	105.38
452.207	109.38
452.428	118.38
452.648	115.38
452.869	101.38
453.089	119.38
453.31	113.38
453.53	107.38
453.751	110.38
453.971	116.38
454.192	90.38
454.412	117.38
454.633	113.38
454.853	111.38
455.073	115.38
455.294	114.38
455.514	112.38
455.734	113.38
455.955	111.38
456.175	118.38
456.395	112.38
456.616	105.38
456.836	99.38
457.056	105.38
457.276	114.38
457.497	116.38
457.717	120.38
457.937	108.38
458.157	114.38
458.377	103.38
458.598	101.38
458.818	102.38
459.038	105.38
459.258	111.38
459.478	113.38
459.698	120.38
459.918	138.38
460.138	109.38
460.358	123.38
460.578	137.38
460.798	125.38
461.018	136.38
461.238	133.38
461.458	118.38
461.678	131.38
461.898	128.38
462.118	119.38
462.338	126.38
462.558	143.38
462.777	134.38
462.997	129.38
463.217	140.38
463.437	128.38
463.657	146.38
463.876	129.38
464.096	146.38
464.316	125.38
464.536	136.38
464.755	141.38
464.975	131.38
465.195	124.38
465.414	135.38
465.634	113.38
465.854	127.38
466.073	127.38
466.293	135.38
466.512	116.38
466.732	104.38
466.951	127.38
467.171	111.38
467.391	116.38
467.61	103.38
467.829	118.38
468.049	130.38
468.268	110.38
468.488	107.38
468.707	113.38
468.927	105.38
469.146	121.38
469.365	127.38
469.585	125.38
469.804	133.38
470.023	118.38
470.243	125.38
470.462	121.38
470.681	125.38
470.901	109.38
471.12	119.38
471.339	115.38
471.558	115.38
471.777	121.38
471.997	117.38
472.216	121.38
472.435	111.38
472.654	102.38
472.873	120.38
473.092	124.38
473.311	122.38
473.53	133.38
473.749	127.38
473.968	141.38
474.187	116.38
474.406	119.38
474.625	116.38
474.844	130.38
475.063	121.38
475.282	134.38
475.501	126.38
475.72	134.38
475.939	115.38
476.158	120.38
476.377	122.38
476.596	122.38
476.814	101.38
477.033	122.38
477.252	114.38
477.471	112.38
477.69	112.38
477.908	108.38
478.127	127.38
478.346	122.38
478.564	129.38
478.783	133.38
479.002	125.38
479.22	106.38
479.439	134.38
479.658	119.38
479.876	128.38
480.095	125.38
480.313	129.38
480.532	125.38
480.751	126.38
480.969	124.38
481.188	125.38
481.406	111.38
481.624	118.38
481.843	118.38
482.061	111.38
482.28	127.38
482.498	119.38
482.717	125.38
482.935	130.38
483.153	124.38
483.372	135.38
483.59	116.38
483.808	133.38
484.027	122.38
484.245	137.38
484.463	114.38
484.681	144.38
484.9	118.38
485.118	142.38
485.336	141.38
485.554	124.38
485.772	126.38
485.99	110.38
486.209	127.38
486.427	110.38
486.645	116.38
486.863	120.38
487.081	124.38
487.299	137.38
487.517	113.38
487.735	130.38
487.953	117.38
488.171	132.38
488.389	127.38
488.607	106.38
488.825	118.38
489.043	125.38
489.261	134.38
489.479	125.38
489.696	132.38
489.914	127.38
490.132	133.38
490.35	142.38
490.568	130.38
490.786	127.38
491.003	114.38
491.221	119.38
491.439	126.38
491.657	113.38
491.874	126.38
492.092	128.38
492.31	146.38
492.527	136.38
492.745	115.38
492.963	132.38
493.18	131.38
493.398	130.38
493.615	133.38
493.833	148.38
494.05	132.38
494.268	106.38
494.485	135.38
494.703	134.38
494.92	135.38
495.138	124.38
495.355	126.38
495.573	131.38
495.79	133.38
496.008	133.38
496.225	130.38
496.442	123.38
496.66	133.38
496.877	125.38
497.094	152.38
497.312	137.38
497.529	140.38
497.746	151.38
497.963	136.38
498.181	127.38
498.398	143.38
498.615	141.38
498.832	153.38
499.049	161.38
499.267	168.38
499.484	166.38
499.701	186.38
499.918	215.38
500.135	214.38
500.352	230.38
500.569	233.38
500.786	227.38
501.003	195.38
501.22	193.38
501.437	186.38
501.654	171.38
501.871	154.38
502.088	154.38
502.305	164.38
502.522	157.38
502.739	159.38
502.956	157.38
503.172	133.38
503.389	137.38
503.606	129.38
503.823	141.38
504.04	143.38
504.256	145.38
504.473	123.38
504.69	140.38
504.907	134.38
505.123	117.38
505.34	135.38
505.557	143.38
505.773	116.38
505.99	106.38
506.207	120.38
506.423	131.38
506.64	129.38
506.856	115.38
