Data from SampD_HRD10591_00095.txt Node
Date: Mon Jan 19 11:41:53 EST 2026
User: Yrep
Spectrometer: HR+D1059
Trigger mode: 0
Integration Time (sec): 3.443000E-1
Scans to average: 1
Electric dark correction enabled: true
Nonlinearity correction enabled: false
Boxcar width: 0
XAxis mode: Wavelengths
Number of Pixels in Spectrum: 2048
>>>>>Begin Spectral Data<<<<<
223.165	-26.81
223.4	-26.81
223.635	-26.81
223.869	-24.81
224.104	-28.81
224.338	-18.81
224.573	-14.81
224.808	-7.81
225.042	-7.81
225.277	-15.81
225.511	-12.81
225.746	23.19
225.98	14.19
226.215	21.19
226.449	28.19
226.683	30.19
226.918	22.19
227.152	19.19
227.387	31.19
227.621	48.19
227.856	59.19
228.09	51.19
228.324	53.19
228.559	64.19
228.793	51.19
229.027	58.19
229.262	79.19
229.496	66.19
229.73	62.19
229.964	76.19
230.199	76.19
230.433	79.19
230.667	91.19
230.901	83.19
231.136	73.19
231.37	79.19
231.604	87.19
231.838	94.19
232.072	94.19
232.306	84.19
232.541	86.19
232.775	83.19
233.009	91.19
233.243	72.19
233.477	88.19
233.711	88.19
233.945	72.19
234.179	100.19
234.413	82.19
234.647	95.19
234.881	68.19
235.115	86.19
235.349	80.19
235.583	80.19
235.817	78.19
236.051	79.19
236.285	69.19
236.519	85.19
236.753	90.19
236.987	78.19
237.221	70.19
237.455	81.19
237.689	81.19
237.922	66.19
238.156	88.19
238.39	83.19
238.624	75.19
238.858	87.19
239.091	87.19
239.325	67.19
239.559	62.19
239.793	77.19
240.027	94.19
240.26	87.19
240.494	87.19
240.728	82.19
240.961	64.19
241.195	77.19
241.429	71.19
241.662	77.19
241.896	70.19
242.13	79.19
242.363	78.19
242.597	84.19
242.83	91.19
243.064	96.19
243.298	79.19
243.531	80.19
243.765	94.19
243.998	81.19
244.232	104.19
244.465	83.19
244.699	89.19
244.932	83.19
245.166	83.19
245.399	71.19
245.633	79.19
245.866	82.19
246.099	73.19
246.333	88.19
246.566	93.19
246.8	84.19
247.033	85.19
247.266	87.19
247.5	82.19
247.733	92.19
247.966	81.19
248.2	77.19
248.433	100.19
248.666	76.19
248.899	80.19
249.133	90.19
249.366	90.19
249.599	83.19
249.832	79.19
250.066	83.19
250.299	87.19
250.532	83.19
250.765	92.19
250.998	84.19
251.231	85.19
251.465	93.19
251.698	88.19
251.931	80.19
252.164	78.19
252.397	85.19
252.63	87.19
252.863	98.19
253.096	103.19
253.329	95.19
253.562	99.19
253.795	94.19
254.028	92.19
254.261	83.19
254.494	78.19
254.727	77.19
254.96	88.19
255.193	91.19
255.426	90.19
255.659	99.19
255.892	96.19
256.124	99.19
256.357	88.19
256.59	80.19
256.823	86.19
257.056	80.19
257.289	88.19
257.521	94.19
257.754	88.19
257.987	72.19
258.22	94.19
258.452	104.19
258.685	85.19
258.918	77.19
259.151	76.19
259.383	89.19
259.616	102.19
259.849	79.19
260.081	86.19
260.314	80.19
260.547	96.19
260.779	89.19
261.012	76.19
261.244	106.19
261.477	104.19
261.71	100.19
261.942	100.19
262.175	96.19
262.407	78.19
262.64	100.19
262.872	93.19
263.105	96.19
263.337	102.19
263.57	97.19
263.802	93.19
264.035	91.19
264.267	92.19
264.499	86.19
264.732	94.19
264.964	100.19
265.197	102.19
265.429	100.19
265.661	97.19
265.894	93.19
266.126	99.19
266.358	89.19
266.591	95.19
266.823	105.19
267.055	97.19
267.287	85.19
267.52	84.19
267.752	92.19
267.984	94.19
268.216	87.19
268.448	100.19
268.681	93.19
268.913	95.19
269.145	107.19
269.377	96.19
269.609	105.19
269.841	107.19
270.073	84.19
270.306	104.19
270.538	87.19
270.77	88.19
271.002	95.19
271.234	100.19
271.466	91.19
271.698	109.19
271.93	85.19
272.162	81.19
272.394	106.19
272.626	97.19
272.858	101.19
273.09	97.19
273.322	85.19
273.553	96.19
273.785	81.19
274.017	93.19
274.249	94.19
274.481	84.19
274.713	114.19
274.945	94.19
275.176	83.19
275.408	84.19
275.64	117.19
275.872	89.19
276.104	102.19
276.335	82.19
276.567	86.19
276.799	81.19
277.031	95.19
277.262	105.19
277.494	95.19
277.726	95.19
277.957	89.19
278.189	72.19
278.421	91.19
278.652	102.19
278.884	104.19
279.115	99.19
279.347	93.19
279.579	99.19
279.81	85.19
280.042	91.19
280.273	92.19
280.505	93.19
280.736	87.19
280.968	106.19
281.199	101.19
281.431	118.19
281.662	101.19
281.894	96.19
282.125	97.19
282.356	96.19
282.588	83.19
282.819	103.19
283.051	104.19
283.282	87.19
283.513	99.19
283.745	105.19
283.976	99.19
284.207	108.19
284.439	96.19
284.67	91.19
284.901	105.19
285.132	100.19
285.364	97.19
285.595	102.19
285.826	103.19
286.057	104.19
286.288	95.19
286.52	92.19
286.751	98.19
286.982	102.19
287.213	87.19
287.444	105.19
287.675	113.19
287.906	109.19
288.138	95.19
288.369	109.19
288.6	101.19
288.831	91.19
289.062	132.19
289.293	123.19
289.524	108.19
289.755	91.19
289.986	95.19
290.217	94.19
290.448	101.19
290.679	119.19
290.91	122.19
291.141	112.19
291.371	118.19
291.602	106.19
291.833	110.19
292.064	111.19
292.295	100.19
292.526	101.19
292.757	91.19
292.987	96.19
293.218	95.19
293.449	102.19
293.68	105.19
293.91	107.19
294.141	98.19
294.372	97.19
294.603	96.19
294.833	100.19
295.064	92.19
295.295	105.19
295.525	103.19
295.756	98.19
295.987	100.19
296.217	94.19
296.448	106.19
296.679	97.19
296.909	108.19
297.14	107.19
297.37	101.19
297.601	102.19
297.831	102.19
298.062	100.19
298.292	109.19
298.523	96.19
298.753	114.19
298.984	107.19
299.214	104.19
299.445	108.19
299.675	115.19
299.905	109.19
300.136	105.19
300.366	101.19
300.597	116.19
300.827	111.19
301.057	98.19
301.288	105.19
301.518	102.19
301.748	106.19
301.979	114.19
302.209	93.19
302.439	99.19
302.669	100.19
302.9	102.19
303.13	100.19
303.36	99.19
303.59	108.19
303.82	109.19
304.051	107.19
304.281	119.19
304.511	119.19
304.741	102.19
304.971	84.19
305.201	117.19
305.431	105.19
305.661	109.19
305.891	107.19
306.121	110.19
306.352	95.19
306.582	109.19
306.812	111.19
307.042	87.19
307.272	91.19
307.502	117.19
307.731	98.19
307.961	106.19
308.191	103.19
308.421	121.19
308.651	97.19
308.881	97.19
309.111	96.19
309.341	109.19
309.571	105.19
309.8	100.19
310.03	112.19
310.26	98.19
310.49	99.19
310.72	115.19
310.949	108.19
311.179	102.19
311.409	112.19
311.639	104.19
311.868	98.19
312.098	104.19
312.328	111.19
312.557	116.19
312.787	97.19
313.017	113.19
313.246	118.19
313.476	113.19
313.706	110.19
313.935	109.19
314.165	104.19
314.394	109.19
314.624	108.19
314.853	115.19
315.083	92.19
315.312	117.19
315.542	100.19
315.771	114.19
316.001	110.19
316.23	104.19
316.46	108.19
316.689	99.19
316.919	80.19
317.148	113.19
317.377	110.19
317.607	103.19
317.836	94.19
318.065	126.19
318.295	105.19
318.524	119.19
318.753	102.19
318.983	103.19
319.212	120.19
319.441	98.19
319.67	109.19
319.9	113.19
320.129	111.19
320.358	104.19
320.587	105.19
320.816	102.19
321.046	87.19
321.275	108.19
321.504	98.19
321.733	110.19
321.962	109.19
322.191	121.19
322.42	112.19
322.649	100.19
322.878	109.19
323.108	116.19
323.337	112.19
323.566	106.19
323.795	112.19
324.024	102.19
324.253	101.19
324.482	108.19
324.71	112.19
324.939	110.19
325.168	103.19
325.397	117.19
325.626	112.19
325.855	109.19
326.084	106.19
326.313	116.19
326.542	118.19
326.77	112.19
326.999	98.19
327.228	109.19
327.457	103.19
327.686	102.19
327.914	110.19
328.143	108.19
328.372	115.19
328.6	104.19
328.829	93.19
329.058	105.19
329.287	103.19
329.515	113.19
329.744	116.19
329.972	115.19
330.201	111.19
330.43	108.19
330.658	95.19
330.887	111.19
331.115	131.19
331.344	101.19
331.572	120.19
331.801	102.19
332.03	116.19
332.258	114.19
332.486	117.19
332.715	121.19
332.943	130.19
333.172	125.19
333.4	115.19
333.629	123.19
333.857	117.19
334.085	105.19
334.314	120.19
334.542	112.19
334.771	117.19
334.999	110.19
335.227	118.19
335.455	126.19
335.684	116.19
335.912	115.19
336.14	105.19
336.369	110.19
336.597	110.19
336.825	128.19
337.053	125.19
337.281	119.19
337.51	108.19
337.738	124.19
337.966	118.19
338.194	118.19
338.422	121.19
338.65	134.19
338.878	106.19
339.106	100.19
339.334	117.19
339.562	116.19
339.79	119.19
340.018	127.19
340.246	116.19
340.474	91.19
340.702	125.19
340.93	112.19
341.158	118.19
341.386	104.19
341.614	116.19
341.842	104.19
342.07	105.19
342.298	98.19
342.526	110.19
342.754	99.19
342.981	102.19
343.209	99.19
343.437	148.19
343.665	100.19
343.893	115.19
344.12	120.19
344.348	128.19
344.576	119.19
344.804	105.19
345.031	120.19
345.259	95.19
345.487	113.19
345.714	115.19
345.942	118.19
346.17	98.19
346.397	121.19
346.625	116.19
346.853	111.19
347.08	107.19
347.308	88.19
347.535	103.19
347.763	111.19
347.99	102.19
348.218	120.19
348.445	98.19
348.673	120.19
348.9	124.19
349.128	111.19
349.355	97.19
349.583	107.19
349.81	88.19
350.037	113.19
350.265	100.19
350.492	111.19
350.72	101.19
350.947	99.19
351.174	111.19
351.402	98.19
351.629	107.19
351.856	101.19
352.083	102.19
352.311	99.19
352.538	118.19
352.765	102.19
352.992	125.19
353.22	108.19
353.447	101.19
353.674	119.19
353.901	125.19
354.128	106.19
354.355	101.19
354.583	111.19
354.81	103.19
355.037	116.19
355.264	111.19
355.491	98.19
355.718	116.19
355.945	93.19
356.172	98.19
356.399	109.19
356.626	109.19
356.853	109.19
357.08	110.19
357.307	121.19
357.534	97.19
357.761	107.19
357.988	104.19
358.215	93.19
358.441	93.19
358.668	113.19
358.895	94.19
359.122	113.19
359.349	101.19
359.576	109.19
359.802	97.19
360.029	103.19
360.256	102.19
360.483	103.19
360.709	100.19
360.936	128.19
361.163	123.19
361.39	104.19
361.616	106.19
361.843	110.19
362.07	108.19
362.296	109.19
362.523	120.19
362.749	108.19
362.976	109.19
363.203	116.19
363.429	111.19
363.656	115.19
363.882	110.19
364.109	116.19
364.335	120.19
364.562	105.19
364.788	109.19
365.015	102.19
365.241	114.19
365.468	124.19
365.694	107.19
365.92	111.19
366.147	109.19
366.373	102.19
366.599	109.19
366.826	108.19
367.052	107.19
367.278	116.19
367.505	102.19
367.731	115.19
367.957	106.19
368.184	103.19
368.41	112.19
368.636	116.19
368.862	106.19
369.089	98.19
369.315	88.19
369.541	103.19
369.767	110.19
369.993	107.19
370.219	104.19
370.445	111.19
370.672	117.19
370.898	102.19
371.124	107.19
371.35	116.19
371.576	113.19
371.802	99.19
372.028	113.19
372.254	112.19
372.48	109.19
372.706	128.19
372.932	97.19
373.158	109.19
373.384	119.19
373.61	111.19
373.835	120.19
374.061	121.19
374.287	133.19
374.513	117.19
374.739	111.19
374.965	110.19
375.191	111.19
375.416	120.19
375.642	124.19
375.868	125.19
376.094	115.19
376.319	99.19
376.545	114.19
376.771	108.19
376.997	110.19
377.222	107.19
377.448	119.19
377.674	109.19
377.899	108.19
378.125	105.19
378.35	117.19
378.576	119.19
378.802	104.19
379.027	106.19
379.253	124.19
379.478	112.19
379.704	109.19
379.929	103.19
380.155	110.19
380.38	103.19
380.606	104.19
380.831	100.19
381.057	107.19
381.282	116.19
381.507	117.19
381.733	128.19
381.958	102.19
382.184	120.19
382.409	114.19
382.634	109.19
382.86	120.19
383.085	128.19
383.31	132.19
383.535	114.19
383.761	116.19
383.986	132.19
384.211	111.19
384.436	118.19
384.662	117.19
384.887	127.19
385.112	105.19
385.337	110.19
385.562	112.19
385.787	120.19
386.013	118.19
386.238	108.19
386.463	130.19
386.688	145.19
386.913	114.19
387.138	110.19
387.363	106.19
387.588	142.19
387.813	137.19
388.038	112.19
388.263	130.19
388.488	115.19
388.713	120.19
388.938	115.19
389.163	111.19
389.387	112.19
389.612	114.19
389.837	119.19
390.062	123.19
390.287	124.19
390.512	119.19
390.736	105.19
390.961	129.19
391.186	134.19
391.411	131.19
391.636	117.19
391.86	130.19
392.085	127.19
392.31	126.19
392.534	115.19
392.759	114.19
392.984	127.19
393.208	109.19
393.433	119.19
393.658	121.19
393.882	108.19
394.107	115.19
394.331	111.19
394.556	135.19
394.78	124.19
395.005	124.19
395.229	109.19
395.454	135.19
395.678	132.19
395.903	133.19
396.127	131.19
396.352	115.19
396.576	125.19
396.801	114.19
397.025	127.19
397.249	110.19
397.474	149.19
397.698	129.19
397.922	116.19
398.147	116.19
398.371	123.19
398.595	131.19
398.82	123.19
399.044	144.19
399.268	134.19
399.492	156.19
399.717	130.19
399.941	157.19
400.165	135.19
400.389	143.19
400.613	135.19
400.837	136.19
401.062	121.19
401.286	129.19
401.51	135.19
401.734	122.19
401.958	123.19
402.182	125.19
402.406	126.19
402.63	128.19
402.854	133.19
403.078	118.19
403.302	133.19
403.526	139.19
403.75	155.19
403.974	125.19
404.198	148.19
404.422	147.19
404.645	146.19
404.869	144.19
405.093	125.19
405.317	121.19
405.541	139.19
405.765	139.19
405.988	131.19
406.212	128.19
406.436	124.19
406.66	132.19
406.883	136.19
407.107	139.19
407.331	134.19
407.555	139.19
407.778	148.19
408.002	148.19
408.226	165.19
408.449	148.19
408.673	125.19
408.896	131.19
409.12	130.19
409.344	141.19
409.567	146.19
409.791	135.19
410.014	144.19
410.238	120.19
410.461	139.19
410.685	125.19
410.908	128.19
411.132	144.19
411.355	124.19
411.578	151.19
411.802	130.19
412.025	135.19
412.249	131.19
412.472	133.19
412.695	131.19
412.919	123.19
413.142	124.19
413.365	120.19
413.589	140.19
413.812	133.19
414.035	143.19
414.258	136.19
414.482	120.19
414.705	136.19
414.928	127.19
415.151	124.19
415.374	139.19
415.597	130.19
415.821	134.19
416.044	131.19
416.267	129.19
416.49	120.19
416.713	133.19
416.936	120.19
417.159	127.19
417.382	121.19
417.605	118.19
417.828	136.19
418.051	133.19
418.274	117.19
418.497	130.19
418.72	130.19
418.943	129.19
419.166	142.19
419.389	132.19
419.611	139.19
419.834	136.19
420.057	136.19
420.28	130.19
420.503	132.19
420.726	124.19
420.948	130.19
421.171	133.19
421.394	137.19
421.617	122.19
421.839	110.19
422.062	140.19
422.285	120.19
422.507	133.19
422.73	141.19
422.953	114.19
423.175	121.19
423.398	133.19
423.621	130.19
423.843	131.19
424.066	131.19
424.288	133.19
424.511	155.19
424.733	123.19
424.956	136.19
425.178	134.19
425.401	130.19
425.623	125.19
425.846	110.19
426.068	127.19
426.291	124.19
426.513	125.19
426.735	122.19
426.958	119.19
427.18	132.19
427.402	130.19
427.625	112.19
427.847	118.19
428.069	124.19
428.292	111.19
428.514	139.19
428.736	117.19
428.958	120.19
429.181	117.19
429.403	114.19
429.625	114.19
429.847	116.19
430.069	141.19
430.292	144.19
430.514	117.19
430.736	105.19
430.958	112.19
431.18	98.19
431.402	128.19
431.624	114.19
431.846	117.19
432.068	117.19
432.29	128.19
432.512	121.19
432.734	129.19
432.956	126.19
433.178	135.19
433.4	130.19
433.622	134.19
433.844	133.19
434.066	132.19
434.287	120.19
434.509	119.19
434.731	139.19
434.953	132.19
435.175	133.19
435.397	147.19
435.618	125.19
435.84	130.19
436.062	123.19
436.284	124.19
436.505	119.19
436.727	126.19
436.949	132.19
437.17	122.19
437.392	130.19
437.614	105.19
437.835	113.19
438.057	109.19
438.278	116.19
438.5	108.19
438.721	121.19
438.943	134.19
439.165	129.19
439.386	123.19
439.608	130.19
439.829	120.19
440.05	130.19
440.272	124.19
440.493	123.19
440.715	111.19
440.936	124.19
441.158	127.19
441.379	129.19
441.6	142.19
441.822	127.19
442.043	118.19
442.264	143.19
442.486	129.19
442.707	129.19
442.928	135.19
443.149	134.19
443.371	128.19
443.592	143.19
443.813	134.19
444.034	129.19
444.255	131.19
444.476	122.19
444.698	132.19
444.919	143.19
445.14	401.19
445.361	249.19
445.582	149.19
445.803	133.19
446.024	132.19
446.245	148.19
446.466	126.19
446.687	130.19
446.908	130.19
447.129	132.19
447.35	128.19
447.571	123.19
447.792	125.19
448.013	113.19
448.234	122.19
448.455	102.19
448.675	109.19
448.896	126.19
449.117	110.19
449.338	110.19
449.559	122.19
449.779	128.19
450	124.19
450.221	131.19
450.442	117.19
450.662	118.19
450.883	127.19
451.104	119.19
451.324	120.19
451.545	120.19
451.766	114.19
451.986	125.19
452.207	123.19
452.428	126.19
452.648	119.19
452.869	120.19
453.089	124.19
453.31	106.19
453.53	104.19
453.751	117.19
453.971	117.19
454.192	114.19
454.412	105.19
454.633	112.19
454.853	115.19
455.073	124.19
455.294	103.19
455.514	129.19
455.734	112.19
455.955	115.19
456.175	105.19
456.395	104.19
456.616	116.19
456.836	109.19
457.056	124.19
457.276	104.19
457.497	125.19
457.717	108.19
457.937	113.19
458.157	114.19
458.377	118.19
458.598	110.19
458.818	113.19
459.038	110.19
459.258	122.19
459.478	119.19
459.698	114.19
459.918	117.19
460.138	119.19
460.358	133.19
460.578	140.19
460.798	122.19
461.018	127.19
461.238	135.19
461.458	153.19
461.678	128.19
461.898	130.19
462.118	146.19
462.338	138.19
462.558	133.19
462.777	134.19
462.997	160.19
463.217	147.19
463.437	162.19
463.657	156.19
463.876	137.19
464.096	145.19
464.316	130.19
464.536	142.19
464.755	136.19
464.975	127.19
465.195	121.19
465.414	119.19
465.634	132.19
465.854	106.19
466.073	123.19
466.293	135.19
466.512	136.19
466.732	117.19
466.951	140.19
467.171	127.19
467.391	115.19
467.61	136.19
467.829	119.19
468.049	125.19
468.268	121.19
468.488	120.19
468.707	123.19
468.927	112.19
469.146	120.19
469.365	121.19
469.585	127.19
469.804	134.19
470.023	107.19
470.243	131.19
470.462	117.19
470.681	143.19
470.901	136.19
471.12	125.19
471.339	126.19
471.558	127.19
471.777	126.19
471.997	133.19
472.216	127.19
472.435	123.19
472.654	117.19
472.873	126.19
473.092	127.19
473.311	137.19
473.53	124.19
473.749	117.19
473.968	124.19
474.187	111.19
474.406	109.19
474.625	119.19
474.844	110.19
475.063	124.19
475.282	105.19
475.501	115.19
475.72	136.19
475.939	109.19
476.158	110.19
476.377	116.19
476.596	119.19
476.814	133.19
477.033	125.19
477.252	126.19
477.471	125.19
477.69	134.19
477.908	135.19
478.127	139.19
478.346	125.19
478.564	137.19
478.783	134.19
479.002	146.19
479.22	118.19
479.439	152.19
479.658	125.19
479.876	131.19
480.095	132.19
480.313	153.19
480.532	149.19
480.751	140.19
480.969	121.19
481.188	108.19
481.406	124.19
481.624	124.19
481.843	105.19
482.061	127.19
482.28	123.19
482.498	121.19
482.717	136.19
482.935	141.19
483.153	115.19
483.372	124.19
483.59	114.19
483.808	117.19
484.027	151.19
484.245	134.19
484.463	123.19
484.681	134.19
484.9	137.19
485.118	128.19
485.336	134.19
485.554	125.19
485.772	132.19
485.99	126.19
486.209	135.19
486.427	124.19
486.645	132.19
486.863	135.19
487.081	128.19
487.299	142.19
487.517	113.19
487.735	132.19
487.953	135.19
488.171	141.19
488.389	148.19
488.607	141.19
488.825	122.19
489.043	104.19
489.261	134.19
489.479	127.19
489.696	125.19
489.914	118.19
490.132	119.19
490.35	142.19
490.568	128.19
490.786	136.19
491.003	134.19
491.221	119.19
491.439	126.19
491.657	135.19
491.874	128.19
492.092	129.19
492.31	144.19
492.527	133.19
492.745	145.19
492.963	149.19
493.18	135.19
493.398	147.19
493.615	149.19
493.833	128.19
494.05	133.19
494.268	112.19
494.485	153.19
494.703	124.19
494.92	133.19
495.138	150.19
495.355	132.19
495.573	135.19
495.79	119.19
496.008	145.19
496.225	142.19
496.442	128.19
496.66	135.19
496.877	132.19
497.094	144.19
497.312	143.19
497.529	146.19
497.746	142.19
497.963	159.19
498.181	150.19
498.398	144.19
498.615	160.19
498.832	146.19
499.049	174.19
499.267	180.19
499.484	169.19
499.701	209.19
499.918	224.19
500.135	245.19
500.352	244.19
500.569	241.19
500.786	231.19
501.003	228.19
501.22	227.19
501.437	211.19
501.654	182.19
501.871	187.19
502.088	166.19
502.305	159.19
502.522	161.19
502.739	165.19
502.956	153.19
503.172	159.19
503.389	136.19
503.606	137.19
503.823	159.19
504.04	138.19
504.256	147.19
504.473	159.19
504.69	144.19
504.907	156.19
505.123	132.19
505.34	137.19
505.557	133.19
505.773	133.19
505.99	121.19
506.207	122.19
506.423	136.19
