Data from SampD_HRD10591_00033.txt Node
Date: Mon Jan 19 11:41:32 EST 2026
User: Yrep
Spectrometer: HR+D1059
Trigger mode: 0
Integration Time (sec): 3.443000E-1
Scans to average: 1
Electric dark correction enabled: true
Nonlinearity correction enabled: false
Boxcar width: 0
XAxis mode: Wavelengths
Number of Pixels in Spectrum: 2048
>>>>>Begin Spectral Data<<<<<
223.165	-10.88
223.4	-10.88
223.635	-10.88
223.869	-29.88
224.104	-26.88
224.338	-14.88
224.573	-10.88
224.808	-17.88
225.042	4.12
225.277	-9.88
225.511	-1.88
225.746	8.12
225.98	5.12
226.215	10.12
226.449	23.12
226.683	22.12
226.918	25.12
227.152	25.12
227.387	33.12
227.621	45.12
227.856	35.12
228.09	29.12
228.324	56.12
228.559	78.12
228.793	69.12
229.027	66.12
229.262	90.12
229.496	69.12
229.73	77.12
229.964	74.12
230.199	91.12
230.433	71.12
230.667	108.12
230.901	84.12
231.136	92.12
231.37	96.12
231.604	95.12
231.838	88.12
232.072	93.12
232.306	82.12
232.541	85.12
232.775	92.12
233.009	85.12
233.243	94.12
233.477	94.12
233.711	99.12
233.945	85.12
234.179	96.12
234.413	92.12
234.647	90.12
234.881	99.12
235.115	96.12
235.349	82.12
235.583	86.12
235.817	84.12
236.051	88.12
236.285	89.12
236.519	101.12
236.753	96.12
236.987	85.12
237.221	82.12
237.455	90.12
237.689	80.12
237.922	89.12
238.156	76.12
238.39	106.12
238.624	75.12
238.858	74.12
239.091	88.12
239.325	84.12
239.559	93.12
239.793	72.12
240.027	92.12
240.26	89.12
240.494	100.12
240.728	84.12
240.961	70.12
241.195	90.12
241.429	97.12
241.662	75.12
241.896	96.12
242.13	91.12
242.363	76.12
242.597	86.12
242.83	91.12
243.064	95.12
243.298	106.12
243.531	88.12
243.765	90.12
243.998	106.12
244.232	97.12
244.465	93.12
244.699	89.12
244.932	96.12
245.166	92.12
245.399	96.12
245.633	98.12
245.866	94.12
246.099	91.12
246.333	87.12
246.566	97.12
246.8	84.12
247.033	86.12
247.266	92.12
247.5	93.12
247.733	78.12
247.966	98.12
248.2	103.12
248.433	100.12
248.666	83.12
248.899	99.12
249.133	85.12
249.366	98.12
249.599	98.12
249.832	100.12
250.066	101.12
250.299	94.12
250.532	88.12
250.765	100.12
250.998	99.12
251.231	96.12
251.465	88.12
251.698	91.12
251.931	91.12
252.164	106.12
252.397	93.12
252.63	100.12
252.863	80.12
253.096	95.12
253.329	97.12
253.562	105.12
253.795	102.12
254.028	105.12
254.261	73.12
254.494	106.12
254.727	107.12
254.96	121.12
255.193	115.12
255.426	101.12
255.659	112.12
255.892	101.12
256.124	92.12
256.357	107.12
256.59	106.12
256.823	112.12
257.056	102.12
257.289	109.12
257.521	108.12
257.754	97.12
257.987	83.12
258.22	117.12
258.452	107.12
258.685	99.12
258.918	110.12
259.151	106.12
259.383	100.12
259.616	111.12
259.849	116.12
260.081	98.12
260.314	93.12
260.547	112.12
260.779	112.12
261.012	103.12
261.244	110.12
261.477	113.12
261.71	106.12
261.942	93.12
262.175	104.12
262.407	104.12
262.64	107.12
262.872	103.12
263.105	106.12
263.337	115.12
263.57	107.12
263.802	100.12
264.035	102.12
264.267	109.12
264.499	105.12
264.732	114.12
264.964	96.12
265.197	106.12
265.429	107.12
265.661	103.12
265.894	115.12
266.126	110.12
266.358	121.12
266.591	113.12
266.823	116.12
267.055	105.12
267.287	114.12
267.52	101.12
267.752	92.12
267.984	108.12
268.216	110.12
268.448	99.12
268.681	121.12
268.913	106.12
269.145	123.12
269.377	125.12
269.609	98.12
269.841	110.12
270.073	109.12
270.306	105.12
270.538	101.12
270.77	113.12
271.002	112.12
271.234	117.12
271.466	114.12
271.698	101.12
271.93	122.12
272.162	110.12
272.394	114.12
272.626	89.12
272.858	113.12
273.09	117.12
273.322	122.12
273.553	111.12
273.785	115.12
274.017	102.12
274.249	109.12
274.481	109.12
274.713	123.12
274.945	125.12
275.176	96.12
275.408	114.12
275.64	107.12
275.872	106.12
276.104	124.12
276.335	113.12
276.567	107.12
276.799	109.12
277.031	94.12
277.262	93.12
277.494	122.12
277.726	116.12
277.957	112.12
278.189	100.12
278.421	113.12
278.652	106.12
278.884	109.12
279.115	120.12
279.347	123.12
279.579	115.12
279.81	111.12
280.042	112.12
280.273	112.12
280.505	114.12
280.736	120.12
280.968	121.12
281.199	114.12
281.431	108.12
281.662	117.12
281.894	120.12
282.125	130.12
282.356	108.12
282.588	100.12
282.819	126.12
283.051	115.12
283.282	112.12
283.513	139.12
283.745	129.12
283.976	114.12
284.207	123.12
284.439	124.12
284.67	113.12
284.901	115.12
285.132	121.12
285.364	121.12
285.595	126.12
285.826	124.12
286.057	134.12
286.288	118.12
286.52	125.12
286.751	112.12
286.982	104.12
287.213	112.12
287.444	122.12
287.675	108.12
287.906	112.12
288.138	125.12
288.369	130.12
288.6	126.12
288.831	120.12
289.062	131.12
289.293	131.12
289.524	98.12
289.755	108.12
289.986	120.12
290.217	118.12
290.448	113.12
290.679	122.12
290.91	121.12
291.141	115.12
291.371	101.12
291.602	124.12
291.833	120.12
292.064	127.12
292.295	130.12
292.526	130.12
292.757	118.12
292.987	116.12
293.218	108.12
293.449	125.12
293.68	114.12
293.91	133.12
294.141	132.12
294.372	122.12
294.603	126.12
294.833	114.12
295.064	124.12
295.295	132.12
295.525	131.12
295.756	134.12
295.987	125.12
296.217	114.12
296.448	121.12
296.679	129.12
296.909	124.12
297.14	133.12
297.37	126.12
297.601	129.12
297.831	126.12
298.062	125.12
298.292	127.12
298.523	131.12
298.753	120.12
298.984	125.12
299.214	117.12
299.445	109.12
299.675	114.12
299.905	144.12
300.136	120.12
300.366	133.12
300.597	126.12
300.827	121.12
301.057	125.12
301.288	123.12
301.518	130.12
301.748	139.12
301.979	169.12
302.209	126.12
302.439	126.12
302.669	129.12
302.9	120.12
303.13	127.12
303.36	123.12
303.59	114.12
303.82	121.12
304.051	134.12
304.281	135.12
304.511	141.12
304.741	126.12
304.971	136.12
305.201	125.12
305.431	132.12
305.661	123.12
305.891	116.12
306.121	133.12
306.352	135.12
306.582	116.12
306.812	121.12
307.042	129.12
307.272	131.12
307.502	117.12
307.731	128.12
307.961	117.12
308.191	134.12
308.421	127.12
308.651	135.12
308.881	138.12
309.111	114.12
309.341	123.12
309.571	133.12
309.8	122.12
310.03	124.12
310.26	125.12
310.49	125.12
310.72	137.12
310.949	138.12
311.179	130.12
311.409	129.12
311.639	135.12
311.868	121.12
312.098	133.12
312.328	124.12
312.557	139.12
312.787	139.12
313.017	145.12
313.246	130.12
313.476	128.12
313.706	144.12
313.935	122.12
314.165	139.12
314.394	118.12
314.624	133.12
314.853	131.12
315.083	131.12
315.312	141.12
315.542	121.12
315.771	116.12
316.001	123.12
316.23	132.12
316.46	135.12
316.689	134.12
316.919	140.12
317.148	138.12
317.377	134.12
317.607	132.12
317.836	126.12
318.065	127.12
318.295	138.12
318.524	127.12
318.753	119.12
318.983	110.12
319.212	134.12
319.441	132.12
319.67	134.12
319.9	115.12
320.129	125.12
320.358	137.12
320.587	120.12
320.816	154.12
321.046	132.12
321.275	133.12
321.504	132.12
321.733	127.12
321.962	122.12
322.191	130.12
322.42	145.12
322.649	120.12
322.878	133.12
323.108	131.12
323.337	112.12
323.566	131.12
323.795	122.12
324.024	125.12
324.253	123.12
324.482	123.12
324.71	167.12
324.939	128.12
325.168	145.12
325.397	130.12
325.626	124.12
325.855	131.12
326.084	147.12
326.313	133.12
326.542	138.12
326.77	157.12
326.999	128.12
327.228	146.12
327.457	137.12
327.686	142.12
327.914	141.12
328.143	158.12
328.372	137.12
328.6	128.12
328.829	144.12
329.058	127.12
329.287	141.12
329.515	133.12
329.744	127.12
329.972	139.12
330.201	127.12
330.43	136.12
330.658	135.12
330.887	150.12
331.115	149.12
331.344	130.12
331.572	137.12
331.801	134.12
332.03	138.12
332.258	152.12
332.486	135.12
332.715	146.12
332.943	168.12
333.172	153.12
333.4	149.12
333.629	157.12
333.857	146.12
334.085	165.12
334.314	147.12
334.542	156.12
334.771	165.12
334.999	145.12
335.227	152.12
335.455	137.12
335.684	151.12
335.912	155.12
336.14	156.12
336.369	143.12
336.597	154.12
336.825	158.12
337.053	149.12
337.281	145.12
337.51	144.12
337.738	142.12
337.966	127.12
338.194	138.12
338.422	134.12
338.65	149.12
338.878	141.12
339.106	138.12
339.334	134.12
339.562	152.12
339.79	126.12
340.018	141.12
340.246	138.12
340.474	146.12
340.702	156.12
340.93	139.12
341.158	133.12
341.386	145.12
341.614	140.12
341.842	144.12
342.07	134.12
342.298	153.12
342.526	144.12
342.754	135.12
342.981	144.12
343.209	139.12
343.437	158.12
343.665	158.12
343.893	148.12
344.12	155.12
344.348	162.12
344.576	136.12
344.804	153.12
345.031	133.12
345.259	157.12
345.487	143.12
345.714	146.12
345.942	149.12
346.17	141.12
346.397	136.12
346.625	148.12
346.853	128.12
347.08	132.12
347.308	154.12
347.535	147.12
347.763	132.12
347.99	159.12
348.218	157.12
348.445	125.12
348.673	140.12
348.9	144.12
349.128	141.12
349.355	123.12
349.583	134.12
349.81	125.12
350.037	123.12
350.265	139.12
350.492	127.12
350.72	138.12
350.947	142.12
351.174	137.12
351.402	132.12
351.629	132.12
351.856	131.12
352.083	136.12
352.311	137.12
352.538	129.12
352.765	126.12
352.992	156.12
353.22	134.12
353.447	131.12
353.674	138.12
353.901	144.12
354.128	142.12
354.355	132.12
354.583	134.12
354.81	137.12
355.037	143.12
355.264	142.12
355.491	146.12
355.718	140.12
355.945	138.12
356.172	137.12
356.399	127.12
356.626	127.12
356.853	133.12
357.08	151.12
357.307	139.12
357.534	134.12
357.761	145.12
357.988	137.12
358.215	141.12
358.441	134.12
358.668	129.12
358.895	129.12
359.122	124.12
359.349	147.12
359.576	128.12
359.802	142.12
360.029	145.12
360.256	125.12
360.483	142.12
360.709	125.12
360.936	145.12
361.163	140.12
361.39	146.12
361.616	133.12
361.843	118.12
362.07	151.12
362.296	149.12
362.523	145.12
362.749	138.12
362.976	130.12
363.203	132.12
363.429	134.12
363.656	148.12
363.882	144.12
364.109	147.12
364.335	144.12
364.562	149.12
364.788	131.12
365.015	140.12
365.241	135.12
365.468	137.12
365.694	133.12
365.92	152.12
366.147	150.12
366.373	142.12
366.599	137.12
366.826	133.12
367.052	139.12
367.278	147.12
367.505	142.12
367.731	152.12
367.957	133.12
368.184	137.12
368.41	146.12
368.636	147.12
368.862	140.12
369.089	132.12
369.315	122.12
369.541	141.12
369.767	123.12
369.993	142.12
370.219	140.12
370.445	118.12
370.672	131.12
370.898	144.12
371.124	131.12
371.35	138.12
371.576	130.12
371.802	123.12
372.028	135.12
372.254	135.12
372.48	140.12
372.706	133.12
372.932	154.12
373.158	138.12
373.384	136.12
373.61	154.12
373.835	127.12
374.061	128.12
374.287	134.12
374.513	149.12
374.739	149.12
374.965	166.12
375.191	154.12
375.416	148.12
375.642	148.12
375.868	152.12
376.094	140.12
376.319	133.12
376.545	127.12
376.771	129.12
376.997	155.12
377.222	150.12
377.448	145.12
377.674	145.12
377.899	138.12
378.125	133.12
378.35	147.12
378.576	140.12
378.802	137.12
379.027	134.12
379.253	151.12
379.478	124.12
379.704	139.12
379.929	135.12
380.155	153.12
380.38	141.12
380.606	148.12
380.831	138.12
381.057	155.12
381.282	153.12
381.507	146.12
381.733	153.12
381.958	141.12
382.184	152.12
382.409	149.12
382.634	148.12
382.86	161.12
383.085	165.12
383.31	146.12
383.535	149.12
383.761	145.12
383.986	157.12
384.211	157.12
384.436	152.12
384.662	150.12
384.887	131.12
385.112	165.12
385.337	134.12
385.562	149.12
385.787	160.12
386.013	162.12
386.238	153.12
386.463	166.12
386.688	201.12
386.913	157.12
387.138	158.12
387.363	148.12
387.588	145.12
387.813	171.12
388.038	153.12
388.263	159.12
388.488	163.12
388.713	145.12
388.938	140.12
389.163	143.12
389.387	162.12
389.612	165.12
389.837	162.12
390.062	152.12
390.287	147.12
390.512	155.12
390.736	127.12
390.961	145.12
391.186	152.12
391.411	149.12
391.636	166.12
391.86	170.12
392.085	163.12
392.31	164.12
392.534	157.12
392.759	177.12
392.984	164.12
393.208	168.12
393.433	164.12
393.658	155.12
393.882	163.12
394.107	177.12
394.331	167.12
394.556	152.12
394.78	163.12
395.005	155.12
395.229	168.12
395.454	165.12
395.678	151.12
395.903	184.12
396.127	173.12
396.352	165.12
396.576	148.12
396.801	166.12
397.025	171.12
397.249	156.12
397.474	185.12
397.698	169.12
397.922	172.12
398.147	181.12
398.371	158.12
398.595	169.12
398.82	168.12
399.044	196.12
399.268	212.12
399.492	233.12
399.717	224.12
399.941	239.12
400.165	210.12
400.389	199.12
400.613	159.12
400.837	180.12
401.062	166.12
401.286	172.12
401.51	166.12
401.734	173.12
401.958	174.12
402.182	185.12
402.406	181.12
402.63	173.12
402.854	190.12
403.078	186.12
403.302	178.12
403.526	194.12
403.75	189.12
403.974	200.12
404.198	203.12
404.422	209.12
404.645	196.12
404.869	187.12
405.093	187.12
405.317	195.12
405.541	182.12
405.765	185.12
405.988	192.12
406.212	188.12
406.436	189.12
406.66	201.12
406.883	209.12
407.107	205.12
407.331	207.12
407.555	201.12
407.778	200.12
408.002	195.12
408.226	200.12
408.449	170.12
408.673	178.12
408.896	178.12
409.12	191.12
409.344	193.12
409.567	201.12
409.791	173.12
410.014	180.12
410.238	187.12
410.461	173.12
410.685	195.12
410.908	189.12
411.132	189.12
411.355	179.12
411.578	181.12
411.802	182.12
412.025	197.12
412.249	185.12
412.472	171.12
412.695	170.12
412.919	189.12
413.142	181.12
413.365	165.12
413.589	182.12
413.812	174.12
414.035	191.12
414.258	170.12
414.482	174.12
414.705	192.12
414.928	179.12
415.151	174.12
415.374	183.12
415.597	171.12
415.821	172.12
416.044	165.12
416.267	182.12
416.49	182.12
416.713	169.12
416.936	181.12
417.159	172.12
417.382	174.12
417.605	189.12
417.828	185.12
418.051	180.12
418.274	177.12
418.497	178.12
418.72	178.12
418.943	188.12
419.166	193.12
419.389	198.12
419.611	185.12
419.834	179.12
420.057	175.12
420.28	168.12
420.503	188.12
420.726	173.12
420.948	185.12
421.171	194.12
421.394	183.12
421.617	188.12
421.839	183.12
422.062	184.12
422.285	184.12
422.507	193.12
422.73	172.12
422.953	189.12
423.175	194.12
423.398	184.12
423.621	196.12
423.843	184.12
424.066	188.12
424.288	190.12
424.511	188.12
424.733	188.12
424.956	186.12
425.178	173.12
425.401	174.12
425.623	184.12
425.846	176.12
426.068	188.12
426.291	181.12
426.513	177.12
426.735	190.12
426.958	167.12
427.18	167.12
427.402	169.12
427.625	164.12
427.847	168.12
428.069	170.12
428.292	169.12
428.514	173.12
428.736	157.12
428.958	169.12
429.181	181.12
429.403	168.12
429.625	165.12
429.847	164.12
430.069	171.12
430.292	177.12
430.514	154.12
430.736	166.12
430.958	166.12
431.18	170.12
431.402	160.12
431.624	152.12
431.846	154.12
432.068	158.12
432.29	154.12
432.512	170.12
432.734	174.12
432.956	162.12
433.178	176.12
433.4	170.12
433.622	162.12
433.844	168.12
434.066	159.12
434.287	159.12
434.509	189.12
434.731	164.12
434.953	162.12
435.175	174.12
435.397	172.12
435.618	179.12
435.84	173.12
436.062	180.12
436.284	166.12
436.505	162.12
436.727	182.12
436.949	157.12
437.17	166.12
437.392	155.12
437.614	166.12
437.835	164.12
438.057	177.12
438.278	163.12
438.5	166.12
438.721	166.12
438.943	156.12
439.165	173.12
439.386	150.12
439.608	176.12
439.829	160.12
440.05	174.12
440.272	178.12
440.493	171.12
440.715	168.12
440.936	172.12
441.158	192.12
441.379	164.12
441.6	181.12
441.822	188.12
442.043	188.12
442.264	164.12
442.486	190.12
442.707	174.12
442.928	194.12
443.149	172.12
443.371	191.12
443.592	189.12
443.813	185.12
444.034	187.12
444.255	183.12
444.476	206.12
444.698	196.12
444.919	189.12
445.14	463.12
445.361	320.12
445.582	200.12
445.803	184.12
446.024	178.12
446.245	177.12
446.466	185.12
446.687	169.12
446.908	159.12
447.129	173.12
447.35	165.12
447.571	173.12
447.792	176.12
448.013	149.12
448.234	163.12
448.455	149.12
448.675	161.12
448.896	147.12
449.117	150.12
449.338	158.12
449.559	163.12
449.779	158.12
450	172.12
450.221	186.12
450.442	169.12
450.662	169.12
450.883	152.12
451.104	167.12
451.324	164.12
451.545	157.12
451.766	144.12
451.986	165.12
452.207	153.12
452.428	158.12
452.648	171.12
452.869	162.12
453.089	146.12
453.31	148.12
453.53	160.12
453.751	153.12
453.971	152.12
454.192	166.12
454.412	160.12
454.633	154.12
454.853	151.12
455.073	174.12
455.294	159.12
455.514	161.12
455.734	140.12
455.955	172.12
456.175	148.12
456.395	146.12
456.616	162.12
456.836	149.12
457.056	163.12
457.276	160.12
457.497	149.12
457.717	152.12
457.937	154.12
458.157	149.12
458.377	154.12
458.598	157.12
458.818	167.12
459.038	157.12
459.258	173.12
459.478	168.12
459.698	172.12
459.918	175.12
460.138	159.12
460.358	189.12
460.578	196.12
460.798	189.12
461.018	192.12
461.238	201.12
461.458	197.12
461.678	196.12
461.898	203.12
462.118	205.12
462.338	202.12
462.558	193.12
462.777	207.12
462.997	219.12
463.217	227.12
463.437	212.12
463.657	220.12
463.876	196.12
464.096	199.12
464.316	195.12
464.536	182.12
464.755	192.12
464.975	193.12
465.195	198.12
465.414	181.12
465.634	178.12
465.854	185.12
466.073	178.12
466.293	173.12
466.512	172.12
466.732	161.12
466.951	162.12
467.171	183.12
467.391	170.12
467.61	165.12
467.829	172.12
468.049	148.12
468.268	138.12
468.488	161.12
468.707	167.12
468.927	169.12
469.146	156.12
469.365	154.12
469.585	170.12
469.804	181.12
470.023	182.12
470.243	172.12
470.462	172.12
470.681	171.12
470.901	181.12
471.12	163.12
471.339	174.12
471.558	153.12
471.777	145.12
471.997	166.12
472.216	156.12
472.435	168.12
472.654	159.12
472.873	180.12
473.092	168.12
473.311	157.12
473.53	154.12
473.749	149.12
473.968	175.12
474.187	151.12
474.406	156.12
474.625	166.12
474.844	168.12
475.063	151.12
475.282	139.12
475.501	164.12
475.72	172.12
475.939	162.12
476.158	163.12
476.377	178.12
476.596	160.12
476.814	180.12
477.033	168.12
477.252	167.12
477.471	152.12
477.69	184.12
477.908	184.12
478.127	183.12
478.346	181.12
478.564	171.12
478.783	173.12
479.002	174.12
479.22	181.12
479.439	186.12
479.658	175.12
479.876	173.12
480.095	177.12
480.313	176.12
480.532	179.12
480.751	191.12
480.969	181.12
481.188	184.12
481.406	186.12
481.624	173.12
481.843	186.12
482.061	173.12
482.28	177.12
482.498	188.12
482.717	169.12
482.935	167.12
483.153	157.12
483.372	171.12
483.59	178.12
483.808	182.12
484.027	171.12
484.245	172.12
484.463	175.12
484.681	194.12
484.9	158.12
485.118	185.12
485.336	176.12
485.554	177.12
485.772	164.12
485.99	173.12
486.209	178.12
486.427	180.12
486.645	177.12
486.863	164.12
487.081	197.12
487.299	189.12
487.517	184.12
487.735	178.12
487.953	187.12
488.171	180.12
488.389	194.12
488.607	175.12
488.825	160.12
489.043	178.12
489.261	182.12
489.479	174.12
489.696	180.12
489.914	186.12
490.132	172.12
490.35	182.12
490.568	180.12
490.786	184.12
491.003	183.12
491.221	198.12
491.439	176.12
491.657	190.12
491.874	196.12
492.092	200.12
492.31	193.12
492.527	200.12
492.745	174.12
492.963	182.12
493.18	183.12
493.398	165.12
493.615	185.12
493.833	193.12
494.05	184.12
494.268	194.12
494.485	205.12
494.703	195.12
494.92	192.12
495.138	189.12
495.355	184.12
495.573	197.12
495.79	197.12
496.008	181.12
496.225	191.12
496.442	210.12
496.66	216.12
496.877	192.12
497.094	214.12
497.312	195.12
497.529	201.12
497.746	200.12
497.963	214.12
498.181	218.12
498.398	229.12
498.615	230.12
498.832	235.12
499.049	265.12
499.267	257.12
499.484	268.12
499.701	310.12
499.918	327.12
500.135	344.12
500.352	404.12
500.569	405.12
500.786	393.12
501.003	396.12
501.22	330.12
501.437	304.12
501.654	283.12
501.871	253.12
502.088	249.12
502.305	237.12
502.522	224.12
502.739	233.12
502.956	221.12
503.172	214.12
503.389	211.12
503.606	197.12
503.823	197.12
504.04	187.12
504.256	197.12
