Data from SampD_HRD10591_00083.txt Node
Date: Mon Jan 19 11:41:49 EST 2026
User: Yrep
Spectrometer: HR+D1059
Trigger mode: 0
Integration Time (sec): 3.443000E-1
Scans to average: 1
Electric dark correction enabled: true
Nonlinearity correction enabled: false
Boxcar width: 0
XAxis mode: Wavelengths
Number of Pixels in Spectrum: 2048
>>>>>Begin Spectral Data<<<<<
223.165	-30.94
223.4	-30.94
223.635	-30.94
223.869	-27.94
224.104	-15.94
224.338	-11.94
224.573	-36.94
224.808	-19.94
225.042	-1.94
225.277	5.06
225.511	8.06
225.746	10.06
225.98	0.06
226.215	19.06
226.449	11.06
226.683	21.06
226.918	25.06
227.152	46.06
227.387	44.06
227.621	41.06
227.856	38.06
228.09	49.06
228.324	49.06
228.559	50.06
228.793	61.06
229.027	65.06
229.262	64.06
229.496	85.06
229.73	87.06
229.964	96.06
230.199	97.06
230.433	93.06
230.667	82.06
230.901	100.06
231.136	92.06
231.37	93.06
231.604	77.06
231.838	83.06
232.072	97.06
232.306	89.06
232.541	79.06
232.775	85.06
233.009	79.06
233.243	87.06
233.477	96.06
233.711	92.06
233.945	88.06
234.179	97.06
234.413	103.06
234.647	88.06
234.881	88.06
235.115	98.06
235.349	85.06
235.583	92.06
235.817	91.06
236.051	88.06
236.285	86.06
236.519	87.06
236.753	94.06
236.987	95.06
237.221	83.06
237.455	83.06
237.689	89.06
237.922	96.06
238.156	88.06
238.39	104.06
238.624	96.06
238.858	84.06
239.091	72.06
239.325	83.06
239.559	90.06
239.793	89.06
240.027	96.06
240.26	94.06
240.494	80.06
240.728	91.06
240.961	77.06
241.195	89.06
241.429	88.06
241.662	86.06
241.896	91.06
242.13	83.06
242.363	81.06
242.597	87.06
242.83	105.06
243.064	104.06
243.298	106.06
243.531	96.06
243.765	84.06
243.998	82.06
244.232	103.06
244.465	102.06
244.699	100.06
244.932	104.06
245.166	95.06
245.399	106.06
245.633	102.06
245.866	90.06
246.099	88.06
246.333	92.06
246.566	101.06
246.8	117.06
247.033	82.06
247.266	81.06
247.5	95.06
247.733	87.06
247.966	88.06
248.2	102.06
248.433	105.06
248.666	109.06
248.899	105.06
249.133	102.06
249.366	111.06
249.599	103.06
249.832	111.06
250.066	102.06
250.299	102.06
250.532	91.06
250.765	108.06
250.998	90.06
251.231	105.06
251.465	107.06
251.698	95.06
251.931	102.06
252.164	88.06
252.397	103.06
252.63	97.06
252.863	87.06
253.096	108.06
253.329	118.06
253.562	108.06
253.795	96.06
254.028	104.06
254.261	94.06
254.494	95.06
254.727	97.06
254.96	115.06
255.193	117.06
255.426	102.06
255.659	100.06
255.892	119.06
256.124	105.06
256.357	100.06
256.59	118.06
256.823	114.06
257.056	106.06
257.289	108.06
257.521	100.06
257.754	111.06
257.987	111.06
258.22	118.06
258.452	113.06
258.685	123.06
258.918	98.06
259.151	96.06
259.383	117.06
259.616	114.06
259.849	105.06
260.081	119.06
260.314	105.06
260.547	123.06
260.779	110.06
261.012	115.06
261.244	126.06
261.477	120.06
261.71	115.06
261.942	118.06
262.175	113.06
262.407	118.06
262.64	122.06
262.872	106.06
263.105	107.06
263.337	115.06
263.57	130.06
263.802	136.06
264.035	117.06
264.267	99.06
264.499	126.06
264.732	109.06
264.964	110.06
265.197	116.06
265.429	130.06
265.661	114.06
265.894	117.06
266.126	116.06
266.358	118.06
266.591	135.06
266.823	94.06
267.055	110.06
267.287	125.06
267.52	125.06
267.752	117.06
267.984	128.06
268.216	126.06
268.448	115.06
268.681	120.06
268.913	120.06
269.145	125.06
269.377	110.06
269.609	126.06
269.841	120.06
270.073	118.06
270.306	114.06
270.538	122.06
270.77	115.06
271.002	122.06
271.234	135.06
271.466	113.06
271.698	136.06
271.93	121.06
272.162	135.06
272.394	124.06
272.626	120.06
272.858	110.06
273.09	124.06
273.322	114.06
273.553	127.06
273.785	132.06
274.017	109.06
274.249	130.06
274.481	136.06
274.713	113.06
274.945	134.06
275.176	125.06
275.408	124.06
275.64	126.06
275.872	136.06
276.104	147.06
276.335	124.06
276.567	119.06
276.799	131.06
277.031	125.06
277.262	136.06
277.494	149.06
277.726	133.06
277.957	129.06
278.189	130.06
278.421	129.06
278.652	120.06
278.884	132.06
279.115	133.06
279.347	138.06
279.579	130.06
279.81	149.06
280.042	136.06
280.273	124.06
280.505	123.06
280.736	141.06
280.968	147.06
281.199	143.06
281.431	133.06
281.662	128.06
281.894	140.06
282.125	129.06
282.356	134.06
282.588	143.06
282.819	130.06
283.051	132.06
283.282	139.06
283.513	143.06
283.745	147.06
283.976	140.06
284.207	127.06
284.439	148.06
284.67	142.06
284.901	133.06
285.132	142.06
285.364	142.06
285.595	146.06
285.826	147.06
286.057	147.06
286.288	156.06
286.52	157.06
286.751	143.06
286.982	146.06
287.213	131.06
287.444	145.06
287.675	148.06
287.906	143.06
288.138	142.06
288.369	147.06
288.6	159.06
288.831	140.06
289.062	157.06
289.293	147.06
289.524	139.06
289.755	153.06
289.986	141.06
290.217	146.06
290.448	140.06
290.679	131.06
290.91	144.06
291.141	137.06
291.371	168.06
291.602	148.06
291.833	157.06
292.064	141.06
292.295	146.06
292.526	143.06
292.757	155.06
292.987	137.06
293.218	134.06
293.449	143.06
293.68	139.06
293.91	160.06
294.141	149.06
294.372	155.06
294.603	153.06
294.833	139.06
295.064	161.06
295.295	144.06
295.525	144.06
295.756	169.06
295.987	148.06
296.217	125.06
296.448	147.06
296.679	156.06
296.909	158.06
297.14	148.06
297.37	144.06
297.601	157.06
297.831	153.06
298.062	148.06
298.292	148.06
298.523	172.06
298.753	155.06
298.984	144.06
299.214	156.06
299.445	164.06
299.675	145.06
299.905	163.06
300.136	156.06
300.366	162.06
300.597	160.06
300.827	165.06
301.057	164.06
301.288	157.06
301.518	169.06
301.748	172.06
301.979	196.06
302.209	166.06
302.439	165.06
302.669	162.06
302.9	170.06
303.13	179.06
303.36	169.06
303.59	162.06
303.82	160.06
304.051	175.06
304.281	161.06
304.511	171.06
304.741	159.06
304.971	162.06
305.201	151.06
305.431	152.06
305.661	148.06
305.891	162.06
306.121	151.06
306.352	161.06
306.582	176.06
306.812	167.06
307.042	151.06
307.272	161.06
307.502	152.06
307.731	159.06
307.961	171.06
308.191	159.06
308.421	154.06
308.651	161.06
308.881	161.06
309.111	163.06
309.341	167.06
309.571	163.06
309.8	172.06
310.03	166.06
310.26	151.06
310.49	155.06
310.72	177.06
310.949	165.06
311.179	155.06
311.409	149.06
311.639	157.06
311.868	161.06
312.098	162.06
312.328	181.06
312.557	177.06
312.787	151.06
313.017	160.06
313.246	160.06
313.476	165.06
313.706	166.06
313.935	161.06
314.165	159.06
314.394	163.06
314.624	162.06
314.853	174.06
315.083	170.06
315.312	158.06
315.542	163.06
315.771	161.06
316.001	155.06
316.23	177.06
316.46	172.06
316.689	177.06
316.919	166.06
317.148	159.06
317.377	156.06
317.607	171.06
317.836	153.06
318.065	169.06
318.295	174.06
318.524	163.06
318.753	168.06
318.983	165.06
319.212	175.06
319.441	173.06
319.67	182.06
319.9	170.06
320.129	164.06
320.358	163.06
320.587	179.06
320.816	147.06
321.046	163.06
321.275	162.06
321.504	153.06
321.733	179.06
321.962	167.06
322.191	168.06
322.42	167.06
322.649	169.06
322.878	172.06
323.108	183.06
323.337	175.06
323.566	166.06
323.795	165.06
324.024	166.06
324.253	167.06
324.482	171.06
324.71	175.06
324.939	181.06
325.168	183.06
325.397	161.06
325.626	178.06
325.855	165.06
326.084	172.06
326.313	179.06
326.542	165.06
326.77	184.06
326.999	193.06
327.228	184.06
327.457	160.06
327.686	172.06
327.914	182.06
328.143	192.06
328.372	183.06
328.6	182.06
328.829	180.06
329.058	180.06
329.287	188.06
329.515	197.06
329.744	182.06
329.972	171.06
330.201	179.06
330.43	178.06
330.658	180.06
330.887	187.06
331.115	166.06
331.344	163.06
331.572	205.06
331.801	188.06
332.03	196.06
332.258	215.06
332.486	204.06
332.715	209.06
332.943	211.06
333.172	213.06
333.4	221.06
333.629	218.06
333.857	213.06
334.085	220.06
334.314	215.06
334.542	216.06
334.771	200.06
334.999	186.06
335.227	192.06
335.455	193.06
335.684	203.06
335.912	203.06
336.14	200.06
336.369	193.06
336.597	214.06
336.825	212.06
337.053	208.06
337.281	201.06
337.51	195.06
337.738	188.06
337.966	188.06
338.194	190.06
338.422	182.06
338.65	189.06
338.878	192.06
339.106	180.06
339.334	201.06
339.562	174.06
339.79	179.06
340.018	184.06
340.246	200.06
340.474	174.06
340.702	191.06
340.93	189.06
341.158	192.06
341.386	186.06
341.614	178.06
341.842	184.06
342.07	188.06
342.298	179.06
342.526	185.06
342.754	176.06
342.981	198.06
343.209	193.06
343.437	232.06
343.665	205.06
343.893	212.06
344.12	228.06
344.348	209.06
344.576	195.06
344.804	186.06
345.031	203.06
345.259	184.06
345.487	191.06
345.714	181.06
345.942	179.06
346.17	181.06
346.397	179.06
346.625	181.06
346.853	186.06
347.08	169.06
347.308	184.06
347.535	184.06
347.763	173.06
347.99	184.06
348.218	198.06
348.445	163.06
348.673	180.06
348.9	176.06
349.128	173.06
349.355	183.06
349.583	180.06
349.81	191.06
350.037	192.06
350.265	186.06
350.492	182.06
350.72	181.06
350.947	168.06
351.174	178.06
351.402	170.06
351.629	175.06
351.856	177.06
352.083	175.06
352.311	181.06
352.538	177.06
352.765	184.06
352.992	200.06
353.22	175.06
353.447	174.06
353.674	178.06
353.901	184.06
354.128	180.06
354.355	199.06
354.583	177.06
354.81	176.06
355.037	182.06
355.264	175.06
355.491	172.06
355.718	165.06
355.945	190.06
356.172	184.06
356.399	174.06
356.626	178.06
356.853	173.06
357.08	167.06
357.307	189.06
357.534	169.06
357.761	188.06
357.988	190.06
358.215	190.06
358.441	185.06
358.668	170.06
358.895	177.06
359.122	205.06
359.349	184.06
359.576	195.06
359.802	153.06
360.029	159.06
360.256	173.06
360.483	191.06
360.709	182.06
360.936	216.06
361.163	175.06
361.39	179.06
361.616	177.06
361.843	165.06
362.07	179.06
362.296	187.06
362.523	176.06
362.749	168.06
362.976	174.06
363.203	182.06
363.429	177.06
363.656	177.06
363.882	183.06
364.109	179.06
364.335	183.06
364.562	190.06
364.788	177.06
365.015	182.06
365.241	179.06
365.468	178.06
365.694	172.06
365.92	192.06
366.147	189.06
366.373	172.06
366.599	174.06
366.826	171.06
367.052	184.06
367.278	192.06
367.505	167.06
367.731	196.06
367.957	181.06
368.184	187.06
368.41	171.06
368.636	176.06
368.862	189.06
369.089	162.06
369.315	176.06
369.541	169.06
369.767	181.06
369.993	189.06
370.219	191.06
370.445	187.06
370.672	188.06
370.898	175.06
371.124	183.06
371.35	200.06
371.576	175.06
371.802	176.06
372.028	169.06
372.254	183.06
372.48	194.06
372.706	184.06
372.932	187.06
373.158	187.06
373.384	215.06
373.61	191.06
373.835	175.06
374.061	176.06
374.287	179.06
374.513	189.06
374.739	188.06
374.965	223.06
375.191	207.06
375.416	204.06
375.642	196.06
375.868	195.06
376.094	198.06
376.319	195.06
376.545	184.06
376.771	192.06
376.997	191.06
377.222	172.06
377.448	192.06
377.674	199.06
377.899	203.06
378.125	187.06
378.35	182.06
378.576	199.06
378.802	186.06
379.027	199.06
379.253	193.06
379.478	181.06
379.704	191.06
379.929	190.06
380.155	190.06
380.38	183.06
380.606	180.06
380.831	196.06
381.057	218.06
381.282	189.06
381.507	197.06
381.733	193.06
381.958	183.06
382.184	181.06
382.409	185.06
382.634	200.06
382.86	193.06
383.085	210.06
383.31	202.06
383.535	194.06
383.761	205.06
383.986	209.06
384.211	211.06
384.436	219.06
384.662	201.06
384.887	207.06
385.112	216.06
385.337	231.06
385.562	205.06
385.787	203.06
386.013	210.06
386.238	224.06
386.463	248.06
386.688	245.06
386.913	196.06
387.138	211.06
387.363	205.06
387.588	216.06
387.813	224.06
388.038	207.06
388.263	225.06
388.488	214.06
388.713	212.06
388.938	207.06
389.163	221.06
389.387	228.06
389.612	221.06
389.837	223.06
390.062	210.06
390.287	195.06
390.512	199.06
390.736	212.06
390.961	221.06
391.186	227.06
391.411	228.06
391.636	222.06
391.86	229.06
392.085	230.06
392.31	232.06
392.534	226.06
392.759	230.06
392.984	231.06
393.208	215.06
393.433	223.06
393.658	222.06
393.882	222.06
394.107	215.06
394.331	210.06
394.556	217.06
394.78	222.06
395.005	232.06
395.229	228.06
395.454	236.06
395.678	221.06
395.903	233.06
396.127	220.06
396.352	229.06
396.576	219.06
396.801	207.06
397.025	217.06
397.249	236.06
397.474	232.06
397.698	225.06
397.922	224.06
398.147	230.06
398.371	233.06
398.595	242.06
398.82	272.06
399.044	282.06
399.268	309.06
399.492	339.06
399.717	357.06
399.941	317.06
400.165	301.06
400.389	265.06
400.613	260.06
400.837	279.06
401.062	246.06
401.286	260.06
401.51	241.06
401.734	229.06
401.958	259.06
402.182	271.06
402.406	260.06
402.63	277.06
402.854	273.06
403.078	254.06
403.302	287.06
403.526	275.06
403.75	286.06
403.974	287.06
404.198	297.06
404.422	289.06
404.645	288.06
404.869	280.06
405.093	269.06
405.317	262.06
405.541	268.06
405.765	270.06
405.988	263.06
406.212	267.06
406.436	273.06
406.66	250.06
406.883	270.06
407.107	286.06
407.331	296.06
407.555	312.06
407.778	308.06
408.002	289.06
408.226	308.06
408.449	287.06
408.673	287.06
408.896	286.06
409.12	271.06
409.344	289.06
409.567	272.06
409.791	282.06
410.014	281.06
410.238	277.06
410.461	265.06
410.685	286.06
410.908	252.06
411.132	259.06
411.355	259.06
411.578	270.06
411.802	241.06
412.025	249.06
412.249	269.06
412.472	256.06
412.695	240.06
412.919	253.06
413.142	251.06
413.365	263.06
413.589	263.06
413.812	238.06
414.035	247.06
414.258	250.06
414.482	248.06
414.705	265.06
414.928	255.06
415.151	257.06
415.374	260.06
415.597	268.06
415.821	255.06
416.044	249.06
416.267	255.06
416.49	259.06
416.713	248.06
416.936	268.06
417.159	237.06
417.382	241.06
417.605	253.06
417.828	244.06
418.051	267.06
418.274	255.06
418.497	252.06
418.72	270.06
418.943	254.06
419.166	261.06
419.389	281.06
419.611	254.06
419.834	256.06
420.057	258.06
420.28	242.06
420.503	258.06
420.726	251.06
420.948	243.06
421.171	252.06
421.394	275.06
421.617	255.06
421.839	241.06
422.062	246.06
422.285	245.06
422.507	264.06
422.73	237.06
422.953	247.06
423.175	262.06
423.398	253.06
423.621	269.06
423.843	263.06
424.066	273.06
424.288	264.06
424.511	262.06
424.733	263.06
424.956	261.06
425.178	269.06
425.401	247.06
425.623	246.06
425.846	239.06
426.068	257.06
426.291	254.06
426.513	225.06
426.735	248.06
426.958	234.06
427.18	227.06
427.402	238.06
427.625	227.06
427.847	233.06
428.069	225.06
428.292	222.06
428.514	216.06
428.736	226.06
428.958	227.06
429.181	232.06
429.403	221.06
429.625	205.06
429.847	227.06
430.069	219.06
430.292	237.06
430.514	246.06
430.736	236.06
430.958	215.06
431.18	244.06
431.402	233.06
431.624	219.06
431.846	233.06
432.068	248.06
432.29	230.06
432.512	247.06
432.734	237.06
432.956	232.06
433.178	243.06
433.4	251.06
433.622	242.06
433.844	244.06
434.066	242.06
434.287	241.06
434.509	250.06
434.731	250.06
434.953	260.06
435.175	252.06
435.397	257.06
435.618	229.06
435.84	221.06
436.062	230.06
436.284	235.06
436.505	241.06
436.727	238.06
436.949	222.06
437.17	245.06
437.392	224.06
437.614	223.06
437.835	243.06
438.057	228.06
438.278	221.06
438.5	215.06
438.721	224.06
438.943	233.06
439.165	231.06
439.386	235.06
439.608	257.06
439.829	233.06
440.05	230.06
440.272	236.06
440.493	241.06
440.715	227.06
440.936	231.06
441.158	247.06
441.379	251.06
441.6	263.06
441.822	256.06
442.043	251.06
442.264	248.06
442.486	244.06
442.707	248.06
442.928	243.06
443.149	248.06
443.371	264.06
443.592	257.06
443.813	247.06
444.034	258.06
444.255	280.06
444.476	271.06
444.698	298.06
444.919	295.06
445.14	537.06
445.361	384.06
445.582	255.06
445.803	242.06
446.024	231.06
446.245	264.06
446.466	251.06
446.687	224.06
446.908	240.06
447.129	233.06
447.35	232.06
447.571	234.06
447.792	225.06
448.013	223.06
448.234	220.06
448.455	217.06
448.675	209.06
448.896	214.06
449.117	220.06
449.338	215.06
449.559	216.06
449.779	219.06
450	222.06
450.221	211.06
450.442	223.06
450.662	216.06
450.883	220.06
451.104	225.06
451.324	204.06
451.545	204.06
451.766	214.06
451.986	214.06
452.207	214.06
452.428	238.06
452.648	232.06
452.869	206.06
453.089	201.06
453.31	204.06
453.53	232.06
453.751	218.06
453.971	240.06
454.192	212.06
454.412	197.06
454.633	201.06
454.853	201.06
455.073	210.06
455.294	205.06
455.514	205.06
455.734	209.06
455.955	203.06
456.175	208.06
456.395	211.06
456.616	205.06
456.836	192.06
457.056	211.06
457.276	191.06
457.497	208.06
457.717	214.06
457.937	203.06
458.157	205.06
458.377	210.06
458.598	216.06
458.818	224.06
459.038	204.06
459.258	228.06
459.478	231.06
459.698	224.06
459.918	253.06
460.138	260.06
460.358	256.06
460.578	274.06
460.798	269.06
461.018	257.06
461.238	269.06
461.458	277.06
461.678	261.06
461.898	273.06
462.118	261.06
462.338	287.06
462.558	280.06
462.777	297.06
462.997	321.06
463.217	319.06
463.437	336.06
463.657	294.06
463.876	305.06
464.096	302.06
464.316	283.06
464.536	293.06
464.755	276.06
464.975	264.06
465.195	251.06
465.414	256.06
465.634	240.06
465.854	223.06
466.073	237.06
466.293	233.06
466.512	245.06
466.732	237.06
466.951	239.06
467.171	224.06
467.391	225.06
467.61	215.06
467.829	222.06
468.049	232.06
468.268	220.06
468.488	213.06
468.707	230.06
468.927	201.06
469.146	231.06
469.365	225.06
469.585	241.06
469.804	221.06
470.023	228.06
470.243	251.06
470.462	228.06
470.681	221.06
470.901	224.06
471.12	219.06
471.339	231.06
471.558	215.06
471.777	211.06
471.997	227.06
472.216	227.06
472.435	219.06
472.654	208.06
472.873	222.06
473.092	222.06
473.311	209.06
473.53	214.06
473.749	213.06
473.968	236.06
474.187	226.06
474.406	214.06
474.625	227.06
474.844	225.06
475.063	214.06
475.282	227.06
475.501	205.06
475.72	231.06
475.939	232.06
476.158	216.06
476.377	220.06
476.596	226.06
476.814	237.06
477.033	227.06
477.252	215.06
477.471	213.06
477.69	235.06
477.908	233.06
478.127	247.06
478.346	230.06
478.564	235.06
478.783	241.06
479.002	265.06
479.22	235.06
479.439	263.06
479.658	256.06
479.876	255.06
480.095	264.06
480.313	249.06
480.532	280.06
480.751	277.06
480.969	271.06
481.188	255.06
481.406	238.06
481.624	243.06
481.843	243.06
482.061	241.06
482.28	252.06
482.498	232.06
482.717	243.06
482.935	234.06
483.153	248.06
483.372	243.06
483.59	244.06
483.808	231.06
484.027	234.06
484.245	232.06
484.463	247.06
484.681	252.06
484.9	247.06
485.118	248.06
485.336	238.06
485.554	237.06
485.772	264.06
485.99	256.06
486.209	250.06
486.427	255.06
486.645	241.06
486.863	244.06
487.081	260.06
487.299	251.06
487.517	263.06
487.735	260.06
487.953	267.06
488.171	260.06
488.389	239.06
488.607	236.06
488.825	241.06
489.043	245.06
489.261	256.06
489.479	233.06
489.696	246.06
489.914	243.06
490.132	249.06
490.35	250.06
490.568	254.06
490.786	264.06
491.003	251.06
491.221	253.06
491.439	261.06
491.657	254.06
491.874	244.06
492.092	271.06
492.31	265.06
492.527	269.06
492.745	263.06
492.963	243.06
493.18	268.06
493.398	256.06
493.615	269.06
493.833	233.06
494.05	242.06
494.268	262.06
494.485	263.06
494.703	243.06
494.92	256.06
495.138	253.06
495.355	252.06
495.573	264.06
495.79	255.06
496.008	243.06
496.225	271.06
496.442	261.06
496.66	271.06
496.877	263.06
497.094	293.06
497.312	287.06
497.529	284.06
497.746	281.06
497.963	285.06
498.181	291.06
498.398	313.06
498.615	320.06
498.832	334.06
499.049	371.06
499.267	380.06
499.484	413.06
499.701	479.06
499.918	526.06
500.135	589.06
500.352	629.06
500.569	650.06
500.786	631.06
501.003	573.06
501.22	521.06
501.437	450.06
501.654	429.06
501.871	403.06
502.088	355.06
502.305	363.06
502.522	334.06
502.739	319.06
502.956	312.06
503.172	293.06
503.389	295.06
503.606	300.06
503.823	292.06
