Data from SampD_HRD10591_00065.txt Node
Date: Mon Jan 19 11:41:43 EST 2026
User: Yrep
Spectrometer: HR+D1059
Trigger mode: 0
Integration Time (sec): 3.443000E-1
Scans to average: 1
Electric dark correction enabled: true
Nonlinearity correction enabled: false
Boxcar width: 0
XAxis mode: Wavelengths
Number of Pixels in Spectrum: 2048
>>>>>Begin Spectral Data<<<<<
223.165	-25.44
223.4	-25.44
223.635	-25.44
223.869	-27.44
224.104	-20.44
224.338	-15.44
224.573	-17.44
224.808	-15.44
225.042	-11.44
225.277	-8.44
225.511	-0.44
225.746	7.56
225.98	14.56
226.215	13.56
226.449	22.56
226.683	21.56
226.918	12.56
227.152	49.56
227.387	40.56
227.621	40.56
227.856	38.56
228.09	52.56
228.324	50.56
228.559	69.56
228.793	50.56
229.027	60.56
229.262	76.56
229.496	69.56
229.73	80.56
229.964	67.56
230.199	94.56
230.433	71.56
230.667	92.56
230.901	75.56
231.136	86.56
231.37	90.56
231.604	91.56
231.838	79.56
232.072	86.56
232.306	90.56
232.541	99.56
232.775	82.56
233.009	94.56
233.243	83.56
233.477	92.56
233.711	88.56
233.945	85.56
234.179	89.56
234.413	92.56
234.647	87.56
234.881	89.56
235.115	78.56
235.349	113.56
235.583	85.56
235.817	78.56
236.051	87.56
236.285	70.56
236.519	78.56
236.753	74.56
236.987	79.56
237.221	88.56
237.455	96.56
237.689	93.56
237.922	66.56
238.156	73.56
238.39	78.56
238.624	83.56
238.858	92.56
239.091	85.56
239.325	88.56
239.559	90.56
239.793	86.56
240.027	95.56
240.26	96.56
240.494	85.56
240.728	80.56
240.961	82.56
241.195	89.56
241.429	85.56
241.662	75.56
241.896	90.56
242.13	74.56
242.363	93.56
242.597	75.56
242.83	95.56
243.064	85.56
243.298	84.56
243.531	91.56
243.765	76.56
243.998	75.56
244.232	98.56
244.465	95.56
244.699	94.56
244.932	97.56
245.166	93.56
245.399	84.56
245.633	98.56
245.866	84.56
246.099	109.56
246.333	108.56
246.566	100.56
246.8	84.56
247.033	95.56
247.266	91.56
247.5	94.56
247.733	90.56
247.966	85.56
248.2	87.56
248.433	77.56
248.666	91.56
248.899	88.56
249.133	80.56
249.366	100.56
249.599	85.56
249.832	89.56
250.066	87.56
250.299	92.56
250.532	93.56
250.765	86.56
250.998	92.56
251.231	86.56
251.465	97.56
251.698	91.56
251.931	89.56
252.164	85.56
252.397	94.56
252.63	96.56
252.863	87.56
253.096	92.56
253.329	104.56
253.562	101.56
253.795	110.56
254.028	109.56
254.261	99.56
254.494	90.56
254.727	100.56
254.96	98.56
255.193	90.56
255.426	88.56
255.659	93.56
255.892	97.56
256.124	95.56
256.357	83.56
256.59	100.56
256.823	91.56
257.056	94.56
257.289	99.56
257.521	105.56
257.754	89.56
257.987	97.56
258.22	107.56
258.452	109.56
258.685	93.56
258.918	100.56
259.151	101.56
259.383	109.56
259.616	115.56
259.849	92.56
260.081	108.56
260.314	87.56
260.547	90.56
260.779	95.56
261.012	110.56
261.244	95.56
261.477	111.56
261.71	94.56
261.942	101.56
262.175	102.56
262.407	100.56
262.64	96.56
262.872	111.56
263.105	91.56
263.337	105.56
263.57	99.56
263.802	99.56
264.035	99.56
264.267	97.56
264.499	107.56
264.732	99.56
264.964	99.56
265.197	95.56
265.429	109.56
265.661	109.56
265.894	101.56
266.126	109.56
266.358	112.56
266.591	100.56
266.823	108.56
267.055	108.56
267.287	121.56
267.52	98.56
267.752	101.56
267.984	103.56
268.216	110.56
268.448	108.56
268.681	111.56
268.913	104.56
269.145	94.56
269.377	111.56
269.609	104.56
269.841	101.56
270.073	124.56
270.306	106.56
270.538	113.56
270.77	99.56
271.002	107.56
271.234	115.56
271.466	112.56
271.698	94.56
271.93	107.56
272.162	110.56
272.394	119.56
272.626	111.56
272.858	112.56
273.09	105.56
273.322	113.56
273.553	103.56
273.785	102.56
274.017	113.56
274.249	115.56
274.481	92.56
274.713	114.56
274.945	96.56
275.176	119.56
275.408	125.56
275.64	112.56
275.872	106.56
276.104	104.56
276.335	119.56
276.567	112.56
276.799	109.56
277.031	114.56
277.262	125.56
277.494	115.56
277.726	123.56
277.957	102.56
278.189	128.56
278.421	107.56
278.652	105.56
278.884	117.56
279.115	121.56
279.347	116.56
279.579	124.56
279.81	131.56
280.042	111.56
280.273	110.56
280.505	120.56
280.736	118.56
280.968	112.56
281.199	130.56
281.431	108.56
281.662	119.56
281.894	121.56
282.125	124.56
282.356	115.56
282.588	134.56
282.819	112.56
283.051	108.56
283.282	127.56
283.513	108.56
283.745	106.56
283.976	117.56
284.207	107.56
284.439	113.56
284.67	110.56
284.901	102.56
285.132	121.56
285.364	128.56
285.595	118.56
285.826	113.56
286.057	126.56
286.288	124.56
286.52	123.56
286.751	118.56
286.982	120.56
287.213	128.56
287.444	129.56
287.675	129.56
287.906	132.56
288.138	132.56
288.369	110.56
288.6	122.56
288.831	111.56
289.062	127.56
289.293	113.56
289.524	112.56
289.755	120.56
289.986	124.56
290.217	125.56
290.448	125.56
290.679	128.56
290.91	129.56
291.141	112.56
291.371	108.56
291.602	129.56
291.833	131.56
292.064	127.56
292.295	134.56
292.526	118.56
292.757	116.56
292.987	115.56
293.218	126.56
293.449	110.56
293.68	142.56
293.91	121.56
294.141	129.56
294.372	107.56
294.603	120.56
294.833	133.56
295.064	117.56
295.295	111.56
295.525	134.56
295.756	125.56
295.987	121.56
296.217	119.56
296.448	124.56
296.679	125.56
296.909	117.56
297.14	132.56
297.37	130.56
297.601	135.56
297.831	124.56
298.062	133.56
298.292	137.56
298.523	142.56
298.753	138.56
298.984	138.56
299.214	107.56
299.445	125.56
299.675	129.56
299.905	120.56
300.136	130.56
300.366	149.56
300.597	132.56
300.827	147.56
301.057	118.56
301.288	116.56
301.518	120.56
301.748	129.56
301.979	165.56
302.209	133.56
302.439	133.56
302.669	134.56
302.9	127.56
303.13	129.56
303.36	130.56
303.59	126.56
303.82	139.56
304.051	141.56
304.281	155.56
304.511	153.56
304.741	116.56
304.971	139.56
305.201	143.56
305.431	137.56
305.661	128.56
305.891	133.56
306.121	128.56
306.352	117.56
306.582	137.56
306.812	131.56
307.042	112.56
307.272	130.56
307.502	134.56
307.731	129.56
307.961	147.56
308.191	129.56
308.421	120.56
308.651	122.56
308.881	144.56
309.111	124.56
309.341	139.56
309.571	128.56
309.8	121.56
310.03	129.56
310.26	132.56
310.49	147.56
310.72	123.56
310.949	124.56
311.179	132.56
311.409	139.56
311.639	131.56
311.868	133.56
312.098	134.56
312.328	124.56
312.557	116.56
312.787	119.56
313.017	132.56
313.246	139.56
313.476	146.56
313.706	132.56
313.935	141.56
314.165	144.56
314.394	144.56
314.624	154.56
314.853	137.56
315.083	125.56
315.312	147.56
315.542	121.56
315.771	132.56
316.001	131.56
316.23	142.56
316.46	138.56
316.689	133.56
316.919	127.56
317.148	132.56
317.377	138.56
317.607	128.56
317.836	130.56
318.065	136.56
318.295	131.56
318.524	123.56
318.753	130.56
318.983	122.56
319.212	130.56
319.441	131.56
319.67	124.56
319.9	138.56
320.129	148.56
320.358	153.56
320.587	132.56
320.816	139.56
321.046	134.56
321.275	136.56
321.504	129.56
321.733	153.56
321.962	134.56
322.191	134.56
322.42	133.56
322.649	132.56
322.878	141.56
323.108	146.56
323.337	132.56
323.566	143.56
323.795	146.56
324.024	143.56
324.253	114.56
324.482	137.56
324.71	130.56
324.939	149.56
325.168	145.56
325.397	153.56
325.626	130.56
325.855	143.56
326.084	137.56
326.313	123.56
326.542	142.56
326.77	139.56
326.999	130.56
327.228	122.56
327.457	116.56
327.686	129.56
327.914	138.56
328.143	140.56
328.372	154.56
328.6	147.56
328.829	131.56
329.058	134.56
329.287	139.56
329.515	159.56
329.744	150.56
329.972	131.56
330.201	139.56
330.43	142.56
330.658	144.56
330.887	138.56
331.115	145.56
331.344	141.56
331.572	154.56
331.801	126.56
332.03	144.56
332.258	137.56
332.486	147.56
332.715	163.56
332.943	157.56
333.172	180.56
333.4	171.56
333.629	179.56
333.857	160.56
334.085	181.56
334.314	154.56
334.542	161.56
334.771	157.56
334.999	156.56
335.227	162.56
335.455	164.56
335.684	175.56
335.912	156.56
336.14	158.56
336.369	165.56
336.597	163.56
336.825	155.56
337.053	162.56
337.281	141.56
337.51	145.56
337.738	149.56
337.966	141.56
338.194	138.56
338.422	140.56
338.65	151.56
338.878	154.56
339.106	151.56
339.334	164.56
339.562	132.56
339.79	146.56
340.018	147.56
340.246	144.56
340.474	130.56
340.702	151.56
340.93	153.56
341.158	141.56
341.386	150.56
341.614	142.56
341.842	153.56
342.07	137.56
342.298	163.56
342.526	150.56
342.754	150.56
342.981	158.56
343.209	141.56
343.437	177.56
343.665	181.56
343.893	166.56
344.12	174.56
344.348	165.56
344.576	157.56
344.804	169.56
345.031	127.56
345.259	155.56
345.487	134.56
345.714	119.56
345.942	133.56
346.17	151.56
346.397	149.56
346.625	142.56
346.853	139.56
347.08	138.56
347.308	133.56
347.535	150.56
347.763	129.56
347.99	142.56
348.218	138.56
348.445	157.56
348.673	158.56
348.9	156.56
349.128	156.56
349.355	133.56
349.583	141.56
349.81	122.56
350.037	130.56
350.265	150.56
350.492	134.56
350.72	137.56
350.947	139.56
351.174	130.56
351.402	131.56
351.629	142.56
351.856	132.56
352.083	140.56
352.311	138.56
352.538	148.56
352.765	149.56
352.992	162.56
353.22	157.56
353.447	157.56
353.674	121.56
353.901	132.56
354.128	145.56
354.355	137.56
354.583	124.56
354.81	155.56
355.037	153.56
355.264	151.56
355.491	143.56
355.718	139.56
355.945	144.56
356.172	163.56
356.399	153.56
356.626	137.56
356.853	133.56
357.08	132.56
357.307	148.56
357.534	130.56
357.761	143.56
357.988	148.56
358.215	148.56
358.441	136.56
358.668	137.56
358.895	156.56
359.122	137.56
359.349	131.56
359.576	144.56
359.802	129.56
360.029	137.56
360.256	140.56
360.483	135.56
360.709	140.56
360.936	151.56
361.163	139.56
361.39	143.56
361.616	133.56
361.843	149.56
362.07	129.56
362.296	145.56
362.523	136.56
362.749	133.56
362.976	134.56
363.203	153.56
363.429	145.56
363.656	125.56
363.882	126.56
364.109	156.56
364.335	143.56
364.562	141.56
364.788	134.56
365.015	157.56
365.241	148.56
365.468	144.56
365.694	149.56
365.92	141.56
366.147	149.56
366.373	132.56
366.599	140.56
366.826	144.56
367.052	142.56
367.278	139.56
367.505	142.56
367.731	169.56
367.957	145.56
368.184	140.56
368.41	150.56
368.636	152.56
368.862	135.56
369.089	139.56
369.315	141.56
369.541	155.56
369.767	140.56
369.993	147.56
370.219	136.56
370.445	146.56
370.672	156.56
370.898	134.56
371.124	139.56
371.35	138.56
371.576	142.56
371.802	150.56
372.028	133.56
372.254	130.56
372.48	153.56
372.706	153.56
372.932	152.56
373.158	140.56
373.384	159.56
373.61	165.56
373.835	146.56
374.061	151.56
374.287	167.56
374.513	155.56
374.739	156.56
374.965	154.56
375.191	152.56
375.416	155.56
375.642	162.56
375.868	157.56
376.094	151.56
376.319	137.56
376.545	134.56
376.771	145.56
376.997	153.56
377.222	161.56
377.448	148.56
377.674	159.56
377.899	146.56
378.125	155.56
378.35	153.56
378.576	143.56
378.802	147.56
379.027	155.56
379.253	170.56
379.478	155.56
379.704	147.56
379.929	142.56
380.155	132.56
380.38	140.56
380.606	143.56
380.831	146.56
381.057	162.56
381.282	154.56
381.507	134.56
381.733	161.56
381.958	149.56
382.184	140.56
382.409	151.56
382.634	147.56
382.86	152.56
383.085	159.56
383.31	164.56
383.535	156.56
383.761	154.56
383.986	172.56
384.211	153.56
384.436	157.56
384.662	164.56
384.887	163.56
385.112	157.56
385.337	166.56
385.562	164.56
385.787	155.56
386.013	187.56
386.238	188.56
386.463	164.56
386.688	188.56
386.913	166.56
387.138	163.56
387.363	180.56
387.588	161.56
387.813	167.56
388.038	154.56
388.263	158.56
388.488	164.56
388.713	160.56
388.938	161.56
389.163	172.56
389.387	163.56
389.612	167.56
389.837	173.56
390.062	175.56
390.287	154.56
390.512	167.56
390.736	153.56
390.961	172.56
391.186	164.56
391.411	170.56
391.636	165.56
391.86	206.56
392.085	188.56
392.31	177.56
392.534	179.56
392.759	186.56
392.984	181.56
393.208	192.56
393.433	186.56
393.658	170.56
393.882	165.56
394.107	183.56
394.331	170.56
394.556	164.56
394.78	194.56
395.005	170.56
395.229	170.56
395.454	180.56
395.678	174.56
395.903	176.56
396.127	172.56
396.352	176.56
396.576	172.56
396.801	174.56
397.025	180.56
397.249	188.56
397.474	171.56
397.698	172.56
397.922	185.56
398.147	180.56
398.371	177.56
398.595	196.56
398.82	197.56
399.044	206.56
399.268	240.56
399.492	246.56
399.717	273.56
399.941	239.56
400.165	221.56
400.389	193.56
400.613	214.56
400.837	192.56
401.062	197.56
401.286	195.56
401.51	190.56
401.734	179.56
401.958	192.56
402.182	193.56
402.406	197.56
402.63	214.56
402.854	213.56
403.078	207.56
403.302	199.56
403.526	216.56
403.75	219.56
403.974	208.56
404.198	223.56
404.422	223.56
404.645	214.56
404.869	211.56
405.093	220.56
405.317	192.56
405.541	231.56
405.765	201.56
405.988	201.56
406.212	199.56
406.436	202.56
406.66	211.56
406.883	224.56
407.107	211.56
407.331	210.56
407.555	241.56
407.778	231.56
408.002	207.56
408.226	223.56
408.449	197.56
408.673	212.56
408.896	203.56
409.12	211.56
409.344	206.56
409.567	220.56
409.791	203.56
410.014	210.56
410.238	210.56
410.461	217.56
410.685	219.56
410.908	202.56
411.132	210.56
411.355	199.56
411.578	211.56
411.802	190.56
412.025	177.56
412.249	192.56
412.472	193.56
412.695	183.56
412.919	182.56
413.142	190.56
413.365	190.56
413.589	202.56
413.812	207.56
414.035	186.56
414.258	187.56
414.482	202.56
414.705	204.56
414.928	194.56
415.151	201.56
415.374	193.56
415.597	194.56
415.821	189.56
416.044	194.56
416.267	192.56
416.49	179.56
416.713	188.56
416.936	197.56
417.159	194.56
417.382	189.56
417.605	192.56
417.828	195.56
418.051	198.56
418.274	197.56
418.497	186.56
418.72	209.56
418.943	203.56
419.166	203.56
419.389	205.56
419.611	205.56
419.834	188.56
420.057	197.56
420.28	188.56
420.503	186.56
420.726	190.56
420.948	188.56
421.171	197.56
421.394	177.56
421.617	182.56
421.839	195.56
422.062	207.56
422.285	186.56
422.507	204.56
422.73	196.56
422.953	199.56
423.175	194.56
423.398	204.56
423.621	190.56
423.843	196.56
424.066	210.56
424.288	207.56
424.511	214.56
424.733	210.56
424.956	197.56
425.178	195.56
425.401	214.56
425.623	177.56
425.846	181.56
426.068	170.56
426.291	195.56
426.513	184.56
426.735	192.56
426.958	187.56
427.18	175.56
427.402	181.56
427.625	174.56
427.847	184.56
428.069	201.56
428.292	195.56
428.514	191.56
428.736	162.56
428.958	173.56
429.181	168.56
429.403	184.56
429.625	186.56
429.847	181.56
430.069	169.56
430.292	177.56
430.514	185.56
430.736	166.56
430.958	183.56
431.18	178.56
431.402	181.56
431.624	179.56
431.846	183.56
432.068	183.56
432.29	175.56
432.512	193.56
432.734	169.56
432.956	187.56
433.178	183.56
433.4	190.56
433.622	190.56
433.844	185.56
434.066	194.56
434.287	178.56
434.509	191.56
434.731	191.56
434.953	202.56
435.175	188.56
435.397	177.56
435.618	166.56
435.84	165.56
436.062	185.56
436.284	192.56
436.505	166.56
436.727	186.56
436.949	181.56
437.17	188.56
437.392	163.56
437.614	165.56
437.835	188.56
438.057	184.56
438.278	163.56
438.5	181.56
438.721	180.56
438.943	169.56
439.165	167.56
439.386	164.56
439.608	178.56
439.829	174.56
440.05	199.56
440.272	186.56
440.493	191.56
440.715	192.56
440.936	183.56
441.158	196.56
441.379	185.56
441.6	197.56
441.822	196.56
442.043	188.56
442.264	183.56
442.486	202.56
442.707	193.56
442.928	194.56
443.149	205.56
443.371	201.56
443.592	201.56
443.813	196.56
444.034	209.56
444.255	215.56
444.476	222.56
444.698	208.56
444.919	226.56
445.14	396.56
445.361	275.56
445.582	208.56
445.803	211.56
446.024	194.56
446.245	188.56
446.466	167.56
446.687	170.56
446.908	185.56
447.129	195.56
447.35	183.56
447.571	187.56
447.792	180.56
448.013	187.56
448.234	186.56
448.455	181.56
448.675	157.56
448.896	175.56
449.117	180.56
449.338	157.56
449.559	171.56
449.779	174.56
450	173.56
450.221	166.56
450.442	171.56
450.662	173.56
450.883	187.56
451.104	185.56
451.324	167.56
451.545	167.56
451.766	179.56
451.986	173.56
452.207	185.56
452.428	173.56
452.648	172.56
452.869	163.56
453.089	169.56
453.31	170.56
453.53	163.56
453.751	172.56
453.971	165.56
454.192	168.56
454.412	167.56
454.633	159.56
454.853	171.56
455.073	164.56
455.294	165.56
455.514	167.56
455.734	146.56
455.955	174.56
456.175	165.56
456.395	164.56
456.616	160.56
456.836	156.56
457.056	163.56
457.276	155.56
457.497	153.56
457.717	156.56
457.937	170.56
458.157	164.56
458.377	159.56
458.598	157.56
458.818	173.56
459.038	162.56
459.258	176.56
459.478	181.56
459.698	192.56
459.918	197.56
460.138	184.56
460.358	195.56
460.578	224.56
460.798	210.56
461.018	208.56
461.238	210.56
461.458	196.56
461.678	203.56
461.898	204.56
462.118	207.56
462.338	209.56
462.558	197.56
462.777	202.56
462.997	229.56
463.217	254.56
463.437	235.56
463.657	221.56
463.876	227.56
464.096	227.56
464.316	221.56
464.536	230.56
464.755	221.56
464.975	203.56
465.195	205.56
465.414	205.56
465.634	167.56
465.854	188.56
466.073	187.56
466.293	188.56
466.512	159.56
466.732	168.56
466.951	172.56
467.171	166.56
467.391	168.56
467.61	179.56
467.829	194.56
468.049	162.56
468.268	172.56
468.488	169.56
468.707	180.56
468.927	166.56
469.146	171.56
469.365	175.56
469.585	185.56
469.804	194.56
470.023	164.56
470.243	188.56
470.462	169.56
470.681	195.56
470.901	172.56
471.12	181.56
471.339	175.56
471.558	178.56
471.777	190.56
471.997	168.56
472.216	167.56
472.435	151.56
472.654	162.56
472.873	178.56
473.092	177.56
473.311	183.56
473.53	171.56
473.749	178.56
473.968	195.56
474.187	147.56
474.406	159.56
474.625	158.56
474.844	167.56
475.063	161.56
475.282	175.56
475.501	177.56
475.72	174.56
475.939	160.56
476.158	180.56
476.377	185.56
476.596	184.56
476.814	162.56
477.033	160.56
477.252	186.56
477.471	178.56
477.69	211.56
477.908	199.56
478.127	203.56
478.346	195.56
478.564	204.56
478.783	201.56
479.002	189.56
479.22	194.56
479.439	190.56
479.658	207.56
479.876	196.56
480.095	193.56
480.313	204.56
480.532	204.56
480.751	193.56
480.969	174.56
481.188	195.56
481.406	189.56
481.624	187.56
481.843	176.56
482.061	179.56
482.28	185.56
482.498	175.56
482.717	179.56
482.935	179.56
483.153	194.56
483.372	183.56
483.59	188.56
483.808	193.56
484.027	196.56
484.245	181.56
484.463	190.56
484.681	205.56
484.9	195.56
485.118	195.56
485.336	180.56
485.554	190.56
485.772	194.56
485.99	176.56
486.209	189.56
486.427	194.56
486.645	197.56
486.863	189.56
487.081	213.56
487.299	195.56
487.517	189.56
487.735	195.56
487.953	197.56
488.171	190.56
488.389	170.56
488.607	180.56
488.825	195.56
489.043	186.56
489.261	198.56
489.479	196.56
489.696	198.56
489.914	190.56
490.132	195.56
490.35	216.56
490.568	211.56
490.786	206.56
491.003	194.56
491.221	194.56
491.439	174.56
491.657	191.56
491.874	194.56
492.092	207.56
492.31	196.56
492.527	203.56
492.745	207.56
492.963	197.56
493.18	203.56
493.398	208.56
493.615	196.56
493.833	193.56
494.05	199.56
494.268	198.56
494.485	201.56
494.703	203.56
494.92	195.56
495.138	193.56
495.355	198.56
495.573	210.56
495.79	202.56
496.008	222.56
496.225	200.56
496.442	215.56
496.66	220.56
496.877	212.56
497.094	215.56
497.312	222.56
497.529	219.56
497.746	236.56
497.963	241.56
498.181	226.56
498.398	245.56
498.615	238.56
498.832	260.56
499.049	284.56
499.267	284.56
499.484	306.56
499.701	361.56
499.918	379.56
500.135	433.56
500.352	464.56
500.569	470.56
500.786	467.56
501.003	422.56
501.22	388.56
501.437	336.56
501.654	318.56
501.871	275.56
502.088	259.56
502.305	267.56
502.522	238.56
502.739	253.56
502.956	225.56
503.172	235.56
503.389	232.56
503.606	212.56
503.823	217.56
504.04	214.56
504.256	225.56
504.473	227.56
