Data from Dirtheat2_HRD10591_00010.txt Node
Date: Fri Dec 27 15:15:09 EST 2024
User: Yrep
Spectrometer: HR+D1059
Trigger mode: 1
Integration Time (sec): 1.000000E-1
Scans to average: 1
Electric dark correction enabled: true
Nonlinearity correction enabled: false
Boxcar width: 0
XAxis mode: Wavelengths
Number of Pixels in Spectrum: 2048
>>>>>Begin Spectral Data<<<<<
223.165	-11.12
223.4	-11.12
223.635	-11.12
223.869	-7.12
224.104	-21.12
224.338	-7.12
224.573	-17.12
224.808	-9.12
225.042	-9.12
225.277	-2.12
225.511	-2.12
225.746	-0.12
225.98	7.88
226.215	12.88
226.449	4.88
226.683	16.88
226.918	12.88
227.152	30.88
227.387	35.88
227.621	45.88
227.856	43.88
228.09	27.88
228.324	36.88
228.559	58.88
228.793	52.88
229.027	70.88
229.262	80.88
229.496	70.88
229.73	71.88
229.964	83.88
230.199	73.88
230.433	61.88
230.667	74.88
230.901	72.88
231.136	76.88
231.37	76.88
231.604	79.88
231.838	83.88
232.072	84.88
232.306	66.88
232.541	82.88
232.775	87.88
233.009	80.88
233.243	76.88
233.477	70.88
233.711	76.88
233.945	76.88
234.179	87.88
234.413	84.88
234.647	85.88
234.881	70.88
235.115	80.88
235.349	82.88
235.583	89.88
235.817	73.88
236.051	80.88
236.285	81.88
236.519	75.88
236.753	78.88
236.987	63.88
237.221	74.88
237.455	70.88
237.689	70.88
237.922	76.88
238.156	76.88
238.39	81.88
238.624	84.88
238.858	77.88
239.091	79.88
239.325	74.88
239.559	88.88
239.793	91.88
240.027	64.88
240.26	82.88
240.494	70.88
240.728	87.88
240.961	64.88
241.195	72.88
241.429	79.88
241.662	72.88
241.896	67.88
242.13	70.88
242.363	71.88
242.597	70.88
242.83	84.88
243.064	60.88
243.298	70.88
243.531	74.88
243.765	70.88
243.998	77.88
244.232	67.88
244.465	83.88
244.699	87.88
244.932	81.88
245.166	72.88
245.399	74.88
245.633	78.88
245.866	68.88
246.099	74.88
246.333	74.88
246.566	70.88
246.8	79.88
247.033	74.88
247.266	75.88
247.5	90.88
247.733	84.88
247.966	56.88
248.2	78.88
248.433	67.88
248.666	82.88
248.899	78.88
249.133	73.88
249.366	81.88
249.599	78.88
249.832	81.88
250.066	80.88
250.299	67.88
250.532	78.88
250.765	65.88
250.998	70.88
251.231	70.88
251.465	78.88
251.698	67.88
251.931	85.88
252.164	70.88
252.397	76.88
252.63	78.88
252.863	77.88
253.096	74.88
253.329	84.88
253.562	80.88
253.795	77.88
254.028	75.88
254.261	79.88
254.494	61.88
254.727	71.88
254.96	87.88
255.193	80.88
255.426	72.88
255.659	78.88
255.892	84.88
256.124	74.88
256.357	90.88
256.59	71.88
256.823	74.88
257.056	69.88
257.289	77.88
257.521	74.88
257.754	77.88
257.987	79.88
258.22	72.88
258.452	74.88
258.685	75.88
258.918	80.88
259.151	77.88
259.383	69.88
259.616	73.88
259.849	97.88
260.081	86.88
260.314	82.88
260.547	77.88
260.779	78.88
261.012	72.88
261.244	80.88
261.477	94.88
261.71	73.88
261.942	71.88
262.175	72.88
262.407	71.88
262.64	80.88
262.872	83.88
263.105	93.88
263.337	80.88
263.57	77.88
263.802	73.88
264.035	77.88
264.267	84.88
264.499	72.88
264.732	80.88
264.964	74.88
265.197	96.88
265.429	88.88
265.661	95.88
265.894	93.88
266.126	81.88
266.358	84.88
266.591	74.88
266.823	82.88
267.055	85.88
267.287	82.88
267.52	76.88
267.752	81.88
267.984	73.88
268.216	82.88
268.448	68.88
268.681	83.88
268.913	75.88
269.145	87.88
269.377	77.88
269.609	79.88
269.841	99.88
270.073	86.88
270.306	74.88
270.538	74.88
270.77	64.88
271.002	81.88
271.234	88.88
271.466	72.88
271.698	84.88
271.93	85.88
272.162	83.88
272.394	87.88
272.626	74.88
272.858	74.88
273.09	84.88
273.322	76.88
273.553	82.88
273.785	80.88
274.017	75.88
274.249	85.88
274.481	84.88
274.713	84.88
274.945	74.88
275.176	68.88
275.408	85.88
275.64	92.88
275.872	84.88
276.104	83.88
276.335	82.88
276.567	73.88
276.799	76.88
277.031	62.88
277.262	82.88
277.494	90.88
277.726	67.88
277.957	84.88
278.189	73.88
278.421	75.88
278.652	89.88
278.884	81.88
279.115	94.88
279.347	87.88
279.579	83.88
279.81	88.88
280.042	84.88
280.273	74.88
280.505	80.88
280.736	85.88
280.968	74.88
281.199	88.88
281.431	81.88
281.662	64.88
281.894	71.88
282.125	85.88
282.356	75.88
282.588	77.88
282.819	76.88
283.051	84.88
283.282	83.88
283.513	87.88
283.745	89.88
283.976	72.88
284.207	82.88
284.439	74.88
284.67	83.88
284.901	94.88
285.132	69.88
285.364	78.88
285.595	78.88
285.826	77.88
286.057	73.88
286.288	89.88
286.52	77.88
286.751	77.88
286.982	80.88
287.213	75.88
287.444	70.88
287.675	78.88
287.906	99.88
288.138	75.88
288.369	80.88
288.6	84.88
288.831	87.88
289.062	76.88
289.293	82.88
289.524	85.88
289.755	94.88
289.986	82.88
290.217	75.88
290.448	84.88
290.679	76.88
290.91	101.88
291.141	78.88
291.371	86.88
291.602	88.88
291.833	92.88
292.064	72.88
292.295	82.88
292.526	76.88
292.757	76.88
292.987	74.88
293.218	78.88
293.449	78.88
293.68	91.88
293.91	84.88
294.141	91.88
294.372	76.88
294.603	74.88
294.833	86.88
295.064	85.88
295.295	87.88
295.525	68.88
295.756	91.88
295.987	72.88
296.217	86.88
296.448	83.88
296.679	84.88
296.909	93.88
297.14	79.88
297.37	90.88
297.601	76.88
297.831	93.88
298.062	86.88
298.292	91.88
298.523	93.88
298.753	85.88
298.984	86.88
299.214	87.88
299.445	81.88
299.675	102.88
299.905	106.88
300.136	86.88
300.366	98.88
300.597	99.88
300.827	94.88
301.057	95.88
301.288	77.88
301.518	75.88
301.748	76.88
301.979	105.88
302.209	82.88
302.439	86.88
302.669	83.88
302.9	87.88
303.13	64.88
303.36	76.88
303.59	84.88
303.82	78.88
304.051	81.88
304.281	84.88
304.511	89.88
304.741	92.88
304.971	87.88
305.201	90.88
305.431	101.88
305.661	83.88
305.891	85.88
306.121	102.88
306.352	89.88
306.582	90.88
306.812	95.88
307.042	82.88
307.272	92.88
307.502	88.88
307.731	93.88
307.961	76.88
308.191	86.88
308.421	84.88
308.651	88.88
308.881	93.88
309.111	74.88
309.341	88.88
309.571	99.88
309.8	78.88
310.03	80.88
310.26	86.88
310.49	102.88
310.72	77.88
310.949	74.88
311.179	79.88
311.409	80.88
311.639	81.88
311.868	89.88
312.098	92.88
312.328	74.88
312.557	90.88
312.787	67.88
313.017	85.88
313.246	100.88
313.476	87.88
313.706	92.88
313.935	82.88
314.165	88.88
314.394	90.88
314.624	78.88
314.853	83.88
315.083	74.88
315.312	75.88
315.542	77.88
315.771	85.88
316.001	92.88
316.23	91.88
316.46	80.88
316.689	79.88
316.919	71.88
317.148	92.88
317.377	90.88
317.607	81.88
317.836	82.88
318.065	86.88
318.295	80.88
318.524	81.88
318.753	77.88
318.983	77.88
319.212	92.88
319.441	87.88
319.67	84.88
319.9	70.88
320.129	83.88
320.358	90.88
320.587	80.88
320.816	82.88
321.046	78.88
321.275	90.88
321.504	73.88
321.733	82.88
321.962	103.88
322.191	100.88
322.42	91.88
322.649	83.88
322.878	82.88
323.108	88.88
323.337	76.88
323.566	73.88
323.795	91.88
324.024	83.88
324.253	70.88
324.482	85.88
324.71	93.88
324.939	76.88
325.168	88.88
325.397	77.88
325.626	79.88
325.855	77.88
326.084	60.88
326.313	69.88
326.542	71.88
326.77	86.88
326.999	83.88
327.228	88.88
327.457	80.88
327.686	86.88
327.914	73.88
328.143	78.88
328.372	80.88
328.6	82.88
328.829	71.88
329.058	87.88
329.287	82.88
329.515	88.88
329.744	81.88
329.972	75.88
330.201	84.88
330.43	88.88
330.658	88.88
330.887	86.88
331.115	86.88
331.344	79.88
331.572	96.88
331.801	82.88
332.03	80.88
332.258	83.88
332.486	98.88
332.715	83.88
332.943	79.88
333.172	76.88
333.4	75.88
333.629	78.88
333.857	88.88
334.085	81.88
334.314	76.88
334.542	83.88
334.771	77.88
334.999	78.88
335.227	77.88
335.455	103.88
335.684	80.88
335.912	71.88
336.14	83.88
336.369	74.88
336.597	77.88
336.825	79.88
337.053	88.88
337.281	87.88
337.51	82.88
337.738	84.88
337.966	83.88
338.194	95.88
338.422	79.88
338.65	99.88
338.878	70.88
339.106	74.88
339.334	89.88
339.562	87.88
339.79	74.88
340.018	75.88
340.246	90.88
340.474	80.88
340.702	76.88
340.93	107.88
341.158	78.88
341.386	84.88
341.614	95.88
341.842	89.88
342.07	76.88
342.298	90.88
342.526	87.88
342.754	70.88
342.981	84.88
343.209	75.88
343.437	100.88
343.665	91.88
343.893	75.88
344.12	91.88
344.348	89.88
344.576	70.88
344.804	76.88
345.031	89.88
345.259	75.88
345.487	85.88
345.714	78.88
345.942	85.88
346.17	81.88
346.397	79.88
346.625	79.88
346.853	76.88
347.08	80.88
347.308	69.88
347.535	83.88
347.763	85.88
347.99	83.88
348.218	94.88
348.445	95.88
348.673	88.88
348.9	81.88
349.128	93.88
349.355	84.88
349.583	92.88
349.81	78.88
350.037	92.88
350.265	78.88
350.492	75.88
350.72	75.88
350.947	76.88
351.174	87.88
351.402	85.88
351.629	82.88
351.856	69.88
352.083	79.88
352.311	71.88
352.538	82.88
352.765	86.88
352.992	88.88
353.22	73.88
353.447	84.88
353.674	68.88
353.901	83.88
354.128	78.88
354.355	78.88
354.583	82.88
354.81	95.88
355.037	67.88
355.264	86.88
355.491	78.88
355.718	83.88
355.945	70.88
356.172	75.88
356.399	86.88
356.626	85.88
356.853	85.88
357.08	85.88
357.307	75.88
357.534	83.88
357.761	101.88
357.988	83.88
358.215	98.88
358.441	77.88
358.668	84.88
358.895	83.88
359.122	80.88
359.349	81.88
359.576	81.88
359.802	85.88
360.029	91.88
360.256	79.88
360.483	68.88
360.709	83.88
360.936	89.88
361.163	81.88
361.39	89.88
361.616	92.88
361.843	84.88
362.07	90.88
362.296	82.88
362.523	81.88
362.749	82.88
362.976	85.88
363.203	79.88
363.429	77.88
363.656	92.88
363.882	84.88
364.109	89.88
364.335	84.88
364.562	80.88
364.788	86.88
365.015	83.88
365.241	84.88
365.468	104.88
365.694	81.88
365.92	95.88
366.147	80.88
366.373	63.88
366.599	91.88
366.826	75.88
367.052	79.88
367.278	92.88
367.505	89.88
367.731	85.88
367.957	84.88
368.184	79.88
368.41	78.88
368.636	81.88
368.862	62.88
369.089	97.88
369.315	85.88
369.541	100.88
369.767	81.88
369.993	78.88
370.219	96.88
370.445	81.88
370.672	86.88
370.898	94.88
371.124	90.88
371.35	78.88
371.576	80.88
371.802	85.88
372.028	80.88
372.254	89.88
372.48	84.88
372.706	76.88
372.932	89.88
373.158	75.88
373.384	87.88
373.61	90.88
373.835	74.88
374.061	92.88
374.287	86.88
374.513	85.88
374.739	82.88
374.965	76.88
375.191	82.88
375.416	75.88
375.642	80.88
375.868	94.88
376.094	78.88
376.319	82.88
376.545	79.88
376.771	75.88
376.997	85.88
377.222	81.88
377.448	88.88
377.674	89.88
377.899	98.88
378.125	84.88
378.35	81.88
378.576	73.88
378.802	87.88
379.027	93.88
379.253	91.88
379.478	96.88
379.704	80.88
379.929	77.88
380.155	79.88
380.38	90.88
380.606	92.88
380.831	100.88
381.057	91.88
381.282	95.88
381.507	88.88
381.733	77.88
381.958	87.88
382.184	70.88
382.409	86.88
382.634	89.88
382.86	78.88
383.085	84.88
383.31	80.88
383.535	91.88
383.761	83.88
383.986	84.88
384.211	73.88
384.436	94.88
384.662	79.88
384.887	78.88
385.112	94.88
385.337	78.88
385.562	86.88
385.787	73.88
386.013	90.88
386.238	79.88
386.463	72.88
386.688	94.88
386.913	84.88
387.138	84.88
387.363	85.88
387.588	72.88
387.813	77.88
388.038	90.88
388.263	84.88
388.488	82.88
388.713	89.88
388.938	98.88
389.163	86.88
389.387	88.88
389.612	93.88
389.837	89.88
390.062	72.88
390.287	86.88
390.512	89.88
390.736	82.88
390.961	88.88
391.186	75.88
391.411	82.88
391.636	76.88
391.86	86.88
392.085	86.88
392.31	79.88
392.534	85.88
392.759	88.88
392.984	78.88
393.208	80.88
393.433	78.88
393.658	72.88
393.882	70.88
394.107	90.88
394.331	76.88
394.556	77.88
394.78	79.88
395.005	85.88
395.229	86.88
395.454	77.88
395.678	95.88
395.903	75.88
396.127	87.88
396.352	74.88
396.576	66.88
396.801	84.88
397.025	91.88
397.249	72.88
397.474	78.88
397.698	80.88
397.922	90.88
398.147	90.88
398.371	98.88
398.595	82.88
398.82	72.88
399.044	87.88
399.268	67.88
399.492	58.88
399.717	72.88
399.941	80.88
400.165	77.88
400.389	90.88
400.613	64.88
400.837	86.88
401.062	70.88
401.286	72.88
401.51	66.88
401.734	91.88
401.958	90.88
402.182	69.88
402.406	77.88
402.63	79.88
402.854	87.88
403.078	86.88
403.302	71.88
403.526	82.88
403.75	91.88
403.974	78.88
404.198	94.88
404.422	73.88
404.645	87.88
404.869	77.88
405.093	78.88
405.317	86.88
405.541	73.88
405.765	83.88
405.988	101.88
406.212	80.88
406.436	87.88
406.66	82.88
406.883	88.88
407.107	80.88
407.331	80.88
407.555	83.88
407.778	75.88
408.002	96.88
408.226	74.88
408.449	88.88
408.673	89.88
408.896	94.88
409.12	81.88
409.344	88.88
409.567	78.88
409.791	63.88
410.014	90.88
410.238	80.88
410.461	82.88
410.685	85.88
410.908	85.88
411.132	99.88
411.355	84.88
411.578	74.88
411.802	70.88
412.025	91.88
412.249	84.88
412.472	72.88
412.695	98.88
412.919	85.88
413.142	79.88
413.365	81.88
413.589	93.88
413.812	88.88
414.035	75.88
414.258	96.88
414.482	89.88
414.705	71.88
414.928	83.88
415.151	87.88
415.374	90.88
415.597	93.88
415.821	88.88
416.044	95.88
416.267	90.88
416.49	90.88
416.713	72.88
416.936	79.88
417.159	84.88
417.382	75.88
417.605	75.88
417.828	91.88
418.051	72.88
418.274	74.88
418.497	83.88
418.72	87.88
418.943	78.88
419.166	92.88
419.389	79.88
419.611	74.88
419.834	88.88
420.057	85.88
420.28	82.88
420.503	80.88
420.726	71.88
420.948	64.88
421.171	83.88
421.394	91.88
421.617	78.88
421.839	74.88
422.062	74.88
422.285	68.88
422.507	87.88
422.73	102.88
422.953	93.88
423.175	86.88
423.398	90.88
423.621	94.88
423.843	79.88
424.066	83.88
424.288	69.88
424.511	82.88
424.733	74.88
424.956	84.88
425.178	95.88
425.401	75.88
425.623	72.88
425.846	71.88
426.068	88.88
426.291	89.88
426.513	88.88
426.735	82.88
426.958	79.88
427.18	79.88
427.402	79.88
427.625	91.88
427.847	95.88
428.069	69.88
428.292	84.88
428.514	85.88
428.736	72.88
428.958	85.88
429.181	92.88
429.403	86.88
429.625	79.88
429.847	89.88
430.069	89.88
430.292	90.88
430.514	83.88
430.736	79.88
430.958	91.88
431.18	69.88
431.402	89.88
431.624	85.88
431.846	71.88
432.068	82.88
432.29	90.88
432.512	98.88
432.734	100.88
432.956	88.88
433.178	89.88
433.4	84.88
433.622	67.88
433.844	80.88
434.066	66.88
434.287	85.88
434.509	82.88
434.731	91.88
434.953	90.88
435.175	77.88
435.397	86.88
435.618	83.88
435.84	85.88
436.062	74.88
436.284	84.88
436.505	84.88
436.727	81.88
436.949	88.88
437.17	74.88
437.392	67.88
437.614	73.88
437.835	88.88
438.057	73.88
438.278	77.88
438.5	91.88
438.721	77.88
438.943	77.88
439.165	73.88
439.386	86.88
439.608	89.88
439.829	76.88
440.05	83.88
440.272	74.88
440.493	64.88
440.715	84.88
440.936	80.88
441.158	85.88
441.379	80.88
441.6	92.88
441.822	79.88
442.043	93.88
442.264	72.88
442.486	86.88
442.707	74.88
442.928	82.88
443.149	86.88
443.371	83.88
443.592	69.88
443.813	75.88
444.034	61.88
444.255	91.88
444.476	79.88
444.698	80.88
444.919	79.88
445.14	134.88
445.361	104.88
445.582	95.88
445.803	80.88
446.024	76.88
446.245	92.88
446.466	85.88
446.687	86.88
446.908	83.88
447.129	84.88
447.35	80.88
447.571	72.88
447.792	75.88
448.013	76.88
448.234	91.88
448.455	65.88
448.675	80.88
448.896	80.88
449.117	91.88
449.338	87.88
449.559	100.88
449.779	71.88
450	83.88
450.221	70.88
450.442	75.88
450.662	101.88
450.883	88.88
451.104	69.88
451.324	86.88
451.545	76.88
451.766	83.88
451.986	85.88
452.207	82.88
452.428	62.88
452.648	70.88
452.869	79.88
453.089	82.88
453.31	71.88
453.53	73.88
453.751	73.88
453.971	77.88
454.192	73.88
454.412	61.88
454.633	67.88
454.853	75.88
455.073	78.88
455.294	79.88
455.514	80.88
455.734	85.88
455.955	71.88
456.175	84.88
456.395	86.88
456.616	79.88
456.836	78.88
457.056	78.88
457.276	79.88
457.497	65.88
457.717	79.88
457.937	81.88
458.157	75.88
458.377	75.88
458.598	77.88
458.818	76.88
459.038	79.88
459.258	71.88
459.478	81.88
459.698	72.88
459.918	68.88
460.138	84.88
460.358	75.88
460.578	94.88
460.798	93.88
461.018	86.88
461.238	82.88
461.458	71.88
461.678	62.88
461.898	88.88
462.118	82.88
462.338	91.88
462.558	70.88
462.777	74.88
462.997	79.88
463.217	72.88
463.437	72.88
463.657	79.88
463.876	76.88
464.096	79.88
464.316	86.88
464.536	76.88
464.755	84.88
464.975	77.88
465.195	77.88
465.414	75.88
465.634	85.88
465.854	87.88
466.073	90.88
466.293	81.88
466.512	75.88
466.732	82.88
466.951	69.88
467.171	67.88
467.391	68.88
467.61	71.88
467.829	78.88
468.049	90.88
468.268	97.88
468.488	80.88
468.707	83.88
468.927	78.88
469.146	77.88
469.365	74.88
469.585	83.88
469.804	78.88
470.023	69.88
470.243	79.88
470.462	80.88
470.681	95.88
470.901	72.88
471.12	84.88
471.339	87.88
471.558	77.88
471.777	82.88
471.997	82.88
472.216	84.88
472.435	82.88
472.654	89.88
472.873	91.88
473.092	85.88
473.311	71.88
473.53	90.88
473.749	79.88
473.968	94.88
474.187	80.88
474.406	86.88
474.625	82.88
474.844	78.88
475.063	83.88
475.282	85.88
475.501	84.88
475.72	101.88
475.939	78.88
476.158	90.88
476.377	87.88
476.596	86.88
476.814	73.88
477.033	72.88
477.252	86.88
477.471	81.88
477.69	91.88
477.908	92.88
478.127	75.88
478.346	80.88
478.564	69.88
478.783	88.88
479.002	93.88
479.22	76.88
479.439	69.88
479.658	87.88
479.876	84.88
480.095	83.88
480.313	91.88
480.532	77.88
480.751	82.88
480.969	88.88
481.188	81.88
481.406	81.88
481.624	84.88
481.843	75.88
482.061	69.88
482.28	86.88
482.498	89.88
482.717	84.88
482.935	66.88
483.153	72.88
483.372	96.88
483.59	78.88
483.808	88.88
484.027	74.88
484.245	76.88
484.463	84.88
484.681	76.88
484.9	80.88
485.118	78.88
485.336	75.88
485.554	75.88
485.772	84.88
485.99	77.88
486.209	91.88
486.427	77.88
486.645	81.88
486.863	86.88
487.081	85.88
487.299	76.88
487.517	84.88
487.735	68.88
487.953	78.88
488.171	90.88
488.389	81.88
488.607	85.88
488.825	73.88
489.043	89.88
489.261	94.88
489.479	74.88
489.696	96.88
489.914	78.88
490.132	84.88
490.35	70.88
490.568	75.88
490.786	80.88
491.003	82.88
491.221	74.88
491.439	84.88
491.657	80.88
491.874	79.88
492.092	72.88
492.31	70.88
492.527	83.88
492.745	84.88
492.963	85.88
493.18	81.88
493.398	81.88
493.615	70.88
493.833	68.88
494.05	90.88
494.268	74.88
494.485	93.88
494.703	68.88
494.92	68.88
495.138	85.88
495.355	70.88
495.573	88.88
495.79	87.88
496.008	96.88
496.225	90.88
496.442	69.88
496.66	90.88
496.877	87.88
497.094	89.88
497.312	94.88
497.529	71.88
497.746	72.88
497.963	79.88
498.181	68.88
498.398	70.88
498.615	86.88
498.832	86.88
499.049	83.88
499.267	65.88
499.484	76.88
499.701	91.88
499.918	78.88
500.135	84.88
500.352	80.88
500.569	74.88
500.786	72.88
501.003	83.88
501.22	82.88
501.437	102.88
501.654	81.88
501.871	81.88
502.088	77.88
502.305	72.88
502.522	82.88
502.739	76.88
502.956	77.88
503.172	83.88
503.389	82.88
503.606	70.88
503.823	82.88
504.04	94.88
504.256	94.88
504.473	87.88
504.69	83.88
504.907	85.88
505.123	77.88
505.34	87.88
505.557	81.88
505.773	82.88
505.99	91.88
506.207	80.88
506.423	78.88
506.64	83.88
506.856	78.88
507.073	76.88
507.289	72.88
507.506	65.88
507.722	82.88
507.939	90.88
508.155	90.88
508.372	86.88
508.588	70.88
508.805	73.88
509.021	77.88
509.238	82.88
509.454	85.88
509.67	80.88
509.887	91.88
510.103	93.88
510.319	83.88
510.536	91.88
510.752	77.88
510.968	83.88
511.184	92.88
511.401	89.88
511.617	80.88
511.833	85.88
512.049	85.88
512.265	87.88
512.481	77.88
512.698	93.88
512.914	71.88
513.13	78.88
513.346	72.88
513.562	87.88
513.778	76.88
513.994	74.88
514.21	86.88
514.426	76.88
514.642	87.88
514.858	72.88
515.074	87.88
515.29	95.88
515.506	74.88
515.721	77.88
515.937	81.88
516.153	86.88
516.369	74.88
516.585	70.88
516.801	90.88
517.016	91.88
517.232	74.88
517.448	83.88
517.664	95.88
517.879	82.88
518.095	89.88
518.311	84.88
518.527	70.88
518.742	76.88
518.958	83.88
519.173	84.88
519.389	80.88
519.605	83.88
519.82	69.88
520.036	87.88
