Data from Dirtheat2_HRD10591_00009.txt Node
Date: Fri Dec 27 15:15:08 EST 2024
User: Yrep
Spectrometer: HR+D1059
Trigger mode: 1
Integration Time (sec): 1.000000E-1
Scans to average: 1
Electric dark correction enabled: true
Nonlinearity correction enabled: false
Boxcar width: 0
XAxis mode: Wavelengths
Number of Pixels in Spectrum: 2048
>>>>>Begin Spectral Data<<<<<
223.165	-8.88
223.4	-8.88
223.635	-8.88
223.869	-34.88
224.104	-33.88
224.338	-12.88
224.573	-3.88
224.808	-13.88
225.042	-4.88
225.277	2.12
225.511	-0.88
225.746	12.12
225.98	-1.88
226.215	16.12
226.449	20.12
226.683	23.12
226.918	20.12
227.152	22.12
227.387	19.12
227.621	33.12
227.856	32.12
228.09	47.12
228.324	55.12
228.559	54.12
228.793	63.12
229.027	61.12
229.262	84.12
229.496	70.12
229.73	72.12
229.964	75.12
230.199	71.12
230.433	81.12
230.667	74.12
230.901	60.12
231.136	75.12
231.37	74.12
231.604	75.12
231.838	90.12
232.072	79.12
232.306	80.12
232.541	81.12
232.775	72.12
233.009	85.12
233.243	80.12
233.477	84.12
233.711	77.12
233.945	87.12
234.179	82.12
234.413	77.12
234.647	79.12
234.881	87.12
235.115	82.12
235.349	79.12
235.583	63.12
235.817	64.12
236.051	81.12
236.285	70.12
236.519	76.12
236.753	71.12
236.987	88.12
237.221	78.12
237.455	81.12
237.689	72.12
237.922	81.12
238.156	74.12
238.39	85.12
238.624	72.12
238.858	64.12
239.091	80.12
239.325	65.12
239.559	88.12
239.793	70.12
240.027	76.12
240.26	80.12
240.494	78.12
240.728	75.12
240.961	76.12
241.195	73.12
241.429	60.12
241.662	72.12
241.896	72.12
242.13	74.12
242.363	67.12
242.597	82.12
242.83	56.12
243.064	85.12
243.298	70.12
243.531	65.12
243.765	69.12
243.998	90.12
244.232	71.12
244.465	84.12
244.699	84.12
244.932	85.12
245.166	71.12
245.399	79.12
245.633	79.12
245.866	71.12
246.099	75.12
246.333	79.12
246.566	75.12
246.8	75.12
247.033	90.12
247.266	76.12
247.5	76.12
247.733	71.12
247.966	56.12
248.2	65.12
248.433	71.12
248.666	70.12
248.899	81.12
249.133	73.12
249.366	76.12
249.599	74.12
249.832	75.12
250.066	75.12
250.299	66.12
250.532	86.12
250.765	84.12
250.998	94.12
251.231	101.12
251.465	71.12
251.698	81.12
251.931	75.12
252.164	94.12
252.397	88.12
252.63	78.12
252.863	77.12
253.096	79.12
253.329	74.12
253.562	76.12
253.795	86.12
254.028	91.12
254.261	76.12
254.494	79.12
254.727	78.12
254.96	77.12
255.193	69.12
255.426	82.12
255.659	80.12
255.892	78.12
256.124	84.12
256.357	71.12
256.59	87.12
256.823	86.12
257.056	86.12
257.289	82.12
257.521	80.12
257.754	80.12
257.987	81.12
258.22	71.12
258.452	86.12
258.685	90.12
258.918	74.12
259.151	80.12
259.383	81.12
259.616	81.12
259.849	65.12
260.081	84.12
260.314	81.12
260.547	85.12
260.779	89.12
261.012	85.12
261.244	88.12
261.477	81.12
261.71	86.12
261.942	90.12
262.175	88.12
262.407	88.12
262.64	69.12
262.872	74.12
263.105	88.12
263.337	84.12
263.57	70.12
263.802	80.12
264.035	89.12
264.267	77.12
264.499	81.12
264.732	76.12
264.964	77.12
265.197	83.12
265.429	75.12
265.661	75.12
265.894	68.12
266.126	66.12
266.358	89.12
266.591	78.12
266.823	72.12
267.055	70.12
267.287	97.12
267.52	78.12
267.752	57.12
267.984	68.12
268.216	73.12
268.448	74.12
268.681	88.12
268.913	95.12
269.145	81.12
269.377	94.12
269.609	85.12
269.841	97.12
270.073	87.12
270.306	78.12
270.538	88.12
270.77	86.12
271.002	79.12
271.234	79.12
271.466	77.12
271.698	76.12
271.93	74.12
272.162	70.12
272.394	74.12
272.626	82.12
272.858	85.12
273.09	83.12
273.322	78.12
273.553	73.12
273.785	82.12
274.017	86.12
274.249	87.12
274.481	65.12
274.713	84.12
274.945	77.12
275.176	83.12
275.408	93.12
275.64	79.12
275.872	69.12
276.104	81.12
276.335	82.12
276.567	79.12
276.799	82.12
277.031	80.12
277.262	80.12
277.494	88.12
277.726	85.12
277.957	82.12
278.189	75.12
278.421	60.12
278.652	86.12
278.884	90.12
279.115	95.12
279.347	88.12
279.579	79.12
279.81	78.12
280.042	79.12
280.273	88.12
280.505	88.12
280.736	81.12
280.968	89.12
281.199	76.12
281.431	86.12
281.662	74.12
281.894	94.12
282.125	89.12
282.356	85.12
282.588	77.12
282.819	75.12
283.051	99.12
283.282	82.12
283.513	92.12
283.745	87.12
283.976	83.12
284.207	90.12
284.439	83.12
284.67	84.12
284.901	79.12
285.132	79.12
285.364	73.12
285.595	91.12
285.826	83.12
286.057	90.12
286.288	81.12
286.52	83.12
286.751	90.12
286.982	91.12
287.213	82.12
287.444	90.12
287.675	86.12
287.906	92.12
288.138	79.12
288.369	88.12
288.6	75.12
288.831	87.12
289.062	84.12
289.293	76.12
289.524	90.12
289.755	80.12
289.986	85.12
290.217	83.12
290.448	86.12
290.679	88.12
290.91	91.12
291.141	88.12
291.371	83.12
291.602	73.12
291.833	87.12
292.064	89.12
292.295	89.12
292.526	75.12
292.757	87.12
292.987	93.12
293.218	83.12
293.449	82.12
293.68	84.12
293.91	78.12
294.141	87.12
294.372	88.12
294.603	86.12
294.833	93.12
295.064	86.12
295.295	79.12
295.525	91.12
295.756	77.12
295.987	73.12
296.217	72.12
296.448	69.12
296.679	96.12
296.909	105.12
297.14	98.12
297.37	90.12
297.601	79.12
297.831	84.12
298.062	83.12
298.292	84.12
298.523	83.12
298.753	82.12
298.984	81.12
299.214	96.12
299.445	89.12
299.675	101.12
299.905	92.12
300.136	88.12
300.366	95.12
300.597	84.12
300.827	80.12
301.057	103.12
301.288	75.12
301.518	75.12
301.748	91.12
301.979	102.12
302.209	88.12
302.439	83.12
302.669	101.12
302.9	90.12
303.13	74.12
303.36	81.12
303.59	84.12
303.82	81.12
304.051	83.12
304.281	91.12
304.511	74.12
304.741	84.12
304.971	85.12
305.201	85.12
305.431	70.12
305.661	80.12
305.891	82.12
306.121	80.12
306.352	97.12
306.582	83.12
306.812	79.12
307.042	97.12
307.272	85.12
307.502	90.12
307.731	90.12
307.961	96.12
308.191	89.12
308.421	92.12
308.651	81.12
308.881	99.12
309.111	78.12
309.341	94.12
309.571	78.12
309.8	77.12
310.03	90.12
310.26	87.12
310.49	88.12
310.72	95.12
310.949	88.12
311.179	87.12
311.409	77.12
311.639	83.12
311.868	89.12
312.098	95.12
312.328	80.12
312.557	99.12
312.787	86.12
313.017	78.12
313.246	90.12
313.476	97.12
313.706	88.12
313.935	79.12
314.165	80.12
314.394	83.12
314.624	83.12
314.853	78.12
315.083	74.12
315.312	87.12
315.542	84.12
315.771	76.12
316.001	72.12
316.23	87.12
316.46	82.12
316.689	86.12
316.919	85.12
317.148	84.12
317.377	95.12
317.607	83.12
317.836	100.12
318.065	84.12
318.295	92.12
318.524	90.12
318.753	93.12
318.983	102.12
319.212	82.12
319.441	77.12
319.67	98.12
319.9	77.12
320.129	88.12
320.358	89.12
320.587	92.12
320.816	82.12
321.046	74.12
321.275	83.12
321.504	95.12
321.733	81.12
321.962	98.12
322.191	82.12
322.42	85.12
322.649	102.12
322.878	86.12
323.108	79.12
323.337	83.12
323.566	98.12
323.795	82.12
324.024	82.12
324.253	79.12
324.482	77.12
324.71	75.12
324.939	75.12
325.168	83.12
325.397	87.12
325.626	94.12
325.855	83.12
326.084	82.12
326.313	69.12
326.542	87.12
326.77	84.12
326.999	79.12
327.228	87.12
327.457	95.12
327.686	91.12
327.914	69.12
328.143	76.12
328.372	86.12
328.6	83.12
328.829	76.12
329.058	78.12
329.287	72.12
329.515	90.12
329.744	80.12
329.972	80.12
330.201	68.12
330.43	82.12
330.658	88.12
330.887	74.12
331.115	88.12
331.344	96.12
331.572	82.12
331.801	76.12
332.03	80.12
332.258	90.12
332.486	89.12
332.715	96.12
332.943	98.12
333.172	86.12
333.4	86.12
333.629	76.12
333.857	87.12
334.085	75.12
334.314	74.12
334.542	78.12
334.771	87.12
334.999	94.12
335.227	86.12
335.455	91.12
335.684	88.12
335.912	100.12
336.14	92.12
336.369	90.12
336.597	85.12
336.825	77.12
337.053	74.12
337.281	94.12
337.51	80.12
337.738	94.12
337.966	100.12
338.194	79.12
338.422	96.12
338.65	84.12
338.878	89.12
339.106	85.12
339.334	98.12
339.562	78.12
339.79	86.12
340.018	94.12
340.246	72.12
340.474	72.12
340.702	79.12
340.93	83.12
341.158	92.12
341.386	76.12
341.614	87.12
341.842	86.12
342.07	81.12
342.298	99.12
342.526	95.12
342.754	75.12
342.981	83.12
343.209	79.12
343.437	94.12
343.665	82.12
343.893	89.12
344.12	100.12
344.348	86.12
344.576	95.12
344.804	83.12
345.031	85.12
345.259	88.12
345.487	87.12
345.714	91.12
345.942	80.12
346.17	83.12
346.397	80.12
346.625	77.12
346.853	88.12
347.08	86.12
347.308	82.12
347.535	85.12
347.763	82.12
347.99	99.12
348.218	90.12
348.445	91.12
348.673	89.12
348.9	88.12
349.128	96.12
349.355	81.12
349.583	86.12
349.81	72.12
350.037	105.12
350.265	95.12
350.492	89.12
350.72	76.12
350.947	79.12
351.174	91.12
351.402	97.12
351.629	87.12
351.856	84.12
352.083	80.12
352.311	73.12
352.538	79.12
352.765	90.12
352.992	91.12
353.22	87.12
353.447	83.12
353.674	79.12
353.901	74.12
354.128	95.12
354.355	83.12
354.583	89.12
354.81	73.12
355.037	87.12
355.264	93.12
355.491	73.12
355.718	78.12
355.945	81.12
356.172	82.12
356.399	79.12
356.626	81.12
356.853	80.12
357.08	96.12
357.307	85.12
357.534	81.12
357.761	83.12
357.988	94.12
358.215	73.12
358.441	71.12
358.668	88.12
358.895	88.12
359.122	81.12
359.349	98.12
359.576	79.12
359.802	88.12
360.029	79.12
360.256	78.12
360.483	86.12
360.709	71.12
360.936	88.12
361.163	92.12
361.39	87.12
361.616	71.12
361.843	87.12
362.07	89.12
362.296	79.12
362.523	99.12
362.749	90.12
362.976	83.12
363.203	95.12
363.429	87.12
363.656	98.12
363.882	87.12
364.109	88.12
364.335	87.12
364.562	86.12
364.788	79.12
365.015	84.12
365.241	67.12
365.468	90.12
365.694	88.12
365.92	86.12
366.147	77.12
366.373	91.12
366.599	66.12
366.826	72.12
367.052	82.12
367.278	96.12
367.505	82.12
367.731	97.12
367.957	82.12
368.184	76.12
368.41	92.12
368.636	65.12
368.862	90.12
369.089	96.12
369.315	74.12
369.541	88.12
369.767	78.12
369.993	82.12
370.219	75.12
370.445	75.12
370.672	77.12
370.898	96.12
371.124	81.12
371.35	88.12
371.576	87.12
371.802	87.12
372.028	80.12
372.254	74.12
372.48	90.12
372.706	84.12
372.932	72.12
373.158	77.12
373.384	88.12
373.61	92.12
373.835	98.12
374.061	93.12
374.287	84.12
374.513	82.12
374.739	81.12
374.965	86.12
375.191	88.12
375.416	90.12
375.642	73.12
375.868	83.12
376.094	91.12
376.319	95.12
376.545	76.12
376.771	83.12
376.997	85.12
377.222	79.12
377.448	86.12
377.674	84.12
377.899	87.12
378.125	78.12
378.35	80.12
378.576	74.12
378.802	73.12
379.027	82.12
379.253	92.12
379.478	85.12
379.704	90.12
379.929	87.12
380.155	86.12
380.38	89.12
380.606	90.12
380.831	107.12
381.057	97.12
381.282	74.12
381.507	88.12
381.733	80.12
381.958	86.12
382.184	72.12
382.409	86.12
382.634	78.12
382.86	88.12
383.085	91.12
383.31	84.12
383.535	96.12
383.761	77.12
383.986	80.12
384.211	87.12
384.436	69.12
384.662	68.12
384.887	82.12
385.112	74.12
385.337	77.12
385.562	67.12
385.787	76.12
386.013	97.12
386.238	78.12
386.463	82.12
386.688	93.12
386.913	83.12
387.138	80.12
387.363	83.12
387.588	88.12
387.813	78.12
388.038	76.12
388.263	72.12
388.488	82.12
388.713	83.12
388.938	93.12
389.163	84.12
389.387	81.12
389.612	73.12
389.837	72.12
390.062	80.12
390.287	88.12
390.512	76.12
390.736	88.12
390.961	85.12
391.186	80.12
391.411	84.12
391.636	83.12
391.86	86.12
392.085	94.12
392.31	82.12
392.534	77.12
392.759	90.12
392.984	63.12
393.208	92.12
393.433	94.12
393.658	80.12
393.882	97.12
394.107	80.12
394.331	80.12
394.556	85.12
394.78	79.12
395.005	80.12
395.229	98.12
395.454	82.12
395.678	83.12
395.903	91.12
396.127	86.12
396.352	94.12
396.576	87.12
396.801	81.12
397.025	84.12
397.249	83.12
397.474	104.12
397.698	67.12
397.922	94.12
398.147	80.12
398.371	87.12
398.595	81.12
398.82	74.12
399.044	86.12
399.268	83.12
399.492	84.12
399.717	83.12
399.941	75.12
400.165	72.12
400.389	76.12
400.613	75.12
400.837	75.12
401.062	92.12
401.286	81.12
401.51	72.12
401.734	79.12
401.958	83.12
402.182	79.12
402.406	75.12
402.63	91.12
402.854	79.12
403.078	90.12
403.302	97.12
403.526	95.12
403.75	85.12
403.974	74.12
404.198	74.12
404.422	85.12
404.645	80.12
404.869	80.12
405.093	74.12
405.317	77.12
405.541	83.12
405.765	84.12
405.988	84.12
406.212	84.12
406.436	77.12
406.66	81.12
406.883	89.12
407.107	84.12
407.331	78.12
407.555	80.12
407.778	77.12
408.002	92.12
408.226	82.12
408.449	78.12
408.673	74.12
408.896	96.12
409.12	78.12
409.344	79.12
409.567	84.12
409.791	85.12
410.014	85.12
410.238	89.12
410.461	82.12
410.685	78.12
410.908	75.12
411.132	69.12
411.355	84.12
411.578	82.12
411.802	81.12
412.025	90.12
412.249	78.12
412.472	77.12
412.695	80.12
412.919	82.12
413.142	76.12
413.365	91.12
413.589	92.12
413.812	77.12
414.035	76.12
414.258	92.12
414.482	79.12
414.705	86.12
414.928	86.12
415.151	83.12
415.374	75.12
415.597	86.12
415.821	88.12
416.044	81.12
416.267	86.12
416.49	78.12
416.713	78.12
416.936	92.12
417.159	88.12
417.382	73.12
417.605	83.12
417.828	80.12
418.051	78.12
418.274	86.12
418.497	82.12
418.72	84.12
418.943	84.12
419.166	77.12
419.389	93.12
419.611	67.12
419.834	71.12
420.057	87.12
420.28	79.12
420.503	81.12
420.726	79.12
420.948	79.12
421.171	81.12
421.394	86.12
421.617	80.12
421.839	80.12
422.062	75.12
422.285	95.12
422.507	74.12
422.73	86.12
422.953	110.12
423.175	86.12
423.398	91.12
423.621	88.12
423.843	91.12
424.066	76.12
424.288	79.12
424.511	75.12
424.733	80.12
424.956	78.12
425.178	86.12
425.401	74.12
425.623	74.12
425.846	90.12
426.068	73.12
426.291	78.12
426.513	93.12
426.735	80.12
426.958	94.12
427.18	80.12
427.402	76.12
427.625	81.12
427.847	84.12
428.069	79.12
428.292	81.12
428.514	81.12
428.736	79.12
428.958	79.12
429.181	95.12
429.403	73.12
429.625	68.12
429.847	88.12
430.069	85.12
430.292	75.12
430.514	85.12
430.736	62.12
430.958	88.12
431.18	75.12
431.402	79.12
431.624	76.12
431.846	94.12
432.068	78.12
432.29	82.12
432.512	76.12
432.734	81.12
432.956	78.12
433.178	90.12
433.4	87.12
433.622	81.12
433.844	87.12
434.066	83.12
434.287	81.12
434.509	62.12
434.731	68.12
434.953	76.12
435.175	79.12
435.397	93.12
435.618	78.12
435.84	78.12
436.062	74.12
436.284	92.12
436.505	82.12
436.727	83.12
436.949	86.12
437.17	96.12
437.392	80.12
437.614	77.12
437.835	70.12
438.057	77.12
438.278	82.12
438.5	77.12
438.721	85.12
438.943	96.12
439.165	68.12
439.386	89.12
439.608	99.12
439.829	82.12
440.05	79.12
440.272	79.12
440.493	84.12
440.715	89.12
440.936	91.12
441.158	86.12
441.379	72.12
441.6	59.12
441.822	78.12
442.043	71.12
442.264	80.12
442.486	75.12
442.707	75.12
442.928	79.12
443.149	87.12
443.371	78.12
443.592	80.12
443.813	81.12
444.034	85.12
444.255	90.12
444.476	85.12
444.698	92.12
444.919	86.12
445.14	143.12
445.361	120.12
445.582	96.12
445.803	97.12
446.024	82.12
446.245	78.12
446.466	89.12
446.687	94.12
446.908	79.12
447.129	79.12
447.35	62.12
447.571	79.12
447.792	92.12
448.013	68.12
448.234	72.12
448.455	79.12
448.675	79.12
448.896	87.12
449.117	86.12
449.338	94.12
449.559	95.12
449.779	94.12
450	93.12
450.221	71.12
450.442	83.12
450.662	92.12
450.883	98.12
451.104	78.12
451.324	70.12
451.545	68.12
451.766	79.12
451.986	74.12
452.207	83.12
452.428	87.12
452.648	81.12
452.869	80.12
453.089	71.12
453.31	73.12
453.53	90.12
453.751	95.12
453.971	85.12
454.192	73.12
454.412	84.12
454.633	81.12
454.853	73.12
455.073	82.12
455.294	72.12
455.514	81.12
455.734	77.12
455.955	71.12
456.175	103.12
456.395	83.12
456.616	75.12
456.836	87.12
457.056	80.12
457.276	83.12
457.497	90.12
457.717	82.12
457.937	80.12
458.157	66.12
458.377	76.12
458.598	91.12
458.818	86.12
459.038	88.12
459.258	79.12
459.478	89.12
459.698	73.12
459.918	79.12
460.138	89.12
460.358	97.12
460.578	72.12
460.798	82.12
461.018	78.12
461.238	77.12
461.458	86.12
461.678	82.12
461.898	75.12
462.118	67.12
462.338	81.12
462.558	73.12
462.777	96.12
462.997	80.12
463.217	95.12
463.437	84.12
463.657	81.12
463.876	83.12
464.096	78.12
464.316	70.12
464.536	81.12
464.755	79.12
464.975	95.12
465.195	104.12
465.414	80.12
465.634	80.12
465.854	86.12
466.073	88.12
466.293	76.12
466.512	100.12
466.732	83.12
466.951	81.12
467.171	86.12
467.391	83.12
467.61	81.12
467.829	78.12
468.049	82.12
468.268	79.12
468.488	72.12
468.707	77.12
468.927	74.12
469.146	92.12
469.365	77.12
469.585	74.12
469.804	80.12
470.023	84.12
470.243	102.12
470.462	92.12
470.681	80.12
470.901	88.12
471.12	79.12
471.339	78.12
471.558	89.12
471.777	90.12
471.997	91.12
472.216	84.12
472.435	78.12
472.654	73.12
472.873	84.12
473.092	79.12
473.311	93.12
473.53	78.12
473.749	67.12
473.968	79.12
474.187	86.12
474.406	87.12
474.625	74.12
474.844	95.12
475.063	87.12
475.282	63.12
475.501	76.12
475.72	81.12
475.939	88.12
476.158	89.12
476.377	83.12
476.596	78.12
476.814	85.12
477.033	75.12
477.252	75.12
477.471	86.12
477.69	80.12
477.908	82.12
478.127	78.12
478.346	89.12
478.564	86.12
478.783	85.12
479.002	70.12
479.22	75.12
479.439	73.12
479.658	82.12
479.876	88.12
480.095	91.12
480.313	84.12
480.532	91.12
480.751	87.12
480.969	83.12
481.188	77.12
481.406	79.12
481.624	81.12
481.843	81.12
482.061	71.12
482.28	73.12
482.498	83.12
482.717	84.12
482.935	74.12
483.153	88.12
483.372	87.12
483.59	91.12
483.808	83.12
484.027	82.12
484.245	100.12
484.463	67.12
484.681	95.12
484.9	87.12
485.118	82.12
485.336	84.12
485.554	98.12
485.772	84.12
485.99	87.12
486.209	82.12
486.427	80.12
486.645	84.12
486.863	88.12
487.081	87.12
487.299	83.12
487.517	95.12
487.735	88.12
487.953	74.12
488.171	91.12
488.389	85.12
488.607	76.12
488.825	86.12
489.043	75.12
489.261	83.12
489.479	80.12
489.696	86.12
489.914	82.12
490.132	76.12
490.35	89.12
490.568	80.12
490.786	82.12
491.003	83.12
491.221	82.12
491.439	73.12
491.657	84.12
491.874	93.12
492.092	75.12
492.31	80.12
492.527	92.12
492.745	95.12
492.963	81.12
493.18	91.12
493.398	89.12
493.615	78.12
493.833	76.12
494.05	87.12
494.268	98.12
494.485	84.12
494.703	91.12
494.92	83.12
495.138	94.12
495.355	77.12
495.573	88.12
495.79	74.12
496.008	95.12
496.225	75.12
496.442	74.12
496.66	90.12
496.877	93.12
497.094	96.12
497.312	76.12
497.529	71.12
497.746	93.12
497.963	77.12
498.181	84.12
498.398	78.12
498.615	98.12
498.832	89.12
499.049	81.12
499.267	87.12
499.484	92.12
499.701	91.12
499.918	77.12
500.135	94.12
500.352	77.12
500.569	85.12
500.786	89.12
501.003	94.12
501.22	98.12
501.437	90.12
501.654	89.12
501.871	88.12
502.088	82.12
502.305	86.12
502.522	89.12
502.739	94.12
502.956	81.12
503.172	95.12
503.389	93.12
503.606	88.12
503.823	89.12
504.04	79.12
504.256	96.12
504.473	80.12
504.69	86.12
504.907	88.12
505.123	92.12
505.34	88.12
505.557	71.12
505.773	78.12
505.99	79.12
506.207	96.12
506.423	83.12
506.64	82.12
506.856	96.12
507.073	84.12
507.289	73.12
507.506	82.12
507.722	82.12
507.939	79.12
508.155	78.12
508.372	82.12
508.588	103.12
508.805	83.12
509.021	88.12
509.238	68.12
509.454	77.12
509.67	82.12
509.887	90.12
510.103	73.12
510.319	94.12
510.536	87.12
510.752	83.12
510.968	95.12
511.184	79.12
511.401	86.12
511.617	102.12
511.833	86.12
512.049	83.12
512.265	86.12
512.481	89.12
512.698	75.12
512.914	87.12
513.13	75.12
513.346	70.12
513.562	77.12
513.778	83.12
513.994	97.12
514.21	86.12
514.426	83.12
514.642	87.12
514.858	91.12
515.074	77.12
515.29	94.12
515.506	84.12
515.721	88.12
515.937	102.12
516.153	90.12
516.369	78.12
516.585	90.12
516.801	76.12
517.016	84.12
517.232	72.12
517.448	94.12
517.664	82.12
517.879	89.12
518.095	87.12
518.311	84.12
518.527	64.12
518.742	74.12
518.958	80.12
519.173	110.12
519.389	94.12
519.605	85.12
519.82	88.12
520.036	83.12
