Data from Dirtheat2_HRD10591_00002.txt Node
Date: Fri Dec 27 15:15:02 EST 2024
User: Yrep
Spectrometer: HR+D1059
Trigger mode: 1
Integration Time (sec): 1.000000E-1
Scans to average: 1
Electric dark correction enabled: true
Nonlinearity correction enabled: false
Boxcar width: 0
XAxis mode: Wavelengths
Number of Pixels in Spectrum: 2048
>>>>>Begin Spectral Data<<<<<
223.165	-22.38
223.4	-22.38
223.635	-22.38
223.869	-28.38
224.104	-16.38
224.338	-8.38
224.573	-19.38
224.808	-20.38
225.042	-1.38
225.277	-3.38
225.511	8.62
225.746	10.62
225.98	0.62
226.215	5.62
226.449	6.62
226.683	26.62
226.918	24.62
227.152	36.62
227.387	41.62
227.621	31.62
227.856	47.62
228.09	39.62
228.324	50.62
228.559	52.62
228.793	55.62
229.027	71.62
229.262	77.62
229.496	69.62
229.73	77.62
229.964	78.62
230.199	79.62
230.433	87.62
230.667	79.62
230.901	90.62
231.136	89.62
231.37	89.62
231.604	93.62
231.838	87.62
232.072	90.62
232.306	90.62
232.541	89.62
232.775	103.62
233.009	100.62
233.243	85.62
233.477	75.62
233.711	85.62
233.945	88.62
234.179	76.62
234.413	80.62
234.647	73.62
234.881	92.62
235.115	85.62
235.349	79.62
235.583	82.62
235.817	73.62
236.051	70.62
236.285	79.62
236.519	89.62
236.753	91.62
236.987	86.62
237.221	82.62
237.455	66.62
237.689	72.62
237.922	65.62
238.156	70.62
238.39	80.62
238.624	76.62
238.858	74.62
239.091	75.62
239.325	78.62
239.559	77.62
239.793	73.62
240.027	80.62
240.26	86.62
240.494	76.62
240.728	71.62
240.961	84.62
241.195	82.62
241.429	78.62
241.662	78.62
241.896	66.62
242.13	75.62
242.363	83.62
242.597	74.62
242.83	82.62
243.064	84.62
243.298	64.62
243.531	80.62
243.765	92.62
243.998	74.62
244.232	74.62
244.465	69.62
244.699	74.62
244.932	81.62
245.166	91.62
245.399	78.62
245.633	75.62
245.866	83.62
246.099	85.62
246.333	89.62
246.566	79.62
246.8	76.62
247.033	81.62
247.266	84.62
247.5	74.62
247.733	90.62
247.966	76.62
248.2	81.62
248.433	73.62
248.666	82.62
248.899	71.62
249.133	89.62
249.366	70.62
249.599	80.62
249.832	95.62
250.066	74.62
250.299	83.62
250.532	73.62
250.765	72.62
250.998	90.62
251.231	84.62
251.465	75.62
251.698	97.62
251.931	78.62
252.164	80.62
252.397	84.62
252.63	69.62
252.863	74.62
253.096	78.62
253.329	79.62
253.562	84.62
253.795	79.62
254.028	78.62
254.261	98.62
254.494	67.62
254.727	75.62
254.96	72.62
255.193	81.62
255.426	89.62
255.659	95.62
255.892	93.62
256.124	77.62
256.357	86.62
256.59	81.62
256.823	86.62
257.056	80.62
257.289	77.62
257.521	86.62
257.754	73.62
257.987	91.62
258.22	87.62
258.452	85.62
258.685	93.62
258.918	81.62
259.151	81.62
259.383	84.62
259.616	90.62
259.849	72.62
260.081	79.62
260.314	89.62
260.547	88.62
260.779	96.62
261.012	82.62
261.244	81.62
261.477	79.62
261.71	81.62
261.942	70.62
262.175	84.62
262.407	81.62
262.64	75.62
262.872	84.62
263.105	94.62
263.337	89.62
263.57	82.62
263.802	88.62
264.035	92.62
264.267	76.62
264.499	81.62
264.732	78.62
264.964	85.62
265.197	85.62
265.429	75.62
265.661	77.62
265.894	93.62
266.126	95.62
266.358	83.62
266.591	95.62
266.823	85.62
267.055	82.62
267.287	79.62
267.52	93.62
267.752	87.62
267.984	78.62
268.216	88.62
268.448	90.62
268.681	85.62
268.913	85.62
269.145	81.62
269.377	87.62
269.609	77.62
269.841	78.62
270.073	82.62
270.306	95.62
270.538	91.62
270.77	83.62
271.002	91.62
271.234	79.62
271.466	85.62
271.698	88.62
271.93	67.62
272.162	72.62
272.394	95.62
272.626	83.62
272.858	84.62
273.09	94.62
273.322	84.62
273.553	91.62
273.785	84.62
274.017	70.62
274.249	75.62
274.481	83.62
274.713	79.62
274.945	94.62
275.176	95.62
275.408	81.62
275.64	94.62
275.872	76.62
276.104	90.62
276.335	91.62
276.567	84.62
276.799	85.62
277.031	93.62
277.262	77.62
277.494	92.62
277.726	80.62
277.957	84.62
278.189	91.62
278.421	80.62
278.652	84.62
278.884	66.62
279.115	72.62
279.347	87.62
279.579	81.62
279.81	88.62
280.042	82.62
280.273	72.62
280.505	75.62
280.736	79.62
280.968	84.62
281.199	92.62
281.431	87.62
281.662	93.62
281.894	61.62
282.125	76.62
282.356	78.62
282.588	82.62
282.819	69.62
283.051	81.62
283.282	84.62
283.513	92.62
283.745	83.62
283.976	93.62
284.207	100.62
284.439	101.62
284.67	84.62
284.901	78.62
285.132	84.62
285.364	74.62
285.595	100.62
285.826	86.62
286.057	98.62
286.288	88.62
286.52	86.62
286.751	88.62
286.982	84.62
287.213	78.62
287.444	80.62
287.675	80.62
287.906	98.62
288.138	104.62
288.369	90.62
288.6	78.62
288.831	78.62
289.062	74.62
289.293	83.62
289.524	87.62
289.755	97.62
289.986	69.62
290.217	80.62
290.448	98.62
290.679	96.62
290.91	86.62
291.141	86.62
291.371	82.62
291.602	81.62
291.833	89.62
292.064	77.62
292.295	75.62
292.526	90.62
292.757	82.62
292.987	86.62
293.218	85.62
293.449	80.62
293.68	85.62
293.91	89.62
294.141	89.62
294.372	97.62
294.603	92.62
294.833	86.62
295.064	88.62
295.295	84.62
295.525	87.62
295.756	97.62
295.987	84.62
296.217	80.62
296.448	65.62
296.679	82.62
296.909	96.62
297.14	90.62
297.37	93.62
297.601	94.62
297.831	77.62
298.062	95.62
298.292	87.62
298.523	90.62
298.753	103.62
298.984	94.62
299.214	87.62
299.445	103.62
299.675	84.62
299.905	73.62
300.136	97.62
300.366	77.62
300.597	73.62
300.827	93.62
301.057	81.62
301.288	69.62
301.518	92.62
301.748	107.62
301.979	122.62
302.209	93.62
302.439	84.62
302.669	70.62
302.9	78.62
303.13	84.62
303.36	90.62
303.59	86.62
303.82	93.62
304.051	83.62
304.281	89.62
304.511	105.62
304.741	85.62
304.971	62.62
305.201	92.62
305.431	90.62
305.661	92.62
305.891	85.62
306.121	88.62
306.352	85.62
306.582	92.62
306.812	87.62
307.042	84.62
307.272	90.62
307.502	76.62
307.731	88.62
307.961	89.62
308.191	78.62
308.421	86.62
308.651	80.62
308.881	86.62
309.111	97.62
309.341	86.62
309.571	80.62
309.8	83.62
310.03	87.62
310.26	86.62
310.49	97.62
310.72	95.62
310.949	88.62
311.179	83.62
311.409	69.62
311.639	81.62
311.868	83.62
312.098	84.62
312.328	86.62
312.557	91.62
312.787	73.62
313.017	92.62
313.246	85.62
313.476	99.62
313.706	89.62
313.935	93.62
314.165	95.62
314.394	76.62
314.624	87.62
314.853	76.62
315.083	75.62
315.312	94.62
315.542	92.62
315.771	85.62
316.001	71.62
316.23	92.62
316.46	83.62
316.689	91.62
316.919	81.62
317.148	92.62
317.377	88.62
317.607	94.62
317.836	81.62
318.065	95.62
318.295	88.62
318.524	88.62
318.753	88.62
318.983	87.62
319.212	86.62
319.441	74.62
319.67	83.62
319.9	88.62
320.129	84.62
320.358	89.62
320.587	86.62
320.816	83.62
321.046	81.62
321.275	77.62
321.504	84.62
321.733	89.62
321.962	86.62
322.191	97.62
322.42	83.62
322.649	96.62
322.878	91.62
323.108	83.62
323.337	77.62
323.566	79.62
323.795	87.62
324.024	88.62
324.253	88.62
324.482	81.62
324.71	100.62
324.939	91.62
325.168	88.62
325.397	89.62
325.626	100.62
325.855	84.62
326.084	82.62
326.313	82.62
326.542	99.62
326.77	73.62
326.999	73.62
327.228	93.62
327.457	65.62
327.686	87.62
327.914	87.62
328.143	89.62
328.372	95.62
328.6	96.62
328.829	82.62
329.058	83.62
329.287	73.62
329.515	79.62
329.744	98.62
329.972	87.62
330.201	99.62
330.43	97.62
330.658	78.62
330.887	83.62
331.115	84.62
331.344	81.62
331.572	93.62
331.801	85.62
332.03	92.62
332.258	96.62
332.486	81.62
332.715	84.62
332.943	74.62
333.172	99.62
333.4	95.62
333.629	95.62
333.857	75.62
334.085	91.62
334.314	88.62
334.542	88.62
334.771	93.62
334.999	92.62
335.227	90.62
335.455	89.62
335.684	87.62
335.912	91.62
336.14	93.62
336.369	98.62
336.597	81.62
336.825	75.62
337.053	77.62
337.281	91.62
337.51	85.62
337.738	85.62
337.966	83.62
338.194	74.62
338.422	100.62
338.65	112.62
338.878	99.62
339.106	84.62
339.334	88.62
339.562	88.62
339.79	78.62
340.018	80.62
340.246	91.62
340.474	73.62
340.702	86.62
340.93	92.62
341.158	77.62
341.386	94.62
341.614	85.62
341.842	77.62
342.07	73.62
342.298	72.62
342.526	63.62
342.754	77.62
342.981	88.62
343.209	90.62
343.437	106.62
343.665	81.62
343.893	70.62
344.12	79.62
344.348	77.62
344.576	91.62
344.804	98.62
345.031	81.62
345.259	98.62
345.487	80.62
345.714	82.62
345.942	90.62
346.17	91.62
346.397	83.62
346.625	83.62
346.853	89.62
347.08	88.62
347.308	97.62
347.535	89.62
347.763	86.62
347.99	91.62
348.218	79.62
348.445	88.62
348.673	82.62
348.9	82.62
349.128	100.62
349.355	76.62
349.583	79.62
349.81	95.62
350.037	93.62
350.265	98.62
350.492	83.62
350.72	92.62
350.947	93.62
351.174	92.62
351.402	81.62
351.629	79.62
351.856	87.62
352.083	84.62
352.311	84.62
352.538	86.62
352.765	90.62
352.992	93.62
353.22	84.62
353.447	88.62
353.674	77.62
353.901	88.62
354.128	89.62
354.355	91.62
354.583	88.62
354.81	85.62
355.037	83.62
355.264	83.62
355.491	73.62
355.718	81.62
355.945	88.62
356.172	91.62
356.399	91.62
356.626	91.62
356.853	96.62
357.08	81.62
357.307	88.62
357.534	77.62
357.761	85.62
357.988	101.62
358.215	92.62
358.441	71.62
358.668	81.62
358.895	85.62
359.122	87.62
359.349	88.62
359.576	80.62
359.802	93.62
360.029	84.62
360.256	90.62
360.483	84.62
360.709	74.62
360.936	85.62
361.163	88.62
361.39	85.62
361.616	84.62
361.843	89.62
362.07	96.62
362.296	79.62
362.523	88.62
362.749	89.62
362.976	79.62
363.203	90.62
363.429	98.62
363.656	106.62
363.882	88.62
364.109	82.62
364.335	75.62
364.562	79.62
364.788	83.62
365.015	75.62
365.241	94.62
365.468	92.62
365.694	94.62
365.92	77.62
366.147	77.62
366.373	87.62
366.599	88.62
366.826	78.62
367.052	85.62
367.278	92.62
367.505	92.62
367.731	104.62
367.957	82.62
368.184	62.62
368.41	81.62
368.636	90.62
368.862	87.62
369.089	78.62
369.315	95.62
369.541	95.62
369.767	83.62
369.993	87.62
370.219	89.62
370.445	98.62
370.672	78.62
370.898	101.62
371.124	89.62
371.35	89.62
371.576	82.62
371.802	77.62
372.028	87.62
372.254	82.62
372.48	95.62
372.706	78.62
372.932	82.62
373.158	92.62
373.384	92.62
373.61	85.62
373.835	86.62
374.061	76.62
374.287	79.62
374.513	104.62
374.739	76.62
374.965	95.62
375.191	87.62
375.416	88.62
375.642	87.62
375.868	91.62
376.094	89.62
376.319	79.62
376.545	74.62
376.771	82.62
376.997	92.62
377.222	77.62
377.448	76.62
377.674	80.62
377.899	81.62
378.125	94.62
378.35	99.62
378.576	85.62
378.802	97.62
379.027	85.62
379.253	83.62
379.478	97.62
379.704	92.62
379.929	90.62
380.155	82.62
380.38	92.62
380.606	83.62
380.831	97.62
381.057	97.62
381.282	86.62
381.507	94.62
381.733	97.62
381.958	78.62
382.184	90.62
382.409	72.62
382.634	100.62
382.86	84.62
383.085	89.62
383.31	81.62
383.535	68.62
383.761	85.62
383.986	82.62
384.211	92.62
384.436	90.62
384.662	85.62
384.887	104.62
385.112	87.62
385.337	84.62
385.562	84.62
385.787	83.62
386.013	89.62
386.238	79.62
386.463	77.62
386.688	90.62
386.913	79.62
387.138	79.62
387.363	85.62
387.588	80.62
387.813	77.62
388.038	79.62
388.263	99.62
388.488	92.62
388.713	90.62
388.938	83.62
389.163	86.62
389.387	97.62
389.612	65.62
389.837	75.62
390.062	69.62
390.287	79.62
390.512	90.62
390.736	83.62
390.961	86.62
391.186	83.62
391.411	83.62
391.636	82.62
391.86	76.62
392.085	93.62
392.31	76.62
392.534	77.62
392.759	95.62
392.984	96.62
393.208	98.62
393.433	115.62
393.658	98.62
393.882	78.62
394.107	95.62
394.331	106.62
394.556	81.62
394.78	99.62
395.005	88.62
395.229	84.62
395.454	81.62
395.678	76.62
395.903	103.62
396.127	84.62
396.352	91.62
396.576	78.62
396.801	86.62
397.025	83.62
397.249	85.62
397.474	87.62
397.698	87.62
397.922	85.62
398.147	93.62
398.371	71.62
398.595	81.62
398.82	81.62
399.044	79.62
399.268	80.62
399.492	92.62
399.717	79.62
399.941	99.62
400.165	90.62
400.389	69.62
400.613	77.62
400.837	93.62
401.062	87.62
401.286	88.62
401.51	91.62
401.734	85.62
401.958	89.62
402.182	93.62
402.406	74.62
402.63	84.62
402.854	94.62
403.078	92.62
403.302	83.62
403.526	69.62
403.75	80.62
403.974	78.62
404.198	79.62
404.422	84.62
404.645	76.62
404.869	80.62
405.093	82.62
405.317	67.62
405.541	81.62
405.765	74.62
405.988	92.62
406.212	78.62
406.436	88.62
406.66	88.62
406.883	98.62
407.107	71.62
407.331	85.62
407.555	91.62
407.778	85.62
408.002	91.62
408.226	88.62
408.449	88.62
408.673	75.62
408.896	70.62
409.12	83.62
409.344	86.62
409.567	93.62
409.791	82.62
410.014	81.62
410.238	84.62
410.461	69.62
410.685	77.62
410.908	84.62
411.132	84.62
411.355	86.62
411.578	76.62
411.802	65.62
412.025	66.62
412.249	84.62
412.472	85.62
412.695	77.62
412.919	75.62
413.142	76.62
413.365	83.62
413.589	94.62
413.812	81.62
414.035	88.62
414.258	103.62
414.482	81.62
414.705	71.62
414.928	98.62
415.151	87.62
415.374	76.62
415.597	73.62
415.821	72.62
416.044	83.62
416.267	77.62
416.49	84.62
416.713	77.62
416.936	103.62
417.159	77.62
417.382	77.62
417.605	99.62
417.828	93.62
418.051	89.62
418.274	95.62
418.497	79.62
418.72	81.62
418.943	86.62
419.166	78.62
419.389	74.62
419.611	83.62
419.834	84.62
420.057	86.62
420.28	69.62
420.503	88.62
420.726	93.62
420.948	97.62
421.171	83.62
421.394	89.62
421.617	80.62
421.839	90.62
422.062	88.62
422.285	79.62
422.507	101.62
422.73	99.62
422.953	108.62
423.175	82.62
423.398	77.62
423.621	91.62
423.843	83.62
424.066	93.62
424.288	79.62
424.511	85.62
424.733	79.62
424.956	74.62
425.178	91.62
425.401	77.62
425.623	81.62
425.846	81.62
426.068	77.62
426.291	88.62
426.513	80.62
426.735	81.62
426.958	96.62
427.18	85.62
427.402	90.62
427.625	81.62
427.847	77.62
428.069	70.62
428.292	91.62
428.514	94.62
428.736	90.62
428.958	76.62
429.181	81.62
429.403	79.62
429.625	73.62
429.847	80.62
430.069	82.62
430.292	91.62
430.514	74.62
430.736	76.62
430.958	80.62
431.18	74.62
431.402	77.62
431.624	87.62
431.846	77.62
432.068	81.62
432.29	87.62
432.512	95.62
432.734	90.62
432.956	85.62
433.178	81.62
433.4	86.62
433.622	105.62
433.844	94.62
434.066	91.62
434.287	91.62
434.509	69.62
434.731	83.62
434.953	82.62
435.175	86.62
435.397	81.62
435.618	93.62
435.84	85.62
436.062	91.62
436.284	79.62
436.505	94.62
436.727	74.62
436.949	75.62
437.17	72.62
437.392	85.62
437.614	78.62
437.835	85.62
438.057	79.62
438.278	83.62
438.5	87.62
438.721	87.62
438.943	86.62
439.165	81.62
439.386	82.62
439.608	83.62
439.829	81.62
440.05	79.62
440.272	81.62
440.493	74.62
440.715	82.62
440.936	77.62
441.158	81.62
441.379	73.62
441.6	81.62
441.822	73.62
442.043	88.62
442.264	76.62
442.486	86.62
442.707	94.62
442.928	74.62
443.149	63.62
443.371	87.62
443.592	88.62
443.813	97.62
444.034	87.62
444.255	91.62
444.476	69.62
444.698	91.62
444.919	81.62
445.14	149.62
445.361	117.62
445.582	103.62
445.803	98.62
446.024	91.62
446.245	73.62
446.466	85.62
446.687	92.62
446.908	84.62
447.129	77.62
447.35	79.62
447.571	75.62
447.792	75.62
448.013	83.62
448.234	87.62
448.455	83.62
448.675	79.62
448.896	80.62
449.117	82.62
449.338	87.62
449.559	78.62
449.779	81.62
450	84.62
450.221	74.62
450.442	80.62
450.662	80.62
450.883	76.62
451.104	79.62
451.324	85.62
451.545	84.62
451.766	91.62
451.986	80.62
452.207	85.62
452.428	105.62
452.648	93.62
452.869	100.62
453.089	96.62
453.31	78.62
453.53	85.62
453.751	78.62
453.971	88.62
454.192	80.62
454.412	100.62
454.633	77.62
454.853	82.62
455.073	74.62
455.294	92.62
455.514	82.62
455.734	71.62
455.955	74.62
456.175	64.62
456.395	78.62
456.616	88.62
456.836	86.62
457.056	82.62
457.276	68.62
457.497	76.62
457.717	87.62
457.937	96.62
458.157	69.62
458.377	79.62
458.598	79.62
458.818	94.62
459.038	90.62
459.258	83.62
459.478	82.62
459.698	74.62
459.918	71.62
460.138	75.62
460.358	83.62
460.578	84.62
460.798	88.62
461.018	88.62
461.238	72.62
461.458	97.62
461.678	88.62
461.898	64.62
462.118	77.62
462.338	74.62
462.558	74.62
462.777	74.62
462.997	79.62
463.217	80.62
463.437	101.62
463.657	81.62
463.876	83.62
464.096	75.62
464.316	89.62
464.536	86.62
464.755	88.62
464.975	85.62
465.195	79.62
465.414	84.62
465.634	83.62
465.854	87.62
466.073	94.62
466.293	61.62
466.512	91.62
466.732	78.62
466.951	75.62
467.171	71.62
467.391	83.62
467.61	75.62
467.829	81.62
468.049	84.62
468.268	77.62
468.488	82.62
468.707	93.62
468.927	77.62
469.146	72.62
469.365	89.62
469.585	72.62
469.804	99.62
470.023	81.62
470.243	109.62
470.462	105.62
470.681	83.62
470.901	76.62
471.12	91.62
471.339	94.62
471.558	66.62
471.777	70.62
471.997	88.62
472.216	72.62
472.435	90.62
472.654	76.62
472.873	85.62
473.092	92.62
473.311	84.62
473.53	92.62
473.749	87.62
473.968	83.62
474.187	81.62
474.406	85.62
474.625	87.62
474.844	96.62
475.063	80.62
475.282	75.62
475.501	89.62
475.72	96.62
475.939	97.62
476.158	80.62
476.377	87.62
476.596	90.62
476.814	80.62
477.033	82.62
477.252	78.62
477.471	88.62
477.69	86.62
477.908	81.62
478.127	95.62
478.346	77.62
478.564	73.62
478.783	75.62
479.002	82.62
479.22	77.62
479.439	89.62
479.658	80.62
479.876	84.62
480.095	80.62
480.313	78.62
480.532	82.62
480.751	84.62
480.969	94.62
481.188	76.62
481.406	87.62
481.624	89.62
481.843	81.62
482.061	85.62
482.28	91.62
482.498	91.62
482.717	80.62
482.935	87.62
483.153	79.62
483.372	95.62
483.59	77.62
483.808	87.62
484.027	79.62
484.245	89.62
484.463	82.62
484.681	99.62
484.9	80.62
485.118	77.62
485.336	67.62
485.554	73.62
485.772	80.62
485.99	72.62
486.209	77.62
486.427	99.62
486.645	75.62
486.863	85.62
487.081	95.62
487.299	79.62
487.517	84.62
487.735	87.62
487.953	97.62
488.171	85.62
488.389	80.62
488.607	73.62
488.825	73.62
489.043	85.62
489.261	90.62
489.479	89.62
489.696	89.62
489.914	98.62
490.132	91.62
490.35	88.62
490.568	88.62
490.786	85.62
491.003	70.62
491.221	79.62
491.439	79.62
491.657	94.62
491.874	83.62
492.092	80.62
492.31	98.62
492.527	80.62
492.745	84.62
492.963	93.62
493.18	85.62
493.398	67.62
493.615	83.62
493.833	88.62
494.05	88.62
494.268	82.62
494.485	91.62
494.703	73.62
494.92	93.62
495.138	78.62
495.355	93.62
495.573	83.62
495.79	89.62
496.008	77.62
496.225	108.62
496.442	96.62
496.66	76.62
496.877	81.62
497.094	92.62
497.312	96.62
497.529	91.62
497.746	78.62
497.963	100.62
498.181	84.62
498.398	85.62
498.615	93.62
498.832	93.62
499.049	93.62
499.267	86.62
499.484	77.62
499.701	105.62
499.918	97.62
500.135	82.62
500.352	85.62
500.569	92.62
500.786	79.62
501.003	82.62
501.22	89.62
501.437	77.62
501.654	79.62
501.871	87.62
502.088	87.62
502.305	90.62
502.522	87.62
502.739	80.62
502.956	98.62
503.172	89.62
503.389	82.62
503.606	73.62
503.823	80.62
504.04	87.62
504.256	92.62
504.473	95.62
504.69	87.62
504.907	85.62
505.123	77.62
505.34	77.62
505.557	80.62
505.773	85.62
505.99	91.62
506.207	81.62
506.423	101.62
506.64	91.62
506.856	92.62
507.073	96.62
507.289	96.62
507.506	93.62
507.722	74.62
507.939	79.62
508.155	99.62
508.372	86.62
508.588	104.62
508.805	107.62
509.021	84.62
509.238	98.62
509.454	81.62
509.67	80.62
509.887	91.62
510.103	92.62
510.319	83.62
510.536	77.62
510.752	92.62
510.968	87.62
511.184	99.62
511.401	86.62
511.617	89.62
511.833	79.62
512.049	81.62
512.265	74.62
512.481	87.62
512.698	82.62
512.914	87.62
513.13	88.62
513.346	88.62
513.562	86.62
513.778	85.62
513.994	89.62
514.21	81.62
514.426	88.62
514.642	94.62
514.858	87.62
515.074	101.62
515.29	100.62
515.506	84.62
515.721	80.62
515.937	68.62
516.153	81.62
516.369	76.62
516.585	93.62
516.801	84.62
517.016	95.62
517.232	75.62
517.448	86.62
517.664	93.62
517.879	81.62
518.095	79.62
518.311	74.62
518.527	80.62
518.742	85.62
518.958	83.62
519.173	98.62
519.389	91.62
519.605	79.62
