Data from Dirtheat2_HRD10591_00008.txt Node
Date: Fri Dec 27 15:15:07 EST 2024
User: Yrep
Spectrometer: HR+D1059
Trigger mode: 1
Integration Time (sec): 1.000000E-1
Scans to average: 1
Electric dark correction enabled: true
Nonlinearity correction enabled: false
Boxcar width: 0
XAxis mode: Wavelengths
Number of Pixels in Spectrum: 2048
>>>>>Begin Spectral Data<<<<<
223.165	-12.25
223.4	-12.25
223.635	-12.25
223.869	-23.25
224.104	-28.25
224.338	-11.25
224.573	-13.25
224.808	-19.25
225.042	1.75
225.277	-6.25
225.511	-18.25
225.746	7.75
225.98	5.75
226.215	4.75
226.449	18.75
226.683	33.75
226.918	23.75
227.152	35.75
227.387	30.75
227.621	24.75
227.856	49.75
228.09	49.75
228.324	49.75
228.559	60.75
228.793	61.75
229.027	66.75
229.262	63.75
229.496	64.75
229.73	61.75
229.964	70.75
230.199	71.75
230.433	66.75
230.667	75.75
230.901	69.75
231.136	81.75
231.37	81.75
231.604	82.75
231.838	87.75
232.072	66.75
232.306	69.75
232.541	79.75
232.775	79.75
233.009	71.75
233.243	85.75
233.477	72.75
233.711	83.75
233.945	91.75
234.179	76.75
234.413	78.75
234.647	78.75
234.881	84.75
235.115	69.75
235.349	83.75
235.583	74.75
235.817	84.75
236.051	67.75
236.285	75.75
236.519	77.75
236.753	69.75
236.987	80.75
237.221	69.75
237.455	73.75
237.689	74.75
237.922	75.75
238.156	74.75
238.39	85.75
238.624	79.75
238.858	73.75
239.091	68.75
239.325	68.75
239.559	71.75
239.793	74.75
240.027	77.75
240.26	70.75
240.494	69.75
240.728	63.75
240.961	76.75
241.195	74.75
241.429	79.75
241.662	80.75
241.896	81.75
242.13	66.75
242.363	80.75
242.597	68.75
242.83	75.75
243.064	88.75
243.298	66.75
243.531	73.75
243.765	78.75
243.998	74.75
244.232	71.75
244.465	76.75
244.699	64.75
244.932	81.75
245.166	75.75
245.399	84.75
245.633	69.75
245.866	75.75
246.099	78.75
246.333	76.75
246.566	81.75
246.8	80.75
247.033	68.75
247.266	67.75
247.5	70.75
247.733	79.75
247.966	78.75
248.2	86.75
248.433	85.75
248.666	76.75
248.899	69.75
249.133	75.75
249.366	87.75
249.599	86.75
249.832	68.75
250.066	80.75
250.299	71.75
250.532	87.75
250.765	62.75
250.998	82.75
251.231	76.75
251.465	82.75
251.698	77.75
251.931	76.75
252.164	75.75
252.397	75.75
252.63	76.75
252.863	78.75
253.096	75.75
253.329	80.75
253.562	76.75
253.795	70.75
254.028	55.75
254.261	70.75
254.494	100.75
254.727	87.75
254.96	78.75
255.193	73.75
255.426	82.75
255.659	71.75
255.892	72.75
256.124	95.75
256.357	75.75
256.59	72.75
256.823	64.75
257.056	78.75
257.289	73.75
257.521	71.75
257.754	87.75
257.987	91.75
258.22	78.75
258.452	85.75
258.685	82.75
258.918	77.75
259.151	65.75
259.383	78.75
259.616	69.75
259.849	85.75
260.081	86.75
260.314	72.75
260.547	72.75
260.779	75.75
261.012	80.75
261.244	73.75
261.477	80.75
261.71	72.75
261.942	92.75
262.175	73.75
262.407	79.75
262.64	86.75
262.872	64.75
263.105	76.75
263.337	78.75
263.57	93.75
263.802	81.75
264.035	79.75
264.267	84.75
264.499	88.75
264.732	74.75
264.964	80.75
265.197	70.75
265.429	79.75
265.661	72.75
265.894	62.75
266.126	81.75
266.358	74.75
266.591	80.75
266.823	79.75
267.055	86.75
267.287	76.75
267.52	86.75
267.752	88.75
267.984	90.75
268.216	87.75
268.448	74.75
268.681	66.75
268.913	93.75
269.145	80.75
269.377	89.75
269.609	91.75
269.841	75.75
270.073	64.75
270.306	87.75
270.538	87.75
270.77	76.75
271.002	71.75
271.234	91.75
271.466	91.75
271.698	85.75
271.93	86.75
272.162	92.75
272.394	76.75
272.626	71.75
272.858	73.75
273.09	84.75
273.322	76.75
273.553	69.75
273.785	87.75
274.017	76.75
274.249	98.75
274.481	94.75
274.713	85.75
274.945	72.75
275.176	82.75
275.408	76.75
275.64	71.75
275.872	73.75
276.104	82.75
276.335	73.75
276.567	73.75
276.799	63.75
277.031	66.75
277.262	71.75
277.494	81.75
277.726	80.75
277.957	65.75
278.189	69.75
278.421	80.75
278.652	74.75
278.884	96.75
279.115	94.75
279.347	81.75
279.579	85.75
279.81	79.75
280.042	77.75
280.273	79.75
280.505	70.75
280.736	74.75
280.968	83.75
281.199	92.75
281.431	89.75
281.662	94.75
281.894	81.75
282.125	74.75
282.356	66.75
282.588	80.75
282.819	82.75
283.051	90.75
283.282	77.75
283.513	69.75
283.745	79.75
283.976	95.75
284.207	80.75
284.439	91.75
284.67	87.75
284.901	80.75
285.132	96.75
285.364	85.75
285.595	81.75
285.826	89.75
286.057	84.75
286.288	67.75
286.52	85.75
286.751	78.75
286.982	92.75
287.213	86.75
287.444	99.75
287.675	79.75
287.906	99.75
288.138	85.75
288.369	85.75
288.6	87.75
288.831	86.75
289.062	79.75
289.293	77.75
289.524	75.75
289.755	79.75
289.986	74.75
290.217	76.75
290.448	76.75
290.679	77.75
290.91	87.75
291.141	73.75
291.371	86.75
291.602	77.75
291.833	79.75
292.064	85.75
292.295	78.75
292.526	77.75
292.757	93.75
292.987	83.75
293.218	92.75
293.449	78.75
293.68	86.75
293.91	87.75
294.141	81.75
294.372	85.75
294.603	79.75
294.833	83.75
295.064	89.75
295.295	96.75
295.525	69.75
295.756	87.75
295.987	89.75
296.217	74.75
296.448	85.75
296.679	69.75
296.909	78.75
297.14	91.75
297.37	71.75
297.601	75.75
297.831	73.75
298.062	81.75
298.292	79.75
298.523	75.75
298.753	88.75
298.984	89.75
299.214	91.75
299.445	89.75
299.675	101.75
299.905	95.75
300.136	94.75
300.366	67.75
300.597	78.75
300.827	81.75
301.057	77.75
301.288	93.75
301.518	85.75
301.748	87.75
301.979	99.75
302.209	84.75
302.439	68.75
302.669	84.75
302.9	80.75
303.13	77.75
303.36	88.75
303.59	76.75
303.82	75.75
304.051	83.75
304.281	84.75
304.511	85.75
304.741	78.75
304.971	93.75
305.201	81.75
305.431	88.75
305.661	82.75
305.891	88.75
306.121	81.75
306.352	83.75
306.582	74.75
306.812	92.75
307.042	84.75
307.272	73.75
307.502	85.75
307.731	82.75
307.961	79.75
308.191	74.75
308.421	95.75
308.651	73.75
308.881	85.75
309.111	83.75
309.341	86.75
309.571	81.75
309.8	70.75
310.03	79.75
310.26	81.75
310.49	86.75
310.72	80.75
310.949	83.75
311.179	99.75
311.409	83.75
311.639	81.75
311.868	91.75
312.098	88.75
312.328	82.75
312.557	89.75
312.787	86.75
313.017	84.75
313.246	77.75
313.476	91.75
313.706	95.75
313.935	85.75
314.165	75.75
314.394	75.75
314.624	94.75
314.853	84.75
315.083	95.75
315.312	74.75
315.542	69.75
315.771	81.75
316.001	85.75
316.23	86.75
316.46	82.75
316.689	75.75
316.919	74.75
317.148	86.75
317.377	95.75
317.607	97.75
317.836	94.75
318.065	84.75
318.295	79.75
318.524	80.75
318.753	80.75
318.983	97.75
319.212	80.75
319.441	84.75
319.67	73.75
319.9	88.75
320.129	92.75
320.358	97.75
320.587	79.75
320.816	79.75
321.046	83.75
321.275	72.75
321.504	71.75
321.733	86.75
321.962	80.75
322.191	84.75
322.42	73.75
322.649	95.75
322.878	87.75
323.108	89.75
323.337	90.75
323.566	91.75
323.795	81.75
324.024	91.75
324.253	85.75
324.482	74.75
324.71	87.75
324.939	85.75
325.168	80.75
325.397	88.75
325.626	83.75
325.855	66.75
326.084	85.75
326.313	71.75
326.542	68.75
326.77	81.75
326.999	68.75
327.228	99.75
327.457	92.75
327.686	83.75
327.914	79.75
328.143	91.75
328.372	84.75
328.6	81.75
328.829	88.75
329.058	80.75
329.287	80.75
329.515	90.75
329.744	91.75
329.972	87.75
330.201	90.75
330.43	87.75
330.658	83.75
330.887	79.75
331.115	79.75
331.344	86.75
331.572	91.75
331.801	79.75
332.03	80.75
332.258	69.75
332.486	73.75
332.715	86.75
332.943	72.75
333.172	89.75
333.4	84.75
333.629	88.75
333.857	77.75
334.085	89.75
334.314	76.75
334.542	81.75
334.771	84.75
334.999	83.75
335.227	85.75
335.455	78.75
335.684	91.75
335.912	75.75
336.14	94.75
336.369	78.75
336.597	74.75
336.825	81.75
337.053	73.75
337.281	87.75
337.51	83.75
337.738	83.75
337.966	77.75
338.194	87.75
338.422	74.75
338.65	78.75
338.878	83.75
339.106	92.75
339.334	88.75
339.562	84.75
339.79	72.75
340.018	88.75
340.246	73.75
340.474	84.75
340.702	94.75
340.93	76.75
341.158	95.75
341.386	101.75
341.614	83.75
341.842	87.75
342.07	72.75
342.298	69.75
342.526	75.75
342.754	73.75
342.981	85.75
343.209	65.75
343.437	104.75
343.665	79.75
343.893	79.75
344.12	100.75
344.348	83.75
344.576	77.75
344.804	75.75
345.031	73.75
345.259	72.75
345.487	70.75
345.714	83.75
345.942	92.75
346.17	74.75
346.397	72.75
346.625	89.75
346.853	83.75
347.08	65.75
347.308	87.75
347.535	80.75
347.763	86.75
347.99	92.75
348.218	77.75
348.445	96.75
348.673	76.75
348.9	88.75
349.128	83.75
349.355	91.75
349.583	75.75
349.81	68.75
350.037	77.75
350.265	75.75
350.492	71.75
350.72	81.75
350.947	89.75
351.174	88.75
351.402	77.75
351.629	74.75
351.856	79.75
352.083	78.75
352.311	87.75
352.538	85.75
352.765	96.75
352.992	81.75
353.22	69.75
353.447	86.75
353.674	79.75
353.901	79.75
354.128	73.75
354.355	80.75
354.583	64.75
354.81	98.75
355.037	105.75
355.264	88.75
355.491	95.75
355.718	74.75
355.945	86.75
356.172	87.75
356.399	87.75
356.626	77.75
356.853	77.75
357.08	79.75
357.307	90.75
357.534	88.75
357.761	79.75
357.988	81.75
358.215	87.75
358.441	65.75
358.668	88.75
358.895	105.75
359.122	83.75
359.349	86.75
359.576	82.75
359.802	84.75
360.029	79.75
360.256	75.75
360.483	79.75
360.709	76.75
360.936	88.75
361.163	79.75
361.39	76.75
361.616	74.75
361.843	86.75
362.07	86.75
362.296	71.75
362.523	80.75
362.749	77.75
362.976	80.75
363.203	87.75
363.429	73.75
363.656	60.75
363.882	80.75
364.109	95.75
364.335	71.75
364.562	92.75
364.788	86.75
365.015	85.75
365.241	78.75
365.468	77.75
365.694	83.75
365.92	80.75
366.147	69.75
366.373	90.75
366.599	90.75
366.826	85.75
367.052	88.75
367.278	83.75
367.505	86.75
367.731	98.75
367.957	82.75
368.184	66.75
368.41	85.75
368.636	76.75
368.862	86.75
369.089	88.75
369.315	84.75
369.541	91.75
369.767	78.75
369.993	85.75
370.219	99.75
370.445	82.75
370.672	74.75
370.898	83.75
371.124	76.75
371.35	81.75
371.576	69.75
371.802	88.75
372.028	80.75
372.254	83.75
372.48	88.75
372.706	96.75
372.932	79.75
373.158	94.75
373.384	81.75
373.61	103.75
373.835	81.75
374.061	87.75
374.287	91.75
374.513	82.75
374.739	85.75
374.965	77.75
375.191	88.75
375.416	82.75
375.642	66.75
375.868	83.75
376.094	92.75
376.319	72.75
376.545	83.75
376.771	86.75
376.997	80.75
377.222	83.75
377.448	75.75
377.674	81.75
377.899	89.75
378.125	91.75
378.35	81.75
378.576	94.75
378.802	92.75
379.027	84.75
379.253	76.75
379.478	81.75
379.704	80.75
379.929	84.75
380.155	99.75
380.38	87.75
380.606	94.75
380.831	89.75
381.057	89.75
381.282	76.75
381.507	84.75
381.733	88.75
381.958	93.75
382.184	85.75
382.409	79.75
382.634	69.75
382.86	73.75
383.085	83.75
383.31	96.75
383.535	86.75
383.761	79.75
383.986	87.75
384.211	85.75
384.436	74.75
384.662	81.75
384.887	85.75
385.112	75.75
385.337	80.75
385.562	79.75
385.787	77.75
386.013	66.75
386.238	76.75
386.463	73.75
386.688	89.75
386.913	82.75
387.138	82.75
387.363	79.75
387.588	92.75
387.813	92.75
388.038	69.75
388.263	68.75
388.488	80.75
388.713	80.75
388.938	84.75
389.163	83.75
389.387	78.75
389.612	86.75
389.837	93.75
390.062	73.75
390.287	70.75
390.512	78.75
390.736	66.75
390.961	86.75
391.186	100.75
391.411	80.75
391.636	83.75
391.86	77.75
392.085	72.75
392.31	65.75
392.534	73.75
392.759	76.75
392.984	71.75
393.208	84.75
393.433	98.75
393.658	85.75
393.882	81.75
394.107	75.75
394.331	71.75
394.556	68.75
394.78	90.75
395.005	76.75
395.229	67.75
395.454	80.75
395.678	78.75
395.903	80.75
396.127	82.75
396.352	84.75
396.576	82.75
396.801	78.75
397.025	80.75
397.249	91.75
397.474	89.75
397.698	88.75
397.922	86.75
398.147	87.75
398.371	76.75
398.595	67.75
398.82	67.75
399.044	77.75
399.268	80.75
399.492	78.75
399.717	67.75
399.941	87.75
400.165	81.75
400.389	89.75
400.613	89.75
400.837	93.75
401.062	85.75
401.286	75.75
401.51	78.75
401.734	78.75
401.958	79.75
402.182	73.75
402.406	70.75
402.63	85.75
402.854	85.75
403.078	71.75
403.302	82.75
403.526	79.75
403.75	87.75
403.974	79.75
404.198	76.75
404.422	75.75
404.645	77.75
404.869	76.75
405.093	75.75
405.317	74.75
405.541	72.75
405.765	79.75
405.988	72.75
406.212	81.75
406.436	80.75
406.66	85.75
406.883	89.75
407.107	89.75
407.331	71.75
407.555	79.75
407.778	82.75
408.002	88.75
408.226	71.75
408.449	86.75
408.673	94.75
408.896	78.75
409.12	80.75
409.344	85.75
409.567	73.75
409.791	76.75
410.014	76.75
410.238	75.75
410.461	81.75
410.685	67.75
410.908	82.75
411.132	90.75
411.355	88.75
411.578	78.75
411.802	74.75
412.025	80.75
412.249	78.75
412.472	80.75
412.695	83.75
412.919	79.75
413.142	96.75
413.365	81.75
413.589	77.75
413.812	68.75
414.035	76.75
414.258	69.75
414.482	75.75
414.705	86.75
414.928	63.75
415.151	87.75
415.374	87.75
415.597	85.75
415.821	75.75
416.044	87.75
416.267	84.75
416.49	71.75
416.713	87.75
416.936	82.75
417.159	85.75
417.382	83.75
417.605	79.75
417.828	83.75
418.051	85.75
418.274	82.75
418.497	84.75
418.72	87.75
418.943	84.75
419.166	80.75
419.389	82.75
419.611	106.75
419.834	67.75
420.057	67.75
420.28	77.75
420.503	91.75
420.726	90.75
420.948	86.75
421.171	63.75
421.394	73.75
421.617	81.75
421.839	58.75
422.062	81.75
422.285	81.75
422.507	106.75
422.73	102.75
422.953	86.75
423.175	93.75
423.398	89.75
423.621	77.75
423.843	68.75
424.066	89.75
424.288	87.75
424.511	75.75
424.733	66.75
424.956	77.75
425.178	74.75
425.401	87.75
425.623	89.75
425.846	72.75
426.068	74.75
426.291	75.75
426.513	82.75
426.735	82.75
426.958	72.75
427.18	84.75
427.402	90.75
427.625	94.75
427.847	71.75
428.069	78.75
428.292	98.75
428.514	86.75
428.736	93.75
428.958	88.75
429.181	85.75
429.403	84.75
429.625	81.75
429.847	82.75
430.069	84.75
430.292	92.75
430.514	88.75
430.736	88.75
430.958	92.75
431.18	77.75
431.402	79.75
431.624	71.75
431.846	81.75
432.068	84.75
432.29	89.75
432.512	94.75
432.734	76.75
432.956	73.75
433.178	82.75
433.4	85.75
433.622	96.75
433.844	71.75
434.066	88.75
434.287	77.75
434.509	94.75
434.731	84.75
434.953	79.75
435.175	71.75
435.397	72.75
435.618	85.75
435.84	83.75
436.062	82.75
436.284	86.75
436.505	74.75
436.727	73.75
436.949	75.75
437.17	73.75
437.392	72.75
437.614	68.75
437.835	81.75
438.057	68.75
438.278	78.75
438.5	78.75
438.721	68.75
438.943	82.75
439.165	74.75
439.386	72.75
439.608	78.75
439.829	66.75
440.05	79.75
440.272	80.75
440.493	79.75
440.715	76.75
440.936	80.75
441.158	102.75
441.379	83.75
441.6	83.75
441.822	73.75
442.043	70.75
442.264	80.75
442.486	101.75
442.707	83.75
442.928	84.75
443.149	83.75
443.371	71.75
443.592	86.75
443.813	85.75
444.034	76.75
444.255	102.75
444.476	89.75
444.698	83.75
444.919	90.75
445.14	147.75
445.361	116.75
445.582	93.75
445.803	78.75
446.024	73.75
446.245	77.75
446.466	83.75
446.687	69.75
446.908	75.75
447.129	71.75
447.35	76.75
447.571	70.75
447.792	81.75
448.013	72.75
448.234	65.75
448.455	90.75
448.675	84.75
448.896	71.75
449.117	69.75
449.338	81.75
449.559	96.75
449.779	94.75
450	85.75
450.221	68.75
450.442	79.75
450.662	74.75
450.883	75.75
451.104	73.75
451.324	83.75
451.545	80.75
451.766	74.75
451.986	71.75
452.207	73.75
452.428	88.75
452.648	92.75
452.869	75.75
453.089	81.75
453.31	90.75
453.53	84.75
453.751	76.75
453.971	81.75
454.192	76.75
454.412	79.75
454.633	82.75
454.853	84.75
455.073	89.75
455.294	81.75
455.514	73.75
455.734	75.75
455.955	75.75
456.175	79.75
456.395	72.75
456.616	64.75
456.836	78.75
457.056	72.75
457.276	71.75
457.497	76.75
457.717	77.75
457.937	91.75
458.157	84.75
458.377	81.75
458.598	75.75
458.818	77.75
459.038	78.75
459.258	84.75
459.478	76.75
459.698	75.75
459.918	82.75
460.138	92.75
460.358	85.75
460.578	75.75
460.798	74.75
461.018	79.75
461.238	76.75
461.458	62.75
461.678	81.75
461.898	84.75
462.118	87.75
462.338	84.75
462.558	69.75
462.777	76.75
462.997	79.75
463.217	62.75
463.437	73.75
463.657	80.75
463.876	77.75
464.096	84.75
464.316	76.75
464.536	72.75
464.755	79.75
464.975	68.75
465.195	65.75
465.414	84.75
465.634	91.75
465.854	80.75
466.073	86.75
466.293	80.75
466.512	80.75
466.732	77.75
466.951	84.75
467.171	69.75
467.391	68.75
467.61	78.75
467.829	69.75
468.049	88.75
468.268	65.75
468.488	76.75
468.707	79.75
468.927	77.75
469.146	75.75
469.365	75.75
469.585	84.75
469.804	83.75
470.023	83.75
470.243	83.75
470.462	79.75
470.681	80.75
470.901	74.75
471.12	76.75
471.339	95.75
471.558	75.75
471.777	75.75
471.997	96.75
472.216	93.75
472.435	84.75
472.654	76.75
472.873	89.75
473.092	70.75
473.311	69.75
473.53	77.75
473.749	71.75
473.968	83.75
474.187	77.75
474.406	81.75
474.625	77.75
474.844	77.75
475.063	90.75
475.282	89.75
475.501	75.75
475.72	75.75
475.939	77.75
476.158	97.75
476.377	88.75
476.596	82.75
476.814	73.75
477.033	89.75
477.252	95.75
477.471	78.75
477.69	93.75
477.908	65.75
478.127	72.75
478.346	87.75
478.564	62.75
478.783	86.75
479.002	74.75
479.22	74.75
479.439	81.75
479.658	81.75
479.876	79.75
480.095	75.75
480.313	83.75
480.532	87.75
480.751	87.75
480.969	72.75
481.188	78.75
481.406	69.75
481.624	70.75
481.843	89.75
482.061	69.75
482.28	85.75
482.498	80.75
482.717	80.75
482.935	85.75
483.153	80.75
483.372	85.75
483.59	70.75
483.808	75.75
484.027	80.75
484.245	80.75
484.463	67.75
484.681	74.75
484.9	85.75
485.118	89.75
485.336	65.75
485.554	62.75
485.772	76.75
485.99	76.75
486.209	84.75
486.427	87.75
486.645	86.75
486.863	89.75
487.081	84.75
487.299	76.75
487.517	95.75
487.735	77.75
487.953	85.75
488.171	90.75
488.389	75.75
488.607	64.75
488.825	84.75
489.043	83.75
489.261	88.75
489.479	74.75
489.696	80.75
489.914	81.75
490.132	81.75
490.35	85.75
490.568	84.75
490.786	93.75
491.003	83.75
491.221	87.75
491.439	74.75
491.657	86.75
491.874	80.75
492.092	83.75
492.31	77.75
492.527	76.75
492.745	74.75
492.963	88.75
493.18	83.75
493.398	77.75
493.615	82.75
493.833	66.75
494.05	87.75
494.268	80.75
494.485	77.75
494.703	94.75
494.92	67.75
495.138	82.75
495.355	89.75
495.573	103.75
495.79	80.75
496.008	79.75
496.225	78.75
496.442	79.75
496.66	88.75
496.877	77.75
497.094	89.75
497.312	91.75
497.529	68.75
497.746	84.75
497.963	84.75
498.181	80.75
498.398	76.75
498.615	85.75
498.832	67.75
499.049	80.75
499.267	91.75
499.484	84.75
499.701	92.75
499.918	76.75
500.135	83.75
500.352	75.75
500.569	87.75
500.786	87.75
501.003	88.75
501.22	76.75
501.437	84.75
501.654	87.75
501.871	79.75
502.088	79.75
502.305	79.75
502.522	96.75
502.739	73.75
502.956	87.75
503.172	80.75
503.389	67.75
503.606	78.75
503.823	74.75
504.04	80.75
504.256	94.75
504.473	73.75
504.69	75.75
504.907	84.75
505.123	84.75
505.34	89.75
505.557	84.75
505.773	79.75
505.99	78.75
506.207	61.75
506.423	94.75
506.64	84.75
506.856	77.75
507.073	83.75
507.289	84.75
507.506	80.75
507.722	100.75
507.939	67.75
508.155	88.75
508.372	77.75
508.588	69.75
508.805	80.75
509.021	77.75
509.238	69.75
509.454	79.75
509.67	81.75
509.887	88.75
510.103	70.75
510.319	72.75
510.536	66.75
510.752	82.75
510.968	80.75
511.184	71.75
511.401	79.75
511.617	91.75
511.833	84.75
512.049	83.75
512.265	83.75
512.481	83.75
512.698	80.75
512.914	83.75
513.13	87.75
513.346	87.75
513.562	66.75
513.778	82.75
513.994	93.75
514.21	80.75
514.426	85.75
514.642	78.75
514.858	75.75
515.074	77.75
515.29	71.75
515.506	83.75
515.721	82.75
515.937	87.75
516.153	75.75
516.369	73.75
516.585	71.75
516.801	78.75
517.016	81.75
517.232	78.75
517.448	111.75
517.664	87.75
517.879	75.75
518.095	81.75
518.311	80.75
518.527	86.75
518.742	90.75
518.958	80.75
519.173	99.75
519.389	76.75
519.605	73.75
519.82	76.75
520.036	79.75
