Data from Dirtheat2_HRD10591_00016.txt Node
Date: Fri Dec 27 15:15:15 EST 2024
User: Yrep
Spectrometer: HR+D1059
Trigger mode: 1
Integration Time (sec): 1.000000E-1
Scans to average: 1
Electric dark correction enabled: true
Nonlinearity correction enabled: false
Boxcar width: 0
XAxis mode: Wavelengths
Number of Pixels in Spectrum: 2048
>>>>>Begin Spectral Data<<<<<
223.165	-24.81
223.4	-24.81
223.635	-24.81
223.869	-20.81
224.104	-17.81
224.338	-17.81
224.573	-14.81
224.808	-6.81
225.042	-1.81
225.277	-11.81
225.511	1.19
225.746	9.19
225.98	-0.81
226.215	16.19
226.449	-0.81
226.683	42.19
226.918	15.19
227.152	34.19
227.387	32.19
227.621	38.19
227.856	29.19
228.09	49.19
228.324	60.19
228.559	67.19
228.793	61.19
229.027	50.19
229.262	60.19
229.496	73.19
229.73	64.19
229.964	64.19
230.199	78.19
230.433	73.19
230.667	88.19
230.901	78.19
231.136	89.19
231.37	80.19
231.604	74.19
231.838	89.19
232.072	71.19
232.306	79.19
232.541	88.19
232.775	79.19
233.009	89.19
233.243	88.19
233.477	76.19
233.711	79.19
233.945	70.19
234.179	74.19
234.413	75.19
234.647	85.19
234.881	87.19
235.115	83.19
235.349	79.19
235.583	99.19
235.817	73.19
236.051	65.19
236.285	82.19
236.519	80.19
236.753	72.19
236.987	68.19
237.221	68.19
237.455	85.19
237.689	86.19
237.922	78.19
238.156	81.19
238.39	66.19
238.624	72.19
238.858	66.19
239.091	69.19
239.325	82.19
239.559	75.19
239.793	69.19
240.027	69.19
240.26	82.19
240.494	79.19
240.728	69.19
240.961	72.19
241.195	90.19
241.429	80.19
241.662	81.19
241.896	71.19
242.13	78.19
242.363	78.19
242.597	82.19
242.83	77.19
243.064	64.19
243.298	67.19
243.531	71.19
243.765	67.19
243.998	71.19
244.232	85.19
244.465	61.19
244.699	81.19
244.932	75.19
245.166	76.19
245.399	69.19
245.633	83.19
245.866	77.19
246.099	81.19
246.333	73.19
246.566	67.19
246.8	76.19
247.033	75.19
247.266	76.19
247.5	73.19
247.733	82.19
247.966	73.19
248.2	77.19
248.433	80.19
248.666	65.19
248.899	90.19
249.133	87.19
249.366	76.19
249.599	83.19
249.832	73.19
250.066	85.19
250.299	76.19
250.532	87.19
250.765	81.19
250.998	63.19
251.231	77.19
251.465	78.19
251.698	69.19
251.931	75.19
252.164	88.19
252.397	85.19
252.63	71.19
252.863	79.19
253.096	77.19
253.329	78.19
253.562	76.19
253.795	77.19
254.028	80.19
254.261	74.19
254.494	71.19
254.727	89.19
254.96	81.19
255.193	80.19
255.426	91.19
255.659	87.19
255.892	78.19
256.124	67.19
256.357	80.19
256.59	72.19
256.823	82.19
257.056	83.19
257.289	90.19
257.521	93.19
257.754	75.19
257.987	68.19
258.22	85.19
258.452	71.19
258.685	68.19
258.918	69.19
259.151	78.19
259.383	85.19
259.616	66.19
259.849	79.19
260.081	82.19
260.314	65.19
260.547	74.19
260.779	97.19
261.012	78.19
261.244	88.19
261.477	96.19
261.71	68.19
261.942	73.19
262.175	81.19
262.407	76.19
262.64	68.19
262.872	74.19
263.105	91.19
263.337	80.19
263.57	83.19
263.802	78.19
264.035	64.19
264.267	77.19
264.499	85.19
264.732	89.19
264.964	75.19
265.197	80.19
265.429	85.19
265.661	72.19
265.894	91.19
266.126	84.19
266.358	82.19
266.591	68.19
266.823	101.19
267.055	78.19
267.287	80.19
267.52	66.19
267.752	90.19
267.984	78.19
268.216	77.19
268.448	92.19
268.681	76.19
268.913	82.19
269.145	78.19
269.377	82.19
269.609	81.19
269.841	80.19
270.073	79.19
270.306	80.19
270.538	87.19
270.77	88.19
271.002	78.19
271.234	77.19
271.466	70.19
271.698	82.19
271.93	75.19
272.162	85.19
272.394	82.19
272.626	79.19
272.858	88.19
273.09	77.19
273.322	86.19
273.553	77.19
273.785	82.19
274.017	85.19
274.249	87.19
274.481	82.19
274.713	67.19
274.945	86.19
275.176	94.19
275.408	73.19
275.64	82.19
275.872	76.19
276.104	88.19
276.335	86.19
276.567	78.19
276.799	80.19
277.031	74.19
277.262	79.19
277.494	82.19
277.726	96.19
277.957	92.19
278.189	78.19
278.421	86.19
278.652	76.19
278.884	81.19
279.115	96.19
279.347	78.19
279.579	72.19
279.81	67.19
280.042	85.19
280.273	80.19
280.505	91.19
280.736	74.19
280.968	96.19
281.199	90.19
281.431	82.19
281.662	66.19
281.894	77.19
282.125	85.19
282.356	77.19
282.588	73.19
282.819	74.19
283.051	75.19
283.282	82.19
283.513	85.19
283.745	94.19
283.976	73.19
284.207	79.19
284.439	82.19
284.67	87.19
284.901	97.19
285.132	81.19
285.364	88.19
285.595	71.19
285.826	90.19
286.057	82.19
286.288	87.19
286.52	81.19
286.751	81.19
286.982	76.19
287.213	85.19
287.444	77.19
287.675	85.19
287.906	85.19
288.138	86.19
288.369	80.19
288.6	87.19
288.831	92.19
289.062	91.19
289.293	90.19
289.524	75.19
289.755	81.19
289.986	88.19
290.217	92.19
290.448	80.19
290.679	91.19
290.91	92.19
291.141	93.19
291.371	62.19
291.602	87.19
291.833	69.19
292.064	82.19
292.295	79.19
292.526	76.19
292.757	96.19
292.987	87.19
293.218	90.19
293.449	82.19
293.68	88.19
293.91	77.19
294.141	79.19
294.372	85.19
294.603	88.19
294.833	82.19
295.064	81.19
295.295	79.19
295.525	83.19
295.756	84.19
295.987	91.19
296.217	82.19
296.448	73.19
296.679	81.19
296.909	79.19
297.14	83.19
297.37	78.19
297.601	73.19
297.831	98.19
298.062	89.19
298.292	75.19
298.523	78.19
298.753	87.19
298.984	92.19
299.214	81.19
299.445	78.19
299.675	75.19
299.905	70.19
300.136	86.19
300.366	86.19
300.597	82.19
300.827	72.19
301.057	82.19
301.288	95.19
301.518	81.19
301.748	84.19
301.979	94.19
302.209	84.19
302.439	82.19
302.669	70.19
302.9	85.19
303.13	70.19
303.36	99.19
303.59	89.19
303.82	81.19
304.051	86.19
304.281	86.19
304.511	82.19
304.741	69.19
304.971	81.19
305.201	81.19
305.431	81.19
305.661	82.19
305.891	85.19
306.121	78.19
306.352	76.19
306.582	88.19
306.812	84.19
307.042	76.19
307.272	82.19
307.502	78.19
307.731	82.19
307.961	94.19
308.191	86.19
308.421	84.19
308.651	92.19
308.881	85.19
309.111	79.19
309.341	89.19
309.571	96.19
309.8	81.19
310.03	92.19
310.26	89.19
310.49	90.19
310.72	87.19
310.949	85.19
311.179	101.19
311.409	93.19
311.639	69.19
311.868	89.19
312.098	81.19
312.328	76.19
312.557	81.19
312.787	64.19
313.017	87.19
313.246	84.19
313.476	82.19
313.706	88.19
313.935	82.19
314.165	77.19
314.394	81.19
314.624	87.19
314.853	96.19
315.083	77.19
315.312	86.19
315.542	77.19
315.771	80.19
316.001	72.19
316.23	91.19
316.46	91.19
316.689	90.19
316.919	77.19
317.148	86.19
317.377	80.19
317.607	68.19
317.836	89.19
318.065	73.19
318.295	89.19
318.524	86.19
318.753	79.19
318.983	78.19
319.212	91.19
319.441	68.19
319.67	77.19
319.9	78.19
320.129	82.19
320.358	79.19
320.587	88.19
320.816	89.19
321.046	104.19
321.275	80.19
321.504	79.19
321.733	82.19
321.962	86.19
322.191	90.19
322.42	83.19
322.649	90.19
322.878	95.19
323.108	76.19
323.337	86.19
323.566	81.19
323.795	78.19
324.024	87.19
324.253	87.19
324.482	78.19
324.71	68.19
324.939	96.19
325.168	88.19
325.397	90.19
325.626	75.19
325.855	71.19
326.084	90.19
326.313	85.19
326.542	78.19
326.77	77.19
326.999	82.19
327.228	87.19
327.457	73.19
327.686	93.19
327.914	83.19
328.143	91.19
328.372	76.19
328.6	81.19
328.829	79.19
329.058	73.19
329.287	82.19
329.515	96.19
329.744	78.19
329.972	78.19
330.201	92.19
330.43	83.19
330.658	95.19
330.887	94.19
331.115	78.19
331.344	91.19
331.572	85.19
331.801	69.19
332.03	78.19
332.258	75.19
332.486	83.19
332.715	93.19
332.943	81.19
333.172	81.19
333.4	79.19
333.629	93.19
333.857	98.19
334.085	96.19
334.314	90.19
334.542	78.19
334.771	75.19
334.999	78.19
335.227	87.19
335.455	89.19
335.684	88.19
335.912	76.19
336.14	98.19
336.369	82.19
336.597	76.19
336.825	83.19
337.053	87.19
337.281	89.19
337.51	72.19
337.738	82.19
337.966	80.19
338.194	74.19
338.422	78.19
338.65	76.19
338.878	86.19
339.106	79.19
339.334	87.19
339.562	88.19
339.79	86.19
340.018	80.19
340.246	77.19
340.474	84.19
340.702	90.19
340.93	73.19
341.158	92.19
341.386	91.19
341.614	76.19
341.842	77.19
342.07	76.19
342.298	96.19
342.526	82.19
342.754	81.19
342.981	90.19
343.209	84.19
343.437	103.19
343.665	89.19
343.893	77.19
344.12	93.19
344.348	87.19
344.576	91.19
344.804	94.19
345.031	80.19
345.259	100.19
345.487	79.19
345.714	95.19
345.942	83.19
346.17	97.19
346.397	83.19
346.625	78.19
346.853	82.19
347.08	84.19
347.308	81.19
347.535	86.19
347.763	79.19
347.99	78.19
348.218	86.19
348.445	90.19
348.673	78.19
348.9	70.19
349.128	83.19
349.355	98.19
349.583	77.19
349.81	93.19
350.037	94.19
350.265	85.19
350.492	95.19
350.72	79.19
350.947	84.19
351.174	87.19
351.402	89.19
351.629	78.19
351.856	91.19
352.083	83.19
352.311	81.19
352.538	91.19
352.765	81.19
352.992	83.19
353.22	74.19
353.447	88.19
353.674	85.19
353.901	84.19
354.128	96.19
354.355	85.19
354.583	86.19
354.81	86.19
355.037	90.19
355.264	81.19
355.491	97.19
355.718	79.19
355.945	75.19
356.172	86.19
356.399	75.19
356.626	76.19
356.853	85.19
357.08	93.19
357.307	95.19
357.534	75.19
357.761	82.19
357.988	73.19
358.215	84.19
358.441	94.19
358.668	75.19
358.895	88.19
359.122	87.19
359.349	82.19
359.576	76.19
359.802	72.19
360.029	102.19
360.256	83.19
360.483	73.19
360.709	76.19
360.936	84.19
361.163	79.19
361.39	86.19
361.616	95.19
361.843	83.19
362.07	88.19
362.296	93.19
362.523	89.19
362.749	77.19
362.976	86.19
363.203	88.19
363.429	78.19
363.656	79.19
363.882	90.19
364.109	89.19
364.335	90.19
364.562	98.19
364.788	76.19
365.015	95.19
365.241	84.19
365.468	85.19
365.694	79.19
365.92	61.19
366.147	76.19
366.373	77.19
366.599	96.19
366.826	93.19
367.052	77.19
367.278	88.19
367.505	84.19
367.731	82.19
367.957	72.19
368.184	74.19
368.41	85.19
368.636	83.19
368.862	87.19
369.089	91.19
369.315	82.19
369.541	90.19
369.767	75.19
369.993	85.19
370.219	75.19
370.445	81.19
370.672	73.19
370.898	76.19
371.124	81.19
371.35	74.19
371.576	73.19
371.802	77.19
372.028	88.19
372.254	77.19
372.48	65.19
372.706	79.19
372.932	72.19
373.158	88.19
373.384	75.19
373.61	88.19
373.835	85.19
374.061	87.19
374.287	91.19
374.513	83.19
374.739	78.19
374.965	80.19
375.191	77.19
375.416	80.19
375.642	83.19
375.868	89.19
376.094	80.19
376.319	75.19
376.545	73.19
376.771	76.19
376.997	81.19
377.222	80.19
377.448	92.19
377.674	95.19
377.899	83.19
378.125	67.19
378.35	89.19
378.576	80.19
378.802	76.19
379.027	87.19
379.253	77.19
379.478	82.19
379.704	74.19
379.929	78.19
380.155	79.19
380.38	86.19
380.606	76.19
380.831	65.19
381.057	88.19
381.282	85.19
381.507	89.19
381.733	79.19
381.958	86.19
382.184	79.19
382.409	88.19
382.634	95.19
382.86	76.19
383.085	81.19
383.31	82.19
383.535	78.19
383.761	94.19
383.986	82.19
384.211	70.19
384.436	98.19
384.662	74.19
384.887	75.19
385.112	81.19
385.337	76.19
385.562	92.19
385.787	86.19
386.013	86.19
386.238	76.19
386.463	93.19
386.688	97.19
386.913	91.19
387.138	76.19
387.363	82.19
387.588	89.19
387.813	81.19
388.038	83.19
388.263	83.19
388.488	57.19
388.713	76.19
388.938	88.19
389.163	83.19
389.387	76.19
389.612	93.19
389.837	81.19
390.062	78.19
390.287	77.19
390.512	90.19
390.736	78.19
390.961	66.19
391.186	75.19
391.411	71.19
391.636	87.19
391.86	74.19
392.085	88.19
392.31	93.19
392.534	72.19
392.759	89.19
392.984	90.19
393.208	76.19
393.433	102.19
393.658	93.19
393.882	74.19
394.107	86.19
394.331	83.19
394.556	87.19
394.78	80.19
395.005	85.19
395.229	62.19
395.454	82.19
395.678	69.19
395.903	93.19
396.127	81.19
396.352	87.19
396.576	83.19
396.801	86.19
397.025	76.19
397.249	70.19
397.474	94.19
397.698	81.19
397.922	97.19
398.147	81.19
398.371	89.19
398.595	84.19
398.82	95.19
399.044	70.19
399.268	86.19
399.492	80.19
399.717	89.19
399.941	84.19
400.165	79.19
400.389	69.19
400.613	73.19
400.837	72.19
401.062	89.19
401.286	75.19
401.51	75.19
401.734	76.19
401.958	100.19
402.182	78.19
402.406	79.19
402.63	70.19
402.854	70.19
403.078	94.19
403.302	81.19
403.526	87.19
403.75	77.19
403.974	85.19
404.198	80.19
404.422	81.19
404.645	83.19
404.869	80.19
405.093	82.19
405.317	100.19
405.541	77.19
405.765	94.19
405.988	86.19
406.212	83.19
406.436	83.19
406.66	78.19
406.883	75.19
407.107	67.19
407.331	82.19
407.555	87.19
407.778	87.19
408.002	88.19
408.226	64.19
408.449	78.19
408.673	71.19
408.896	80.19
409.12	82.19
409.344	98.19
409.567	76.19
409.791	77.19
410.014	89.19
410.238	85.19
410.461	89.19
410.685	81.19
410.908	85.19
411.132	81.19
411.355	80.19
411.578	80.19
411.802	83.19
412.025	83.19
412.249	66.19
412.472	81.19
412.695	81.19
412.919	79.19
413.142	82.19
413.365	95.19
413.589	85.19
413.812	79.19
414.035	88.19
414.258	81.19
414.482	75.19
414.705	62.19
414.928	86.19
415.151	83.19
415.374	85.19
415.597	67.19
415.821	81.19
416.044	69.19
416.267	87.19
416.49	80.19
416.713	83.19
416.936	79.19
417.159	86.19
417.382	90.19
417.605	87.19
417.828	80.19
418.051	75.19
418.274	90.19
418.497	74.19
418.72	80.19
418.943	80.19
419.166	80.19
419.389	76.19
419.611	80.19
419.834	80.19
420.057	85.19
420.28	67.19
420.503	83.19
420.726	82.19
420.948	87.19
421.171	83.19
421.394	79.19
421.617	98.19
421.839	89.19
422.062	89.19
422.285	77.19
422.507	82.19
422.73	85.19
422.953	105.19
423.175	90.19
423.398	87.19
423.621	73.19
423.843	74.19
424.066	91.19
424.288	89.19
424.511	80.19
424.733	80.19
424.956	96.19
425.178	87.19
425.401	89.19
425.623	90.19
425.846	78.19
426.068	83.19
426.291	88.19
426.513	75.19
426.735	83.19
426.958	83.19
427.18	88.19
427.402	80.19
427.625	72.19
427.847	89.19
428.069	83.19
428.292	78.19
428.514	81.19
428.736	98.19
428.958	78.19
429.181	90.19
429.403	83.19
429.625	73.19
429.847	92.19
430.069	89.19
430.292	81.19
430.514	82.19
430.736	81.19
430.958	95.19
431.18	81.19
431.402	91.19
431.624	63.19
431.846	83.19
432.068	91.19
432.29	91.19
432.512	81.19
432.734	90.19
432.956	78.19
433.178	82.19
433.4	76.19
433.622	85.19
433.844	81.19
434.066	96.19
434.287	73.19
434.509	65.19
434.731	85.19
434.953	81.19
435.175	86.19
435.397	90.19
435.618	77.19
435.84	79.19
436.062	93.19
436.284	79.19
436.505	78.19
436.727	82.19
436.949	70.19
437.17	86.19
437.392	73.19
437.614	78.19
437.835	83.19
438.057	74.19
438.278	84.19
438.5	87.19
438.721	82.19
438.943	77.19
439.165	80.19
439.386	71.19
439.608	103.19
439.829	95.19
440.05	88.19
440.272	74.19
440.493	88.19
440.715	90.19
440.936	85.19
441.158	80.19
441.379	79.19
441.6	81.19
441.822	73.19
442.043	76.19
442.264	67.19
442.486	88.19
442.707	72.19
442.928	75.19
443.149	77.19
443.371	85.19
443.592	81.19
443.813	87.19
444.034	75.19
444.255	80.19
444.476	72.19
444.698	93.19
444.919	83.19
445.14	145.19
445.361	113.19
445.582	74.19
445.803	81.19
446.024	67.19
446.245	91.19
446.466	70.19
446.687	83.19
446.908	85.19
447.129	78.19
447.35	83.19
447.571	76.19
447.792	72.19
448.013	92.19
448.234	79.19
448.455	86.19
448.675	97.19
448.896	69.19
449.117	59.19
449.338	71.19
449.559	99.19
449.779	100.19
450	94.19
450.221	75.19
450.442	77.19
450.662	88.19
450.883	80.19
451.104	77.19
451.324	69.19
451.545	75.19
451.766	99.19
451.986	74.19
452.207	80.19
452.428	71.19
452.648	85.19
452.869	83.19
453.089	80.19
453.31	87.19
453.53	92.19
453.751	85.19
453.971	80.19
454.192	77.19
454.412	75.19
454.633	64.19
454.853	58.19
455.073	85.19
455.294	74.19
455.514	80.19
455.734	78.19
455.955	75.19
456.175	81.19
456.395	75.19
456.616	78.19
456.836	80.19
457.056	87.19
457.276	87.19
457.497	82.19
457.717	77.19
457.937	81.19
458.157	74.19
458.377	75.19
458.598	76.19
458.818	83.19
459.038	79.19
459.258	82.19
459.478	92.19
459.698	74.19
459.918	82.19
460.138	73.19
460.358	75.19
460.578	79.19
460.798	72.19
461.018	87.19
461.238	75.19
461.458	79.19
461.678	78.19
461.898	99.19
462.118	80.19
462.338	97.19
462.558	86.19
462.777	79.19
462.997	73.19
463.217	73.19
463.437	85.19
463.657	79.19
463.876	86.19
464.096	84.19
464.316	86.19
464.536	87.19
464.755	81.19
464.975	71.19
465.195	85.19
465.414	82.19
465.634	89.19
465.854	67.19
466.073	75.19
466.293	85.19
466.512	75.19
466.732	82.19
466.951	79.19
467.171	81.19
467.391	85.19
467.61	90.19
467.829	71.19
468.049	86.19
468.268	84.19
468.488	75.19
468.707	84.19
468.927	84.19
469.146	69.19
469.365	77.19
469.585	82.19
469.804	76.19
470.023	70.19
470.243	82.19
470.462	91.19
470.681	79.19
470.901	87.19
471.12	74.19
471.339	80.19
471.558	76.19
471.777	85.19
471.997	98.19
472.216	86.19
472.435	65.19
472.654	86.19
472.873	82.19
473.092	77.19
473.311	76.19
473.53	89.19
473.749	82.19
473.968	77.19
474.187	85.19
474.406	87.19
474.625	83.19
474.844	86.19
475.063	95.19
475.282	79.19
475.501	88.19
475.72	89.19
475.939	79.19
476.158	79.19
476.377	91.19
476.596	82.19
476.814	80.19
477.033	80.19
477.252	76.19
477.471	70.19
477.69	79.19
477.908	81.19
478.127	80.19
478.346	78.19
478.564	77.19
478.783	69.19
479.002	83.19
479.22	76.19
479.439	75.19
479.658	74.19
479.876	79.19
480.095	83.19
480.313	86.19
480.532	82.19
480.751	82.19
480.969	70.19
481.188	74.19
481.406	91.19
481.624	75.19
481.843	76.19
482.061	81.19
482.28	93.19
482.498	82.19
482.717	80.19
482.935	78.19
483.153	70.19
483.372	90.19
483.59	74.19
483.808	84.19
484.027	89.19
484.245	70.19
484.463	81.19
484.681	85.19
484.9	79.19
485.118	88.19
485.336	85.19
485.554	87.19
485.772	82.19
485.99	66.19
486.209	90.19
486.427	89.19
486.645	85.19
486.863	92.19
487.081	81.19
487.299	82.19
487.517	98.19
487.735	79.19
487.953	97.19
488.171	82.19
488.389	74.19
488.607	76.19
488.825	74.19
489.043	80.19
489.261	76.19
489.479	72.19
489.696	86.19
489.914	86.19
490.132	86.19
490.35	82.19
490.568	71.19
490.786	93.19
491.003	82.19
491.221	73.19
491.439	89.19
491.657	90.19
491.874	81.19
492.092	82.19
492.31	86.19
492.527	74.19
492.745	88.19
492.963	84.19
493.18	73.19
493.398	92.19
493.615	88.19
493.833	88.19
494.05	93.19
494.268	82.19
494.485	73.19
494.703	89.19
494.92	80.19
495.138	79.19
495.355	79.19
495.573	95.19
495.79	88.19
496.008	99.19
496.225	91.19
496.442	90.19
496.66	64.19
496.877	82.19
497.094	89.19
497.312	85.19
497.529	86.19
497.746	76.19
497.963	91.19
498.181	74.19
498.398	80.19
498.615	88.19
498.832	79.19
499.049	76.19
499.267	74.19
499.484	81.19
499.701	85.19
499.918	79.19
500.135	95.19
500.352	99.19
500.569	89.19
500.786	79.19
501.003	77.19
501.22	90.19
501.437	82.19
501.654	85.19
501.871	77.19
502.088	71.19
502.305	84.19
502.522	83.19
502.739	77.19
502.956	82.19
503.172	82.19
503.389	71.19
503.606	87.19
503.823	95.19
504.04	85.19
504.256	92.19
504.473	91.19
504.69	73.19
504.907	99.19
505.123	94.19
505.34	82.19
505.557	98.19
505.773	88.19
505.99	79.19
506.207	83.19
506.423	88.19
506.64	88.19
506.856	97.19
507.073	71.19
507.289	80.19
507.506	78.19
507.722	73.19
507.939	70.19
508.155	68.19
508.372	93.19
508.588	91.19
508.805	82.19
509.021	81.19
509.238	78.19
509.454	79.19
509.67	83.19
509.887	79.19
510.103	77.19
510.319	98.19
510.536	92.19
510.752	88.19
510.968	78.19
511.184	82.19
511.401	83.19
511.617	100.19
511.833	91.19
512.049	75.19
512.265	72.19
512.481	88.19
512.698	90.19
512.914	80.19
513.13	68.19
513.346	83.19
513.562	80.19
513.778	81.19
513.994	83.19
514.21	79.19
514.426	93.19
514.642	88.19
514.858	98.19
515.074	81.19
515.29	76.19
515.506	90.19
515.721	75.19
515.937	95.19
516.153	81.19
516.369	79.19
516.585	95.19
516.801	83.19
517.016	93.19
517.232	80.19
517.448	82.19
517.664	95.19
517.879	74.19
518.095	79.19
518.311	85.19
518.527	75.19
518.742	69.19
518.958	82.19
519.173	91.19
519.389	90.19
519.605	93.19
519.82	76.19
520.036	100.19
