Data from Dirtheat2_HRD10591_00017.txt Node
Date: Fri Dec 27 15:15:16 EST 2024
User: Yrep
Spectrometer: HR+D1059
Trigger mode: 1
Integration Time (sec): 1.000000E-1
Scans to average: 1
Electric dark correction enabled: true
Nonlinearity correction enabled: false
Boxcar width: 0
XAxis mode: Wavelengths
Number of Pixels in Spectrum: 2048
>>>>>Begin Spectral Data<<<<<
223.165	-23.19
223.4	-23.19
223.635	-23.19
223.869	-27.19
224.104	-21.19
224.338	-11.19
224.573	-14.19
224.808	-11.19
225.042	-16.19
225.277	4.81
225.511	4.81
225.746	-0.19
225.98	-4.19
226.215	20.81
226.449	13.81
226.683	29.81
226.918	26.81
227.152	27.81
227.387	45.81
227.621	31.81
227.856	38.81
228.09	40.81
228.324	56.81
228.559	45.81
228.793	51.81
229.027	50.81
229.262	60.81
229.496	66.81
229.73	57.81
229.964	68.81
230.199	79.81
230.433	70.81
230.667	73.81
230.901	86.81
231.136	76.81
231.37	69.81
231.604	56.81
231.838	85.81
232.072	82.81
232.306	75.81
232.541	86.81
232.775	82.81
233.009	79.81
233.243	77.81
233.477	66.81
233.711	75.81
233.945	80.81
234.179	67.81
234.413	83.81
234.647	80.81
234.881	67.81
235.115	77.81
235.349	80.81
235.583	71.81
235.817	79.81
236.051	68.81
236.285	52.81
236.519	71.81
236.753	67.81
236.987	75.81
237.221	77.81
237.455	76.81
237.689	79.81
237.922	78.81
238.156	72.81
238.39	60.81
238.624	67.81
238.858	95.81
239.091	70.81
239.325	62.81
239.559	63.81
239.793	63.81
240.027	73.81
240.26	67.81
240.494	75.81
240.728	78.81
240.961	66.81
241.195	92.81
241.429	71.81
241.662	69.81
241.896	61.81
242.13	71.81
242.363	83.81
242.597	83.81
242.83	80.81
243.064	78.81
243.298	74.81
243.531	77.81
243.765	73.81
243.998	89.81
244.232	79.81
244.465	69.81
244.699	73.81
244.932	77.81
245.166	81.81
245.399	88.81
245.633	83.81
245.866	73.81
246.099	74.81
246.333	65.81
246.566	69.81
246.8	64.81
247.033	75.81
247.266	66.81
247.5	76.81
247.733	78.81
247.966	70.81
248.2	75.81
248.433	70.81
248.666	77.81
248.899	65.81
249.133	75.81
249.366	62.81
249.599	78.81
249.832	70.81
250.066	86.81
250.299	69.81
250.532	70.81
250.765	76.81
250.998	80.81
251.231	56.81
251.465	79.81
251.698	78.81
251.931	82.81
252.164	86.81
252.397	74.81
252.63	67.81
252.863	56.81
253.096	79.81
253.329	76.81
253.562	84.81
253.795	74.81
254.028	72.81
254.261	60.81
254.494	81.81
254.727	83.81
254.96	86.81
255.193	74.81
255.426	69.81
255.659	79.81
255.892	78.81
256.124	73.81
256.357	69.81
256.59	82.81
256.823	74.81
257.056	87.81
257.289	67.81
257.521	86.81
257.754	74.81
257.987	78.81
258.22	81.81
258.452	83.81
258.685	80.81
258.918	74.81
259.151	84.81
259.383	82.81
259.616	64.81
259.849	75.81
260.081	87.81
260.314	92.81
260.547	72.81
260.779	81.81
261.012	85.81
261.244	72.81
261.477	84.81
261.71	76.81
261.942	73.81
262.175	74.81
262.407	76.81
262.64	70.81
262.872	87.81
263.105	78.81
263.337	85.81
263.57	60.81
263.802	85.81
264.035	77.81
264.267	76.81
264.499	75.81
264.732	77.81
264.964	74.81
265.197	75.81
265.429	80.81
265.661	70.81
265.894	78.81
266.126	62.81
266.358	76.81
266.591	81.81
266.823	76.81
267.055	91.81
267.287	89.81
267.52	70.81
267.752	86.81
267.984	75.81
268.216	73.81
268.448	86.81
268.681	95.81
268.913	89.81
269.145	87.81
269.377	66.81
269.609	84.81
269.841	75.81
270.073	69.81
270.306	86.81
270.538	72.81
270.77	84.81
271.002	79.81
271.234	82.81
271.466	68.81
271.698	86.81
271.93	79.81
272.162	76.81
272.394	75.81
272.626	81.81
272.858	76.81
273.09	62.81
273.322	83.81
273.553	85.81
273.785	85.81
274.017	83.81
274.249	64.81
274.481	88.81
274.713	83.81
274.945	61.81
275.176	88.81
275.408	87.81
275.64	73.81
275.872	87.81
276.104	74.81
276.335	67.81
276.567	77.81
276.799	68.81
277.031	72.81
277.262	76.81
277.494	79.81
277.726	63.81
277.957	78.81
278.189	78.81
278.421	73.81
278.652	76.81
278.884	69.81
279.115	77.81
279.347	70.81
279.579	74.81
279.81	70.81
280.042	81.81
280.273	69.81
280.505	83.81
280.736	81.81
280.968	79.81
281.199	75.81
281.431	71.81
281.662	69.81
281.894	93.81
282.125	77.81
282.356	75.81
282.588	68.81
282.819	83.81
283.051	83.81
283.282	72.81
283.513	81.81
283.745	83.81
283.976	87.81
284.207	72.81
284.439	86.81
284.67	69.81
284.901	79.81
285.132	83.81
285.364	83.81
285.595	95.81
285.826	72.81
286.057	81.81
286.288	86.81
286.52	74.81
286.751	90.81
286.982	64.81
287.213	73.81
287.444	80.81
287.675	92.81
287.906	91.81
288.138	83.81
288.369	83.81
288.6	72.81
288.831	100.81
289.062	69.81
289.293	90.81
289.524	85.81
289.755	86.81
289.986	92.81
290.217	87.81
290.448	77.81
290.679	78.81
290.91	86.81
291.141	84.81
291.371	78.81
291.602	71.81
291.833	80.81
292.064	75.81
292.295	79.81
292.526	77.81
292.757	93.81
292.987	70.81
293.218	78.81
293.449	82.81
293.68	78.81
293.91	85.81
294.141	87.81
294.372	86.81
294.603	85.81
294.833	69.81
295.064	80.81
295.295	73.81
295.525	82.81
295.756	77.81
295.987	83.81
296.217	59.81
296.448	79.81
296.679	76.81
296.909	77.81
297.14	79.81
297.37	76.81
297.601	66.81
297.831	77.81
298.062	80.81
298.292	81.81
298.523	87.81
298.753	95.81
298.984	84.81
299.214	84.81
299.445	93.81
299.675	86.81
299.905	77.81
300.136	79.81
300.366	82.81
300.597	77.81
300.827	69.81
301.057	77.81
301.288	78.81
301.518	83.81
301.748	80.81
301.979	97.81
302.209	83.81
302.439	87.81
302.669	82.81
302.9	93.81
303.13	87.81
303.36	91.81
303.59	81.81
303.82	73.81
304.051	101.81
304.281	80.81
304.511	82.81
304.741	68.81
304.971	81.81
305.201	69.81
305.431	82.81
305.661	88.81
305.891	87.81
306.121	88.81
306.352	74.81
306.582	72.81
306.812	89.81
307.042	82.81
307.272	85.81
307.502	95.81
307.731	78.81
307.961	71.81
308.191	77.81
308.421	76.81
308.651	81.81
308.881	92.81
309.111	83.81
309.341	79.81
309.571	90.81
309.8	85.81
310.03	80.81
310.26	78.81
310.49	83.81
310.72	79.81
310.949	84.81
311.179	66.81
311.409	79.81
311.639	78.81
311.868	74.81
312.098	77.81
312.328	83.81
312.557	79.81
312.787	81.81
313.017	81.81
313.246	72.81
313.476	73.81
313.706	100.81
313.935	78.81
314.165	74.81
314.394	71.81
314.624	62.81
314.853	88.81
315.083	79.81
315.312	77.81
315.542	81.81
315.771	73.81
316.001	72.81
316.23	81.81
316.46	80.81
316.689	80.81
316.919	81.81
317.148	78.81
317.377	93.81
317.607	81.81
317.836	81.81
318.065	90.81
318.295	78.81
318.524	76.81
318.753	89.81
318.983	75.81
319.212	77.81
319.441	73.81
319.67	74.81
319.9	77.81
320.129	77.81
320.358	94.81
320.587	82.81
320.816	79.81
321.046	70.81
321.275	88.81
321.504	80.81
321.733	77.81
321.962	86.81
322.191	74.81
322.42	76.81
322.649	85.81
322.878	90.81
323.108	90.81
323.337	90.81
323.566	83.81
323.795	80.81
324.024	68.81
324.253	89.81
324.482	74.81
324.71	86.81
324.939	79.81
325.168	78.81
325.397	72.81
325.626	85.81
325.855	68.81
326.084	89.81
326.313	82.81
326.542	69.81
326.77	82.81
326.999	83.81
327.228	81.81
327.457	70.81
327.686	83.81
327.914	90.81
328.143	101.81
328.372	85.81
328.6	77.81
328.829	78.81
329.058	82.81
329.287	76.81
329.515	82.81
329.744	90.81
329.972	69.81
330.201	81.81
330.43	84.81
330.658	82.81
330.887	81.81
331.115	85.81
331.344	76.81
331.572	96.81
331.801	80.81
332.03	63.81
332.258	80.81
332.486	75.81
332.715	81.81
332.943	77.81
333.172	82.81
333.4	82.81
333.629	79.81
333.857	82.81
334.085	84.81
334.314	93.81
334.542	70.81
334.771	67.81
334.999	74.81
335.227	78.81
335.455	87.81
335.684	92.81
335.912	89.81
336.14	93.81
336.369	84.81
336.597	82.81
336.825	71.81
337.053	86.81
337.281	66.81
337.51	81.81
337.738	71.81
337.966	81.81
338.194	86.81
338.422	89.81
338.65	82.81
338.878	73.81
339.106	76.81
339.334	90.81
339.562	74.81
339.79	90.81
340.018	68.81
340.246	84.81
340.474	78.81
340.702	87.81
340.93	89.81
341.158	83.81
341.386	71.81
341.614	89.81
341.842	88.81
342.07	76.81
342.298	78.81
342.526	75.81
342.754	90.81
342.981	85.81
343.209	83.81
343.437	89.81
343.665	90.81
343.893	83.81
344.12	76.81
344.348	79.81
344.576	73.81
344.804	83.81
345.031	75.81
345.259	69.81
345.487	93.81
345.714	83.81
345.942	90.81
346.17	82.81
346.397	79.81
346.625	83.81
346.853	77.81
347.08	61.81
347.308	91.81
347.535	86.81
347.763	82.81
347.99	74.81
348.218	86.81
348.445	78.81
348.673	89.81
348.9	95.81
349.128	72.81
349.355	84.81
349.583	87.81
349.81	78.81
350.037	81.81
350.265	72.81
350.492	75.81
350.72	77.81
350.947	81.81
351.174	89.81
351.402	80.81
351.629	90.81
351.856	90.81
352.083	84.81
352.311	78.81
352.538	76.81
352.765	90.81
352.992	87.81
353.22	87.81
353.447	80.81
353.674	82.81
353.901	77.81
354.128	75.81
354.355	71.81
354.583	70.81
354.81	87.81
355.037	77.81
355.264	70.81
355.491	81.81
355.718	89.81
355.945	82.81
356.172	75.81
356.399	74.81
356.626	75.81
356.853	87.81
357.08	70.81
357.307	81.81
357.534	74.81
357.761	92.81
357.988	94.81
358.215	82.81
358.441	70.81
358.668	82.81
358.895	76.81
359.122	94.81
359.349	98.81
359.576	72.81
359.802	64.81
360.029	88.81
360.256	68.81
360.483	86.81
360.709	84.81
360.936	67.81
361.163	66.81
361.39	80.81
361.616	74.81
361.843	73.81
362.07	90.81
362.296	86.81
362.523	69.81
362.749	79.81
362.976	90.81
363.203	93.81
363.429	77.81
363.656	77.81
363.882	73.81
364.109	87.81
364.335	87.81
364.562	81.81
364.788	78.81
365.015	79.81
365.241	80.81
365.468	76.81
365.694	81.81
365.92	77.81
366.147	94.81
366.373	77.81
366.599	88.81
366.826	74.81
367.052	78.81
367.278	86.81
367.505	81.81
367.731	83.81
367.957	78.81
368.184	83.81
368.41	94.81
368.636	92.81
368.862	85.81
369.089	81.81
369.315	87.81
369.541	78.81
369.767	82.81
369.993	65.81
370.219	94.81
370.445	69.81
370.672	92.81
370.898	92.81
371.124	88.81
371.35	66.81
371.576	80.81
371.802	76.81
372.028	89.81
372.254	74.81
372.48	79.81
372.706	78.81
372.932	79.81
373.158	72.81
373.384	78.81
373.61	81.81
373.835	78.81
374.061	84.81
374.287	86.81
374.513	78.81
374.739	86.81
374.965	85.81
375.191	81.81
375.416	77.81
375.642	91.81
375.868	86.81
376.094	77.81
376.319	66.81
376.545	68.81
376.771	80.81
376.997	70.81
377.222	83.81
377.448	89.81
377.674	85.81
377.899	83.81
378.125	69.81
378.35	68.81
378.576	83.81
378.802	57.81
379.027	71.81
379.253	83.81
379.478	82.81
379.704	87.81
379.929	82.81
380.155	83.81
380.38	76.81
380.606	75.81
380.831	74.81
381.057	84.81
381.282	79.81
381.507	89.81
381.733	91.81
381.958	89.81
382.184	82.81
382.409	78.81
382.634	91.81
382.86	75.81
383.085	83.81
383.31	83.81
383.535	93.81
383.761	82.81
383.986	75.81
384.211	70.81
384.436	78.81
384.662	88.81
384.887	67.81
385.112	75.81
385.337	81.81
385.562	67.81
385.787	82.81
386.013	86.81
386.238	72.81
386.463	87.81
386.688	96.81
386.913	93.81
387.138	75.81
387.363	81.81
387.588	88.81
387.813	77.81
388.038	73.81
388.263	84.81
388.488	83.81
388.713	68.81
388.938	80.81
389.163	85.81
389.387	78.81
389.612	70.81
389.837	67.81
390.062	78.81
390.287	76.81
390.512	70.81
390.736	81.81
390.961	76.81
391.186	86.81
391.411	62.81
391.636	89.81
391.86	85.81
392.085	82.81
392.31	94.81
392.534	88.81
392.759	76.81
392.984	96.81
393.208	81.81
393.433	100.81
393.658	84.81
393.882	77.81
394.107	90.81
394.331	93.81
394.556	98.81
394.78	89.81
395.005	88.81
395.229	85.81
395.454	86.81
395.678	77.81
395.903	78.81
396.127	81.81
396.352	92.81
396.576	77.81
396.801	89.81
397.025	98.81
397.249	69.81
397.474	94.81
397.698	90.81
397.922	81.81
398.147	64.81
398.371	79.81
398.595	84.81
398.82	83.81
399.044	81.81
399.268	70.81
399.492	75.81
399.717	77.81
399.941	72.81
400.165	83.81
400.389	90.81
400.613	85.81
400.837	80.81
401.062	76.81
401.286	86.81
401.51	85.81
401.734	82.81
401.958	70.81
402.182	66.81
402.406	63.81
402.63	84.81
402.854	81.81
403.078	81.81
403.302	75.81
403.526	80.81
403.75	67.81
403.974	78.81
404.198	90.81
404.422	98.81
404.645	68.81
404.869	72.81
405.093	82.81
405.317	69.81
405.541	97.81
405.765	75.81
405.988	71.81
406.212	77.81
406.436	80.81
406.66	71.81
406.883	74.81
407.107	77.81
407.331	77.81
407.555	84.81
407.778	77.81
408.002	90.81
408.226	75.81
408.449	74.81
408.673	78.81
408.896	78.81
409.12	69.81
409.344	83.81
409.567	65.81
409.791	81.81
410.014	77.81
410.238	86.81
410.461	83.81
410.685	79.81
410.908	89.81
411.132	71.81
411.355	83.81
411.578	86.81
411.802	73.81
412.025	80.81
412.249	77.81
412.472	70.81
412.695	89.81
412.919	79.81
413.142	91.81
413.365	91.81
413.589	77.81
413.812	83.81
414.035	84.81
414.258	88.81
414.482	64.81
414.705	70.81
414.928	72.81
415.151	79.81
415.374	72.81
415.597	70.81
415.821	76.81
416.044	77.81
416.267	74.81
416.49	74.81
416.713	83.81
416.936	80.81
417.159	93.81
417.382	75.81
417.605	73.81
417.828	79.81
418.051	82.81
418.274	88.81
418.497	83.81
418.72	78.81
418.943	76.81
419.166	75.81
419.389	84.81
419.611	74.81
419.834	74.81
420.057	76.81
420.28	69.81
420.503	77.81
420.726	82.81
420.948	74.81
421.171	78.81
421.394	55.81
421.617	89.81
421.839	75.81
422.062	86.81
422.285	90.81
422.507	93.81
422.73	97.81
422.953	97.81
423.175	79.81
423.398	80.81
423.621	83.81
423.843	91.81
424.066	88.81
424.288	85.81
424.511	82.81
424.733	94.81
424.956	75.81
425.178	72.81
425.401	75.81
425.623	68.81
425.846	71.81
426.068	75.81
426.291	82.81
426.513	72.81
426.735	78.81
426.958	85.81
427.18	79.81
427.402	75.81
427.625	67.81
427.847	64.81
428.069	62.81
428.292	85.81
428.514	79.81
428.736	82.81
428.958	65.81
429.181	78.81
429.403	69.81
429.625	77.81
429.847	75.81
430.069	87.81
430.292	78.81
430.514	83.81
430.736	88.81
430.958	85.81
431.18	87.81
431.402	82.81
431.624	85.81
431.846	70.81
432.068	74.81
432.29	81.81
432.512	87.81
432.734	77.81
432.956	83.81
433.178	82.81
433.4	83.81
433.622	85.81
433.844	78.81
434.066	93.81
434.287	89.81
434.509	76.81
434.731	74.81
434.953	86.81
435.175	85.81
435.397	85.81
435.618	73.81
435.84	88.81
436.062	85.81
436.284	75.81
436.505	67.81
436.727	88.81
436.949	97.81
437.17	64.81
437.392	70.81
437.614	79.81
437.835	74.81
438.057	64.81
438.278	85.81
438.5	83.81
438.721	91.81
438.943	86.81
439.165	88.81
439.386	75.81
439.608	86.81
439.829	74.81
440.05	83.81
440.272	85.81
440.493	66.81
440.715	88.81
440.936	83.81
441.158	74.81
441.379	68.81
441.6	81.81
441.822	83.81
442.043	77.81
442.264	79.81
442.486	100.81
442.707	67.81
442.928	77.81
443.149	82.81
443.371	94.81
443.592	105.81
443.813	90.81
444.034	73.81
444.255	79.81
444.476	93.81
444.698	79.81
444.919	75.81
445.14	133.81
445.361	113.81
445.582	109.81
445.803	87.81
446.024	71.81
446.245	89.81
446.466	73.81
446.687	62.81
446.908	73.81
447.129	84.81
447.35	69.81
447.571	83.81
447.792	85.81
448.013	77.81
448.234	63.81
448.455	76.81
448.675	86.81
448.896	72.81
449.117	75.81
449.338	66.81
449.559	67.81
449.779	67.81
450	85.81
450.221	76.81
450.442	70.81
450.662	73.81
450.883	75.81
451.104	62.81
451.324	81.81
451.545	69.81
451.766	86.81
451.986	79.81
452.207	76.81
452.428	69.81
452.648	78.81
452.869	71.81
453.089	73.81
453.31	89.81
453.53	84.81
453.751	71.81
453.971	68.81
454.192	73.81
454.412	66.81
454.633	87.81
454.853	84.81
455.073	93.81
455.294	98.81
455.514	84.81
455.734	83.81
455.955	86.81
456.175	78.81
456.395	77.81
456.616	86.81
456.836	84.81
457.056	90.81
457.276	82.81
457.497	73.81
457.717	87.81
457.937	82.81
458.157	87.81
458.377	70.81
458.598	67.81
458.818	76.81
459.038	82.81
459.258	72.81
459.478	80.81
459.698	71.81
459.918	68.81
460.138	79.81
460.358	88.81
460.578	97.81
460.798	83.81
461.018	76.81
461.238	77.81
461.458	76.81
461.678	82.81
461.898	75.81
462.118	83.81
462.338	85.81
462.558	82.81
462.777	68.81
462.997	76.81
463.217	97.81
463.437	81.81
463.657	83.81
463.876	76.81
464.096	85.81
464.316	81.81
464.536	77.81
464.755	82.81
464.975	72.81
465.195	71.81
465.414	69.81
465.634	84.81
465.854	67.81
466.073	78.81
466.293	84.81
466.512	66.81
466.732	79.81
466.951	75.81
467.171	85.81
467.391	84.81
467.61	71.81
467.829	74.81
468.049	83.81
468.268	78.81
468.488	77.81
468.707	80.81
468.927	72.81
469.146	77.81
469.365	80.81
469.585	79.81
469.804	75.81
470.023	71.81
470.243	83.81
470.462	81.81
470.681	79.81
470.901	76.81
471.12	85.81
471.339	84.81
471.558	73.81
471.777	82.81
471.997	85.81
472.216	82.81
472.435	87.81
472.654	81.81
472.873	81.81
473.092	71.81
473.311	77.81
473.53	82.81
473.749	69.81
473.968	72.81
474.187	63.81
474.406	79.81
474.625	81.81
474.844	59.81
475.063	74.81
475.282	77.81
475.501	74.81
475.72	86.81
475.939	77.81
476.158	83.81
476.377	88.81
476.596	77.81
476.814	76.81
477.033	91.81
477.252	70.81
477.471	94.81
477.69	72.81
477.908	81.81
478.127	80.81
478.346	76.81
478.564	72.81
478.783	74.81
479.002	82.81
479.22	80.81
479.439	91.81
479.658	71.81
479.876	76.81
480.095	71.81
480.313	85.81
480.532	62.81
480.751	81.81
480.969	73.81
481.188	79.81
481.406	74.81
481.624	76.81
481.843	86.81
482.061	76.81
482.28	81.81
482.498	64.81
482.717	79.81
482.935	91.81
483.153	67.81
483.372	77.81
483.59	68.81
483.808	82.81
484.027	86.81
484.245	89.81
484.463	74.81
484.681	79.81
484.9	70.81
485.118	76.81
485.336	77.81
485.554	74.81
485.772	78.81
485.99	74.81
486.209	92.81
486.427	88.81
486.645	85.81
486.863	91.81
487.081	72.81
487.299	71.81
487.517	63.81
487.735	74.81
487.953	90.81
488.171	77.81
488.389	78.81
488.607	73.81
488.825	93.81
489.043	69.81
489.261	94.81
489.479	69.81
489.696	77.81
489.914	89.81
490.132	88.81
490.35	84.81
490.568	89.81
490.786	83.81
491.003	76.81
491.221	90.81
491.439	91.81
491.657	96.81
491.874	87.81
492.092	75.81
492.31	81.81
492.527	85.81
492.745	90.81
492.963	93.81
493.18	78.81
493.398	75.81
493.615	76.81
493.833	85.81
494.05	95.81
494.268	78.81
494.485	72.81
494.703	85.81
494.92	79.81
495.138	80.81
495.355	76.81
495.573	86.81
495.79	80.81
496.008	68.81
496.225	81.81
496.442	70.81
496.66	88.81
496.877	85.81
497.094	85.81
497.312	80.81
497.529	71.81
497.746	89.81
497.963	81.81
498.181	71.81
498.398	81.81
498.615	90.81
498.832	69.81
499.049	77.81
499.267	73.81
499.484	64.81
499.701	60.81
499.918	90.81
500.135	85.81
500.352	79.81
500.569	56.81
500.786	81.81
501.003	85.81
501.22	82.81
501.437	81.81
501.654	69.81
501.871	73.81
502.088	78.81
502.305	90.81
502.522	91.81
502.739	85.81
502.956	72.81
503.172	81.81
503.389	84.81
503.606	67.81
503.823	74.81
504.04	89.81
504.256	85.81
504.473	81.81
504.69	79.81
504.907	96.81
505.123	76.81
505.34	74.81
505.557	80.81
505.773	91.81
505.99	79.81
506.207	77.81
506.423	85.81
506.64	81.81
506.856	79.81
507.073	64.81
507.289	81.81
507.506	77.81
507.722	73.81
507.939	82.81
508.155	85.81
508.372	78.81
508.588	82.81
508.805	88.81
509.021	78.81
509.238	91.81
509.454	77.81
509.67	77.81
509.887	61.81
510.103	84.81
510.319	71.81
510.536	69.81
510.752	79.81
510.968	76.81
511.184	78.81
511.401	71.81
511.617	75.81
511.833	87.81
512.049	85.81
512.265	73.81
512.481	85.81
512.698	79.81
512.914	79.81
513.13	71.81
513.346	82.81
513.562	74.81
513.778	97.81
513.994	95.81
514.21	82.81
514.426	80.81
514.642	74.81
514.858	76.81
515.074	82.81
515.29	93.81
515.506	87.81
515.721	82.81
515.937	83.81
516.153	88.81
516.369	85.81
516.585	74.81
516.801	89.81
517.016	83.81
517.232	70.81
517.448	92.81
517.664	88.81
517.879	83.81
518.095	82.81
518.311	87.81
518.527	89.81
518.742	72.81
518.958	91.81
519.173	97.81
519.389	62.81
519.605	71.81
519.82	60.81
520.036	72.81
