Data from Dirtheat2_HRD10591_00006.txt Node
Date: Fri Dec 27 15:15:05 EST 2024
User: Yrep
Spectrometer: HR+D1059
Trigger mode: 1
Integration Time (sec): 1.000000E-1
Scans to average: 1
Electric dark correction enabled: true
Nonlinearity correction enabled: false
Boxcar width: 0
XAxis mode: Wavelengths
Number of Pixels in Spectrum: 2048
>>>>>Begin Spectral Data<<<<<
223.165	-19.19
223.4	-19.19
223.635	-19.19
223.869	-27.19
224.104	-15.19
224.338	-26.19
224.573	-12.19
224.808	-18.19
225.042	-8.19
225.277	9.81
225.511	2.81
225.746	-2.19
225.98	-12.19
226.215	-0.19
226.449	27.81
226.683	31.81
226.918	38.81
227.152	29.81
227.387	31.81
227.621	27.81
227.856	54.81
228.09	48.81
228.324	45.81
228.559	59.81
228.793	62.81
229.027	65.81
229.262	62.81
229.496	70.81
229.73	67.81
229.964	83.81
230.199	75.81
230.433	76.81
230.667	78.81
230.901	85.81
231.136	62.81
231.37	79.81
231.604	61.81
231.838	91.81
232.072	94.81
232.306	73.81
232.541	81.81
232.775	79.81
233.009	89.81
233.243	91.81
233.477	55.81
233.711	78.81
233.945	80.81
234.179	74.81
234.413	91.81
234.647	75.81
234.881	79.81
235.115	92.81
235.349	85.81
235.583	87.81
235.817	80.81
236.051	81.81
236.285	78.81
236.519	75.81
236.753	78.81
236.987	69.81
237.221	77.81
237.455	75.81
237.689	75.81
237.922	88.81
238.156	74.81
238.39	74.81
238.624	72.81
238.858	71.81
239.091	71.81
239.325	76.81
239.559	93.81
239.793	76.81
240.027	71.81
240.26	76.81
240.494	78.81
240.728	77.81
240.961	63.81
241.195	68.81
241.429	88.81
241.662	72.81
241.896	65.81
242.13	83.81
242.363	60.81
242.597	80.81
242.83	81.81
243.064	88.81
243.298	73.81
243.531	83.81
243.765	72.81
243.998	66.81
244.232	74.81
244.465	74.81
244.699	72.81
244.932	82.81
245.166	80.81
245.399	86.81
245.633	69.81
245.866	73.81
246.099	93.81
246.333	77.81
246.566	74.81
246.8	72.81
247.033	88.81
247.266	83.81
247.5	65.81
247.733	78.81
247.966	71.81
248.2	74.81
248.433	85.81
248.666	87.81
248.899	86.81
249.133	78.81
249.366	78.81
249.599	79.81
249.832	78.81
250.066	90.81
250.299	84.81
250.532	72.81
250.765	79.81
250.998	78.81
251.231	67.81
251.465	75.81
251.698	88.81
251.931	85.81
252.164	80.81
252.397	79.81
252.63	77.81
252.863	66.81
253.096	89.81
253.329	85.81
253.562	75.81
253.795	86.81
254.028	76.81
254.261	83.81
254.494	85.81
254.727	72.81
254.96	88.81
255.193	77.81
255.426	69.81
255.659	70.81
255.892	91.81
256.124	85.81
256.357	74.81
256.59	88.81
256.823	77.81
257.056	83.81
257.289	62.81
257.521	83.81
257.754	75.81
257.987	64.81
258.22	77.81
258.452	73.81
258.685	86.81
258.918	79.81
259.151	82.81
259.383	74.81
259.616	68.81
259.849	83.81
260.081	89.81
260.314	78.81
260.547	80.81
260.779	84.81
261.012	93.81
261.244	80.81
261.477	73.81
261.71	74.81
261.942	72.81
262.175	78.81
262.407	73.81
262.64	74.81
262.872	73.81
263.105	71.81
263.337	76.81
263.57	87.81
263.802	93.81
264.035	84.81
264.267	89.81
264.499	83.81
264.732	86.81
264.964	86.81
265.197	78.81
265.429	79.81
265.661	85.81
265.894	86.81
266.126	91.81
266.358	89.81
266.591	85.81
266.823	73.81
267.055	91.81
267.287	93.81
267.52	75.81
267.752	81.81
267.984	87.81
268.216	87.81
268.448	86.81
268.681	77.81
268.913	85.81
269.145	81.81
269.377	89.81
269.609	81.81
269.841	105.81
270.073	91.81
270.306	78.81
270.538	74.81
270.77	84.81
271.002	83.81
271.234	89.81
271.466	96.81
271.698	72.81
271.93	87.81
272.162	69.81
272.394	88.81
272.626	77.81
272.858	83.81
273.09	77.81
273.322	98.81
273.553	93.81
273.785	85.81
274.017	66.81
274.249	81.81
274.481	73.81
274.713	65.81
274.945	89.81
275.176	84.81
275.408	88.81
275.64	78.81
275.872	86.81
276.104	75.81
276.335	64.81
276.567	79.81
276.799	77.81
277.031	85.81
277.262	92.81
277.494	86.81
277.726	85.81
277.957	88.81
278.189	85.81
278.421	91.81
278.652	85.81
278.884	86.81
279.115	79.81
279.347	80.81
279.579	83.81
279.81	80.81
280.042	71.81
280.273	86.81
280.505	87.81
280.736	80.81
280.968	94.81
281.199	78.81
281.431	100.81
281.662	93.81
281.894	86.81
282.125	96.81
282.356	85.81
282.588	87.81
282.819	92.81
283.051	70.81
283.282	85.81
283.513	95.81
283.745	89.81
283.976	81.81
284.207	85.81
284.439	73.81
284.67	91.81
284.901	77.81
285.132	81.81
285.364	87.81
285.595	81.81
285.826	75.81
286.057	68.81
286.288	96.81
286.52	81.81
286.751	85.81
286.982	86.81
287.213	77.81
287.444	84.81
287.675	81.81
287.906	82.81
288.138	72.81
288.369	96.81
288.6	76.81
288.831	94.81
289.062	95.81
289.293	68.81
289.524	81.81
289.755	86.81
289.986	85.81
290.217	90.81
290.448	75.81
290.679	87.81
290.91	76.81
291.141	87.81
291.371	84.81
291.602	101.81
291.833	87.81
292.064	83.81
292.295	85.81
292.526	94.81
292.757	88.81
292.987	73.81
293.218	81.81
293.449	82.81
293.68	91.81
293.91	81.81
294.141	88.81
294.372	86.81
294.603	77.81
294.833	82.81
295.064	71.81
295.295	97.81
295.525	79.81
295.756	89.81
295.987	90.81
296.217	81.81
296.448	80.81
296.679	87.81
296.909	94.81
297.14	93.81
297.37	94.81
297.601	75.81
297.831	94.81
298.062	94.81
298.292	74.81
298.523	93.81
298.753	87.81
298.984	79.81
299.214	79.81
299.445	94.81
299.675	91.81
299.905	71.81
300.136	79.81
300.366	80.81
300.597	93.81
300.827	82.81
301.057	71.81
301.288	78.81
301.518	81.81
301.748	84.81
301.979	95.81
302.209	87.81
302.439	84.81
302.669	84.81
302.9	85.81
303.13	75.81
303.36	82.81
303.59	89.81
303.82	77.81
304.051	85.81
304.281	99.81
304.511	85.81
304.741	82.81
304.971	83.81
305.201	103.81
305.431	72.81
305.661	86.81
305.891	88.81
306.121	80.81
306.352	84.81
306.582	100.81
306.812	94.81
307.042	86.81
307.272	88.81
307.502	83.81
307.731	80.81
307.961	83.81
308.191	82.81
308.421	82.81
308.651	91.81
308.881	99.81
309.111	97.81
309.341	80.81
309.571	77.81
309.8	83.81
310.03	70.81
310.26	71.81
310.49	89.81
310.72	89.81
310.949	74.81
311.179	79.81
311.409	77.81
311.639	82.81
311.868	76.81
312.098	80.81
312.328	97.81
312.557	92.81
312.787	80.81
313.017	76.81
313.246	91.81
313.476	74.81
313.706	93.81
313.935	88.81
314.165	77.81
314.394	102.81
314.624	91.81
314.853	83.81
315.083	88.81
315.312	82.81
315.542	88.81
315.771	84.81
316.001	78.81
316.23	92.81
316.46	67.81
316.689	94.81
316.919	75.81
317.148	97.81
317.377	90.81
317.607	90.81
317.836	92.81
318.065	81.81
318.295	86.81
318.524	88.81
318.753	90.81
318.983	77.81
319.212	76.81
319.441	85.81
319.67	85.81
319.9	80.81
320.129	99.81
320.358	89.81
320.587	90.81
320.816	79.81
321.046	89.81
321.275	83.81
321.504	89.81
321.733	99.81
321.962	85.81
322.191	77.81
322.42	96.81
322.649	94.81
322.878	97.81
323.108	91.81
323.337	75.81
323.566	80.81
323.795	73.81
324.024	76.81
324.253	81.81
324.482	96.81
324.71	85.81
324.939	79.81
325.168	82.81
325.397	103.81
325.626	83.81
325.855	89.81
326.084	86.81
326.313	87.81
326.542	77.81
326.77	88.81
326.999	86.81
327.228	95.81
327.457	81.81
327.686	88.81
327.914	96.81
328.143	78.81
328.372	75.81
328.6	70.81
328.829	87.81
329.058	95.81
329.287	102.81
329.515	83.81
329.744	89.81
329.972	91.81
330.201	96.81
330.43	93.81
330.658	71.81
330.887	67.81
331.115	88.81
331.344	92.81
331.572	88.81
331.801	88.81
332.03	75.81
332.258	85.81
332.486	83.81
332.715	90.81
332.943	91.81
333.172	86.81
333.4	74.81
333.629	84.81
333.857	70.81
334.085	77.81
334.314	88.81
334.542	74.81
334.771	75.81
334.999	89.81
335.227	93.81
335.455	90.81
335.684	90.81
335.912	83.81
336.14	94.81
336.369	69.81
336.597	94.81
336.825	87.81
337.053	81.81
337.281	79.81
337.51	93.81
337.738	80.81
337.966	99.81
338.194	85.81
338.422	94.81
338.65	91.81
338.878	87.81
339.106	87.81
339.334	81.81
339.562	80.81
339.79	82.81
340.018	93.81
340.246	76.81
340.474	82.81
340.702	77.81
340.93	74.81
341.158	79.81
341.386	82.81
341.614	93.81
341.842	85.81
342.07	76.81
342.298	79.81
342.526	92.81
342.754	79.81
342.981	87.81
343.209	81.81
343.437	87.81
343.665	97.81
343.893	82.81
344.12	79.81
344.348	80.81
344.576	90.81
344.804	86.81
345.031	71.81
345.259	84.81
345.487	77.81
345.714	79.81
345.942	86.81
346.17	80.81
346.397	104.81
346.625	89.81
346.853	89.81
347.08	83.81
347.308	86.81
347.535	87.81
347.763	89.81
347.99	86.81
348.218	85.81
348.445	69.81
348.673	76.81
348.9	89.81
349.128	72.81
349.355	86.81
349.583	92.81
349.81	92.81
350.037	92.81
350.265	94.81
350.492	82.81
350.72	88.81
350.947	82.81
351.174	88.81
351.402	69.81
351.629	85.81
351.856	67.81
352.083	91.81
352.311	94.81
352.538	101.81
352.765	70.81
352.992	84.81
353.22	80.81
353.447	88.81
353.674	83.81
353.901	89.81
354.128	94.81
354.355	101.81
354.583	77.81
354.81	83.81
355.037	77.81
355.264	81.81
355.491	76.81
355.718	80.81
355.945	77.81
356.172	84.81
356.399	89.81
356.626	88.81
356.853	80.81
357.08	92.81
357.307	78.81
357.534	79.81
357.761	79.81
357.988	76.81
358.215	86.81
358.441	80.81
358.668	81.81
358.895	78.81
359.122	99.81
359.349	83.81
359.576	99.81
359.802	81.81
360.029	81.81
360.256	87.81
360.483	84.81
360.709	67.81
360.936	84.81
361.163	86.81
361.39	76.81
361.616	82.81
361.843	83.81
362.07	89.81
362.296	95.81
362.523	83.81
362.749	80.81
362.976	83.81
363.203	76.81
363.429	80.81
363.656	86.81
363.882	89.81
364.109	80.81
364.335	81.81
364.562	88.81
364.788	77.81
365.015	84.81
365.241	83.81
365.468	88.81
365.694	86.81
365.92	91.81
366.147	86.81
366.373	85.81
366.599	73.81
366.826	80.81
367.052	87.81
367.278	86.81
367.505	88.81
367.731	91.81
367.957	77.81
368.184	86.81
368.41	87.81
368.636	74.81
368.862	81.81
369.089	75.81
369.315	81.81
369.541	83.81
369.767	87.81
369.993	86.81
370.219	85.81
370.445	84.81
370.672	77.81
370.898	71.81
371.124	93.81
371.35	89.81
371.576	86.81
371.802	80.81
372.028	86.81
372.254	89.81
372.48	83.81
372.706	77.81
372.932	85.81
373.158	85.81
373.384	77.81
373.61	94.81
373.835	88.81
374.061	85.81
374.287	95.81
374.513	73.81
374.739	87.81
374.965	88.81
375.191	83.81
375.416	83.81
375.642	78.81
375.868	74.81
376.094	76.81
376.319	78.81
376.545	80.81
376.771	66.81
376.997	80.81
377.222	71.81
377.448	79.81
377.674	97.81
377.899	75.81
378.125	78.81
378.35	76.81
378.576	84.81
378.802	88.81
379.027	81.81
379.253	89.81
379.478	93.81
379.704	93.81
379.929	94.81
380.155	72.81
380.38	68.81
380.606	85.81
380.831	78.81
381.057	76.81
381.282	79.81
381.507	74.81
381.733	80.81
381.958	78.81
382.184	83.81
382.409	77.81
382.634	96.81
382.86	96.81
383.085	60.81
383.31	83.81
383.535	79.81
383.761	80.81
383.986	84.81
384.211	94.81
384.436	88.81
384.662	87.81
384.887	76.81
385.112	84.81
385.337	80.81
385.562	83.81
385.787	85.81
386.013	83.81
386.238	77.81
386.463	65.81
386.688	95.81
386.913	79.81
387.138	85.81
387.363	91.81
387.588	91.81
387.813	80.81
388.038	84.81
388.263	74.81
388.488	78.81
388.713	87.81
388.938	79.81
389.163	84.81
389.387	91.81
389.612	75.81
389.837	83.81
390.062	83.81
390.287	84.81
390.512	75.81
390.736	89.81
390.961	86.81
391.186	71.81
391.411	86.81
391.636	83.81
391.86	73.81
392.085	85.81
392.31	87.81
392.534	86.81
392.759	79.81
392.984	87.81
393.208	87.81
393.433	107.81
393.658	87.81
393.882	71.81
394.107	83.81
394.331	88.81
394.556	85.81
394.78	80.81
395.005	82.81
395.229	65.81
395.454	74.81
395.678	92.81
395.903	93.81
396.127	79.81
396.352	86.81
396.576	95.81
396.801	87.81
397.025	87.81
397.249	96.81
397.474	92.81
397.698	100.81
397.922	86.81
398.147	89.81
398.371	83.81
398.595	71.81
398.82	87.81
399.044	83.81
399.268	83.81
399.492	78.81
399.717	74.81
399.941	90.81
400.165	85.81
400.389	90.81
400.613	82.81
400.837	92.81
401.062	83.81
401.286	78.81
401.51	79.81
401.734	94.81
401.958	85.81
402.182	79.81
402.406	79.81
402.63	81.81
402.854	80.81
403.078	70.81
403.302	86.81
403.526	86.81
403.75	72.81
403.974	68.81
404.198	71.81
404.422	89.81
404.645	84.81
404.869	93.81
405.093	75.81
405.317	77.81
405.541	87.81
405.765	71.81
405.988	73.81
406.212	88.81
406.436	77.81
406.66	87.81
406.883	80.81
407.107	91.81
407.331	93.81
407.555	71.81
407.778	80.81
408.002	81.81
408.226	74.81
408.449	76.81
408.673	84.81
408.896	91.81
409.12	65.81
409.344	76.81
409.567	81.81
409.791	88.81
410.014	91.81
410.238	83.81
410.461	70.81
410.685	88.81
410.908	85.81
411.132	84.81
411.355	84.81
411.578	76.81
411.802	88.81
412.025	74.81
412.249	85.81
412.472	78.81
412.695	76.81
412.919	87.81
413.142	79.81
413.365	79.81
413.589	68.81
413.812	82.81
414.035	86.81
414.258	72.81
414.482	73.81
414.705	76.81
414.928	87.81
415.151	102.81
415.374	93.81
415.597	88.81
415.821	79.81
416.044	73.81
416.267	72.81
416.49	81.81
416.713	81.81
416.936	87.81
417.159	85.81
417.382	88.81
417.605	74.81
417.828	82.81
418.051	77.81
418.274	85.81
418.497	91.81
418.72	83.81
418.943	84.81
419.166	85.81
419.389	88.81
419.611	80.81
419.834	87.81
420.057	81.81
420.28	79.81
420.503	75.81
420.726	80.81
420.948	85.81
421.171	101.81
421.394	89.81
421.617	91.81
421.839	71.81
422.062	78.81
422.285	85.81
422.507	97.81
422.73	107.81
422.953	117.81
423.175	87.81
423.398	80.81
423.621	79.81
423.843	89.81
424.066	95.81
424.288	72.81
424.511	73.81
424.733	92.81
424.956	80.81
425.178	82.81
425.401	91.81
425.623	82.81
425.846	85.81
426.068	76.81
426.291	79.81
426.513	99.81
426.735	75.81
426.958	71.81
427.18	78.81
427.402	66.81
427.625	70.81
427.847	84.81
428.069	87.81
428.292	83.81
428.514	78.81
428.736	84.81
428.958	84.81
429.181	86.81
429.403	75.81
429.625	83.81
429.847	99.81
430.069	97.81
430.292	85.81
430.514	74.81
430.736	93.81
430.958	85.81
431.18	80.81
431.402	80.81
431.624	78.81
431.846	93.81
432.068	91.81
432.29	86.81
432.512	81.81
432.734	65.81
432.956	70.81
433.178	96.81
433.4	75.81
433.622	101.81
433.844	73.81
434.066	84.81
434.287	80.81
434.509	84.81
434.731	77.81
434.953	75.81
435.175	68.81
435.397	91.81
435.618	81.81
435.84	92.81
436.062	79.81
436.284	78.81
436.505	85.81
436.727	79.81
436.949	80.81
437.17	81.81
437.392	82.81
437.614	79.81
437.835	68.81
438.057	79.81
438.278	73.81
438.5	87.81
438.721	84.81
438.943	80.81
439.165	80.81
439.386	81.81
439.608	89.81
439.829	72.81
440.05	85.81
440.272	84.81
440.493	73.81
440.715	77.81
440.936	86.81
441.158	87.81
441.379	81.81
441.6	69.81
441.822	94.81
442.043	88.81
442.264	91.81
442.486	85.81
442.707	89.81
442.928	90.81
443.149	79.81
443.371	84.81
443.592	102.81
443.813	83.81
444.034	85.81
444.255	90.81
444.476	82.81
444.698	80.81
444.919	86.81
445.14	142.81
445.361	123.81
445.582	108.81
445.803	100.81
446.024	78.81
446.245	86.81
446.466	88.81
446.687	62.81
446.908	98.81
447.129	95.81
447.35	91.81
447.571	87.81
447.792	88.81
448.013	73.81
448.234	84.81
448.455	92.81
448.675	88.81
448.896	81.81
449.117	74.81
449.338	91.81
449.559	86.81
449.779	76.81
450	78.81
450.221	93.81
450.442	91.81
450.662	75.81
450.883	83.81
451.104	83.81
451.324	88.81
451.545	74.81
451.766	83.81
451.986	71.81
452.207	72.81
452.428	78.81
452.648	82.81
452.869	70.81
453.089	92.81
453.31	83.81
453.53	71.81
453.751	89.81
453.971	78.81
454.192	89.81
454.412	76.81
454.633	86.81
454.853	71.81
455.073	82.81
455.294	73.81
455.514	91.81
455.734	71.81
455.955	83.81
456.175	72.81
456.395	89.81
456.616	77.81
456.836	89.81
457.056	83.81
457.276	79.81
457.497	72.81
457.717	81.81
457.937	79.81
458.157	72.81
458.377	91.81
458.598	95.81
458.818	96.81
459.038	88.81
459.258	85.81
459.478	92.81
459.698	89.81
459.918	84.81
460.138	74.81
460.358	80.81
460.578	89.81
460.798	93.81
461.018	82.81
461.238	74.81
461.458	78.81
461.678	83.81
461.898	78.81
462.118	86.81
462.338	88.81
462.558	83.81
462.777	77.81
462.997	84.81
463.217	81.81
463.437	78.81
463.657	65.81
463.876	79.81
464.096	77.81
464.316	87.81
464.536	60.81
464.755	80.81
464.975	90.81
465.195	85.81
465.414	83.81
465.634	91.81
465.854	86.81
466.073	89.81
466.293	78.81
466.512	80.81
466.732	74.81
466.951	88.81
467.171	81.81
467.391	78.81
467.61	76.81
467.829	82.81
468.049	86.81
468.268	86.81
468.488	80.81
468.707	93.81
468.927	89.81
469.146	90.81
469.365	80.81
469.585	73.81
469.804	84.81
470.023	69.81
470.243	68.81
470.462	79.81
470.681	99.81
470.901	77.81
471.12	68.81
471.339	76.81
471.558	84.81
471.777	83.81
471.997	72.81
472.216	94.81
472.435	93.81
472.654	84.81
472.873	85.81
473.092	68.81
473.311	87.81
473.53	75.81
473.749	79.81
473.968	104.81
474.187	85.81
474.406	81.81
474.625	77.81
474.844	76.81
475.063	70.81
475.282	80.81
475.501	67.81
475.72	94.81
475.939	79.81
476.158	78.81
476.377	88.81
476.596	77.81
476.814	80.81
477.033	82.81
477.252	74.81
477.471	84.81
477.69	77.81
477.908	83.81
478.127	86.81
478.346	92.81
478.564	69.81
478.783	68.81
479.002	75.81
479.22	76.81
479.439	88.81
479.658	93.81
479.876	105.81
480.095	87.81
480.313	80.81
480.532	77.81
480.751	72.81
480.969	75.81
481.188	75.81
481.406	79.81
481.624	80.81
481.843	71.81
482.061	73.81
482.28	79.81
482.498	83.81
482.717	81.81
482.935	73.81
483.153	77.81
483.372	75.81
483.59	88.81
483.808	70.81
484.027	88.81
484.245	68.81
484.463	88.81
484.681	92.81
484.9	96.81
485.118	103.81
485.336	67.81
485.554	86.81
485.772	80.81
485.99	72.81
486.209	86.81
486.427	91.81
486.645	73.81
486.863	91.81
487.081	85.81
487.299	102.81
487.517	95.81
487.735	79.81
487.953	82.81
488.171	91.81
488.389	83.81
488.607	94.81
488.825	85.81
489.043	80.81
489.261	84.81
489.479	88.81
489.696	94.81
489.914	84.81
490.132	82.81
490.35	86.81
490.568	86.81
490.786	77.81
491.003	87.81
491.221	85.81
491.439	83.81
491.657	85.81
491.874	79.81
492.092	85.81
492.31	80.81
492.527	80.81
492.745	91.81
492.963	94.81
493.18	81.81
493.398	83.81
493.615	81.81
493.833	86.81
494.05	75.81
494.268	76.81
494.485	81.81
494.703	77.81
494.92	96.81
495.138	83.81
495.355	81.81
495.573	96.81
495.79	82.81
496.008	85.81
496.225	74.81
496.442	85.81
496.66	66.81
496.877	87.81
497.094	94.81
497.312	75.81
497.529	93.81
497.746	71.81
497.963	92.81
498.181	87.81
498.398	77.81
498.615	84.81
498.832	85.81
499.049	75.81
499.267	85.81
499.484	86.81
499.701	86.81
499.918	105.81
500.135	94.81
500.352	85.81
500.569	93.81
500.786	103.81
501.003	89.81
501.22	75.81
501.437	80.81
501.654	90.81
501.871	97.81
502.088	70.81
502.305	92.81
502.522	77.81
502.739	90.81
502.956	86.81
503.172	99.81
503.389	85.81
503.606	79.81
503.823	80.81
504.04	86.81
504.256	81.81
504.473	101.81
504.69	92.81
504.907	89.81
505.123	86.81
505.34	85.81
505.557	76.81
505.773	84.81
505.99	88.81
506.207	63.81
506.423	77.81
506.64	85.81
506.856	73.81
507.073	72.81
507.289	89.81
507.506	96.81
507.722	88.81
507.939	76.81
508.155	94.81
508.372	77.81
508.588	80.81
508.805	77.81
509.021	75.81
509.238	81.81
509.454	88.81
509.67	77.81
509.887	90.81
510.103	75.81
510.319	76.81
510.536	85.81
510.752	78.81
510.968	79.81
511.184	83.81
511.401	80.81
511.617	106.81
511.833	94.81
512.049	87.81
512.265	84.81
512.481	79.81
512.698	85.81
512.914	86.81
513.13	80.81
513.346	76.81
513.562	90.81
513.778	92.81
513.994	93.81
514.21	85.81
514.426	68.81
514.642	93.81
514.858	83.81
515.074	83.81
515.29	98.81
515.506	79.81
515.721	79.81
515.937	84.81
516.153	86.81
516.369	79.81
516.585	79.81
516.801	65.81
517.016	70.81
517.232	80.81
517.448	83.81
517.664	93.81
517.879	89.81
518.095	80.81
518.311	84.81
518.527	99.81
518.742	95.81
518.958	91.81
519.173	89.81
519.389	95.81
519.605	86.81
519.82	73.81
