Data from Dirtheat2_HRD10591_00001.txt Node
Date: Fri Dec 27 15:15:01 EST 2024
User: Yrep
Spectrometer: HR+D1059
Trigger mode: 1
Integration Time (sec): 1.000000E-1
Scans to average: 1
Electric dark correction enabled: true
Nonlinearity correction enabled: false
Boxcar width: 0
XAxis mode: Wavelengths
Number of Pixels in Spectrum: 2048
>>>>>Begin Spectral Data<<<<<
223.165	-19.62
223.4	-19.62
223.635	-19.62
223.869	-11.62
224.104	-27.62
224.338	-13.62
224.573	-21.62
224.808	-6.62
225.042	-11.62
225.277	-5.62
225.511	-6.62
225.746	13.38
225.98	6.38
226.215	15.38
226.449	11.38
226.683	32.38
226.918	18.38
227.152	27.38
227.387	33.38
227.621	27.38
227.856	51.38
228.09	43.38
228.324	57.38
228.559	54.38
228.793	55.38
229.027	69.38
229.262	68.38
229.496	71.38
229.73	74.38
229.964	76.38
230.199	69.38
230.433	76.38
230.667	70.38
230.901	61.38
231.136	72.38
231.37	68.38
231.604	69.38
231.838	83.38
232.072	81.38
232.306	81.38
232.541	87.38
232.775	83.38
233.009	74.38
233.243	90.38
233.477	75.38
233.711	82.38
233.945	80.38
234.179	85.38
234.413	90.38
234.647	69.38
234.881	76.38
235.115	81.38
235.349	70.38
235.583	82.38
235.817	74.38
236.051	70.38
236.285	84.38
236.519	64.38
236.753	70.38
236.987	84.38
237.221	85.38
237.455	75.38
237.689	59.38
237.922	77.38
238.156	84.38
238.39	85.38
238.624	81.38
238.858	74.38
239.091	60.38
239.325	76.38
239.559	73.38
239.793	75.38
240.027	79.38
240.26	78.38
240.494	78.38
240.728	81.38
240.961	68.38
241.195	78.38
241.429	77.38
241.662	85.38
241.896	87.38
242.13	58.38
242.363	79.38
242.597	64.38
242.83	71.38
243.064	77.38
243.298	76.38
243.531	67.38
243.765	69.38
243.998	81.38
244.232	77.38
244.465	80.38
244.699	84.38
244.932	66.38
245.166	88.38
245.399	88.38
245.633	95.38
245.866	89.38
246.099	69.38
246.333	75.38
246.566	61.38
246.8	62.38
247.033	70.38
247.266	84.38
247.5	77.38
247.733	66.38
247.966	64.38
248.2	78.38
248.433	80.38
248.666	69.38
248.899	82.38
249.133	79.38
249.366	77.38
249.599	70.38
249.832	81.38
250.066	79.38
250.299	78.38
250.532	67.38
250.765	77.38
250.998	81.38
251.231	78.38
251.465	75.38
251.698	87.38
251.931	65.38
252.164	69.38
252.397	89.38
252.63	84.38
252.863	77.38
253.096	66.38
253.329	73.38
253.562	83.38
253.795	84.38
254.028	74.38
254.261	74.38
254.494	83.38
254.727	86.38
254.96	89.38
255.193	73.38
255.426	77.38
255.659	88.38
255.892	80.38
256.124	78.38
256.357	88.38
256.59	74.38
256.823	71.38
257.056	86.38
257.289	73.38
257.521	81.38
257.754	87.38
257.987	73.38
258.22	76.38
258.452	86.38
258.685	81.38
258.918	95.38
259.151	81.38
259.383	86.38
259.616	71.38
259.849	85.38
260.081	70.38
260.314	86.38
260.547	69.38
260.779	82.38
261.012	86.38
261.244	78.38
261.477	87.38
261.71	79.38
261.942	80.38
262.175	73.38
262.407	65.38
262.64	82.38
262.872	85.38
263.105	73.38
263.337	91.38
263.57	80.38
263.802	71.38
264.035	68.38
264.267	84.38
264.499	81.38
264.732	76.38
264.964	86.38
265.197	79.38
265.429	84.38
265.661	81.38
265.894	85.38
266.126	79.38
266.358	76.38
266.591	87.38
266.823	90.38
267.055	77.38
267.287	67.38
267.52	69.38
267.752	70.38
267.984	85.38
268.216	84.38
268.448	77.38
268.681	89.38
268.913	70.38
269.145	73.38
269.377	82.38
269.609	93.38
269.841	79.38
270.073	84.38
270.306	80.38
270.538	76.38
270.77	85.38
271.002	84.38
271.234	89.38
271.466	75.38
271.698	81.38
271.93	87.38
272.162	78.38
272.394	87.38
272.626	96.38
272.858	85.38
273.09	73.38
273.322	83.38
273.553	87.38
273.785	86.38
274.017	81.38
274.249	92.38
274.481	72.38
274.713	94.38
274.945	91.38
275.176	72.38
275.408	90.38
275.64	81.38
275.872	81.38
276.104	80.38
276.335	88.38
276.567	78.38
276.799	70.38
277.031	88.38
277.262	104.38
277.494	75.38
277.726	94.38
277.957	75.38
278.189	64.38
278.421	71.38
278.652	82.38
278.884	90.38
279.115	83.38
279.347	84.38
279.579	87.38
279.81	77.38
280.042	82.38
280.273	81.38
280.505	80.38
280.736	82.38
280.968	77.38
281.199	91.38
281.431	84.38
281.662	69.38
281.894	81.38
282.125	86.38
282.356	82.38
282.588	93.38
282.819	71.38
283.051	84.38
283.282	73.38
283.513	78.38
283.745	79.38
283.976	78.38
284.207	67.38
284.439	84.38
284.67	92.38
284.901	69.38
285.132	87.38
285.364	66.38
285.595	95.38
285.826	99.38
286.057	92.38
286.288	83.38
286.52	81.38
286.751	78.38
286.982	90.38
287.213	76.38
287.444	81.38
287.675	80.38
287.906	79.38
288.138	82.38
288.369	90.38
288.6	80.38
288.831	93.38
289.062	81.38
289.293	78.38
289.524	93.38
289.755	71.38
289.986	78.38
290.217	77.38
290.448	78.38
290.679	94.38
290.91	77.38
291.141	79.38
291.371	80.38
291.602	71.38
291.833	76.38
292.064	75.38
292.295	81.38
292.526	77.38
292.757	94.38
292.987	90.38
293.218	80.38
293.449	82.38
293.68	81.38
293.91	85.38
294.141	76.38
294.372	90.38
294.603	80.38
294.833	75.38
295.064	95.38
295.295	84.38
295.525	72.38
295.756	85.38
295.987	69.38
296.217	74.38
296.448	82.38
296.679	86.38
296.909	94.38
297.14	83.38
297.37	70.38
297.601	80.38
297.831	65.38
298.062	76.38
298.292	71.38
298.523	89.38
298.753	88.38
298.984	83.38
299.214	87.38
299.445	88.38
299.675	80.38
299.905	77.38
300.136	89.38
300.366	78.38
300.597	85.38
300.827	94.38
301.057	83.38
301.288	89.38
301.518	88.38
301.748	73.38
301.979	93.38
302.209	88.38
302.439	81.38
302.669	86.38
302.9	91.38
303.13	93.38
303.36	89.38
303.59	90.38
303.82	90.38
304.051	72.38
304.281	87.38
304.511	95.38
304.741	76.38
304.971	85.38
305.201	87.38
305.431	96.38
305.661	78.38
305.891	101.38
306.121	81.38
306.352	91.38
306.582	84.38
306.812	74.38
307.042	97.38
307.272	92.38
307.502	82.38
307.731	91.38
307.961	89.38
308.191	72.38
308.421	83.38
308.651	77.38
308.881	74.38
309.111	72.38
309.341	66.38
309.571	84.38
309.8	77.38
310.03	70.38
310.26	81.38
310.49	78.38
310.72	73.38
310.949	86.38
311.179	90.38
311.409	70.38
311.639	80.38
311.868	73.38
312.098	75.38
312.328	83.38
312.557	71.38
312.787	70.38
313.017	88.38
313.246	90.38
313.476	92.38
313.706	84.38
313.935	87.38
314.165	97.38
314.394	85.38
314.624	66.38
314.853	83.38
315.083	75.38
315.312	84.38
315.542	80.38
315.771	91.38
316.001	70.38
316.23	80.38
316.46	85.38
316.689	85.38
316.919	79.38
317.148	87.38
317.377	73.38
317.607	78.38
317.836	74.38
318.065	85.38
318.295	86.38
318.524	90.38
318.753	90.38
318.983	84.38
319.212	84.38
319.441	86.38
319.67	82.38
319.9	76.38
320.129	91.38
320.358	95.38
320.587	100.38
320.816	80.38
321.046	85.38
321.275	96.38
321.504	89.38
321.733	80.38
321.962	79.38
322.191	83.38
322.42	85.38
322.649	85.38
322.878	87.38
323.108	90.38
323.337	83.38
323.566	79.38
323.795	86.38
324.024	79.38
324.253	79.38
324.482	77.38
324.71	88.38
324.939	86.38
325.168	79.38
325.397	85.38
325.626	84.38
325.855	93.38
326.084	89.38
326.313	85.38
326.542	91.38
326.77	84.38
326.999	96.38
327.228	85.38
327.457	85.38
327.686	84.38
327.914	77.38
328.143	80.38
328.372	95.38
328.6	78.38
328.829	81.38
329.058	77.38
329.287	95.38
329.515	77.38
329.744	74.38
329.972	89.38
330.201	74.38
330.43	85.38
330.658	66.38
330.887	85.38
331.115	109.38
331.344	82.38
331.572	84.38
331.801	83.38
332.03	79.38
332.258	82.38
332.486	81.38
332.715	88.38
332.943	84.38
333.172	92.38
333.4	81.38
333.629	96.38
333.857	83.38
334.085	96.38
334.314	86.38
334.542	85.38
334.771	75.38
334.999	86.38
335.227	84.38
335.455	84.38
335.684	86.38
335.912	79.38
336.14	73.38
336.369	73.38
336.597	83.38
336.825	82.38
337.053	86.38
337.281	95.38
337.51	80.38
337.738	84.38
337.966	73.38
338.194	78.38
338.422	84.38
338.65	88.38
338.878	72.38
339.106	92.38
339.334	75.38
339.562	73.38
339.79	81.38
340.018	85.38
340.246	92.38
340.474	83.38
340.702	91.38
340.93	91.38
341.158	84.38
341.386	68.38
341.614	86.38
341.842	73.38
342.07	70.38
342.298	85.38
342.526	87.38
342.754	82.38
342.981	88.38
343.209	81.38
343.437	107.38
343.665	84.38
343.893	80.38
344.12	87.38
344.348	79.38
344.576	85.38
344.804	81.38
345.031	87.38
345.259	76.38
345.487	70.38
345.714	71.38
345.942	80.38
346.17	86.38
346.397	94.38
346.625	89.38
346.853	79.38
347.08	79.38
347.308	69.38
347.535	93.38
347.763	84.38
347.99	79.38
348.218	82.38
348.445	89.38
348.673	66.38
348.9	90.38
349.128	94.38
349.355	81.38
349.583	86.38
349.81	81.38
350.037	97.38
350.265	76.38
350.492	72.38
350.72	88.38
350.947	102.38
351.174	76.38
351.402	80.38
351.629	87.38
351.856	78.38
352.083	91.38
352.311	68.38
352.538	81.38
352.765	93.38
352.992	95.38
353.22	78.38
353.447	96.38
353.674	83.38
353.901	80.38
354.128	81.38
354.355	78.38
354.583	77.38
354.81	91.38
355.037	84.38
355.264	86.38
355.491	84.38
355.718	79.38
355.945	83.38
356.172	93.38
356.399	92.38
356.626	84.38
356.853	90.38
357.08	81.38
357.307	86.38
357.534	64.38
357.761	94.38
357.988	93.38
358.215	88.38
358.441	85.38
358.668	91.38
358.895	79.38
359.122	77.38
359.349	82.38
359.576	84.38
359.802	74.38
360.029	82.38
360.256	90.38
360.483	85.38
360.709	84.38
360.936	89.38
361.163	66.38
361.39	85.38
361.616	80.38
361.843	75.38
362.07	83.38
362.296	82.38
362.523	83.38
362.749	74.38
362.976	84.38
363.203	86.38
363.429	70.38
363.656	82.38
363.882	77.38
364.109	85.38
364.335	81.38
364.562	94.38
364.788	87.38
365.015	86.38
365.241	81.38
365.468	62.38
365.694	73.38
365.92	82.38
366.147	74.38
366.373	68.38
366.599	71.38
366.826	80.38
367.052	93.38
367.278	76.38
367.505	77.38
367.731	77.38
367.957	84.38
368.184	88.38
368.41	72.38
368.636	77.38
368.862	75.38
369.089	90.38
369.315	85.38
369.541	75.38
369.767	93.38
369.993	92.38
370.219	86.38
370.445	71.38
370.672	67.38
370.898	82.38
371.124	67.38
371.35	86.38
371.576	77.38
371.802	67.38
372.028	80.38
372.254	69.38
372.48	79.38
372.706	81.38
372.932	86.38
373.158	79.38
373.384	92.38
373.61	82.38
373.835	79.38
374.061	69.38
374.287	95.38
374.513	96.38
374.739	82.38
374.965	82.38
375.191	73.38
375.416	75.38
375.642	93.38
375.868	85.38
376.094	77.38
376.319	74.38
376.545	89.38
376.771	90.38
376.997	90.38
377.222	73.38
377.448	98.38
377.674	82.38
377.899	61.38
378.125	65.38
378.35	73.38
378.576	70.38
378.802	80.38
379.027	85.38
379.253	86.38
379.478	78.38
379.704	67.38
379.929	83.38
380.155	79.38
380.38	86.38
380.606	75.38
380.831	68.38
381.057	75.38
381.282	85.38
381.507	81.38
381.733	74.38
381.958	82.38
382.184	78.38
382.409	73.38
382.634	77.38
382.86	80.38
383.085	85.38
383.31	89.38
383.535	86.38
383.761	73.38
383.986	84.38
384.211	76.38
384.436	84.38
384.662	69.38
384.887	77.38
385.112	84.38
385.337	79.38
385.562	74.38
385.787	78.38
386.013	74.38
386.238	66.38
386.463	79.38
386.688	99.38
386.913	92.38
387.138	81.38
387.363	77.38
387.588	93.38
387.813	80.38
388.038	95.38
388.263	93.38
388.488	86.38
388.713	86.38
388.938	65.38
389.163	81.38
389.387	81.38
389.612	77.38
389.837	85.38
390.062	86.38
390.287	81.38
390.512	81.38
390.736	74.38
390.961	72.38
391.186	80.38
391.411	88.38
391.636	79.38
391.86	69.38
392.085	81.38
392.31	73.38
392.534	94.38
392.759	71.38
392.984	84.38
393.208	75.38
393.433	66.38
393.658	65.38
393.882	77.38
394.107	86.38
394.331	76.38
394.556	63.38
394.78	80.38
395.005	73.38
395.229	75.38
395.454	79.38
395.678	87.38
395.903	88.38
396.127	86.38
396.352	81.38
396.576	76.38
396.801	73.38
397.025	80.38
397.249	92.38
397.474	99.38
397.698	76.38
397.922	71.38
398.147	85.38
398.371	82.38
398.595	63.38
398.82	74.38
399.044	92.38
399.268	81.38
399.492	82.38
399.717	90.38
399.941	83.38
400.165	86.38
400.389	85.38
400.613	73.38
400.837	73.38
401.062	75.38
401.286	73.38
401.51	78.38
401.734	76.38
401.958	72.38
402.182	80.38
402.406	89.38
402.63	60.38
402.854	94.38
403.078	77.38
403.302	83.38
403.526	91.38
403.75	85.38
403.974	83.38
404.198	77.38
404.422	65.38
404.645	77.38
404.869	85.38
405.093	92.38
405.317	86.38
405.541	96.38
405.765	93.38
405.988	69.38
406.212	71.38
406.436	89.38
406.66	84.38
406.883	85.38
407.107	86.38
407.331	74.38
407.555	85.38
407.778	73.38
408.002	81.38
408.226	95.38
408.449	70.38
408.673	84.38
408.896	78.38
409.12	78.38
409.344	72.38
409.567	79.38
409.791	77.38
410.014	76.38
410.238	72.38
410.461	85.38
410.685	94.38
410.908	70.38
411.132	80.38
411.355	90.38
411.578	76.38
411.802	78.38
412.025	88.38
412.249	76.38
412.472	94.38
412.695	79.38
412.919	73.38
413.142	73.38
413.365	86.38
413.589	87.38
413.812	65.38
414.035	91.38
414.258	74.38
414.482	88.38
414.705	76.38
414.928	78.38
415.151	91.38
415.374	77.38
415.597	76.38
415.821	73.38
416.044	76.38
416.267	84.38
416.49	78.38
416.713	81.38
416.936	73.38
417.159	70.38
417.382	73.38
417.605	79.38
417.828	68.38
418.051	77.38
418.274	73.38
418.497	89.38
418.72	74.38
418.943	76.38
419.166	81.38
419.389	82.38
419.611	83.38
419.834	84.38
420.057	78.38
420.28	64.38
420.503	84.38
420.726	76.38
420.948	70.38
421.171	62.38
421.394	68.38
421.617	73.38
421.839	83.38
422.062	83.38
422.285	87.38
422.507	85.38
422.73	94.38
422.953	92.38
423.175	81.38
423.398	73.38
423.621	91.38
423.843	83.38
424.066	80.38
424.288	76.38
424.511	83.38
424.733	85.38
424.956	72.38
425.178	78.38
425.401	64.38
425.623	81.38
425.846	76.38
426.068	81.38
426.291	80.38
426.513	72.38
426.735	77.38
426.958	74.38
427.18	86.38
427.402	74.38
427.625	84.38
427.847	78.38
428.069	84.38
428.292	88.38
428.514	85.38
428.736	66.38
428.958	93.38
429.181	81.38
429.403	60.38
429.625	71.38
429.847	78.38
430.069	81.38
430.292	88.38
430.514	80.38
430.736	55.38
430.958	71.38
431.18	91.38
431.402	75.38
431.624	78.38
431.846	82.38
432.068	75.38
432.29	84.38
432.512	91.38
432.734	71.38
432.956	73.38
433.178	79.38
433.4	78.38
433.622	88.38
433.844	73.38
434.066	73.38
434.287	74.38
434.509	80.38
434.731	99.38
434.953	74.38
435.175	72.38
435.397	76.38
435.618	73.38
435.84	75.38
436.062	76.38
436.284	80.38
436.505	71.38
436.727	72.38
436.949	78.38
437.17	71.38
437.392	88.38
437.614	82.38
437.835	80.38
438.057	89.38
438.278	76.38
438.5	95.38
438.721	86.38
438.943	65.38
439.165	100.38
439.386	66.38
439.608	69.38
439.829	80.38
440.05	68.38
440.272	69.38
440.493	79.38
440.715	80.38
440.936	67.38
441.158	96.38
441.379	77.38
441.6	97.38
441.822	85.38
442.043	80.38
442.264	73.38
442.486	72.38
442.707	89.38
442.928	89.38
443.149	81.38
443.371	83.38
443.592	66.38
443.813	81.38
444.034	83.38
444.255	93.38
444.476	75.38
444.698	81.38
444.919	94.38
445.14	168.38
445.361	118.38
445.582	97.38
445.803	79.38
446.024	86.38
446.245	85.38
446.466	92.38
446.687	78.38
446.908	78.38
447.129	85.38
447.35	77.38
447.571	72.38
447.792	93.38
448.013	77.38
448.234	89.38
448.455	74.38
448.675	71.38
448.896	92.38
449.117	87.38
449.338	79.38
449.559	74.38
449.779	71.38
450	78.38
450.221	94.38
450.442	77.38
450.662	65.38
450.883	78.38
451.104	79.38
451.324	90.38
451.545	81.38
451.766	83.38
451.986	90.38
452.207	78.38
452.428	77.38
452.648	89.38
452.869	80.38
453.089	80.38
453.31	89.38
453.53	73.38
453.751	90.38
453.971	74.38
454.192	86.38
454.412	76.38
454.633	87.38
454.853	71.38
455.073	78.38
455.294	72.38
455.514	76.38
455.734	73.38
455.955	80.38
456.175	72.38
456.395	81.38
456.616	78.38
456.836	90.38
457.056	80.38
457.276	88.38
457.497	84.38
457.717	82.38
457.937	93.38
458.157	87.38
458.377	76.38
458.598	70.38
458.818	89.38
459.038	73.38
459.258	73.38
459.478	76.38
459.698	69.38
459.918	80.38
460.138	82.38
460.358	72.38
460.578	72.38
460.798	74.38
461.018	80.38
461.238	72.38
461.458	71.38
461.678	86.38
461.898	95.38
462.118	70.38
462.338	81.38
462.558	87.38
462.777	73.38
462.997	86.38
463.217	84.38
463.437	85.38
463.657	76.38
463.876	64.38
464.096	75.38
464.316	82.38
464.536	80.38
464.755	84.38
464.975	86.38
465.195	86.38
465.414	77.38
465.634	69.38
465.854	87.38
466.073	73.38
466.293	75.38
466.512	70.38
466.732	68.38
466.951	86.38
467.171	66.38
467.391	89.38
467.61	88.38
467.829	84.38
468.049	80.38
468.268	97.38
468.488	74.38
468.707	92.38
468.927	94.38
469.146	79.38
469.365	69.38
469.585	76.38
469.804	94.38
470.023	87.38
470.243	80.38
470.462	75.38
470.681	82.38
470.901	84.38
471.12	79.38
471.339	86.38
471.558	74.38
471.777	70.38
471.997	65.38
472.216	73.38
472.435	85.38
472.654	78.38
472.873	77.38
473.092	79.38
473.311	77.38
473.53	98.38
473.749	76.38
473.968	95.38
474.187	81.38
474.406	77.38
474.625	91.38
474.844	87.38
475.063	76.38
475.282	82.38
475.501	77.38
475.72	83.38
475.939	82.38
476.158	85.38
476.377	71.38
476.596	79.38
476.814	64.38
477.033	75.38
477.252	81.38
477.471	77.38
477.69	81.38
477.908	78.38
478.127	80.38
478.346	71.38
478.564	80.38
478.783	78.38
479.002	76.38
479.22	84.38
479.439	66.38
479.658	90.38
479.876	88.38
480.095	73.38
480.313	86.38
480.532	86.38
480.751	82.38
480.969	92.38
481.188	72.38
481.406	78.38
481.624	84.38
481.843	76.38
482.061	89.38
482.28	86.38
482.498	88.38
482.717	92.38
482.935	73.38
483.153	68.38
483.372	82.38
483.59	89.38
483.808	80.38
484.027	76.38
484.245	80.38
484.463	80.38
484.681	86.38
484.9	78.38
485.118	91.38
485.336	83.38
485.554	72.38
485.772	71.38
485.99	66.38
486.209	92.38
486.427	89.38
486.645	90.38
486.863	83.38
487.081	67.38
487.299	100.38
487.517	96.38
487.735	86.38
487.953	80.38
488.171	89.38
488.389	73.38
488.607	96.38
488.825	79.38
489.043	80.38
489.261	82.38
489.479	101.38
489.696	81.38
489.914	90.38
490.132	89.38
490.35	76.38
490.568	73.38
490.786	69.38
491.003	75.38
491.221	74.38
491.439	76.38
491.657	89.38
491.874	86.38
492.092	89.38
492.31	72.38
492.527	77.38
492.745	84.38
492.963	74.38
493.18	85.38
493.398	89.38
493.615	90.38
493.833	94.38
494.05	82.38
494.268	84.38
494.485	87.38
494.703	76.38
494.92	74.38
495.138	72.38
495.355	98.38
495.573	80.38
495.79	94.38
496.008	94.38
496.225	78.38
496.442	77.38
496.66	93.38
496.877	87.38
497.094	84.38
497.312	86.38
497.529	85.38
497.746	74.38
497.963	74.38
498.181	82.38
498.398	80.38
498.615	86.38
498.832	88.38
499.049	85.38
499.267	76.38
499.484	84.38
499.701	93.38
499.918	80.38
500.135	87.38
500.352	88.38
500.569	96.38
500.786	88.38
501.003	68.38
501.22	84.38
501.437	75.38
501.654	79.38
501.871	82.38
502.088	88.38
502.305	89.38
502.522	88.38
502.739	73.38
502.956	94.38
503.172	85.38
503.389	80.38
503.606	74.38
503.823	91.38
504.04	82.38
504.256	81.38
504.473	76.38
504.69	88.38
504.907	89.38
505.123	93.38
505.34	87.38
505.557	82.38
505.773	85.38
505.99	96.38
506.207	86.38
506.423	79.38
506.64	92.38
506.856	83.38
507.073	85.38
507.289	88.38
507.506	92.38
507.722	87.38
507.939	86.38
508.155	81.38
508.372	94.38
508.588	83.38
508.805	85.38
509.021	79.38
509.238	92.38
509.454	104.38
509.67	76.38
509.887	84.38
510.103	89.38
510.319	75.38
510.536	79.38
510.752	78.38
510.968	89.38
511.184	79.38
511.401	93.38
511.617	97.38
511.833	85.38
512.049	81.38
512.265	96.38
512.481	82.38
512.698	83.38
512.914	90.38
513.13	75.38
513.346	76.38
513.562	82.38
513.778	88.38
513.994	95.38
514.21	81.38
514.426	77.38
514.642	80.38
514.858	83.38
515.074	77.38
515.29	77.38
515.506	90.38
515.721	86.38
515.937	97.38
516.153	103.38
516.369	76.38
516.585	75.38
516.801	101.38
517.016	94.38
517.232	80.38
517.448	90.38
517.664	87.38
517.879	89.38
518.095	75.38
518.311	73.38
518.527	93.38
518.742	77.38
518.958	86.38
519.173	88.38
519.389	73.38
519.605	78.38
519.82	83.38
520.036	102.38
