Data from Dirtheat2_HRD10591_00018.txt Node
Date: Fri Dec 27 15:15:17 EST 2024
User: Yrep
Spectrometer: HR+D1059
Trigger mode: 1
Integration Time (sec): 1.000000E-1
Scans to average: 1
Electric dark correction enabled: true
Nonlinearity correction enabled: false
Boxcar width: 0
XAxis mode: Wavelengths
Number of Pixels in Spectrum: 2048
>>>>>Begin Spectral Data<<<<<
223.165	-17.81
223.4	-17.81
223.635	-17.81
223.869	-16.81
224.104	-6.81
224.338	-19.81
224.573	-4.81
224.808	-6.81
225.042	-9.81
225.277	-9.81
225.511	1.19
225.746	13.19
225.98	11.19
226.215	12.19
226.449	15.19
226.683	6.19
226.918	10.19
227.152	23.19
227.387	29.19
227.621	40.19
227.856	50.19
228.09	39.19
228.324	54.19
228.559	62.19
228.793	74.19
229.027	68.19
229.262	66.19
229.496	66.19
229.73	78.19
229.964	64.19
230.199	73.19
230.433	65.19
230.667	72.19
230.901	83.19
231.136	67.19
231.37	84.19
231.604	74.19
231.838	77.19
232.072	73.19
232.306	88.19
232.541	70.19
232.775	64.19
233.009	85.19
233.243	94.19
233.477	71.19
233.711	89.19
233.945	76.19
234.179	90.19
234.413	80.19
234.647	76.19
234.881	74.19
235.115	76.19
235.349	74.19
235.583	84.19
235.817	79.19
236.051	77.19
236.285	67.19
236.519	67.19
236.753	77.19
236.987	82.19
237.221	59.19
237.455	63.19
237.689	72.19
237.922	85.19
238.156	74.19
238.39	73.19
238.624	84.19
238.858	90.19
239.091	74.19
239.325	72.19
239.559	72.19
239.793	70.19
240.027	81.19
240.26	75.19
240.494	76.19
240.728	86.19
240.961	68.19
241.195	72.19
241.429	77.19
241.662	58.19
241.896	77.19
242.13	71.19
242.363	70.19
242.597	75.19
242.83	70.19
243.064	87.19
243.298	78.19
243.531	77.19
243.765	72.19
243.998	76.19
244.232	71.19
244.465	61.19
244.699	78.19
244.932	73.19
245.166	70.19
245.399	72.19
245.633	85.19
245.866	72.19
246.099	81.19
246.333	94.19
246.566	75.19
246.8	67.19
247.033	81.19
247.266	83.19
247.5	79.19
247.733	67.19
247.966	89.19
248.2	77.19
248.433	74.19
248.666	76.19
248.899	80.19
249.133	84.19
249.366	78.19
249.599	72.19
249.832	90.19
250.066	61.19
250.299	64.19
250.532	80.19
250.765	83.19
250.998	78.19
251.231	91.19
251.465	80.19
251.698	76.19
251.931	77.19
252.164	74.19
252.397	84.19
252.63	79.19
252.863	69.19
253.096	86.19
253.329	76.19
253.562	90.19
253.795	69.19
254.028	75.19
254.261	82.19
254.494	79.19
254.727	70.19
254.96	79.19
255.193	71.19
255.426	81.19
255.659	67.19
255.892	79.19
256.124	82.19
256.357	86.19
256.59	81.19
256.823	84.19
257.056	82.19
257.289	82.19
257.521	103.19
257.754	71.19
257.987	78.19
258.22	90.19
258.452	67.19
258.685	87.19
258.918	88.19
259.151	92.19
259.383	86.19
259.616	91.19
259.849	74.19
260.081	71.19
260.314	82.19
260.547	74.19
260.779	80.19
261.012	77.19
261.244	70.19
261.477	62.19
261.71	76.19
261.942	83.19
262.175	85.19
262.407	81.19
262.64	90.19
262.872	86.19
263.105	79.19
263.337	78.19
263.57	72.19
263.802	80.19
264.035	82.19
264.267	80.19
264.499	72.19
264.732	82.19
264.964	79.19
265.197	66.19
265.429	87.19
265.661	78.19
265.894	80.19
266.126	70.19
266.358	73.19
266.591	83.19
266.823	86.19
267.055	70.19
267.287	76.19
267.52	79.19
267.752	92.19
267.984	91.19
268.216	76.19
268.448	88.19
268.681	100.19
268.913	78.19
269.145	77.19
269.377	82.19
269.609	80.19
269.841	72.19
270.073	82.19
270.306	71.19
270.538	84.19
270.77	86.19
271.002	79.19
271.234	76.19
271.466	71.19
271.698	88.19
271.93	71.19
272.162	94.19
272.394	89.19
272.626	78.19
272.858	70.19
273.09	83.19
273.322	89.19
273.553	74.19
273.785	95.19
274.017	74.19
274.249	84.19
274.481	87.19
274.713	73.19
274.945	83.19
275.176	87.19
275.408	75.19
275.64	86.19
275.872	66.19
276.104	69.19
276.335	92.19
276.567	85.19
276.799	70.19
277.031	75.19
277.262	83.19
277.494	87.19
277.726	88.19
277.957	69.19
278.189	72.19
278.421	80.19
278.652	75.19
278.884	58.19
279.115	82.19
279.347	90.19
279.579	86.19
279.81	82.19
280.042	74.19
280.273	83.19
280.505	75.19
280.736	80.19
280.968	69.19
281.199	76.19
281.431	62.19
281.662	91.19
281.894	85.19
282.125	75.19
282.356	85.19
282.588	88.19
282.819	70.19
283.051	89.19
283.282	82.19
283.513	77.19
283.745	93.19
283.976	91.19
284.207	81.19
284.439	100.19
284.67	59.19
284.901	81.19
285.132	86.19
285.364	87.19
285.595	83.19
285.826	77.19
286.057	82.19
286.288	80.19
286.52	85.19
286.751	78.19
286.982	96.19
287.213	83.19
287.444	76.19
287.675	73.19
287.906	86.19
288.138	78.19
288.369	78.19
288.6	89.19
288.831	71.19
289.062	77.19
289.293	84.19
289.524	92.19
289.755	84.19
289.986	89.19
290.217	89.19
290.448	86.19
290.679	87.19
290.91	83.19
291.141	80.19
291.371	77.19
291.602	78.19
291.833	76.19
292.064	90.19
292.295	93.19
292.526	79.19
292.757	76.19
292.987	86.19
293.218	90.19
293.449	80.19
293.68	83.19
293.91	68.19
294.141	83.19
294.372	84.19
294.603	98.19
294.833	87.19
295.064	88.19
295.295	95.19
295.525	86.19
295.756	88.19
295.987	82.19
296.217	79.19
296.448	86.19
296.679	87.19
296.909	76.19
297.14	93.19
297.37	95.19
297.601	73.19
297.831	72.19
298.062	75.19
298.292	63.19
298.523	75.19
298.753	64.19
298.984	90.19
299.214	87.19
299.445	85.19
299.675	71.19
299.905	97.19
300.136	98.19
300.366	83.19
300.597	72.19
300.827	83.19
301.057	78.19
301.288	85.19
301.518	61.19
301.748	105.19
301.979	107.19
302.209	81.19
302.439	84.19
302.669	90.19
302.9	78.19
303.13	81.19
303.36	88.19
303.59	86.19
303.82	83.19
304.051	86.19
304.281	82.19
304.511	90.19
304.741	86.19
304.971	79.19
305.201	78.19
305.431	89.19
305.661	92.19
305.891	87.19
306.121	77.19
306.352	75.19
306.582	82.19
306.812	79.19
307.042	78.19
307.272	78.19
307.502	79.19
307.731	87.19
307.961	81.19
308.191	82.19
308.421	73.19
308.651	88.19
308.881	82.19
309.111	86.19
309.341	83.19
309.571	67.19
309.8	79.19
310.03	73.19
310.26	90.19
310.49	96.19
310.72	90.19
310.949	73.19
311.179	81.19
311.409	87.19
311.639	80.19
311.868	88.19
312.098	84.19
312.328	75.19
312.557	85.19
312.787	93.19
313.017	98.19
313.246	89.19
313.476	91.19
313.706	79.19
313.935	85.19
314.165	89.19
314.394	93.19
314.624	83.19
314.853	91.19
315.083	68.19
315.312	82.19
315.542	88.19
315.771	91.19
316.001	75.19
316.23	90.19
316.46	93.19
316.689	84.19
316.919	87.19
317.148	87.19
317.377	86.19
317.607	85.19
317.836	96.19
318.065	78.19
318.295	86.19
318.524	88.19
318.753	95.19
318.983	82.19
319.212	76.19
319.441	78.19
319.67	95.19
319.9	87.19
320.129	87.19
320.358	77.19
320.587	90.19
320.816	94.19
321.046	84.19
321.275	79.19
321.504	68.19
321.733	88.19
321.962	92.19
322.191	102.19
322.42	77.19
322.649	92.19
322.878	80.19
323.108	88.19
323.337	68.19
323.566	91.19
323.795	72.19
324.024	84.19
324.253	69.19
324.482	77.19
324.71	78.19
324.939	82.19
325.168	74.19
325.397	84.19
325.626	87.19
325.855	75.19
326.084	79.19
326.313	83.19
326.542	75.19
326.77	87.19
326.999	80.19
327.228	88.19
327.457	80.19
327.686	79.19
327.914	91.19
328.143	79.19
328.372	84.19
328.6	76.19
328.829	79.19
329.058	78.19
329.287	90.19
329.515	75.19
329.744	85.19
329.972	83.19
330.201	88.19
330.43	82.19
330.658	90.19
330.887	86.19
331.115	69.19
331.344	87.19
331.572	91.19
331.801	80.19
332.03	78.19
332.258	84.19
332.486	79.19
332.715	87.19
332.943	85.19
333.172	76.19
333.4	70.19
333.629	79.19
333.857	92.19
334.085	92.19
334.314	76.19
334.542	73.19
334.771	86.19
334.999	68.19
335.227	77.19
335.455	98.19
335.684	81.19
335.912	91.19
336.14	81.19
336.369	77.19
336.597	73.19
336.825	84.19
337.053	81.19
337.281	80.19
337.51	84.19
337.738	83.19
337.966	87.19
338.194	82.19
338.422	64.19
338.65	74.19
338.878	80.19
339.106	91.19
339.334	91.19
339.562	83.19
339.79	81.19
340.018	67.19
340.246	72.19
340.474	87.19
340.702	84.19
340.93	76.19
341.158	85.19
341.386	83.19
341.614	84.19
341.842	76.19
342.07	66.19
342.298	70.19
342.526	94.19
342.754	82.19
342.981	83.19
343.209	87.19
343.437	92.19
343.665	84.19
343.893	76.19
344.12	96.19
344.348	75.19
344.576	98.19
344.804	73.19
345.031	87.19
345.259	87.19
345.487	71.19
345.714	90.19
345.942	80.19
346.17	86.19
346.397	82.19
346.625	88.19
346.853	77.19
347.08	76.19
347.308	92.19
347.535	80.19
347.763	73.19
347.99	78.19
348.218	85.19
348.445	90.19
348.673	72.19
348.9	75.19
349.128	95.19
349.355	93.19
349.583	91.19
349.81	83.19
350.037	69.19
350.265	83.19
350.492	91.19
350.72	84.19
350.947	70.19
351.174	73.19
351.402	79.19
351.629	64.19
351.856	84.19
352.083	74.19
352.311	94.19
352.538	88.19
352.765	77.19
352.992	86.19
353.22	93.19
353.447	82.19
353.674	86.19
353.901	84.19
354.128	89.19
354.355	80.19
354.583	71.19
354.81	80.19
355.037	79.19
355.264	91.19
355.491	80.19
355.718	86.19
355.945	87.19
356.172	99.19
356.399	90.19
356.626	82.19
356.853	70.19
357.08	94.19
357.307	86.19
357.534	70.19
357.761	85.19
357.988	78.19
358.215	86.19
358.441	86.19
358.668	86.19
358.895	83.19
359.122	69.19
359.349	78.19
359.576	86.19
359.802	89.19
360.029	82.19
360.256	92.19
360.483	80.19
360.709	90.19
360.936	88.19
361.163	84.19
361.39	85.19
361.616	79.19
361.843	75.19
362.07	82.19
362.296	81.19
362.523	91.19
362.749	99.19
362.976	81.19
363.203	103.19
363.429	91.19
363.656	81.19
363.882	88.19
364.109	67.19
364.335	92.19
364.562	83.19
364.788	95.19
365.015	79.19
365.241	90.19
365.468	82.19
365.694	91.19
365.92	62.19
366.147	82.19
366.373	79.19
366.599	78.19
366.826	81.19
367.052	95.19
367.278	91.19
367.505	80.19
367.731	98.19
367.957	63.19
368.184	89.19
368.41	92.19
368.636	89.19
368.862	75.19
369.089	82.19
369.315	96.19
369.541	89.19
369.767	81.19
369.993	70.19
370.219	91.19
370.445	79.19
370.672	74.19
370.898	71.19
371.124	82.19
371.35	96.19
371.576	81.19
371.802	75.19
372.028	83.19
372.254	78.19
372.48	65.19
372.706	77.19
372.932	95.19
373.158	72.19
373.384	91.19
373.61	73.19
373.835	74.19
374.061	80.19
374.287	84.19
374.513	77.19
374.739	64.19
374.965	56.19
375.191	80.19
375.416	82.19
375.642	83.19
375.868	91.19
376.094	94.19
376.319	89.19
376.545	70.19
376.771	78.19
376.997	85.19
377.222	70.19
377.448	84.19
377.674	88.19
377.899	90.19
378.125	84.19
378.35	80.19
378.576	79.19
378.802	68.19
379.027	82.19
379.253	83.19
379.478	93.19
379.704	81.19
379.929	83.19
380.155	71.19
380.38	90.19
380.606	78.19
380.831	79.19
381.057	69.19
381.282	72.19
381.507	77.19
381.733	89.19
381.958	83.19
382.184	79.19
382.409	79.19
382.634	91.19
382.86	80.19
383.085	77.19
383.31	78.19
383.535	101.19
383.761	75.19
383.986	86.19
384.211	86.19
384.436	78.19
384.662	77.19
384.887	68.19
385.112	82.19
385.337	92.19
385.562	66.19
385.787	67.19
386.013	85.19
386.238	81.19
386.463	66.19
386.688	100.19
386.913	82.19
387.138	82.19
387.363	82.19
387.588	87.19
387.813	65.19
388.038	84.19
388.263	84.19
388.488	80.19
388.713	72.19
388.938	101.19
389.163	73.19
389.387	86.19
389.612	93.19
389.837	73.19
390.062	81.19
390.287	76.19
390.512	63.19
390.736	85.19
390.961	74.19
391.186	88.19
391.411	80.19
391.636	88.19
391.86	74.19
392.085	83.19
392.31	80.19
392.534	85.19
392.759	84.19
392.984	88.19
393.208	85.19
393.433	93.19
393.658	87.19
393.882	88.19
394.107	83.19
394.331	80.19
394.556	82.19
394.78	73.19
395.005	90.19
395.229	82.19
395.454	94.19
395.678	68.19
395.903	66.19
396.127	73.19
396.352	93.19
396.576	84.19
396.801	83.19
397.025	80.19
397.249	94.19
397.474	97.19
397.698	68.19
397.922	88.19
398.147	75.19
398.371	74.19
398.595	80.19
398.82	64.19
399.044	82.19
399.268	80.19
399.492	93.19
399.717	85.19
399.941	72.19
400.165	71.19
400.389	80.19
400.613	77.19
400.837	74.19
401.062	86.19
401.286	83.19
401.51	98.19
401.734	82.19
401.958	67.19
402.182	66.19
402.406	78.19
402.63	71.19
402.854	67.19
403.078	91.19
403.302	90.19
403.526	78.19
403.75	70.19
403.974	56.19
404.198	71.19
404.422	85.19
404.645	75.19
404.869	73.19
405.093	77.19
405.317	75.19
405.541	80.19
405.765	84.19
405.988	72.19
406.212	84.19
406.436	99.19
406.66	92.19
406.883	84.19
407.107	89.19
407.331	84.19
407.555	68.19
407.778	94.19
408.002	71.19
408.226	85.19
408.449	82.19
408.673	68.19
408.896	85.19
409.12	75.19
409.344	79.19
409.567	90.19
409.791	71.19
410.014	88.19
410.238	67.19
410.461	71.19
410.685	91.19
410.908	73.19
411.132	90.19
411.355	71.19
411.578	71.19
411.802	72.19
412.025	72.19
412.249	76.19
412.472	83.19
412.695	77.19
412.919	79.19
413.142	89.19
413.365	85.19
413.589	76.19
413.812	87.19
414.035	78.19
414.258	95.19
414.482	67.19
414.705	83.19
414.928	76.19
415.151	78.19
415.374	88.19
415.597	83.19
415.821	84.19
416.044	83.19
416.267	83.19
416.49	85.19
416.713	82.19
416.936	99.19
417.159	89.19
417.382	87.19
417.605	75.19
417.828	92.19
418.051	89.19
418.274	68.19
418.497	76.19
418.72	74.19
418.943	101.19
419.166	76.19
419.389	80.19
419.611	72.19
419.834	75.19
420.057	91.19
420.28	84.19
420.503	71.19
420.726	85.19
420.948	80.19
421.171	80.19
421.394	82.19
421.617	72.19
421.839	97.19
422.062	93.19
422.285	80.19
422.507	89.19
422.73	106.19
422.953	105.19
423.175	79.19
423.398	92.19
423.621	84.19
423.843	82.19
424.066	79.19
424.288	76.19
424.511	88.19
424.733	85.19
424.956	64.19
425.178	82.19
425.401	86.19
425.623	80.19
425.846	73.19
426.068	85.19
426.291	73.19
426.513	80.19
426.735	81.19
426.958	70.19
427.18	88.19
427.402	74.19
427.625	78.19
427.847	65.19
428.069	78.19
428.292	75.19
428.514	96.19
428.736	79.19
428.958	77.19
429.181	98.19
429.403	88.19
429.625	92.19
429.847	90.19
430.069	89.19
430.292	86.19
430.514	77.19
430.736	83.19
430.958	83.19
431.18	72.19
431.402	90.19
431.624	74.19
431.846	82.19
432.068	92.19
432.29	87.19
432.512	81.19
432.734	64.19
432.956	75.19
433.178	82.19
433.4	69.19
433.622	73.19
433.844	65.19
434.066	93.19
434.287	86.19
434.509	79.19
434.731	65.19
434.953	83.19
435.175	87.19
435.397	87.19
435.618	68.19
435.84	78.19
436.062	101.19
436.284	74.19
436.505	95.19
436.727	74.19
436.949	72.19
437.17	72.19
437.392	81.19
437.614	90.19
437.835	87.19
438.057	83.19
438.278	82.19
438.5	88.19
438.721	62.19
438.943	89.19
439.165	87.19
439.386	74.19
439.608	92.19
439.829	78.19
440.05	79.19
440.272	78.19
440.493	64.19
440.715	81.19
440.936	83.19
441.158	69.19
441.379	87.19
441.6	77.19
441.822	96.19
442.043	93.19
442.264	83.19
442.486	77.19
442.707	78.19
442.928	87.19
443.149	87.19
443.371	84.19
443.592	94.19
443.813	90.19
444.034	68.19
444.255	95.19
444.476	72.19
444.698	79.19
444.919	75.19
445.14	126.19
445.361	102.19
445.582	88.19
445.803	104.19
446.024	79.19
446.245	78.19
446.466	90.19
446.687	86.19
446.908	76.19
447.129	83.19
447.35	74.19
447.571	75.19
447.792	95.19
448.013	84.19
448.234	77.19
448.455	86.19
448.675	74.19
448.896	85.19
449.117	93.19
449.338	83.19
449.559	74.19
449.779	96.19
450	91.19
450.221	70.19
450.442	77.19
450.662	79.19
450.883	88.19
451.104	72.19
451.324	75.19
451.545	72.19
451.766	79.19
451.986	78.19
452.207	89.19
452.428	86.19
452.648	85.19
452.869	81.19
453.089	78.19
453.31	76.19
453.53	76.19
453.751	85.19
453.971	87.19
454.192	87.19
454.412	78.19
454.633	87.19
454.853	83.19
455.073	77.19
455.294	91.19
455.514	94.19
455.734	83.19
455.955	89.19
456.175	86.19
456.395	89.19
456.616	79.19
456.836	83.19
457.056	65.19
457.276	83.19
457.497	74.19
457.717	80.19
457.937	90.19
458.157	77.19
458.377	79.19
458.598	86.19
458.818	82.19
459.038	84.19
459.258	101.19
459.478	84.19
459.698	88.19
459.918	83.19
460.138	80.19
460.358	71.19
460.578	77.19
460.798	85.19
461.018	72.19
461.238	79.19
461.458	73.19
461.678	73.19
461.898	81.19
462.118	86.19
462.338	71.19
462.558	63.19
462.777	79.19
462.997	85.19
463.217	92.19
463.437	87.19
463.657	64.19
463.876	83.19
464.096	89.19
464.316	79.19
464.536	78.19
464.755	62.19
464.975	71.19
465.195	61.19
465.414	84.19
465.634	89.19
465.854	84.19
466.073	81.19
466.293	86.19
466.512	72.19
466.732	83.19
466.951	77.19
467.171	82.19
467.391	90.19
467.61	69.19
467.829	90.19
468.049	84.19
468.268	74.19
468.488	86.19
468.707	88.19
468.927	82.19
469.146	86.19
469.365	86.19
469.585	88.19
469.804	85.19
470.023	76.19
470.243	82.19
470.462	78.19
470.681	77.19
470.901	89.19
471.12	68.19
471.339	93.19
471.558	79.19
471.777	83.19
471.997	91.19
472.216	79.19
472.435	91.19
472.654	75.19
472.873	82.19
473.092	72.19
473.311	80.19
473.53	88.19
473.749	84.19
473.968	74.19
474.187	93.19
474.406	85.19
474.625	77.19
474.844	98.19
475.063	74.19
475.282	70.19
475.501	73.19
475.72	80.19
475.939	64.19
476.158	70.19
476.377	91.19
476.596	95.19
476.814	84.19
477.033	84.19
477.252	83.19
477.471	82.19
477.69	80.19
477.908	89.19
478.127	85.19
478.346	70.19
478.564	79.19
478.783	71.19
479.002	69.19
479.22	79.19
479.439	76.19
479.658	86.19
479.876	69.19
480.095	81.19
480.313	90.19
480.532	93.19
480.751	75.19
480.969	95.19
481.188	93.19
481.406	79.19
481.624	83.19
481.843	82.19
482.061	88.19
482.28	78.19
482.498	95.19
482.717	78.19
482.935	83.19
483.153	82.19
483.372	78.19
483.59	91.19
483.808	87.19
484.027	84.19
484.245	80.19
484.463	75.19
484.681	98.19
484.9	78.19
485.118	84.19
485.336	85.19
485.554	89.19
485.772	83.19
485.99	82.19
486.209	70.19
486.427	76.19
486.645	78.19
486.863	85.19
487.081	90.19
487.299	74.19
487.517	91.19
487.735	78.19
487.953	90.19
488.171	96.19
488.389	94.19
488.607	88.19
488.825	90.19
489.043	62.19
489.261	90.19
489.479	81.19
489.696	73.19
489.914	78.19
490.132	93.19
490.35	74.19
490.568	83.19
490.786	89.19
491.003	80.19
491.221	91.19
491.439	93.19
491.657	83.19
491.874	80.19
492.092	76.19
492.31	94.19
492.527	84.19
492.745	78.19
492.963	69.19
493.18	99.19
493.398	88.19
493.615	66.19
493.833	75.19
494.05	90.19
494.268	76.19
494.485	89.19
494.703	83.19
494.92	83.19
495.138	82.19
495.355	89.19
495.573	86.19
495.79	82.19
496.008	91.19
496.225	94.19
496.442	87.19
496.66	94.19
496.877	84.19
497.094	94.19
497.312	72.19
497.529	77.19
497.746	75.19
497.963	77.19
498.181	86.19
498.398	98.19
498.615	82.19
498.832	87.19
499.049	76.19
499.267	94.19
499.484	80.19
499.701	83.19
499.918	79.19
500.135	83.19
500.352	89.19
500.569	84.19
500.786	83.19
501.003	85.19
501.22	82.19
501.437	81.19
501.654	70.19
501.871	78.19
502.088	88.19
502.305	74.19
502.522	83.19
502.739	80.19
502.956	78.19
503.172	87.19
503.389	92.19
503.606	83.19
503.823	85.19
504.04	84.19
504.256	95.19
504.473	88.19
504.69	83.19
504.907	96.19
505.123	85.19
505.34	95.19
505.557	82.19
505.773	74.19
505.99	76.19
506.207	85.19
506.423	89.19
506.64	94.19
506.856	82.19
507.073	104.19
507.289	92.19
507.506	76.19
507.722	73.19
507.939	73.19
508.155	78.19
508.372	75.19
508.588	73.19
508.805	80.19
509.021	70.19
509.238	93.19
509.454	91.19
509.67	84.19
509.887	90.19
510.103	69.19
510.319	78.19
510.536	93.19
510.752	79.19
510.968	75.19
511.184	78.19
511.401	76.19
511.617	80.19
511.833	84.19
512.049	90.19
512.265	87.19
512.481	78.19
512.698	75.19
512.914	77.19
513.13	77.19
513.346	87.19
513.562	83.19
513.778	79.19
513.994	78.19
514.21	99.19
514.426	86.19
514.642	78.19
514.858	83.19
515.074	86.19
515.29	87.19
515.506	85.19
515.721	85.19
515.937	90.19
516.153	93.19
516.369	86.19
516.585	82.19
516.801	91.19
517.016	86.19
517.232	80.19
517.448	82.19
517.664	91.19
517.879	65.19
518.095	89.19
518.311	84.19
518.527	77.19
518.742	97.19
518.958	88.19
519.173	88.19
519.389	85.19
519.605	86.19
519.82	88.19
520.036	81.19
