Data from Dirtheat2_HRD10591_00013.txt Node
Date: Fri Dec 27 15:15:12 EST 2024
User: Yrep
Spectrometer: HR+D1059
Trigger mode: 1
Integration Time (sec): 1.000000E-1
Scans to average: 1
Electric dark correction enabled: true
Nonlinearity correction enabled: false
Boxcar width: 0
XAxis mode: Wavelengths
Number of Pixels in Spectrum: 2048
>>>>>Begin Spectral Data<<<<<
223.165	-16.81
223.4	-16.81
223.635	-16.81
223.869	-29.81
224.104	-25.81
224.338	-10.81
224.573	-9.81
224.808	-21.81
225.042	3.19
225.277	-8.81
225.511	-1.81
225.746	8.19
225.98	8.19
226.215	18.19
226.449	12.19
226.683	21.19
226.918	22.19
227.152	32.19
227.387	36.19
227.621	43.19
227.856	44.19
228.09	38.19
228.324	38.19
228.559	48.19
228.793	46.19
229.027	56.19
229.262	42.19
229.496	58.19
229.73	64.19
229.964	65.19
230.199	84.19
230.433	74.19
230.667	71.19
230.901	65.19
231.136	86.19
231.37	81.19
231.604	81.19
231.838	74.19
232.072	78.19
232.306	79.19
232.541	79.19
232.775	69.19
233.009	57.19
233.243	76.19
233.477	86.19
233.711	88.19
233.945	85.19
234.179	81.19
234.413	71.19
234.647	76.19
234.881	83.19
235.115	78.19
235.349	69.19
235.583	78.19
235.817	72.19
236.051	81.19
236.285	67.19
236.519	83.19
236.753	85.19
236.987	81.19
237.221	65.19
237.455	73.19
237.689	71.19
237.922	70.19
238.156	72.19
238.39	74.19
238.624	86.19
238.858	84.19
239.091	63.19
239.325	71.19
239.559	77.19
239.793	78.19
240.027	73.19
240.26	72.19
240.494	69.19
240.728	73.19
240.961	67.19
241.195	65.19
241.429	79.19
241.662	82.19
241.896	72.19
242.13	70.19
242.363	60.19
242.597	73.19
242.83	64.19
243.064	61.19
243.298	77.19
243.531	78.19
243.765	78.19
243.998	72.19
244.232	81.19
244.465	69.19
244.699	64.19
244.932	67.19
245.166	77.19
245.399	76.19
245.633	79.19
245.866	79.19
246.099	76.19
246.333	64.19
246.566	75.19
246.8	71.19
247.033	66.19
247.266	70.19
247.5	81.19
247.733	78.19
247.966	76.19
248.2	67.19
248.433	72.19
248.666	76.19
248.899	74.19
249.133	83.19
249.366	82.19
249.599	82.19
249.832	66.19
250.066	82.19
250.299	74.19
250.532	85.19
250.765	62.19
250.998	67.19
251.231	85.19
251.465	76.19
251.698	79.19
251.931	68.19
252.164	71.19
252.397	69.19
252.63	81.19
252.863	77.19
253.096	67.19
253.329	68.19
253.562	82.19
253.795	80.19
254.028	66.19
254.261	83.19
254.494	81.19
254.727	82.19
254.96	73.19
255.193	74.19
255.426	78.19
255.659	74.19
255.892	70.19
256.124	85.19
256.357	89.19
256.59	80.19
256.823	75.19
257.056	65.19
257.289	88.19
257.521	71.19
257.754	79.19
257.987	82.19
258.22	70.19
258.452	83.19
258.685	75.19
258.918	72.19
259.151	84.19
259.383	66.19
259.616	79.19
259.849	84.19
260.081	75.19
260.314	75.19
260.547	72.19
260.779	59.19
261.012	76.19
261.244	86.19
261.477	77.19
261.71	78.19
261.942	67.19
262.175	73.19
262.407	73.19
262.64	73.19
262.872	73.19
263.105	97.19
263.337	76.19
263.57	67.19
263.802	78.19
264.035	75.19
264.267	87.19
264.499	91.19
264.732	82.19
264.964	82.19
265.197	81.19
265.429	76.19
265.661	67.19
265.894	81.19
266.126	88.19
266.358	77.19
266.591	70.19
266.823	81.19
267.055	64.19
267.287	73.19
267.52	83.19
267.752	90.19
267.984	88.19
268.216	74.19
268.448	76.19
268.681	82.19
268.913	68.19
269.145	77.19
269.377	78.19
269.609	84.19
269.841	78.19
270.073	77.19
270.306	81.19
270.538	61.19
270.77	70.19
271.002	89.19
271.234	74.19
271.466	73.19
271.698	81.19
271.93	78.19
272.162	82.19
272.394	86.19
272.626	79.19
272.858	67.19
273.09	83.19
273.322	63.19
273.553	58.19
273.785	77.19
274.017	84.19
274.249	70.19
274.481	72.19
274.713	82.19
274.945	81.19
275.176	83.19
275.408	75.19
275.64	75.19
275.872	68.19
276.104	92.19
276.335	85.19
276.567	78.19
276.799	93.19
277.031	81.19
277.262	84.19
277.494	80.19
277.726	81.19
277.957	85.19
278.189	78.19
278.421	84.19
278.652	76.19
278.884	85.19
279.115	82.19
279.347	79.19
279.579	84.19
279.81	73.19
280.042	79.19
280.273	81.19
280.505	83.19
280.736	85.19
280.968	84.19
281.199	81.19
281.431	86.19
281.662	78.19
281.894	86.19
282.125	76.19
282.356	82.19
282.588	81.19
282.819	92.19
283.051	80.19
283.282	75.19
283.513	85.19
283.745	84.19
283.976	84.19
284.207	86.19
284.439	77.19
284.67	68.19
284.901	78.19
285.132	72.19
285.364	67.19
285.595	76.19
285.826	66.19
286.057	87.19
286.288	73.19
286.52	81.19
286.751	74.19
286.982	93.19
287.213	79.19
287.444	90.19
287.675	86.19
287.906	82.19
288.138	76.19
288.369	83.19
288.6	76.19
288.831	73.19
289.062	76.19
289.293	80.19
289.524	76.19
289.755	69.19
289.986	76.19
290.217	78.19
290.448	82.19
290.679	81.19
290.91	71.19
291.141	81.19
291.371	89.19
291.602	80.19
291.833	82.19
292.064	101.19
292.295	85.19
292.526	70.19
292.757	84.19
292.987	78.19
293.218	93.19
293.449	89.19
293.68	82.19
293.91	81.19
294.141	100.19
294.372	78.19
294.603	88.19
294.833	77.19
295.064	84.19
295.295	70.19
295.525	60.19
295.756	93.19
295.987	97.19
296.217	72.19
296.448	83.19
296.679	78.19
296.909	80.19
297.14	79.19
297.37	98.19
297.601	76.19
297.831	87.19
298.062	76.19
298.292	79.19
298.523	75.19
298.753	87.19
298.984	60.19
299.214	88.19
299.445	89.19
299.675	85.19
299.905	73.19
300.136	85.19
300.366	92.19
300.597	85.19
300.827	70.19
301.057	79.19
301.288	79.19
301.518	80.19
301.748	80.19
301.979	93.19
302.209	59.19
302.439	71.19
302.669	71.19
302.9	83.19
303.13	70.19
303.36	86.19
303.59	83.19
303.82	74.19
304.051	75.19
304.281	92.19
304.511	85.19
304.741	78.19
304.971	82.19
305.201	63.19
305.431	73.19
305.661	75.19
305.891	87.19
306.121	61.19
306.352	71.19
306.582	63.19
306.812	87.19
307.042	90.19
307.272	86.19
307.502	83.19
307.731	87.19
307.961	78.19
308.191	89.19
308.421	80.19
308.651	78.19
308.881	81.19
309.111	83.19
309.341	87.19
309.571	70.19
309.8	90.19
310.03	87.19
310.26	80.19
310.49	75.19
310.72	78.19
310.949	77.19
311.179	74.19
311.409	81.19
311.639	81.19
311.868	85.19
312.098	83.19
312.328	81.19
312.557	85.19
312.787	75.19
313.017	88.19
313.246	85.19
313.476	78.19
313.706	67.19
313.935	92.19
314.165	99.19
314.394	84.19
314.624	85.19
314.853	83.19
315.083	87.19
315.312	85.19
315.542	82.19
315.771	81.19
316.001	89.19
316.23	104.19
316.46	83.19
316.689	89.19
316.919	85.19
317.148	75.19
317.377	80.19
317.607	85.19
317.836	79.19
318.065	81.19
318.295	93.19
318.524	80.19
318.753	82.19
318.983	84.19
319.212	92.19
319.441	88.19
319.67	74.19
319.9	71.19
320.129	80.19
320.358	78.19
320.587	90.19
320.816	79.19
321.046	78.19
321.275	77.19
321.504	89.19
321.733	90.19
321.962	81.19
322.191	78.19
322.42	83.19
322.649	82.19
322.878	87.19
323.108	85.19
323.337	83.19
323.566	83.19
323.795	73.19
324.024	79.19
324.253	71.19
324.482	83.19
324.71	90.19
324.939	81.19
325.168	78.19
325.397	81.19
325.626	81.19
325.855	78.19
326.084	83.19
326.313	81.19
326.542	69.19
326.77	84.19
326.999	85.19
327.228	69.19
327.457	72.19
327.686	84.19
327.914	70.19
328.143	79.19
328.372	77.19
328.6	76.19
328.829	98.19
329.058	89.19
329.287	85.19
329.515	94.19
329.744	84.19
329.972	80.19
330.201	88.19
330.43	94.19
330.658	71.19
330.887	82.19
331.115	72.19
331.344	86.19
331.572	73.19
331.801	89.19
332.03	93.19
332.258	69.19
332.486	86.19
332.715	76.19
332.943	86.19
333.172	77.19
333.4	89.19
333.629	92.19
333.857	69.19
334.085	80.19
334.314	93.19
334.542	73.19
334.771	76.19
334.999	80.19
335.227	87.19
335.455	76.19
335.684	95.19
335.912	81.19
336.14	79.19
336.369	74.19
336.597	82.19
336.825	77.19
337.053	73.19
337.281	77.19
337.51	91.19
337.738	92.19
337.966	70.19
338.194	77.19
338.422	88.19
338.65	75.19
338.878	86.19
339.106	87.19
339.334	99.19
339.562	99.19
339.79	76.19
340.018	79.19
340.246	79.19
340.474	73.19
340.702	75.19
340.93	82.19
341.158	87.19
341.386	84.19
341.614	69.19
341.842	76.19
342.07	82.19
342.298	75.19
342.526	78.19
342.754	79.19
342.981	71.19
343.209	67.19
343.437	100.19
343.665	82.19
343.893	75.19
344.12	86.19
344.348	72.19
344.576	62.19
344.804	82.19
345.031	83.19
345.259	80.19
345.487	74.19
345.714	85.19
345.942	86.19
346.17	80.19
346.397	83.19
346.625	90.19
346.853	72.19
347.08	82.19
347.308	70.19
347.535	92.19
347.763	76.19
347.99	75.19
348.218	78.19
348.445	78.19
348.673	70.19
348.9	91.19
349.128	89.19
349.355	78.19
349.583	71.19
349.81	83.19
350.037	84.19
350.265	73.19
350.492	80.19
350.72	84.19
350.947	78.19
351.174	87.19
351.402	84.19
351.629	82.19
351.856	85.19
352.083	87.19
352.311	81.19
352.538	85.19
352.765	77.19
352.992	86.19
353.22	76.19
353.447	67.19
353.674	94.19
353.901	62.19
354.128	87.19
354.355	83.19
354.583	62.19
354.81	73.19
355.037	80.19
355.264	72.19
355.491	86.19
355.718	78.19
355.945	83.19
356.172	71.19
356.399	79.19
356.626	82.19
356.853	85.19
357.08	86.19
357.307	83.19
357.534	69.19
357.761	73.19
357.988	83.19
358.215	86.19
358.441	73.19
358.668	98.19
358.895	86.19
359.122	87.19
359.349	82.19
359.576	76.19
359.802	74.19
360.029	84.19
360.256	90.19
360.483	67.19
360.709	60.19
360.936	82.19
361.163	82.19
361.39	90.19
361.616	82.19
361.843	68.19
362.07	81.19
362.296	70.19
362.523	74.19
362.749	90.19
362.976	82.19
363.203	83.19
363.429	74.19
363.656	83.19
363.882	73.19
364.109	84.19
364.335	89.19
364.562	74.19
364.788	92.19
365.015	73.19
365.241	78.19
365.468	79.19
365.694	75.19
365.92	86.19
366.147	78.19
366.373	83.19
366.599	81.19
366.826	82.19
367.052	74.19
367.278	79.19
367.505	85.19
367.731	74.19
367.957	87.19
368.184	89.19
368.41	67.19
368.636	92.19
368.862	72.19
369.089	79.19
369.315	88.19
369.541	71.19
369.767	64.19
369.993	79.19
370.219	68.19
370.445	79.19
370.672	75.19
370.898	79.19
371.124	73.19
371.35	85.19
371.576	65.19
371.802	71.19
372.028	78.19
372.254	80.19
372.48	84.19
372.706	78.19
372.932	83.19
373.158	72.19
373.384	78.19
373.61	59.19
373.835	89.19
374.061	78.19
374.287	69.19
374.513	67.19
374.739	84.19
374.965	84.19
375.191	84.19
375.416	81.19
375.642	69.19
375.868	74.19
376.094	76.19
376.319	81.19
376.545	74.19
376.771	65.19
376.997	91.19
377.222	101.19
377.448	85.19
377.674	79.19
377.899	75.19
378.125	78.19
378.35	79.19
378.576	77.19
378.802	82.19
379.027	92.19
379.253	80.19
379.478	75.19
379.704	97.19
379.929	81.19
380.155	70.19
380.38	81.19
380.606	86.19
380.831	74.19
381.057	89.19
381.282	79.19
381.507	69.19
381.733	79.19
381.958	61.19
382.184	82.19
382.409	74.19
382.634	76.19
382.86	76.19
383.085	72.19
383.31	79.19
383.535	88.19
383.761	74.19
383.986	92.19
384.211	81.19
384.436	82.19
384.662	67.19
384.887	62.19
385.112	77.19
385.337	78.19
385.562	76.19
385.787	75.19
386.013	89.19
386.238	82.19
386.463	76.19
386.688	92.19
386.913	97.19
387.138	85.19
387.363	77.19
387.588	90.19
387.813	76.19
388.038	95.19
388.263	95.19
388.488	76.19
388.713	88.19
388.938	85.19
389.163	79.19
389.387	82.19
389.612	76.19
389.837	75.19
390.062	85.19
390.287	79.19
390.512	69.19
390.736	81.19
390.961	69.19
391.186	76.19
391.411	57.19
391.636	80.19
391.86	77.19
392.085	77.19
392.31	78.19
392.534	77.19
392.759	78.19
392.984	75.19
393.208	69.19
393.433	82.19
393.658	90.19
393.882	76.19
394.107	76.19
394.331	66.19
394.556	76.19
394.78	82.19
395.005	63.19
395.229	84.19
395.454	78.19
395.678	84.19
395.903	82.19
396.127	85.19
396.352	83.19
396.576	71.19
396.801	79.19
397.025	85.19
397.249	88.19
397.474	93.19
397.698	73.19
397.922	85.19
398.147	81.19
398.371	78.19
398.595	77.19
398.82	82.19
399.044	68.19
399.268	72.19
399.492	71.19
399.717	68.19
399.941	72.19
400.165	82.19
400.389	83.19
400.613	93.19
400.837	79.19
401.062	81.19
401.286	88.19
401.51	82.19
401.734	82.19
401.958	81.19
402.182	73.19
402.406	79.19
402.63	76.19
402.854	72.19
403.078	71.19
403.302	84.19
403.526	74.19
403.75	85.19
403.974	94.19
404.198	90.19
404.422	78.19
404.645	86.19
404.869	81.19
405.093	65.19
405.317	77.19
405.541	77.19
405.765	70.19
405.988	82.19
406.212	75.19
406.436	81.19
406.66	84.19
406.883	80.19
407.107	65.19
407.331	76.19
407.555	66.19
407.778	69.19
408.002	80.19
408.226	80.19
408.449	81.19
408.673	77.19
408.896	83.19
409.12	91.19
409.344	79.19
409.567	79.19
409.791	86.19
410.014	78.19
410.238	73.19
410.461	78.19
410.685	81.19
410.908	81.19
411.132	93.19
411.355	83.19
411.578	79.19
411.802	79.19
412.025	85.19
412.249	85.19
412.472	71.19
412.695	84.19
412.919	78.19
413.142	80.19
413.365	89.19
413.589	77.19
413.812	78.19
414.035	86.19
414.258	70.19
414.482	70.19
414.705	79.19
414.928	79.19
415.151	81.19
415.374	81.19
415.597	86.19
415.821	74.19
416.044	67.19
416.267	73.19
416.49	84.19
416.713	76.19
416.936	67.19
417.159	80.19
417.382	81.19
417.605	81.19
417.828	82.19
418.051	91.19
418.274	76.19
418.497	83.19
418.72	64.19
418.943	82.19
419.166	83.19
419.389	75.19
419.611	79.19
419.834	74.19
420.057	72.19
420.28	74.19
420.503	82.19
420.726	81.19
420.948	85.19
421.171	69.19
421.394	92.19
421.617	70.19
421.839	69.19
422.062	81.19
422.285	80.19
422.507	93.19
422.73	97.19
422.953	83.19
423.175	72.19
423.398	75.19
423.621	62.19
423.843	81.19
424.066	87.19
424.288	86.19
424.511	78.19
424.733	64.19
424.956	83.19
425.178	76.19
425.401	83.19
425.623	74.19
425.846	76.19
426.068	81.19
426.291	61.19
426.513	82.19
426.735	79.19
426.958	86.19
427.18	69.19
427.402	84.19
427.625	80.19
427.847	86.19
428.069	85.19
428.292	82.19
428.514	83.19
428.736	80.19
428.958	85.19
429.181	81.19
429.403	62.19
429.625	79.19
429.847	69.19
430.069	86.19
430.292	76.19
430.514	79.19
430.736	79.19
430.958	92.19
431.18	83.19
431.402	85.19
431.624	73.19
431.846	72.19
432.068	78.19
432.29	70.19
432.512	69.19
432.734	80.19
432.956	86.19
433.178	73.19
433.4	74.19
433.622	69.19
433.844	87.19
434.066	78.19
434.287	73.19
434.509	75.19
434.731	79.19
434.953	73.19
435.175	77.19
435.397	80.19
435.618	83.19
435.84	76.19
436.062	78.19
436.284	68.19
436.505	85.19
436.727	71.19
436.949	77.19
437.17	71.19
437.392	70.19
437.614	92.19
437.835	68.19
438.057	75.19
438.278	91.19
438.5	90.19
438.721	88.19
438.943	84.19
439.165	82.19
439.386	85.19
439.608	79.19
439.829	77.19
440.05	63.19
440.272	77.19
440.493	76.19
440.715	77.19
440.936	72.19
441.158	77.19
441.379	83.19
441.6	73.19
441.822	69.19
442.043	61.19
442.264	77.19
442.486	81.19
442.707	78.19
442.928	95.19
443.149	95.19
443.371	86.19
443.592	81.19
443.813	74.19
444.034	68.19
444.255	89.19
444.476	90.19
444.698	78.19
444.919	67.19
445.14	145.19
445.361	92.19
445.582	85.19
445.803	75.19
446.024	82.19
446.245	87.19
446.466	70.19
446.687	79.19
446.908	73.19
447.129	69.19
447.35	72.19
447.571	92.19
447.792	79.19
448.013	60.19
448.234	74.19
448.455	70.19
448.675	81.19
448.896	78.19
449.117	81.19
449.338	64.19
449.559	80.19
449.779	70.19
450	79.19
450.221	73.19
450.442	65.19
450.662	69.19
450.883	68.19
451.104	74.19
451.324	108.19
451.545	77.19
451.766	86.19
451.986	86.19
452.207	79.19
452.428	67.19
452.648	79.19
452.869	85.19
453.089	81.19
453.31	74.19
453.53	71.19
453.751	80.19
453.971	81.19
454.192	83.19
454.412	74.19
454.633	75.19
454.853	81.19
455.073	63.19
455.294	84.19
455.514	74.19
455.734	73.19
455.955	82.19
456.175	68.19
456.395	74.19
456.616	74.19
456.836	77.19
457.056	77.19
457.276	89.19
457.497	70.19
457.717	92.19
457.937	72.19
458.157	65.19
458.377	86.19
458.598	79.19
458.818	79.19
459.038	86.19
459.258	79.19
459.478	71.19
459.698	86.19
459.918	77.19
460.138	75.19
460.358	73.19
460.578	88.19
460.798	68.19
461.018	79.19
461.238	72.19
461.458	71.19
461.678	83.19
461.898	81.19
462.118	97.19
462.338	84.19
462.558	83.19
462.777	74.19
462.997	69.19
463.217	83.19
463.437	71.19
463.657	67.19
463.876	74.19
464.096	90.19
464.316	77.19
464.536	77.19
464.755	80.19
464.975	83.19
465.195	75.19
465.414	88.19
465.634	78.19
465.854	74.19
466.073	78.19
466.293	76.19
466.512	83.19
466.732	90.19
466.951	87.19
467.171	87.19
467.391	77.19
467.61	69.19
467.829	83.19
468.049	74.19
468.268	89.19
468.488	72.19
468.707	70.19
468.927	60.19
469.146	69.19
469.365	87.19
469.585	66.19
469.804	79.19
470.023	82.19
470.243	83.19
470.462	89.19
470.681	84.19
470.901	87.19
471.12	77.19
471.339	81.19
471.558	70.19
471.777	73.19
471.997	80.19
472.216	72.19
472.435	76.19
472.654	84.19
472.873	82.19
473.092	93.19
473.311	90.19
473.53	73.19
473.749	84.19
473.968	71.19
474.187	76.19
474.406	78.19
474.625	79.19
474.844	81.19
475.063	82.19
475.282	75.19
475.501	75.19
475.72	85.19
475.939	59.19
476.158	83.19
476.377	69.19
476.596	74.19
476.814	69.19
477.033	70.19
477.252	67.19
477.471	80.19
477.69	74.19
477.908	85.19
478.127	80.19
478.346	88.19
478.564	82.19
478.783	87.19
479.002	81.19
479.22	73.19
479.439	91.19
479.658	61.19
479.876	73.19
480.095	76.19
480.313	76.19
480.532	72.19
480.751	86.19
480.969	94.19
481.188	86.19
481.406	75.19
481.624	82.19
481.843	71.19
482.061	72.19
482.28	73.19
482.498	64.19
482.717	85.19
482.935	100.19
483.153	72.19
483.372	74.19
483.59	78.19
483.808	73.19
484.027	82.19
484.245	87.19
484.463	72.19
484.681	86.19
484.9	67.19
485.118	91.19
485.336	82.19
485.554	82.19
485.772	71.19
485.99	82.19
486.209	86.19
486.427	79.19
486.645	92.19
486.863	83.19
487.081	69.19
487.299	59.19
487.517	69.19
487.735	84.19
487.953	83.19
488.171	81.19
488.389	78.19
488.607	79.19
488.825	60.19
489.043	90.19
489.261	83.19
489.479	68.19
489.696	78.19
489.914	83.19
490.132	79.19
490.35	70.19
490.568	77.19
490.786	72.19
491.003	78.19
491.221	73.19
491.439	78.19
491.657	87.19
491.874	72.19
492.092	78.19
492.31	79.19
492.527	85.19
492.745	84.19
492.963	87.19
493.18	75.19
493.398	74.19
493.615	91.19
493.833	83.19
494.05	77.19
494.268	90.19
494.485	62.19
494.703	74.19
494.92	79.19
495.138	82.19
495.355	75.19
495.573	81.19
495.79	82.19
496.008	85.19
496.225	92.19
496.442	89.19
496.66	82.19
496.877	70.19
497.094	84.19
497.312	88.19
497.529	74.19
497.746	80.19
497.963	71.19
498.181	68.19
498.398	71.19
498.615	93.19
498.832	82.19
499.049	85.19
499.267	79.19
499.484	60.19
499.701	74.19
499.918	90.19
500.135	64.19
500.352	72.19
500.569	72.19
500.786	68.19
501.003	70.19
501.22	86.19
501.437	96.19
501.654	83.19
501.871	69.19
502.088	77.19
502.305	80.19
502.522	65.19
502.739	68.19
502.956	66.19
503.172	69.19
503.389	76.19
503.606	85.19
503.823	78.19
504.04	75.19
504.256	97.19
504.473	89.19
504.69	69.19
504.907	85.19
505.123	79.19
505.34	83.19
505.557	80.19
505.773	81.19
505.99	90.19
506.207	89.19
506.423	74.19
506.64	81.19
506.856	85.19
507.073	72.19
507.289	79.19
507.506	71.19
507.722	74.19
507.939	69.19
508.155	88.19
508.372	75.19
508.588	82.19
508.805	78.19
509.021	76.19
509.238	94.19
509.454	86.19
509.67	72.19
509.887	64.19
510.103	77.19
510.319	86.19
510.536	89.19
510.752	71.19
510.968	84.19
511.184	75.19
511.401	73.19
511.617	83.19
511.833	69.19
512.049	94.19
512.265	74.19
512.481	83.19
512.698	83.19
512.914	71.19
513.13	85.19
513.346	63.19
513.562	78.19
513.778	97.19
513.994	82.19
514.21	81.19
514.426	85.19
514.642	73.19
514.858	84.19
515.074	80.19
515.29	88.19
515.506	80.19
515.721	77.19
515.937	72.19
516.153	87.19
516.369	83.19
516.585	81.19
516.801	71.19
517.016	71.19
517.232	69.19
517.448	86.19
517.664	76.19
517.879	91.19
518.095	89.19
518.311	76.19
518.527	73.19
518.742	74.19
518.958	85.19
519.173	79.19
519.389	84.19
519.605	79.19
519.82	61.19
520.036	92.19
520.251	76.19
