Data from Dirtheat2_HRD10591_00020.txt Node
Date: Fri Dec 27 15:15:19 EST 2024
User: Yrep
Spectrometer: HR+D1059
Trigger mode: 1
Integration Time (sec): 1.000000E-1
Scans to average: 1
Electric dark correction enabled: true
Nonlinearity correction enabled: false
Boxcar width: 0
XAxis mode: Wavelengths
Number of Pixels in Spectrum: 2048
>>>>>Begin Spectral Data<<<<<
223.165	-17.69
223.4	-17.69
223.635	-17.69
223.869	-16.69
224.104	-22.69
224.338	-23.69
224.573	-1.69
224.808	-10.69
225.042	-6.69
225.277	-8.69
225.511	-5.69
225.746	-2.69
225.98	2.31
226.215	9.31
226.449	22.31
226.683	27.31
226.918	28.31
227.152	27.31
227.387	46.31
227.621	31.31
227.856	37.31
228.09	60.31
228.324	54.31
228.559	57.31
228.793	69.31
229.027	66.31
229.262	69.31
229.496	85.31
229.73	73.31
229.964	70.31
230.199	81.31
230.433	77.31
230.667	79.31
230.901	76.31
231.136	81.31
231.37	77.31
231.604	70.31
231.838	80.31
232.072	83.31
232.306	94.31
232.541	80.31
232.775	80.31
233.009	86.31
233.243	86.31
233.477	80.31
233.711	90.31
233.945	83.31
234.179	77.31
234.413	102.31
234.647	88.31
234.881	75.31
235.115	83.31
235.349	74.31
235.583	81.31
235.817	87.31
236.051	79.31
236.285	76.31
236.519	92.31
236.753	82.31
236.987	87.31
237.221	81.31
237.455	85.31
237.689	86.31
237.922	79.31
238.156	83.31
238.39	82.31
238.624	61.31
238.858	91.31
239.091	73.31
239.325	74.31
239.559	89.31
239.793	73.31
240.027	90.31
240.26	77.31
240.494	93.31
240.728	87.31
240.961	65.31
241.195	87.31
241.429	83.31
241.662	58.31
241.896	69.31
242.13	71.31
242.363	76.31
242.597	84.31
242.83	85.31
243.064	78.31
243.298	70.31
243.531	81.31
243.765	86.31
243.998	81.31
244.232	81.31
244.465	93.31
244.699	79.31
244.932	79.31
245.166	93.31
245.399	85.31
245.633	68.31
245.866	68.31
246.099	80.31
246.333	76.31
246.566	75.31
246.8	74.31
247.033	75.31
247.266	65.31
247.5	69.31
247.733	81.31
247.966	71.31
248.2	90.31
248.433	82.31
248.666	77.31
248.899	68.31
249.133	85.31
249.366	77.31
249.599	85.31
249.832	89.31
250.066	85.31
250.299	83.31
250.532	85.31
250.765	80.31
250.998	72.31
251.231	78.31
251.465	82.31
251.698	78.31
251.931	74.31
252.164	80.31
252.397	93.31
252.63	67.31
252.863	87.31
253.096	69.31
253.329	83.31
253.562	75.31
253.795	65.31
254.028	85.31
254.261	84.31
254.494	80.31
254.727	85.31
254.96	84.31
255.193	75.31
255.426	81.31
255.659	75.31
255.892	81.31
256.124	70.31
256.357	74.31
256.59	80.31
256.823	73.31
257.056	68.31
257.289	80.31
257.521	73.31
257.754	72.31
257.987	90.31
258.22	79.31
258.452	86.31
258.685	84.31
258.918	74.31
259.151	91.31
259.383	69.31
259.616	88.31
259.849	57.31
260.081	73.31
260.314	79.31
260.547	93.31
260.779	86.31
261.012	81.31
261.244	86.31
261.477	87.31
261.71	87.31
261.942	80.31
262.175	79.31
262.407	77.31
262.64	83.31
262.872	71.31
263.105	96.31
263.337	95.31
263.57	66.31
263.802	87.31
264.035	81.31
264.267	79.31
264.499	78.31
264.732	81.31
264.964	76.31
265.197	75.31
265.429	72.31
265.661	88.31
265.894	67.31
266.126	83.31
266.358	70.31
266.591	82.31
266.823	86.31
267.055	70.31
267.287	82.31
267.52	67.31
267.752	88.31
267.984	78.31
268.216	79.31
268.448	85.31
268.681	75.31
268.913	90.31
269.145	86.31
269.377	85.31
269.609	70.31
269.841	76.31
270.073	81.31
270.306	82.31
270.538	92.31
270.77	93.31
271.002	88.31
271.234	93.31
271.466	91.31
271.698	80.31
271.93	77.31
272.162	91.31
272.394	88.31
272.626	77.31
272.858	55.31
273.09	90.31
273.322	96.31
273.553	80.31
273.785	99.31
274.017	83.31
274.249	82.31
274.481	94.31
274.713	78.31
274.945	81.31
275.176	76.31
275.408	97.31
275.64	88.31
275.872	97.31
276.104	98.31
276.335	82.31
276.567	86.31
276.799	78.31
277.031	73.31
277.262	71.31
277.494	93.31
277.726	87.31
277.957	91.31
278.189	82.31
278.421	92.31
278.652	93.31
278.884	85.31
279.115	88.31
279.347	88.31
279.579	64.31
279.81	65.31
280.042	86.31
280.273	88.31
280.505	84.31
280.736	92.31
280.968	86.31
281.199	87.31
281.431	86.31
281.662	71.31
281.894	89.31
282.125	86.31
282.356	79.31
282.588	87.31
282.819	81.31
283.051	88.31
283.282	87.31
283.513	91.31
283.745	89.31
283.976	80.31
284.207	89.31
284.439	79.31
284.67	86.31
284.901	89.31
285.132	84.31
285.364	89.31
285.595	101.31
285.826	74.31
286.057	84.31
286.288	82.31
286.52	91.31
286.751	88.31
286.982	101.31
287.213	95.31
287.444	85.31
287.675	83.31
287.906	92.31
288.138	82.31
288.369	83.31
288.6	90.31
288.831	89.31
289.062	84.31
289.293	104.31
289.524	73.31
289.755	78.31
289.986	94.31
290.217	90.31
290.448	72.31
290.679	92.31
290.91	93.31
291.141	91.31
291.371	93.31
291.602	81.31
291.833	76.31
292.064	89.31
292.295	90.31
292.526	90.31
292.757	85.31
292.987	89.31
293.218	86.31
293.449	88.31
293.68	82.31
293.91	79.31
294.141	99.31
294.372	71.31
294.603	88.31
294.833	86.31
295.064	91.31
295.295	81.31
295.525	85.31
295.756	77.31
295.987	82.31
296.217	79.31
296.448	79.31
296.679	84.31
296.909	88.31
297.14	81.31
297.37	77.31
297.601	90.31
297.831	87.31
298.062	79.31
298.292	83.31
298.523	87.31
298.753	86.31
298.984	81.31
299.214	73.31
299.445	96.31
299.675	92.31
299.905	82.31
300.136	88.31
300.366	103.31
300.597	77.31
300.827	94.31
301.057	83.31
301.288	86.31
301.518	93.31
301.748	77.31
301.979	112.31
302.209	96.31
302.439	89.31
302.669	83.31
302.9	94.31
303.13	89.31
303.36	86.31
303.59	92.31
303.82	82.31
304.051	81.31
304.281	83.31
304.511	90.31
304.741	99.31
304.971	89.31
305.201	90.31
305.431	79.31
305.661	81.31
305.891	91.31
306.121	90.31
306.352	77.31
306.582	81.31
306.812	79.31
307.042	85.31
307.272	85.31
307.502	91.31
307.731	76.31
307.961	85.31
308.191	80.31
308.421	69.31
308.651	86.31
308.881	86.31
309.111	91.31
309.341	89.31
309.571	79.31
309.8	75.31
310.03	91.31
310.26	93.31
310.49	79.31
310.72	85.31
310.949	86.31
311.179	93.31
311.409	95.31
311.639	91.31
311.868	81.31
312.098	83.31
312.328	87.31
312.557	94.31
312.787	90.31
313.017	86.31
313.246	80.31
313.476	94.31
313.706	73.31
313.935	79.31
314.165	80.31
314.394	78.31
314.624	84.31
314.853	88.31
315.083	88.31
315.312	85.31
315.542	76.31
315.771	84.31
316.001	71.31
316.23	90.31
316.46	100.31
316.689	93.31
316.919	95.31
317.148	87.31
317.377	95.31
317.607	83.31
317.836	80.31
318.065	85.31
318.295	82.31
318.524	81.31
318.753	97.31
318.983	98.31
319.212	80.31
319.441	106.31
319.67	105.31
319.9	81.31
320.129	82.31
320.358	81.31
320.587	77.31
320.816	83.31
321.046	72.31
321.275	79.31
321.504	81.31
321.733	79.31
321.962	82.31
322.191	74.31
322.42	91.31
322.649	90.31
322.878	90.31
323.108	105.31
323.337	87.31
323.566	89.31
323.795	82.31
324.024	81.31
324.253	89.31
324.482	85.31
324.71	101.31
324.939	86.31
325.168	91.31
325.397	84.31
325.626	103.31
325.855	90.31
326.084	91.31
326.313	86.31
326.542	93.31
326.77	87.31
326.999	81.31
327.228	87.31
327.457	87.31
327.686	82.31
327.914	74.31
328.143	84.31
328.372	90.31
328.6	72.31
328.829	86.31
329.058	77.31
329.287	81.31
329.515	88.31
329.744	76.31
329.972	89.31
330.201	93.31
330.43	90.31
330.658	93.31
330.887	79.31
331.115	88.31
331.344	86.31
331.572	91.31
331.801	81.31
332.03	72.31
332.258	93.31
332.486	69.31
332.715	80.31
332.943	102.31
333.172	83.31
333.4	83.31
333.629	72.31
333.857	86.31
334.085	88.31
334.314	88.31
334.542	82.31
334.771	88.31
334.999	89.31
335.227	86.31
335.455	86.31
335.684	83.31
335.912	77.31
336.14	80.31
336.369	89.31
336.597	95.31
336.825	82.31
337.053	75.31
337.281	78.31
337.51	93.31
337.738	88.31
337.966	88.31
338.194	76.31
338.422	83.31
338.65	93.31
338.878	98.31
339.106	94.31
339.334	76.31
339.562	85.31
339.79	75.31
340.018	74.31
340.246	72.31
340.474	93.31
340.702	98.31
340.93	81.31
341.158	93.31
341.386	81.31
341.614	85.31
341.842	92.31
342.07	76.31
342.298	91.31
342.526	78.31
342.754	89.31
342.981	96.31
343.209	92.31
343.437	101.31
343.665	83.31
343.893	74.31
344.12	92.31
344.348	82.31
344.576	83.31
344.804	78.31
345.031	80.31
345.259	82.31
345.487	89.31
345.714	74.31
345.942	89.31
346.17	94.31
346.397	87.31
346.625	83.31
346.853	89.31
347.08	77.31
347.308	76.31
347.535	91.31
347.763	92.31
347.99	77.31
348.218	104.31
348.445	79.31
348.673	94.31
348.9	81.31
349.128	77.31
349.355	85.31
349.583	83.31
349.81	77.31
350.037	74.31
350.265	95.31
350.492	80.31
350.72	76.31
350.947	94.31
351.174	94.31
351.402	81.31
351.629	87.31
351.856	80.31
352.083	86.31
352.311	77.31
352.538	70.31
352.765	104.31
352.992	96.31
353.22	93.31
353.447	86.31
353.674	79.31
353.901	96.31
354.128	79.31
354.355	77.31
354.583	76.31
354.81	96.31
355.037	77.31
355.264	78.31
355.491	71.31
355.718	84.31
355.945	82.31
356.172	89.31
356.399	96.31
356.626	89.31
356.853	96.31
357.08	84.31
357.307	74.31
357.534	87.31
357.761	85.31
357.988	74.31
358.215	82.31
358.441	78.31
358.668	87.31
358.895	88.31
359.122	71.31
359.349	101.31
359.576	83.31
359.802	81.31
360.029	84.31
360.256	93.31
360.483	87.31
360.709	78.31
360.936	95.31
361.163	92.31
361.39	76.31
361.616	76.31
361.843	89.31
362.07	101.31
362.296	73.31
362.523	67.31
362.749	85.31
362.976	76.31
363.203	88.31
363.429	90.31
363.656	90.31
363.882	100.31
364.109	103.31
364.335	88.31
364.562	71.31
364.788	81.31
365.015	71.31
365.241	85.31
365.468	72.31
365.694	81.31
365.92	82.31
366.147	95.31
366.373	95.31
366.599	87.31
366.826	82.31
367.052	88.31
367.278	84.31
367.505	85.31
367.731	93.31
367.957	102.31
368.184	85.31
368.41	91.31
368.636	94.31
368.862	85.31
369.089	83.31
369.315	76.31
369.541	78.31
369.767	76.31
369.993	83.31
370.219	76.31
370.445	72.31
370.672	77.31
370.898	91.31
371.124	81.31
371.35	73.31
371.576	85.31
371.802	81.31
372.028	101.31
372.254	79.31
372.48	78.31
372.706	85.31
372.932	78.31
373.158	82.31
373.384	104.31
373.61	76.31
373.835	74.31
374.061	80.31
374.287	85.31
374.513	90.31
374.739	81.31
374.965	85.31
375.191	97.31
375.416	71.31
375.642	80.31
375.868	85.31
376.094	80.31
376.319	79.31
376.545	86.31
376.771	90.31
376.997	85.31
377.222	95.31
377.448	80.31
377.674	81.31
377.899	90.31
378.125	87.31
378.35	88.31
378.576	77.31
378.802	81.31
379.027	87.31
379.253	96.31
379.478	88.31
379.704	82.31
379.929	94.31
380.155	92.31
380.38	74.31
380.606	97.31
380.831	82.31
381.057	98.31
381.282	84.31
381.507	84.31
381.733	84.31
381.958	102.31
382.184	91.31
382.409	75.31
382.634	86.31
382.86	78.31
383.085	83.31
383.31	80.31
383.535	94.31
383.761	87.31
383.986	90.31
384.211	80.31
384.436	76.31
384.662	75.31
384.887	80.31
385.112	71.31
385.337	85.31
385.562	79.31
385.787	90.31
386.013	87.31
386.238	87.31
386.463	81.31
386.688	95.31
386.913	82.31
387.138	73.31
387.363	77.31
387.588	83.31
387.813	87.31
388.038	81.31
388.263	83.31
388.488	93.31
388.713	78.31
388.938	82.31
389.163	93.31
389.387	83.31
389.612	81.31
389.837	74.31
390.062	77.31
390.287	92.31
390.512	76.31
390.736	82.31
390.961	76.31
391.186	82.31
391.411	71.31
391.636	77.31
391.86	77.31
392.085	91.31
392.31	77.31
392.534	90.31
392.759	94.31
392.984	85.31
393.208	92.31
393.433	118.31
393.658	104.31
393.882	97.31
394.107	86.31
394.331	90.31
394.556	78.31
394.78	74.31
395.005	75.31
395.229	90.31
395.454	88.31
395.678	86.31
395.903	85.31
396.127	87.31
396.352	95.31
396.576	75.31
396.801	101.31
397.025	104.31
397.249	97.31
397.474	89.31
397.698	90.31
397.922	73.31
398.147	98.31
398.371	83.31
398.595	88.31
398.82	88.31
399.044	82.31
399.268	72.31
399.492	96.31
399.717	90.31
399.941	86.31
400.165	71.31
400.389	84.31
400.613	73.31
400.837	76.31
401.062	88.31
401.286	91.31
401.51	80.31
401.734	77.31
401.958	86.31
402.182	101.31
402.406	91.31
402.63	78.31
402.854	82.31
403.078	66.31
403.302	90.31
403.526	91.31
403.75	75.31
403.974	83.31
404.198	84.31
404.422	102.31
404.645	87.31
404.869	86.31
405.093	84.31
405.317	86.31
405.541	88.31
405.765	71.31
405.988	89.31
406.212	87.31
406.436	72.31
406.66	76.31
406.883	81.31
407.107	80.31
407.331	84.31
407.555	79.31
407.778	85.31
408.002	78.31
408.226	86.31
408.449	64.31
408.673	82.31
408.896	85.31
409.12	86.31
409.344	99.31
409.567	97.31
409.791	83.31
410.014	94.31
410.238	77.31
410.461	93.31
410.685	87.31
410.908	74.31
411.132	77.31
411.355	83.31
411.578	82.31
411.802	78.31
412.025	75.31
412.249	79.31
412.472	76.31
412.695	72.31
412.919	86.31
413.142	89.31
413.365	90.31
413.589	71.31
413.812	74.31
414.035	100.31
414.258	80.31
414.482	100.31
414.705	90.31
414.928	101.31
415.151	84.31
415.374	84.31
415.597	88.31
415.821	78.31
416.044	73.31
416.267	75.31
416.49	80.31
416.713	82.31
416.936	90.31
417.159	95.31
417.382	82.31
417.605	80.31
417.828	78.31
418.051	82.31
418.274	81.31
418.497	94.31
418.72	75.31
418.943	89.31
419.166	83.31
419.389	88.31
419.611	87.31
419.834	82.31
420.057	74.31
420.28	78.31
420.503	84.31
420.726	74.31
420.948	90.31
421.171	87.31
421.394	73.31
421.617	91.31
421.839	84.31
422.062	94.31
422.285	101.31
422.507	103.31
422.73	119.31
422.953	109.31
423.175	82.31
423.398	101.31
423.621	94.31
423.843	89.31
424.066	93.31
424.288	85.31
424.511	78.31
424.733	92.31
424.956	79.31
425.178	81.31
425.401	91.31
425.623	95.31
425.846	88.31
426.068	98.31
426.291	75.31
426.513	61.31
426.735	88.31
426.958	90.31
427.18	72.31
427.402	79.31
427.625	85.31
427.847	78.31
428.069	96.31
428.292	77.31
428.514	82.31
428.736	82.31
428.958	81.31
429.181	95.31
429.403	83.31
429.625	79.31
429.847	82.31
430.069	97.31
430.292	89.31
430.514	86.31
430.736	95.31
430.958	85.31
431.18	98.31
431.402	97.31
431.624	81.31
431.846	95.31
432.068	84.31
432.29	82.31
432.512	83.31
432.734	92.31
432.956	87.31
433.178	81.31
433.4	94.31
433.622	83.31
433.844	64.31
434.066	89.31
434.287	87.31
434.509	78.31
434.731	75.31
434.953	71.31
435.175	75.31
435.397	77.31
435.618	75.31
435.84	75.31
436.062	78.31
436.284	90.31
436.505	86.31
436.727	93.31
436.949	79.31
437.17	82.31
437.392	78.31
437.614	91.31
437.835	94.31
438.057	83.31
438.278	85.31
438.5	88.31
438.721	81.31
438.943	92.31
439.165	78.31
439.386	86.31
439.608	77.31
439.829	92.31
440.05	83.31
440.272	69.31
440.493	72.31
440.715	93.31
440.936	78.31
441.158	91.31
441.379	86.31
441.6	84.31
441.822	85.31
442.043	87.31
442.264	81.31
442.486	91.31
442.707	74.31
442.928	83.31
443.149	96.31
443.371	83.31
443.592	98.31
443.813	97.31
444.034	95.31
444.255	87.31
444.476	83.31
444.698	70.31
444.919	98.31
445.14	143.31
445.361	130.31
445.582	101.31
445.803	75.31
446.024	78.31
446.245	94.31
446.466	85.31
446.687	83.31
446.908	88.31
447.129	77.31
447.35	91.31
447.571	81.31
447.792	97.31
448.013	91.31
448.234	88.31
448.455	98.31
448.675	67.31
448.896	87.31
449.117	88.31
449.338	85.31
449.559	79.31
449.779	80.31
450	91.31
450.221	80.31
450.442	87.31
450.662	73.31
450.883	91.31
451.104	83.31
451.324	87.31
451.545	86.31
451.766	83.31
451.986	78.31
452.207	81.31
452.428	76.31
452.648	91.31
452.869	73.31
453.089	82.31
453.31	78.31
453.53	88.31
453.751	85.31
453.971	81.31
454.192	83.31
454.412	88.31
454.633	81.31
454.853	85.31
455.073	72.31
455.294	93.31
455.514	90.31
455.734	77.31
455.955	75.31
456.175	80.31
456.395	94.31
456.616	90.31
456.836	88.31
457.056	89.31
457.276	77.31
457.497	83.31
457.717	73.31
457.937	82.31
458.157	88.31
458.377	63.31
458.598	75.31
458.818	85.31
459.038	83.31
459.258	98.31
459.478	92.31
459.698	89.31
459.918	77.31
460.138	81.31
460.358	94.31
460.578	81.31
460.798	83.31
461.018	93.31
461.238	72.31
461.458	88.31
461.678	83.31
461.898	87.31
462.118	82.31
462.338	81.31
462.558	93.31
462.777	76.31
462.997	85.31
463.217	80.31
463.437	84.31
463.657	87.31
463.876	91.31
464.096	90.31
464.316	72.31
464.536	86.31
464.755	81.31
464.975	83.31
465.195	88.31
465.414	83.31
465.634	82.31
465.854	88.31
466.073	78.31
466.293	85.31
466.512	78.31
466.732	89.31
466.951	71.31
467.171	70.31
467.391	82.31
467.61	77.31
467.829	90.31
468.049	90.31
468.268	78.31
468.488	93.31
468.707	89.31
468.927	59.31
469.146	80.31
469.365	85.31
469.585	81.31
469.804	83.31
470.023	86.31
470.243	79.31
470.462	75.31
470.681	94.31
470.901	88.31
471.12	87.31
471.339	87.31
471.558	81.31
471.777	77.31
471.997	84.31
472.216	93.31
472.435	77.31
472.654	80.31
472.873	79.31
473.092	82.31
473.311	82.31
473.53	93.31
473.749	91.31
473.968	88.31
474.187	87.31
474.406	108.31
474.625	73.31
474.844	95.31
475.063	83.31
475.282	94.31
475.501	92.31
475.72	77.31
475.939	88.31
476.158	80.31
476.377	80.31
476.596	90.31
476.814	89.31
477.033	82.31
477.252	73.31
477.471	83.31
477.69	86.31
477.908	84.31
478.127	88.31
478.346	91.31
478.564	86.31
478.783	74.31
479.002	78.31
479.22	91.31
479.439	92.31
479.658	81.31
479.876	84.31
480.095	80.31
480.313	93.31
480.532	96.31
480.751	86.31
480.969	77.31
481.188	83.31
481.406	79.31
481.624	82.31
481.843	62.31
482.061	80.31
482.28	86.31
482.498	105.31
482.717	77.31
482.935	96.31
483.153	87.31
483.372	90.31
483.59	94.31
483.808	89.31
484.027	74.31
484.245	86.31
484.463	79.31
484.681	78.31
484.9	85.31
485.118	98.31
485.336	85.31
485.554	89.31
485.772	73.31
485.99	73.31
486.209	92.31
486.427	78.31
486.645	77.31
486.863	85.31
487.081	79.31
487.299	82.31
487.517	82.31
487.735	85.31
487.953	88.31
488.171	87.31
488.389	83.31
488.607	75.31
488.825	74.31
489.043	83.31
489.261	112.31
489.479	97.31
489.696	92.31
489.914	82.31
490.132	78.31
490.35	89.31
490.568	88.31
490.786	80.31
491.003	94.31
491.221	79.31
491.439	84.31
491.657	79.31
491.874	97.31
492.092	80.31
492.31	88.31
492.527	81.31
492.745	102.31
492.963	90.31
493.18	90.31
493.398	95.31
493.615	85.31
493.833	84.31
494.05	93.31
494.268	93.31
494.485	88.31
494.703	95.31
494.92	100.31
495.138	76.31
495.355	87.31
495.573	94.31
495.79	78.31
496.008	90.31
496.225	101.31
496.442	84.31
496.66	93.31
496.877	98.31
497.094	86.31
497.312	81.31
497.529	85.31
497.746	91.31
497.963	85.31
498.181	81.31
498.398	69.31
498.615	67.31
498.832	81.31
499.049	91.31
499.267	85.31
499.484	95.31
499.701	90.31
499.918	94.31
500.135	87.31
500.352	78.31
500.569	84.31
500.786	81.31
501.003	68.31
501.22	75.31
501.437	77.31
501.654	97.31
501.871	81.31
502.088	81.31
502.305	76.31
502.522	87.31
502.739	85.31
502.956	71.31
503.172	78.31
503.389	70.31
503.606	87.31
503.823	87.31
504.04	91.31
504.256	102.31
504.473	95.31
504.69	85.31
504.907	87.31
505.123	83.31
505.34	90.31
505.557	75.31
505.773	83.31
505.99	95.31
506.207	81.31
506.423	82.31
506.64	83.31
506.856	83.31
507.073	91.31
507.289	92.31
507.506	94.31
507.722	84.31
507.939	69.31
508.155	90.31
508.372	91.31
508.588	80.31
508.805	96.31
509.021	93.31
509.238	106.31
509.454	69.31
509.67	82.31
509.887	84.31
510.103	86.31
510.319	74.31
510.536	90.31
510.752	88.31
510.968	80.31
511.184	88.31
511.401	73.31
511.617	81.31
511.833	74.31
512.049	78.31
512.265	96.31
512.481	80.31
512.698	87.31
512.914	87.31
513.13	96.31
513.346	91.31
513.562	83.31
513.778	72.31
513.994	74.31
514.21	82.31
514.426	87.31
514.642	84.31
514.858	85.31
515.074	86.31
515.29	91.31
515.506	78.31
515.721	86.31
515.937	91.31
516.153	88.31
516.369	96.31
516.585	81.31
516.801	90.31
517.016	89.31
517.232	85.31
517.448	84.31
517.664	83.31
517.879	94.31
518.095	86.31
518.311	81.31
518.527	93.31
518.742	77.31
518.958	79.31
519.173	96.31
519.389	79.31
519.605	96.31
