Data from Dirtheat2_HRD10591_00004.txt Node
Date: Fri Dec 27 15:15:03 EST 2024
User: Yrep
Spectrometer: HR+D1059
Trigger mode: 1
Integration Time (sec): 1.000000E-1
Scans to average: 1
Electric dark correction enabled: true
Nonlinearity correction enabled: false
Boxcar width: 0
XAxis mode: Wavelengths
Number of Pixels in Spectrum: 2048
>>>>>Begin Spectral Data<<<<<
223.165	-21.56
223.4	-21.56
223.635	-21.56
223.869	-14.56
224.104	-14.56
224.338	-15.56
224.573	-15.56
224.808	-10.56
225.042	-9.56
225.277	-10.56
225.511	-10.56
225.746	13.44
225.98	15.44
226.215	14.44
226.449	13.44
226.683	15.44
226.918	23.44
227.152	27.44
227.387	39.44
227.621	32.44
227.856	38.44
228.09	61.44
228.324	46.44
228.559	52.44
228.793	71.44
229.027	67.44
229.262	65.44
229.496	59.44
229.73	59.44
229.964	67.44
230.199	72.44
230.433	75.44
230.667	68.44
230.901	74.44
231.136	60.44
231.37	71.44
231.604	80.44
231.838	89.44
232.072	88.44
232.306	83.44
232.541	73.44
232.775	68.44
233.009	66.44
233.243	63.44
233.477	87.44
233.711	78.44
233.945	64.44
234.179	70.44
234.413	77.44
234.647	78.44
234.881	85.44
235.115	76.44
235.349	74.44
235.583	63.44
235.817	68.44
236.051	88.44
236.285	88.44
236.519	87.44
236.753	75.44
236.987	80.44
237.221	81.44
237.455	81.44
237.689	73.44
237.922	74.44
238.156	58.44
238.39	90.44
238.624	84.44
238.858	72.44
239.091	79.44
239.325	76.44
239.559	71.44
239.793	67.44
240.027	86.44
240.26	82.44
240.494	66.44
240.728	75.44
240.961	72.44
241.195	82.44
241.429	84.44
241.662	74.44
241.896	64.44
242.13	58.44
242.363	78.44
242.597	76.44
242.83	93.44
243.064	89.44
243.298	73.44
243.531	73.44
243.765	66.44
243.998	72.44
244.232	76.44
244.465	85.44
244.699	80.44
244.932	76.44
245.166	65.44
245.399	78.44
245.633	77.44
245.866	72.44
246.099	63.44
246.333	63.44
246.566	73.44
246.8	70.44
247.033	88.44
247.266	73.44
247.5	73.44
247.733	86.44
247.966	101.44
248.2	70.44
248.433	84.44
248.666	64.44
248.899	79.44
249.133	79.44
249.366	91.44
249.599	75.44
249.832	91.44
250.066	81.44
250.299	82.44
250.532	69.44
250.765	81.44
250.998	56.44
251.231	75.44
251.465	89.44
251.698	82.44
251.931	83.44
252.164	82.44
252.397	80.44
252.63	78.44
252.863	78.44
253.096	77.44
253.329	79.44
253.562	77.44
253.795	77.44
254.028	91.44
254.261	78.44
254.494	78.44
254.727	75.44
254.96	61.44
255.193	66.44
255.426	74.44
255.659	71.44
255.892	80.44
256.124	63.44
256.357	86.44
256.59	87.44
256.823	80.44
257.056	76.44
257.289	87.44
257.521	78.44
257.754	87.44
257.987	92.44
258.22	80.44
258.452	76.44
258.685	77.44
258.918	75.44
259.151	80.44
259.383	86.44
259.616	78.44
259.849	83.44
260.081	74.44
260.314	80.44
260.547	75.44
260.779	82.44
261.012	82.44
261.244	74.44
261.477	77.44
261.71	76.44
261.942	72.44
262.175	79.44
262.407	84.44
262.64	87.44
262.872	77.44
263.105	82.44
263.337	93.44
263.57	90.44
263.802	72.44
264.035	77.44
264.267	80.44
264.499	70.44
264.732	87.44
264.964	83.44
265.197	62.44
265.429	89.44
265.661	78.44
265.894	77.44
266.126	81.44
266.358	93.44
266.591	80.44
266.823	77.44
267.055	85.44
267.287	76.44
267.52	74.44
267.752	87.44
267.984	90.44
268.216	79.44
268.448	86.44
268.681	82.44
268.913	79.44
269.145	79.44
269.377	80.44
269.609	74.44
269.841	76.44
270.073	73.44
270.306	75.44
270.538	86.44
270.77	69.44
271.002	78.44
271.234	79.44
271.466	79.44
271.698	79.44
271.93	88.44
272.162	87.44
272.394	90.44
272.626	81.44
272.858	79.44
273.09	75.44
273.322	76.44
273.553	66.44
273.785	96.44
274.017	67.44
274.249	80.44
274.481	69.44
274.713	77.44
274.945	86.44
275.176	87.44
275.408	92.44
275.64	74.44
275.872	88.44
276.104	89.44
276.335	85.44
276.567	76.44
276.799	76.44
277.031	72.44
277.262	85.44
277.494	81.44
277.726	83.44
277.957	84.44
278.189	92.44
278.421	87.44
278.652	89.44
278.884	84.44
279.115	76.44
279.347	91.44
279.579	86.44
279.81	81.44
280.042	84.44
280.273	90.44
280.505	71.44
280.736	88.44
280.968	89.44
281.199	62.44
281.431	70.44
281.662	89.44
281.894	79.44
282.125	87.44
282.356	86.44
282.588	73.44
282.819	81.44
283.051	80.44
283.282	97.44
283.513	84.44
283.745	66.44
283.976	83.44
284.207	79.44
284.439	85.44
284.67	101.44
284.901	88.44
285.132	72.44
285.364	66.44
285.595	71.44
285.826	69.44
286.057	89.44
286.288	81.44
286.52	89.44
286.751	75.44
286.982	83.44
287.213	88.44
287.444	101.44
287.675	64.44
287.906	88.44
288.138	102.44
288.369	74.44
288.6	76.44
288.831	73.44
289.062	85.44
289.293	70.44
289.524	94.44
289.755	89.44
289.986	75.44
290.217	89.44
290.448	87.44
290.679	85.44
290.91	80.44
291.141	84.44
291.371	90.44
291.602	90.44
291.833	80.44
292.064	89.44
292.295	83.44
292.526	85.44
292.757	81.44
292.987	89.44
293.218	86.44
293.449	98.44
293.68	81.44
293.91	97.44
294.141	89.44
294.372	71.44
294.603	79.44
294.833	88.44
295.064	77.44
295.295	80.44
295.525	85.44
295.756	79.44
295.987	82.44
296.217	73.44
296.448	75.44
296.679	76.44
296.909	85.44
297.14	85.44
297.37	76.44
297.601	104.44
297.831	108.44
298.062	90.44
298.292	90.44
298.523	82.44
298.753	89.44
298.984	78.44
299.214	73.44
299.445	94.44
299.675	79.44
299.905	81.44
300.136	75.44
300.366	88.44
300.597	84.44
300.827	83.44
301.057	86.44
301.288	82.44
301.518	91.44
301.748	80.44
301.979	108.44
302.209	93.44
302.439	83.44
302.669	90.44
302.9	79.44
303.13	65.44
303.36	89.44
303.59	94.44
303.82	79.44
304.051	82.44
304.281	89.44
304.511	95.44
304.741	87.44
304.971	82.44
305.201	78.44
305.431	96.44
305.661	80.44
305.891	71.44
306.121	76.44
306.352	88.44
306.582	70.44
306.812	82.44
307.042	90.44
307.272	83.44
307.502	72.44
307.731	93.44
307.961	95.44
308.191	77.44
308.421	100.44
308.651	92.44
308.881	101.44
309.111	82.44
309.341	84.44
309.571	82.44
309.8	70.44
310.03	84.44
310.26	86.44
310.49	102.44
310.72	80.44
310.949	86.44
311.179	81.44
311.409	79.44
311.639	89.44
311.868	79.44
312.098	87.44
312.328	89.44
312.557	71.44
312.787	85.44
313.017	80.44
313.246	80.44
313.476	91.44
313.706	78.44
313.935	76.44
314.165	80.44
314.394	85.44
314.624	76.44
314.853	76.44
315.083	87.44
315.312	80.44
315.542	81.44
315.771	91.44
316.001	81.44
316.23	91.44
316.46	102.44
316.689	75.44
316.919	79.44
317.148	82.44
317.377	90.44
317.607	79.44
317.836	84.44
318.065	84.44
318.295	98.44
318.524	76.44
318.753	71.44
318.983	76.44
319.212	68.44
319.441	84.44
319.67	66.44
319.9	81.44
320.129	96.44
320.358	84.44
320.587	79.44
320.816	86.44
321.046	81.44
321.275	101.44
321.504	78.44
321.733	91.44
321.962	96.44
322.191	89.44
322.42	90.44
322.649	94.44
322.878	98.44
323.108	90.44
323.337	95.44
323.566	86.44
323.795	85.44
324.024	87.44
324.253	82.44
324.482	86.44
324.71	86.44
324.939	92.44
325.168	86.44
325.397	69.44
325.626	89.44
325.855	77.44
326.084	77.44
326.313	85.44
326.542	90.44
326.77	88.44
326.999	92.44
327.228	81.44
327.457	79.44
327.686	83.44
327.914	76.44
328.143	95.44
328.372	84.44
328.6	94.44
328.829	81.44
329.058	84.44
329.287	104.44
329.515	90.44
329.744	81.44
329.972	73.44
330.201	89.44
330.43	100.44
330.658	92.44
330.887	82.44
331.115	73.44
331.344	66.44
331.572	86.44
331.801	89.44
332.03	88.44
332.258	87.44
332.486	92.44
332.715	65.44
332.943	82.44
333.172	88.44
333.4	80.44
333.629	76.44
333.857	91.44
334.085	76.44
334.314	86.44
334.542	78.44
334.771	89.44
334.999	93.44
335.227	85.44
335.455	74.44
335.684	79.44
335.912	73.44
336.14	82.44
336.369	94.44
336.597	80.44
336.825	84.44
337.053	83.44
337.281	88.44
337.51	72.44
337.738	90.44
337.966	79.44
338.194	82.44
338.422	98.44
338.65	81.44
338.878	87.44
339.106	86.44
339.334	85.44
339.562	83.44
339.79	90.44
340.018	85.44
340.246	94.44
340.474	85.44
340.702	88.44
340.93	80.44
341.158	80.44
341.386	81.44
341.614	82.44
341.842	87.44
342.07	73.44
342.298	79.44
342.526	74.44
342.754	80.44
342.981	81.44
343.209	72.44
343.437	104.44
343.665	88.44
343.893	82.44
344.12	88.44
344.348	85.44
344.576	88.44
344.804	89.44
345.031	73.44
345.259	84.44
345.487	84.44
345.714	89.44
345.942	82.44
346.17	72.44
346.397	87.44
346.625	85.44
346.853	67.44
347.08	76.44
347.308	85.44
347.535	79.44
347.763	84.44
347.99	81.44
348.218	98.44
348.445	77.44
348.673	79.44
348.9	82.44
349.128	91.44
349.355	95.44
349.583	88.44
349.81	83.44
350.037	78.44
350.265	75.44
350.492	79.44
350.72	80.44
350.947	80.44
351.174	77.44
351.402	91.44
351.629	87.44
351.856	79.44
352.083	76.44
352.311	77.44
352.538	80.44
352.765	78.44
352.992	92.44
353.22	85.44
353.447	88.44
353.674	97.44
353.901	84.44
354.128	85.44
354.355	86.44
354.583	74.44
354.81	78.44
355.037	84.44
355.264	80.44
355.491	72.44
355.718	111.44
355.945	89.44
356.172	89.44
356.399	72.44
356.626	88.44
356.853	94.44
357.08	82.44
357.307	90.44
357.534	87.44
357.761	88.44
357.988	80.44
358.215	78.44
358.441	83.44
358.668	78.44
358.895	95.44
359.122	72.44
359.349	74.44
359.576	87.44
359.802	73.44
360.029	75.44
360.256	84.44
360.483	65.44
360.709	75.44
360.936	89.44
361.163	85.44
361.39	88.44
361.616	83.44
361.843	93.44
362.07	81.44
362.296	91.44
362.523	79.44
362.749	81.44
362.976	81.44
363.203	90.44
363.429	84.44
363.656	84.44
363.882	88.44
364.109	96.44
364.335	94.44
364.562	101.44
364.788	92.44
365.015	72.44
365.241	82.44
365.468	93.44
365.694	86.44
365.92	84.44
366.147	82.44
366.373	65.44
366.599	85.44
366.826	92.44
367.052	81.44
367.278	74.44
367.505	81.44
367.731	89.44
367.957	86.44
368.184	98.44
368.41	85.44
368.636	72.44
368.862	74.44
369.089	98.44
369.315	83.44
369.541	95.44
369.767	75.44
369.993	84.44
370.219	80.44
370.445	83.44
370.672	93.44
370.898	85.44
371.124	72.44
371.35	73.44
371.576	85.44
371.802	77.44
372.028	86.44
372.254	83.44
372.48	85.44
372.706	88.44
372.932	81.44
373.158	87.44
373.384	69.44
373.61	66.44
373.835	78.44
374.061	76.44
374.287	74.44
374.513	89.44
374.739	97.44
374.965	66.44
375.191	78.44
375.416	86.44
375.642	91.44
375.868	86.44
376.094	78.44
376.319	70.44
376.545	96.44
376.771	63.44
376.997	69.44
377.222	87.44
377.448	95.44
377.674	85.44
377.899	88.44
378.125	76.44
378.35	74.44
378.576	91.44
378.802	88.44
379.027	78.44
379.253	89.44
379.478	79.44
379.704	76.44
379.929	72.44
380.155	82.44
380.38	92.44
380.606	76.44
380.831	84.44
381.057	102.44
381.282	102.44
381.507	95.44
381.733	79.44
381.958	79.44
382.184	93.44
382.409	81.44
382.634	88.44
382.86	85.44
383.085	70.44
383.31	76.44
383.535	94.44
383.761	77.44
383.986	90.44
384.211	80.44
384.436	84.44
384.662	71.44
384.887	78.44
385.112	84.44
385.337	78.44
385.562	92.44
385.787	85.44
386.013	85.44
386.238	75.44
386.463	74.44
386.688	92.44
386.913	73.44
387.138	74.44
387.363	69.44
387.588	96.44
387.813	88.44
388.038	94.44
388.263	85.44
388.488	86.44
388.713	89.44
388.938	85.44
389.163	84.44
389.387	75.44
389.612	86.44
389.837	89.44
390.062	101.44
390.287	74.44
390.512	76.44
390.736	72.44
390.961	70.44
391.186	82.44
391.411	89.44
391.636	73.44
391.86	78.44
392.085	70.44
392.31	75.44
392.534	86.44
392.759	94.44
392.984	106.44
393.208	84.44
393.433	93.44
393.658	101.44
393.882	86.44
394.107	87.44
394.331	76.44
394.556	65.44
394.78	61.44
395.005	79.44
395.229	72.44
395.454	75.44
395.678	81.44
395.903	92.44
396.127	75.44
396.352	81.44
396.576	96.44
396.801	90.44
397.025	88.44
397.249	76.44
397.474	86.44
397.698	87.44
397.922	71.44
398.147	78.44
398.371	80.44
398.595	75.44
398.82	86.44
399.044	88.44
399.268	80.44
399.492	86.44
399.717	83.44
399.941	78.44
400.165	87.44
400.389	81.44
400.613	76.44
400.837	69.44
401.062	77.44
401.286	74.44
401.51	81.44
401.734	75.44
401.958	72.44
402.182	87.44
402.406	70.44
402.63	83.44
402.854	89.44
403.078	79.44
403.302	86.44
403.526	92.44
403.75	94.44
403.974	79.44
404.198	77.44
404.422	82.44
404.645	83.44
404.869	90.44
405.093	78.44
405.317	75.44
405.541	90.44
405.765	62.44
405.988	92.44
406.212	95.44
406.436	86.44
406.66	88.44
406.883	86.44
407.107	96.44
407.331	84.44
407.555	68.44
407.778	88.44
408.002	83.44
408.226	82.44
408.449	90.44
408.673	101.44
408.896	93.44
409.12	86.44
409.344	89.44
409.567	73.44
409.791	75.44
410.014	84.44
410.238	76.44
410.461	91.44
410.685	85.44
410.908	70.44
411.132	82.44
411.355	81.44
411.578	87.44
411.802	76.44
412.025	65.44
412.249	82.44
412.472	86.44
412.695	76.44
412.919	80.44
413.142	72.44
413.365	97.44
413.589	80.44
413.812	72.44
414.035	87.44
414.258	76.44
414.482	79.44
414.705	77.44
414.928	76.44
415.151	84.44
415.374	95.44
415.597	81.44
415.821	87.44
416.044	79.44
416.267	76.44
416.49	80.44
416.713	89.44
416.936	93.44
417.159	80.44
417.382	86.44
417.605	81.44
417.828	83.44
418.051	84.44
418.274	84.44
418.497	72.44
418.72	92.44
418.943	84.44
419.166	84.44
419.389	80.44
419.611	75.44
419.834	93.44
420.057	86.44
420.28	74.44
420.503	74.44
420.726	71.44
420.948	74.44
421.171	78.44
421.394	72.44
421.617	84.44
421.839	79.44
422.062	84.44
422.285	86.44
422.507	94.44
422.73	100.44
422.953	109.44
423.175	95.44
423.398	81.44
423.621	90.44
423.843	74.44
424.066	72.44
424.288	83.44
424.511	83.44
424.733	86.44
424.956	82.44
425.178	86.44
425.401	79.44
425.623	88.44
425.846	84.44
426.068	72.44
426.291	67.44
426.513	86.44
426.735	89.44
426.958	81.44
427.18	65.44
427.402	74.44
427.625	89.44
427.847	74.44
428.069	77.44
428.292	79.44
428.514	73.44
428.736	87.44
428.958	88.44
429.181	76.44
429.403	65.44
429.625	73.44
429.847	76.44
430.069	98.44
430.292	86.44
430.514	86.44
430.736	90.44
430.958	90.44
431.18	77.44
431.402	83.44
431.624	80.44
431.846	76.44
432.068	92.44
432.29	86.44
432.512	93.44
432.734	75.44
432.956	79.44
433.178	88.44
433.4	88.44
433.622	77.44
433.844	80.44
434.066	78.44
434.287	79.44
434.509	76.44
434.731	93.44
434.953	80.44
435.175	92.44
435.397	73.44
435.618	83.44
435.84	82.44
436.062	91.44
436.284	92.44
436.505	68.44
436.727	83.44
436.949	70.44
437.17	90.44
437.392	76.44
437.614	71.44
437.835	74.44
438.057	74.44
438.278	88.44
438.5	91.44
438.721	86.44
438.943	83.44
439.165	81.44
439.386	87.44
439.608	85.44
439.829	74.44
440.05	80.44
440.272	88.44
440.493	77.44
440.715	86.44
440.936	82.44
441.158	88.44
441.379	80.44
441.6	81.44
441.822	75.44
442.043	78.44
442.264	78.44
442.486	90.44
442.707	88.44
442.928	74.44
443.149	79.44
443.371	89.44
443.592	89.44
443.813	90.44
444.034	86.44
444.255	72.44
444.476	83.44
444.698	81.44
444.919	75.44
445.14	146.44
445.361	120.44
445.582	113.44
445.803	93.44
446.024	68.44
446.245	79.44
446.466	87.44
446.687	66.44
446.908	83.44
447.129	86.44
447.35	79.44
447.571	77.44
447.792	87.44
448.013	94.44
448.234	84.44
448.455	76.44
448.675	72.44
448.896	89.44
449.117	81.44
449.338	85.44
449.559	81.44
449.779	79.44
450	75.44
450.221	73.44
450.442	81.44
450.662	67.44
450.883	79.44
451.104	72.44
451.324	69.44
451.545	86.44
451.766	73.44
451.986	66.44
452.207	73.44
452.428	75.44
452.648	80.44
452.869	85.44
453.089	84.44
453.31	89.44
453.53	88.44
453.751	103.44
453.971	84.44
454.192	68.44
454.412	84.44
454.633	69.44
454.853	71.44
455.073	85.44
455.294	70.44
455.514	88.44
455.734	73.44
455.955	84.44
456.175	77.44
456.395	84.44
456.616	74.44
456.836	73.44
457.056	72.44
457.276	86.44
457.497	86.44
457.717	75.44
457.937	79.44
458.157	70.44
458.377	88.44
458.598	80.44
458.818	84.44
459.038	83.44
459.258	84.44
459.478	69.44
459.698	77.44
459.918	91.44
460.138	77.44
460.358	64.44
460.578	75.44
460.798	88.44
461.018	86.44
461.238	73.44
461.458	82.44
461.678	84.44
461.898	82.44
462.118	80.44
462.338	88.44
462.558	80.44
462.777	80.44
462.997	93.44
463.217	70.44
463.437	64.44
463.657	88.44
463.876	89.44
464.096	78.44
464.316	73.44
464.536	81.44
464.755	66.44
464.975	79.44
465.195	87.44
465.414	73.44
465.634	79.44
465.854	75.44
466.073	68.44
466.293	77.44
466.512	85.44
466.732	63.44
466.951	89.44
467.171	78.44
467.391	63.44
467.61	77.44
467.829	88.44
468.049	70.44
468.268	76.44
468.488	83.44
468.707	77.44
468.927	68.44
469.146	85.44
469.365	73.44
469.585	78.44
469.804	76.44
470.023	74.44
470.243	70.44
470.462	87.44
470.681	78.44
470.901	78.44
471.12	64.44
471.339	75.44
471.558	92.44
471.777	76.44
471.997	74.44
472.216	84.44
472.435	84.44
472.654	79.44
472.873	81.44
473.092	76.44
473.311	74.44
473.53	69.44
473.749	88.44
473.968	85.44
474.187	100.44
474.406	93.44
474.625	82.44
474.844	74.44
475.063	87.44
475.282	78.44
475.501	78.44
475.72	85.44
475.939	87.44
476.158	75.44
476.377	77.44
476.596	70.44
476.814	80.44
477.033	73.44
477.252	87.44
477.471	80.44
477.69	102.44
477.908	80.44
478.127	82.44
478.346	86.44
478.564	81.44
478.783	77.44
479.002	86.44
479.22	78.44
479.439	87.44
479.658	77.44
479.876	81.44
480.095	76.44
480.313	88.44
480.532	75.44
480.751	88.44
480.969	85.44
481.188	78.44
481.406	64.44
481.624	76.44
481.843	85.44
482.061	83.44
482.28	83.44
482.498	77.44
482.717	89.44
482.935	80.44
483.153	76.44
483.372	75.44
483.59	85.44
483.808	79.44
484.027	76.44
484.245	75.44
484.463	92.44
484.681	79.44
484.9	80.44
485.118	74.44
485.336	84.44
485.554	75.44
485.772	77.44
485.99	92.44
486.209	85.44
486.427	83.44
486.645	92.44
486.863	96.44
487.081	76.44
487.299	86.44
487.517	88.44
487.735	82.44
487.953	95.44
488.171	98.44
488.389	79.44
488.607	84.44
488.825	86.44
489.043	71.44
489.261	82.44
489.479	94.44
489.696	79.44
489.914	76.44
490.132	80.44
490.35	84.44
490.568	70.44
490.786	79.44
491.003	84.44
491.221	81.44
491.439	87.44
491.657	85.44
491.874	72.44
492.092	96.44
492.31	81.44
492.527	75.44
492.745	84.44
492.963	97.44
493.18	74.44
493.398	72.44
493.615	82.44
493.833	86.44
494.05	79.44
494.268	81.44
494.485	90.44
494.703	75.44
494.92	82.44
495.138	87.44
495.355	73.44
495.573	94.44
495.79	67.44
496.008	89.44
496.225	79.44
496.442	78.44
496.66	93.44
496.877	83.44
497.094	92.44
497.312	82.44
497.529	87.44
497.746	82.44
497.963	78.44
498.181	75.44
498.398	78.44
498.615	79.44
498.832	85.44
499.049	94.44
499.267	101.44
499.484	94.44
499.701	73.44
499.918	88.44
500.135	81.44
500.352	106.44
500.569	74.44
500.786	75.44
501.003	84.44
501.22	89.44
501.437	76.44
501.654	76.44
501.871	70.44
502.088	70.44
502.305	77.44
502.522	77.44
502.739	74.44
502.956	66.44
503.172	88.44
503.389	82.44
503.606	81.44
503.823	85.44
504.04	89.44
504.256	86.44
504.473	93.44
504.69	78.44
504.907	65.44
505.123	82.44
505.34	89.44
505.557	94.44
505.773	80.44
505.99	87.44
506.207	86.44
506.423	90.44
506.64	81.44
506.856	88.44
507.073	78.44
507.289	82.44
507.506	103.44
507.722	95.44
507.939	79.44
508.155	82.44
508.372	91.44
508.588	80.44
508.805	89.44
509.021	77.44
509.238	81.44
509.454	91.44
509.67	87.44
509.887	98.44
510.103	75.44
510.319	76.44
510.536	67.44
510.752	76.44
510.968	72.44
511.184	82.44
511.401	91.44
511.617	78.44
511.833	65.44
512.049	85.44
512.265	79.44
512.481	92.44
512.698	81.44
512.914	89.44
513.13	92.44
513.346	75.44
513.562	92.44
513.778	85.44
513.994	73.44
514.21	72.44
514.426	77.44
514.642	79.44
514.858	73.44
515.074	77.44
515.29	88.44
515.506	84.44
515.721	84.44
515.937	89.44
516.153	87.44
516.369	84.44
516.585	82.44
516.801	111.44
517.016	88.44
517.232	76.44
517.448	90.44
517.664	77.44
517.879	83.44
518.095	85.44
518.311	86.44
518.527	85.44
518.742	88.44
518.958	90.44
519.173	79.44
519.389	79.44
519.605	90.44
519.82	85.44
