Data from Dirtheat2_HRD10591_00005.txt Node
Date: Fri Dec 27 15:15:04 EST 2024
User: Yrep
Spectrometer: HR+D1059
Trigger mode: 1
Integration Time (sec): 1.000000E-1
Scans to average: 1
Electric dark correction enabled: true
Nonlinearity correction enabled: false
Boxcar width: 0
XAxis mode: Wavelengths
Number of Pixels in Spectrum: 2048
>>>>>Begin Spectral Data<<<<<
223.165	-15.69
223.4	-15.69
223.635	-15.69
223.869	-12.69
224.104	-17.69
224.338	-15.69
224.573	-23.69
224.808	-7.69
225.042	-9.69
225.277	-13.69
225.511	-12.69
225.746	3.31
225.98	3.31
226.215	19.31
226.449	23.31
226.683	28.31
226.918	15.31
227.152	36.31
227.387	47.31
227.621	46.31
227.856	41.31
228.09	47.31
228.324	44.31
228.559	60.31
228.793	72.31
229.027	60.31
229.262	74.31
229.496	66.31
229.73	60.31
229.964	57.31
230.199	71.31
230.433	75.31
230.667	70.31
230.901	84.31
231.136	68.31
231.37	83.31
231.604	73.31
231.838	63.31
232.072	72.31
232.306	85.31
232.541	81.31
232.775	88.31
233.009	79.31
233.243	75.31
233.477	82.31
233.711	77.31
233.945	68.31
234.179	87.31
234.413	81.31
234.647	88.31
234.881	53.31
235.115	72.31
235.349	67.31
235.583	81.31
235.817	79.31
236.051	66.31
236.285	75.31
236.519	88.31
236.753	79.31
236.987	69.31
237.221	83.31
237.455	86.31
237.689	85.31
237.922	60.31
238.156	81.31
238.39	74.31
238.624	70.31
238.858	74.31
239.091	72.31
239.325	72.31
239.559	74.31
239.793	88.31
240.027	89.31
240.26	86.31
240.494	73.31
240.728	80.31
240.961	67.31
241.195	83.31
241.429	77.31
241.662	66.31
241.896	84.31
242.13	64.31
242.363	69.31
242.597	75.31
242.83	80.31
243.064	72.31
243.298	86.31
243.531	74.31
243.765	70.31
243.998	81.31
244.232	65.31
244.465	75.31
244.699	82.31
244.932	81.31
245.166	76.31
245.399	89.31
245.633	65.31
245.866	78.31
246.099	66.31
246.333	71.31
246.566	78.31
246.8	65.31
247.033	72.31
247.266	67.31
247.5	74.31
247.733	79.31
247.966	67.31
248.2	81.31
248.433	73.31
248.666	77.31
248.899	81.31
249.133	72.31
249.366	83.31
249.599	77.31
249.832	61.31
250.066	79.31
250.299	82.31
250.532	82.31
250.765	79.31
250.998	85.31
251.231	81.31
251.465	69.31
251.698	92.31
251.931	79.31
252.164	75.31
252.397	87.31
252.63	70.31
252.863	76.31
253.096	64.31
253.329	91.31
253.562	77.31
253.795	72.31
254.028	66.31
254.261	80.31
254.494	85.31
254.727	86.31
254.96	75.31
255.193	74.31
255.426	80.31
255.659	78.31
255.892	71.31
256.124	81.31
256.357	82.31
256.59	88.31
256.823	84.31
257.056	76.31
257.289	85.31
257.521	87.31
257.754	82.31
257.987	70.31
258.22	76.31
258.452	78.31
258.685	72.31
258.918	69.31
259.151	80.31
259.383	67.31
259.616	87.31
259.849	95.31
260.081	78.31
260.314	86.31
260.547	53.31
260.779	78.31
261.012	84.31
261.244	78.31
261.477	73.31
261.71	90.31
261.942	72.31
262.175	84.31
262.407	80.31
262.64	99.31
262.872	75.31
263.105	76.31
263.337	87.31
263.57	79.31
263.802	78.31
264.035	87.31
264.267	86.31
264.499	92.31
264.732	85.31
264.964	77.31
265.197	94.31
265.429	85.31
265.661	73.31
265.894	83.31
266.126	73.31
266.358	80.31
266.591	72.31
266.823	88.31
267.055	68.31
267.287	92.31
267.52	86.31
267.752	89.31
267.984	71.31
268.216	78.31
268.448	84.31
268.681	91.31
268.913	72.31
269.145	86.31
269.377	84.31
269.609	83.31
269.841	77.31
270.073	69.31
270.306	84.31
270.538	78.31
270.77	90.31
271.002	67.31
271.234	84.31
271.466	91.31
271.698	81.31
271.93	86.31
272.162	80.31
272.394	83.31
272.626	79.31
272.858	74.31
273.09	84.31
273.322	79.31
273.553	87.31
273.785	69.31
274.017	91.31
274.249	74.31
274.481	83.31
274.713	80.31
274.945	87.31
275.176	78.31
275.408	81.31
275.64	77.31
275.872	62.31
276.104	80.31
276.335	80.31
276.567	77.31
276.799	82.31
277.031	77.31
277.262	91.31
277.494	83.31
277.726	72.31
277.957	99.31
278.189	99.31
278.421	101.31
278.652	72.31
278.884	87.31
279.115	76.31
279.347	81.31
279.579	85.31
279.81	67.31
280.042	91.31
280.273	89.31
280.505	65.31
280.736	80.31
280.968	71.31
281.199	79.31
281.431	85.31
281.662	69.31
281.894	70.31
282.125	90.31
282.356	74.31
282.588	85.31
282.819	82.31
283.051	78.31
283.282	83.31
283.513	86.31
283.745	87.31
283.976	76.31
284.207	87.31
284.439	82.31
284.67	81.31
284.901	83.31
285.132	83.31
285.364	84.31
285.595	88.31
285.826	84.31
286.057	84.31
286.288	74.31
286.52	96.31
286.751	72.31
286.982	86.31
287.213	75.31
287.444	93.31
287.675	78.31
287.906	83.31
288.138	83.31
288.369	73.31
288.6	92.31
288.831	84.31
289.062	77.31
289.293	75.31
289.524	96.31
289.755	85.31
289.986	84.31
290.217	84.31
290.448	82.31
290.679	100.31
290.91	84.31
291.141	88.31
291.371	95.31
291.602	82.31
291.833	61.31
292.064	78.31
292.295	73.31
292.526	84.31
292.757	87.31
292.987	85.31
293.218	80.31
293.449	86.31
293.68	93.31
293.91	78.31
294.141	90.31
294.372	86.31
294.603	74.31
294.833	81.31
295.064	65.31
295.295	81.31
295.525	81.31
295.756	72.31
295.987	76.31
296.217	85.31
296.448	93.31
296.679	74.31
296.909	73.31
297.14	76.31
297.37	82.31
297.601	81.31
297.831	88.31
298.062	83.31
298.292	79.31
298.523	78.31
298.753	79.31
298.984	80.31
299.214	87.31
299.445	88.31
299.675	88.31
299.905	90.31
300.136	80.31
300.366	87.31
300.597	85.31
300.827	78.31
301.057	88.31
301.288	82.31
301.518	89.31
301.748	78.31
301.979	99.31
302.209	83.31
302.439	90.31
302.669	74.31
302.9	80.31
303.13	89.31
303.36	84.31
303.59	69.31
303.82	74.31
304.051	77.31
304.281	79.31
304.511	96.31
304.741	72.31
304.971	81.31
305.201	90.31
305.431	91.31
305.661	86.31
305.891	89.31
306.121	84.31
306.352	77.31
306.582	71.31
306.812	87.31
307.042	91.31
307.272	83.31
307.502	87.31
307.731	86.31
307.961	80.31
308.191	80.31
308.421	76.31
308.651	70.31
308.881	85.31
309.111	72.31
309.341	78.31
309.571	78.31
309.8	83.31
310.03	84.31
310.26	101.31
310.49	74.31
310.72	70.31
310.949	89.31
311.179	98.31
311.409	91.31
311.639	77.31
311.868	88.31
312.098	80.31
312.328	87.31
312.557	78.31
312.787	76.31
313.017	64.31
313.246	91.31
313.476	76.31
313.706	85.31
313.935	74.31
314.165	72.31
314.394	87.31
314.624	64.31
314.853	82.31
315.083	78.31
315.312	79.31
315.542	74.31
315.771	83.31
316.001	83.31
316.23	84.31
316.46	69.31
316.689	78.31
316.919	83.31
317.148	73.31
317.377	89.31
317.607	82.31
317.836	82.31
318.065	106.31
318.295	95.31
318.524	72.31
318.753	84.31
318.983	74.31
319.212	67.31
319.441	89.31
319.67	82.31
319.9	86.31
320.129	93.31
320.358	94.31
320.587	84.31
320.816	74.31
321.046	75.31
321.275	85.31
321.504	93.31
321.733	77.31
321.962	82.31
322.191	84.31
322.42	90.31
322.649	89.31
322.878	87.31
323.108	77.31
323.337	82.31
323.566	84.31
323.795	84.31
324.024	93.31
324.253	82.31
324.482	81.31
324.71	76.31
324.939	95.31
325.168	77.31
325.397	78.31
325.626	85.31
325.855	85.31
326.084	81.31
326.313	82.31
326.542	70.31
326.77	83.31
326.999	93.31
327.228	77.31
327.457	78.31
327.686	91.31
327.914	69.31
328.143	86.31
328.372	86.31
328.6	89.31
328.829	73.31
329.058	85.31
329.287	78.31
329.515	79.31
329.744	96.31
329.972	79.31
330.201	77.31
330.43	80.31
330.658	86.31
330.887	85.31
331.115	99.31
331.344	84.31
331.572	85.31
331.801	77.31
332.03	71.31
332.258	76.31
332.486	99.31
332.715	91.31
332.943	87.31
333.172	76.31
333.4	68.31
333.629	88.31
333.857	73.31
334.085	79.31
334.314	84.31
334.542	88.31
334.771	88.31
334.999	86.31
335.227	79.31
335.455	86.31
335.684	98.31
335.912	76.31
336.14	70.31
336.369	84.31
336.597	83.31
336.825	80.31
337.053	88.31
337.281	80.31
337.51	74.31
337.738	86.31
337.966	73.31
338.194	75.31
338.422	87.31
338.65	84.31
338.878	73.31
339.106	94.31
339.334	74.31
339.562	74.31
339.79	85.31
340.018	87.31
340.246	81.31
340.474	89.31
340.702	64.31
340.93	87.31
341.158	76.31
341.386	88.31
341.614	90.31
341.842	84.31
342.07	81.31
342.298	93.31
342.526	88.31
342.754	92.31
342.981	79.31
343.209	78.31
343.437	104.31
343.665	94.31
343.893	83.31
344.12	72.31
344.348	84.31
344.576	91.31
344.804	80.31
345.031	84.31
345.259	82.31
345.487	77.31
345.714	91.31
345.942	78.31
346.17	69.31
346.397	87.31
346.625	94.31
346.853	93.31
347.08	85.31
347.308	73.31
347.535	79.31
347.763	85.31
347.99	83.31
348.218	92.31
348.445	85.31
348.673	70.31
348.9	65.31
349.128	71.31
349.355	82.31
349.583	83.31
349.81	72.31
350.037	84.31
350.265	79.31
350.492	70.31
350.72	84.31
350.947	78.31
351.174	101.31
351.402	84.31
351.629	91.31
351.856	86.31
352.083	69.31
352.311	75.31
352.538	83.31
352.765	80.31
352.992	92.31
353.22	72.31
353.447	71.31
353.674	79.31
353.901	86.31
354.128	90.31
354.355	81.31
354.583	79.31
354.81	78.31
355.037	68.31
355.264	91.31
355.491	85.31
355.718	82.31
355.945	75.31
356.172	86.31
356.399	80.31
356.626	93.31
356.853	69.31
357.08	85.31
357.307	86.31
357.534	57.31
357.761	77.31
357.988	93.31
358.215	90.31
358.441	84.31
358.668	82.31
358.895	91.31
359.122	76.31
359.349	87.31
359.576	82.31
359.802	74.31
360.029	72.31
360.256	79.31
360.483	87.31
360.709	68.31
360.936	100.31
361.163	92.31
361.39	77.31
361.616	75.31
361.843	85.31
362.07	92.31
362.296	81.31
362.523	91.31
362.749	100.31
362.976	82.31
363.203	100.31
363.429	80.31
363.656	74.31
363.882	91.31
364.109	81.31
364.335	94.31
364.562	90.31
364.788	80.31
365.015	83.31
365.241	82.31
365.468	91.31
365.694	72.31
365.92	75.31
366.147	69.31
366.373	81.31
366.599	75.31
366.826	79.31
367.052	85.31
367.278	93.31
367.505	87.31
367.731	91.31
367.957	100.31
368.184	92.31
368.41	87.31
368.636	74.31
368.862	79.31
369.089	70.31
369.315	76.31
369.541	79.31
369.767	72.31
369.993	74.31
370.219	64.31
370.445	74.31
370.672	87.31
370.898	70.31
371.124	78.31
371.35	75.31
371.576	63.31
371.802	72.31
372.028	80.31
372.254	79.31
372.48	69.31
372.706	88.31
372.932	85.31
373.158	76.31
373.384	94.31
373.61	86.31
373.835	89.31
374.061	89.31
374.287	81.31
374.513	87.31
374.739	90.31
374.965	82.31
375.191	78.31
375.416	79.31
375.642	79.31
375.868	85.31
376.094	76.31
376.319	61.31
376.545	89.31
376.771	75.31
376.997	85.31
377.222	82.31
377.448	73.31
377.674	71.31
377.899	77.31
378.125	80.31
378.35	85.31
378.576	70.31
378.802	72.31
379.027	76.31
379.253	79.31
379.478	79.31
379.704	83.31
379.929	94.31
380.155	84.31
380.38	90.31
380.606	90.31
380.831	84.31
381.057	78.31
381.282	88.31
381.507	87.31
381.733	98.31
381.958	84.31
382.184	89.31
382.409	81.31
382.634	80.31
382.86	94.31
383.085	84.31
383.31	85.31
383.535	76.31
383.761	80.31
383.986	85.31
384.211	81.31
384.436	84.31
384.662	69.31
384.887	85.31
385.112	83.31
385.337	84.31
385.562	78.31
385.787	92.31
386.013	70.31
386.238	71.31
386.463	72.31
386.688	98.31
386.913	68.31
387.138	77.31
387.363	76.31
387.588	75.31
387.813	95.31
388.038	95.31
388.263	87.31
388.488	76.31
388.713	88.31
388.938	68.31
389.163	82.31
389.387	77.31
389.612	88.31
389.837	91.31
390.062	77.31
390.287	83.31
390.512	81.31
390.736	70.31
390.961	89.31
391.186	78.31
391.411	84.31
391.636	69.31
391.86	72.31
392.085	87.31
392.31	82.31
392.534	85.31
392.759	74.31
392.984	79.31
393.208	84.31
393.433	88.31
393.658	86.31
393.882	86.31
394.107	62.31
394.331	72.31
394.556	75.31
394.78	83.31
395.005	98.31
395.229	79.31
395.454	76.31
395.678	90.31
395.903	98.31
396.127	89.31
396.352	88.31
396.576	81.31
396.801	84.31
397.025	90.31
397.249	73.31
397.474	90.31
397.698	88.31
397.922	89.31
398.147	87.31
398.371	71.31
398.595	86.31
398.82	70.31
399.044	76.31
399.268	84.31
399.492	87.31
399.717	91.31
399.941	97.31
400.165	78.31
400.389	88.31
400.613	80.31
400.837	77.31
401.062	85.31
401.286	77.31
401.51	78.31
401.734	93.31
401.958	87.31
402.182	87.31
402.406	90.31
402.63	78.31
402.854	78.31
403.078	78.31
403.302	72.31
403.526	77.31
403.75	77.31
403.974	65.31
404.198	82.31
404.422	93.31
404.645	85.31
404.869	89.31
405.093	90.31
405.317	84.31
405.541	81.31
405.765	68.31
405.988	80.31
406.212	72.31
406.436	88.31
406.66	79.31
406.883	76.31
407.107	78.31
407.331	76.31
407.555	73.31
407.778	96.31
408.002	87.31
408.226	73.31
408.449	82.31
408.673	85.31
408.896	74.31
409.12	81.31
409.344	80.31
409.567	84.31
409.791	77.31
410.014	79.31
410.238	73.31
410.461	85.31
410.685	91.31
410.908	91.31
411.132	74.31
411.355	79.31
411.578	71.31
411.802	85.31
412.025	77.31
412.249	89.31
412.472	80.31
412.695	76.31
412.919	80.31
413.142	86.31
413.365	81.31
413.589	86.31
413.812	78.31
414.035	86.31
414.258	87.31
414.482	86.31
414.705	80.31
414.928	76.31
415.151	77.31
415.374	74.31
415.597	62.31
415.821	80.31
416.044	66.31
416.267	70.31
416.49	72.31
416.713	87.31
416.936	88.31
417.159	83.31
417.382	80.31
417.605	75.31
417.828	90.31
418.051	73.31
418.274	69.31
418.497	75.31
418.72	82.31
418.943	87.31
419.166	77.31
419.389	77.31
419.611	78.31
419.834	97.31
420.057	84.31
420.28	91.31
420.503	77.31
420.726	85.31
420.948	82.31
421.171	79.31
421.394	72.31
421.617	70.31
421.839	86.31
422.062	77.31
422.285	88.31
422.507	103.31
422.73	79.31
422.953	79.31
423.175	78.31
423.398	84.31
423.621	79.31
423.843	64.31
424.066	85.31
424.288	86.31
424.511	75.31
424.733	77.31
424.956	79.31
425.178	75.31
425.401	93.31
425.623	93.31
425.846	92.31
426.068	76.31
426.291	74.31
426.513	75.31
426.735	69.31
426.958	73.31
427.18	79.31
427.402	87.31
427.625	92.31
427.847	82.31
428.069	86.31
428.292	71.31
428.514	85.31
428.736	76.31
428.958	70.31
429.181	84.31
429.403	72.31
429.625	88.31
429.847	78.31
430.069	90.31
430.292	82.31
430.514	81.31
430.736	77.31
430.958	95.31
431.18	84.31
431.402	90.31
431.624	93.31
431.846	91.31
432.068	88.31
432.29	91.31
432.512	82.31
432.734	97.31
432.956	77.31
433.178	70.31
433.4	81.31
433.622	71.31
433.844	85.31
434.066	86.31
434.287	74.31
434.509	69.31
434.731	85.31
434.953	78.31
435.175	69.31
435.397	83.31
435.618	92.31
435.84	78.31
436.062	94.31
436.284	88.31
436.505	68.31
436.727	77.31
436.949	86.31
437.17	82.31
437.392	66.31
437.614	74.31
437.835	88.31
438.057	80.31
438.278	78.31
438.5	81.31
438.721	80.31
438.943	79.31
439.165	98.31
439.386	70.31
439.608	70.31
439.829	81.31
440.05	67.31
440.272	83.31
440.493	81.31
440.715	83.31
440.936	74.31
441.158	65.31
441.379	75.31
441.6	78.31
441.822	74.31
442.043	89.31
442.264	81.31
442.486	93.31
442.707	83.31
442.928	96.31
443.149	76.31
443.371	89.31
443.592	84.31
443.813	82.31
444.034	76.31
444.255	91.31
444.476	87.31
444.698	83.31
444.919	82.31
445.14	154.31
445.361	114.31
445.582	101.31
445.803	83.31
446.024	65.31
446.245	75.31
446.466	83.31
446.687	79.31
446.908	75.31
447.129	88.31
447.35	79.31
447.571	67.31
447.792	70.31
448.013	75.31
448.234	94.31
448.455	74.31
448.675	67.31
448.896	80.31
449.117	64.31
449.338	72.31
449.559	75.31
449.779	74.31
450	78.31
450.221	81.31
450.442	79.31
450.662	89.31
450.883	79.31
451.104	77.31
451.324	77.31
451.545	83.31
451.766	77.31
451.986	84.31
452.207	65.31
452.428	79.31
452.648	85.31
452.869	87.31
453.089	78.31
453.31	79.31
453.53	80.31
453.751	81.31
453.971	74.31
454.192	80.31
454.412	79.31
454.633	83.31
454.853	71.31
455.073	74.31
455.294	82.31
455.514	80.31
455.734	94.31
455.955	92.31
456.175	74.31
456.395	68.31
456.616	85.31
456.836	81.31
457.056	80.31
457.276	80.31
457.497	70.31
457.717	80.31
457.937	95.31
458.157	79.31
458.377	73.31
458.598	90.31
458.818	81.31
459.038	70.31
459.258	70.31
459.478	81.31
459.698	88.31
459.918	78.31
460.138	93.31
460.358	82.31
460.578	82.31
460.798	81.31
461.018	79.31
461.238	77.31
461.458	81.31
461.678	77.31
461.898	83.31
462.118	100.31
462.338	84.31
462.558	79.31
462.777	75.31
462.997	100.31
463.217	80.31
463.437	77.31
463.657	81.31
463.876	81.31
464.096	84.31
464.316	85.31
464.536	86.31
464.755	95.31
464.975	76.31
465.195	79.31
465.414	72.31
465.634	82.31
465.854	80.31
466.073	82.31
466.293	90.31
466.512	78.31
466.732	89.31
466.951	89.31
467.171	72.31
467.391	76.31
467.61	84.31
467.829	69.31
468.049	79.31
468.268	76.31
468.488	73.31
468.707	79.31
468.927	90.31
469.146	70.31
469.365	77.31
469.585	73.31
469.804	89.31
470.023	77.31
470.243	77.31
470.462	83.31
470.681	86.31
470.901	74.31
471.12	78.31
471.339	68.31
471.558	90.31
471.777	87.31
471.997	66.31
472.216	78.31
472.435	93.31
472.654	88.31
472.873	86.31
473.092	78.31
473.311	84.31
473.53	68.31
473.749	95.31
473.968	95.31
474.187	98.31
474.406	83.31
474.625	69.31
474.844	92.31
475.063	76.31
475.282	86.31
475.501	79.31
475.72	74.31
475.939	83.31
476.158	88.31
476.377	87.31
476.596	86.31
476.814	67.31
477.033	94.31
477.252	80.31
477.471	91.31
477.69	87.31
477.908	86.31
478.127	90.31
478.346	71.31
478.564	90.31
478.783	84.31
479.002	76.31
479.22	88.31
479.439	82.31
479.658	72.31
479.876	92.31
480.095	69.31
480.313	74.31
480.532	82.31
480.751	77.31
480.969	80.31
481.188	74.31
481.406	98.31
481.624	86.31
481.843	73.31
482.061	91.31
482.28	85.31
482.498	78.31
482.717	95.31
482.935	87.31
483.153	75.31
483.372	72.31
483.59	80.31
483.808	80.31
484.027	82.31
484.245	66.31
484.463	74.31
484.681	95.31
484.9	82.31
485.118	88.31
485.336	81.31
485.554	96.31
485.772	77.31
485.99	94.31
486.209	76.31
486.427	80.31
486.645	77.31
486.863	80.31
487.081	78.31
487.299	80.31
487.517	102.31
487.735	95.31
487.953	100.31
488.171	95.31
488.389	63.31
488.607	93.31
488.825	79.31
489.043	80.31
489.261	93.31
489.479	72.31
489.696	74.31
489.914	77.31
490.132	88.31
490.35	82.31
490.568	88.31
490.786	87.31
491.003	82.31
491.221	85.31
491.439	82.31
491.657	85.31
491.874	89.31
492.092	79.31
492.31	84.31
492.527	72.31
492.745	72.31
492.963	93.31
493.18	80.31
493.398	64.31
493.615	90.31
493.833	66.31
494.05	70.31
494.268	93.31
494.485	88.31
494.703	82.31
494.92	86.31
495.138	79.31
495.355	88.31
495.573	90.31
495.79	77.31
496.008	77.31
496.225	81.31
496.442	68.31
496.66	94.31
496.877	95.31
497.094	89.31
497.312	83.31
497.529	90.31
497.746	81.31
497.963	97.31
498.181	84.31
498.398	78.31
498.615	84.31
498.832	70.31
499.049	84.31
499.267	85.31
499.484	78.31
499.701	90.31
499.918	90.31
500.135	100.31
500.352	76.31
500.569	82.31
500.786	87.31
501.003	82.31
501.22	98.31
501.437	85.31
501.654	98.31
501.871	71.31
502.088	87.31
502.305	77.31
502.522	87.31
502.739	84.31
502.956	77.31
503.172	82.31
503.389	87.31
503.606	82.31
503.823	94.31
504.04	78.31
504.256	90.31
504.473	89.31
504.69	73.31
504.907	90.31
505.123	86.31
505.34	86.31
505.557	86.31
505.773	88.31
505.99	88.31
506.207	82.31
506.423	96.31
506.64	87.31
506.856	78.31
507.073	85.31
507.289	79.31
507.506	77.31
507.722	80.31
507.939	78.31
508.155	87.31
508.372	83.31
508.588	77.31
508.805	92.31
509.021	77.31
509.238	87.31
509.454	86.31
509.67	88.31
509.887	83.31
510.103	79.31
510.319	88.31
510.536	93.31
510.752	80.31
510.968	86.31
511.184	58.31
511.401	72.31
511.617	92.31
511.833	75.31
512.049	89.31
512.265	79.31
512.481	95.31
512.698	76.31
512.914	85.31
513.13	74.31
513.346	100.31
513.562	72.31
513.778	85.31
513.994	86.31
514.21	82.31
514.426	83.31
514.642	80.31
514.858	85.31
515.074	88.31
515.29	89.31
515.506	71.31
515.721	92.31
515.937	85.31
516.153	88.31
516.369	78.31
516.585	86.31
516.801	82.31
517.016	89.31
517.232	99.31
517.448	83.31
517.664	101.31
517.879	79.31
518.095	71.31
518.311	89.31
518.527	72.31
518.742	70.31
518.958	100.31
519.173	93.31
519.389	88.31
519.605	79.31
519.82	77.31
520.036	80.31
