Data from Dirtheat2_HRD10591_00007.txt Node
Date: Fri Dec 27 15:15:06 EST 2024
User: Yrep
Spectrometer: HR+D1059
Trigger mode: 1
Integration Time (sec): 1.000000E-1
Scans to average: 1
Electric dark correction enabled: true
Nonlinearity correction enabled: false
Boxcar width: 0
XAxis mode: Wavelengths
Number of Pixels in Spectrum: 2048
>>>>>Begin Spectral Data<<<<<
223.165	-9.31
223.4	-9.31
223.635	-9.31
223.869	-29.31
224.104	-21.31
224.338	-17.31
224.573	-8.31
224.808	-21.31
225.042	-25.31
225.277	-11.31
225.511	-5.31
225.746	1.69
225.98	18.69
226.215	14.69
226.449	31.69
226.683	3.69
226.918	31.69
227.152	46.69
227.387	27.69
227.621	41.69
227.856	48.69
228.09	44.69
228.324	44.69
228.559	66.69
228.793	54.69
229.027	58.69
229.262	69.69
229.496	57.69
229.73	64.69
229.964	63.69
230.199	69.69
230.433	64.69
230.667	72.69
230.901	70.69
231.136	70.69
231.37	81.69
231.604	77.69
231.838	91.69
232.072	88.69
232.306	81.69
232.541	70.69
232.775	83.69
233.009	71.69
233.243	86.69
233.477	84.69
233.711	82.69
233.945	71.69
234.179	72.69
234.413	71.69
234.647	86.69
234.881	78.69
235.115	67.69
235.349	81.69
235.583	75.69
235.817	73.69
236.051	73.69
236.285	70.69
236.519	67.69
236.753	76.69
236.987	67.69
237.221	64.69
237.455	72.69
237.689	65.69
237.922	68.69
238.156	80.69
238.39	72.69
238.624	72.69
238.858	70.69
239.091	67.69
239.325	85.69
239.559	73.69
239.793	71.69
240.027	67.69
240.26	78.69
240.494	83.69
240.728	67.69
240.961	80.69
241.195	77.69
241.429	67.69
241.662	84.69
241.896	85.69
242.13	72.69
242.363	82.69
242.597	62.69
242.83	68.69
243.064	85.69
243.298	72.69
243.531	79.69
243.765	78.69
243.998	70.69
244.232	68.69
244.465	75.69
244.699	84.69
244.932	71.69
245.166	79.69
245.399	73.69
245.633	74.69
245.866	77.69
246.099	67.69
246.333	71.69
246.566	65.69
246.8	77.69
247.033	76.69
247.266	68.69
247.5	67.69
247.733	85.69
247.966	69.69
248.2	68.69
248.433	76.69
248.666	68.69
248.899	71.69
249.133	62.69
249.366	75.69
249.599	76.69
249.832	67.69
250.066	56.69
250.299	76.69
250.532	74.69
250.765	80.69
250.998	76.69
251.231	56.69
251.465	84.69
251.698	74.69
251.931	70.69
252.164	68.69
252.397	67.69
252.63	70.69
252.863	64.69
253.096	86.69
253.329	75.69
253.562	67.69
253.795	73.69
254.028	75.69
254.261	91.69
254.494	82.69
254.727	87.69
254.96	65.69
255.193	65.69
255.426	72.69
255.659	72.69
255.892	78.69
256.124	83.69
256.357	73.69
256.59	71.69
256.823	73.69
257.056	69.69
257.289	88.69
257.521	77.69
257.754	80.69
257.987	82.69
258.22	75.69
258.452	68.69
258.685	65.69
258.918	69.69
259.151	78.69
259.383	74.69
259.616	74.69
259.849	70.69
260.081	69.69
260.314	70.69
260.547	78.69
260.779	87.69
261.012	75.69
261.244	76.69
261.477	92.69
261.71	68.69
261.942	77.69
262.175	77.69
262.407	74.69
262.64	74.69
262.872	84.69
263.105	75.69
263.337	67.69
263.57	76.69
263.802	70.69
264.035	82.69
264.267	84.69
264.499	72.69
264.732	72.69
264.964	78.69
265.197	97.69
265.429	69.69
265.661	83.69
265.894	77.69
266.126	79.69
266.358	77.69
266.591	63.69
266.823	81.69
267.055	74.69
267.287	66.69
267.52	92.69
267.752	73.69
267.984	72.69
268.216	69.69
268.448	87.69
268.681	74.69
268.913	76.69
269.145	77.69
269.377	91.69
269.609	79.69
269.841	72.69
270.073	74.69
270.306	70.69
270.538	76.69
270.77	76.69
271.002	90.69
271.234	77.69
271.466	74.69
271.698	75.69
271.93	65.69
272.162	87.69
272.394	66.69
272.626	66.69
272.858	81.69
273.09	91.69
273.322	86.69
273.553	78.69
273.785	80.69
274.017	75.69
274.249	84.69
274.481	78.69
274.713	71.69
274.945	74.69
275.176	74.69
275.408	65.69
275.64	79.69
275.872	85.69
276.104	83.69
276.335	71.69
276.567	84.69
276.799	79.69
277.031	65.69
277.262	81.69
277.494	75.69
277.726	76.69
277.957	65.69
278.189	72.69
278.421	70.69
278.652	67.69
278.884	88.69
279.115	77.69
279.347	90.69
279.579	76.69
279.81	87.69
280.042	87.69
280.273	77.69
280.505	63.69
280.736	73.69
280.968	72.69
281.199	78.69
281.431	77.69
281.662	100.69
281.894	84.69
282.125	80.69
282.356	76.69
282.588	86.69
282.819	66.69
283.051	64.69
283.282	70.69
283.513	82.69
283.745	76.69
283.976	84.69
284.207	89.69
284.439	86.69
284.67	78.69
284.901	88.69
285.132	93.69
285.364	78.69
285.595	89.69
285.826	81.69
286.057	82.69
286.288	90.69
286.52	67.69
286.751	84.69
286.982	77.69
287.213	89.69
287.444	78.69
287.675	76.69
287.906	73.69
288.138	72.69
288.369	85.69
288.6	75.69
288.831	75.69
289.062	89.69
289.293	72.69
289.524	76.69
289.755	87.69
289.986	74.69
290.217	73.69
290.448	77.69
290.679	69.69
290.91	90.69
291.141	80.69
291.371	78.69
291.602	74.69
291.833	75.69
292.064	76.69
292.295	73.69
292.526	86.69
292.757	86.69
292.987	86.69
293.218	74.69
293.449	87.69
293.68	93.69
293.91	79.69
294.141	84.69
294.372	71.69
294.603	80.69
294.833	71.69
295.064	87.69
295.295	79.69
295.525	74.69
295.756	84.69
295.987	78.69
296.217	96.69
296.448	85.69
296.679	66.69
296.909	92.69
297.14	79.69
297.37	83.69
297.601	83.69
297.831	81.69
298.062	77.69
298.292	89.69
298.523	84.69
298.753	76.69
298.984	71.69
299.214	78.69
299.445	83.69
299.675	77.69
299.905	80.69
300.136	73.69
300.366	79.69
300.597	95.69
300.827	85.69
301.057	82.69
301.288	74.69
301.518	83.69
301.748	78.69
301.979	105.69
302.209	90.69
302.439	85.69
302.669	98.69
302.9	78.69
303.13	77.69
303.36	64.69
303.59	76.69
303.82	85.69
304.051	96.69
304.281	75.69
304.511	82.69
304.741	83.69
304.971	79.69
305.201	85.69
305.431	84.69
305.661	80.69
305.891	73.69
306.121	87.69
306.352	81.69
306.582	85.69
306.812	84.69
307.042	81.69
307.272	80.69
307.502	74.69
307.731	85.69
307.961	98.69
308.191	92.69
308.421	72.69
308.651	87.69
308.881	80.69
309.111	68.69
309.341	84.69
309.571	67.69
309.8	84.69
310.03	69.69
310.26	89.69
310.49	78.69
310.72	90.69
310.949	82.69
311.179	78.69
311.409	73.69
311.639	74.69
311.868	78.69
312.098	71.69
312.328	83.69
312.557	98.69
312.787	88.69
313.017	74.69
313.246	74.69
313.476	99.69
313.706	72.69
313.935	83.69
314.165	84.69
314.394	79.69
314.624	76.69
314.853	86.69
315.083	85.69
315.312	71.69
315.542	73.69
315.771	74.69
316.001	100.69
316.23	77.69
316.46	82.69
316.689	93.69
316.919	85.69
317.148	94.69
317.377	78.69
317.607	82.69
317.836	82.69
318.065	88.69
318.295	73.69
318.524	81.69
318.753	78.69
318.983	79.69
319.212	84.69
319.441	81.69
319.67	78.69
319.9	83.69
320.129	64.69
320.358	83.69
320.587	77.69
320.816	95.69
321.046	79.69
321.275	79.69
321.504	73.69
321.733	87.69
321.962	87.69
322.191	90.69
322.42	87.69
322.649	84.69
322.878	86.69
323.108	85.69
323.337	84.69
323.566	73.69
323.795	87.69
324.024	89.69
324.253	79.69
324.482	86.69
324.71	86.69
324.939	75.69
325.168	79.69
325.397	78.69
325.626	74.69
325.855	80.69
326.084	74.69
326.313	84.69
326.542	87.69
326.77	83.69
326.999	89.69
327.228	96.69
327.457	79.69
327.686	79.69
327.914	82.69
328.143	75.69
328.372	78.69
328.6	84.69
328.829	83.69
329.058	86.69
329.287	103.69
329.515	85.69
329.744	81.69
329.972	77.69
330.201	81.69
330.43	86.69
330.658	74.69
330.887	96.69
331.115	89.69
331.344	84.69
331.572	87.69
331.801	85.69
332.03	79.69
332.258	87.69
332.486	88.69
332.715	77.69
332.943	85.69
333.172	80.69
333.4	79.69
333.629	80.69
333.857	88.69
334.085	68.69
334.314	85.69
334.542	80.69
334.771	87.69
334.999	87.69
335.227	84.69
335.455	77.69
335.684	62.69
335.912	77.69
336.14	75.69
336.369	74.69
336.597	70.69
336.825	82.69
337.053	102.69
337.281	90.69
337.51	84.69
337.738	81.69
337.966	79.69
338.194	76.69
338.422	70.69
338.65	83.69
338.878	91.69
339.106	94.69
339.334	80.69
339.562	79.69
339.79	81.69
340.018	87.69
340.246	74.69
340.474	75.69
340.702	86.69
340.93	84.69
341.158	91.69
341.386	78.69
341.614	89.69
341.842	93.69
342.07	77.69
342.298	85.69
342.526	79.69
342.754	79.69
342.981	84.69
343.209	75.69
343.437	98.69
343.665	74.69
343.893	75.69
344.12	78.69
344.348	79.69
344.576	86.69
344.804	76.69
345.031	85.69
345.259	72.69
345.487	87.69
345.714	96.69
345.942	69.69
346.17	71.69
346.397	73.69
346.625	75.69
346.853	92.69
347.08	72.69
347.308	75.69
347.535	82.69
347.763	87.69
347.99	82.69
348.218	89.69
348.445	91.69
348.673	74.69
348.9	90.69
349.128	91.69
349.355	79.69
349.583	82.69
349.81	71.69
350.037	84.69
350.265	67.69
350.492	103.69
350.72	86.69
350.947	86.69
351.174	89.69
351.402	67.69
351.629	92.69
351.856	87.69
352.083	78.69
352.311	85.69
352.538	83.69
352.765	91.69
352.992	99.69
353.22	83.69
353.447	84.69
353.674	73.69
353.901	86.69
354.128	82.69
354.355	76.69
354.583	67.69
354.81	78.69
355.037	90.69
355.264	81.69
355.491	80.69
355.718	77.69
355.945	77.69
356.172	81.69
356.399	85.69
356.626	91.69
356.853	71.69
357.08	82.69
357.307	86.69
357.534	92.69
357.761	79.69
357.988	86.69
358.215	93.69
358.441	80.69
358.668	88.69
358.895	88.69
359.122	77.69
359.349	79.69
359.576	81.69
359.802	84.69
360.029	86.69
360.256	74.69
360.483	74.69
360.709	84.69
360.936	88.69
361.163	88.69
361.39	92.69
361.616	78.69
361.843	91.69
362.07	91.69
362.296	75.69
362.523	86.69
362.749	77.69
362.976	68.69
363.203	77.69
363.429	76.69
363.656	72.69
363.882	79.69
364.109	92.69
364.335	80.69
364.562	87.69
364.788	76.69
365.015	89.69
365.241	81.69
365.468	82.69
365.694	75.69
365.92	82.69
366.147	79.69
366.373	82.69
366.599	78.69
366.826	81.69
367.052	73.69
367.278	84.69
367.505	76.69
367.731	84.69
367.957	82.69
368.184	81.69
368.41	72.69
368.636	78.69
368.862	78.69
369.089	85.69
369.315	81.69
369.541	86.69
369.767	79.69
369.993	79.69
370.219	83.69
370.445	87.69
370.672	71.69
370.898	89.69
371.124	81.69
371.35	90.69
371.576	76.69
371.802	77.69
372.028	84.69
372.254	86.69
372.48	92.69
372.706	72.69
372.932	72.69
373.158	78.69
373.384	93.69
373.61	82.69
373.835	89.69
374.061	84.69
374.287	78.69
374.513	84.69
374.739	75.69
374.965	84.69
375.191	64.69
375.416	68.69
375.642	76.69
375.868	82.69
376.094	69.69
376.319	77.69
376.545	87.69
376.771	85.69
376.997	85.69
377.222	71.69
377.448	85.69
377.674	87.69
377.899	83.69
378.125	80.69
378.35	77.69
378.576	81.69
378.802	87.69
379.027	87.69
379.253	94.69
379.478	89.69
379.704	88.69
379.929	68.69
380.155	87.69
380.38	85.69
380.606	71.69
380.831	92.69
381.057	100.69
381.282	81.69
381.507	85.69
381.733	78.69
381.958	70.69
382.184	65.69
382.409	86.69
382.634	69.69
382.86	83.69
383.085	70.69
383.31	87.69
383.535	85.69
383.761	89.69
383.986	84.69
384.211	86.69
384.436	80.69
384.662	95.69
384.887	90.69
385.112	72.69
385.337	80.69
385.562	76.69
385.787	78.69
386.013	82.69
386.238	88.69
386.463	84.69
386.688	99.69
386.913	93.69
387.138	98.69
387.363	72.69
387.588	88.69
387.813	73.69
388.038	83.69
388.263	59.69
388.488	79.69
388.713	74.69
388.938	78.69
389.163	69.69
389.387	86.69
389.612	94.69
389.837	85.69
390.062	82.69
390.287	79.69
390.512	83.69
390.736	74.69
390.961	85.69
391.186	86.69
391.411	77.69
391.636	86.69
391.86	77.69
392.085	76.69
392.31	86.69
392.534	85.69
392.759	83.69
392.984	89.69
393.208	85.69
393.433	79.69
393.658	93.69
393.882	72.69
394.107	65.69
394.331	80.69
394.556	67.69
394.78	75.69
395.005	79.69
395.229	84.69
395.454	82.69
395.678	80.69
395.903	77.69
396.127	76.69
396.352	93.69
396.576	90.69
396.801	78.69
397.025	96.69
397.249	90.69
397.474	79.69
397.698	80.69
397.922	78.69
398.147	79.69
398.371	85.69
398.595	92.69
398.82	71.69
399.044	88.69
399.268	81.69
399.492	83.69
399.717	93.69
399.941	74.69
400.165	88.69
400.389	79.69
400.613	68.69
400.837	74.69
401.062	82.69
401.286	91.69
401.51	88.69
401.734	76.69
401.958	83.69
402.182	83.69
402.406	64.69
402.63	62.69
402.854	80.69
403.078	77.69
403.302	83.69
403.526	75.69
403.75	77.69
403.974	82.69
404.198	94.69
404.422	77.69
404.645	87.69
404.869	84.69
405.093	81.69
405.317	75.69
405.541	86.69
405.765	78.69
405.988	73.69
406.212	74.69
406.436	85.69
406.66	90.69
406.883	81.69
407.107	79.69
407.331	73.69
407.555	63.69
407.778	83.69
408.002	89.69
408.226	92.69
408.449	91.69
408.673	94.69
408.896	70.69
409.12	76.69
409.344	74.69
409.567	70.69
409.791	78.69
410.014	82.69
410.238	84.69
410.461	83.69
410.685	88.69
410.908	83.69
411.132	90.69
411.355	78.69
411.578	87.69
411.802	73.69
412.025	75.69
412.249	82.69
412.472	71.69
412.695	79.69
412.919	84.69
413.142	72.69
413.365	83.69
413.589	94.69
413.812	74.69
414.035	81.69
414.258	67.69
414.482	79.69
414.705	102.69
414.928	86.69
415.151	79.69
415.374	88.69
415.597	78.69
415.821	86.69
416.044	83.69
416.267	77.69
416.49	74.69
416.713	80.69
416.936	77.69
417.159	72.69
417.382	82.69
417.605	94.69
417.828	85.69
418.051	72.69
418.274	88.69
418.497	75.69
418.72	82.69
418.943	86.69
419.166	82.69
419.389	86.69
419.611	83.69
419.834	79.69
420.057	80.69
420.28	90.69
420.503	76.69
420.726	87.69
420.948	85.69
421.171	75.69
421.394	77.69
421.617	87.69
421.839	78.69
422.062	73.69
422.285	76.69
422.507	83.69
422.73	85.69
422.953	93.69
423.175	86.69
423.398	72.69
423.621	90.69
423.843	83.69
424.066	91.69
424.288	69.69
424.511	93.69
424.733	78.69
424.956	78.69
425.178	89.69
425.401	68.69
425.623	79.69
425.846	74.69
426.068	80.69
426.291	87.69
426.513	86.69
426.735	72.69
426.958	86.69
427.18	79.69
427.402	83.69
427.625	90.69
427.847	85.69
428.069	76.69
428.292	74.69
428.514	79.69
428.736	71.69
428.958	77.69
429.181	62.69
429.403	75.69
429.625	70.69
429.847	81.69
430.069	81.69
430.292	88.69
430.514	81.69
430.736	74.69
430.958	72.69
431.18	82.69
431.402	71.69
431.624	83.69
431.846	86.69
432.068	85.69
432.29	76.69
432.512	80.69
432.734	87.69
432.956	84.69
433.178	75.69
433.4	73.69
433.622	70.69
433.844	85.69
434.066	68.69
434.287	79.69
434.509	72.69
434.731	71.69
434.953	78.69
435.175	67.69
435.397	79.69
435.618	79.69
435.84	95.69
436.062	74.69
436.284	80.69
436.505	91.69
436.727	53.69
436.949	71.69
437.17	82.69
437.392	84.69
437.614	70.69
437.835	79.69
438.057	85.69
438.278	80.69
438.5	75.69
438.721	68.69
438.943	88.69
439.165	73.69
439.386	80.69
439.608	86.69
439.829	77.69
440.05	92.69
440.272	77.69
440.493	68.69
440.715	64.69
440.936	81.69
441.158	91.69
441.379	77.69
441.6	85.69
441.822	86.69
442.043	80.69
442.264	75.69
442.486	77.69
442.707	93.69
442.928	99.69
443.149	77.69
443.371	79.69
443.592	83.69
443.813	75.69
444.034	83.69
444.255	82.69
444.476	69.69
444.698	75.69
444.919	76.69
445.14	147.69
445.361	118.69
445.582	86.69
445.803	82.69
446.024	79.69
446.245	75.69
446.466	78.69
446.687	72.69
446.908	74.69
447.129	93.69
447.35	87.69
447.571	87.69
447.792	81.69
448.013	58.69
448.234	85.69
448.455	80.69
448.675	88.69
448.896	87.69
449.117	83.69
449.338	75.69
449.559	98.69
449.779	74.69
450	75.69
450.221	77.69
450.442	76.69
450.662	77.69
450.883	77.69
451.104	78.69
451.324	76.69
451.545	76.69
451.766	95.69
451.986	83.69
452.207	78.69
452.428	78.69
452.648	77.69
452.869	87.69
453.089	78.69
453.31	71.69
453.53	80.69
453.751	79.69
453.971	86.69
454.192	84.69
454.412	63.69
454.633	68.69
454.853	75.69
455.073	78.69
455.294	77.69
455.514	87.69
455.734	73.69
455.955	76.69
456.175	87.69
456.395	76.69
456.616	87.69
456.836	74.69
457.056	84.69
457.276	87.69
457.497	81.69
457.717	74.69
457.937	87.69
458.157	85.69
458.377	73.69
458.598	76.69
458.818	70.69
459.038	82.69
459.258	84.69
459.478	69.69
459.698	67.69
459.918	87.69
460.138	75.69
460.358	85.69
460.578	84.69
460.798	79.69
461.018	89.69
461.238	74.69
461.458	83.69
461.678	84.69
461.898	90.69
462.118	73.69
462.338	82.69
462.558	87.69
462.777	69.69
462.997	77.69
463.217	75.69
463.437	80.69
463.657	82.69
463.876	80.69
464.096	72.69
464.316	75.69
464.536	83.69
464.755	76.69
464.975	85.69
465.195	85.69
465.414	75.69
465.634	74.69
465.854	87.69
466.073	73.69
466.293	78.69
466.512	86.69
466.732	87.69
466.951	62.69
467.171	96.69
467.391	82.69
467.61	84.69
467.829	74.69
468.049	75.69
468.268	85.69
468.488	83.69
468.707	78.69
468.927	72.69
469.146	57.69
469.365	68.69
469.585	77.69
469.804	89.69
470.023	71.69
470.243	84.69
470.462	86.69
470.681	76.69
470.901	80.69
471.12	70.69
471.339	84.69
471.558	77.69
471.777	88.69
471.997	84.69
472.216	75.69
472.435	64.69
472.654	87.69
472.873	80.69
473.092	80.69
473.311	91.69
473.53	84.69
473.749	79.69
473.968	86.69
474.187	86.69
474.406	88.69
474.625	71.69
474.844	85.69
475.063	66.69
475.282	74.69
475.501	82.69
475.72	92.69
475.939	81.69
476.158	68.69
476.377	84.69
476.596	81.69
476.814	70.69
477.033	78.69
477.252	87.69
477.471	83.69
477.69	68.69
477.908	82.69
478.127	81.69
478.346	78.69
478.564	87.69
478.783	84.69
479.002	84.69
479.22	61.69
479.439	75.69
479.658	79.69
479.876	71.69
480.095	72.69
480.313	75.69
480.532	70.69
480.751	82.69
480.969	81.69
481.188	83.69
481.406	83.69
481.624	94.69
481.843	90.69
482.061	93.69
482.28	67.69
482.498	84.69
482.717	85.69
482.935	79.69
483.153	89.69
483.372	83.69
483.59	74.69
483.808	47.69
484.027	80.69
484.245	83.69
484.463	70.69
484.681	84.69
484.9	79.69
485.118	88.69
485.336	69.69
485.554	94.69
485.772	75.69
485.99	88.69
486.209	88.69
486.427	88.69
486.645	90.69
486.863	79.69
487.081	95.69
487.299	84.69
487.517	83.69
487.735	76.69
487.953	89.69
488.171	80.69
488.389	70.69
488.607	74.69
488.825	92.69
489.043	80.69
489.261	82.69
489.479	87.69
489.696	78.69
489.914	87.69
490.132	80.69
490.35	80.69
490.568	75.69
490.786	87.69
491.003	84.69
491.221	75.69
491.439	79.69
491.657	76.69
491.874	79.69
492.092	76.69
492.31	76.69
492.527	96.69
492.745	79.69
492.963	79.69
493.18	79.69
493.398	69.69
493.615	74.69
493.833	83.69
494.05	70.69
494.268	64.69
494.485	80.69
494.703	88.69
494.92	83.69
495.138	67.69
495.355	68.69
495.573	83.69
495.79	74.69
496.008	76.69
496.225	89.69
496.442	97.69
496.66	72.69
496.877	83.69
497.094	90.69
497.312	84.69
497.529	69.69
497.746	76.69
497.963	68.69
498.181	62.69
498.398	70.69
498.615	74.69
498.832	68.69
499.049	87.69
499.267	86.69
499.484	70.69
499.701	82.69
499.918	82.69
500.135	86.69
500.352	77.69
500.569	73.69
500.786	78.69
501.003	75.69
501.22	88.69
501.437	72.69
501.654	83.69
501.871	78.69
502.088	76.69
502.305	84.69
502.522	78.69
502.739	75.69
502.956	87.69
503.172	76.69
503.389	71.69
503.606	74.69
503.823	80.69
504.04	85.69
504.256	86.69
504.473	91.69
504.69	85.69
504.907	75.69
505.123	68.69
505.34	86.69
505.557	82.69
505.773	88.69
505.99	67.69
506.207	70.69
506.423	67.69
506.64	78.69
506.856	80.69
507.073	74.69
507.289	70.69
507.506	80.69
507.722	93.69
507.939	87.69
508.155	75.69
508.372	85.69
508.588	90.69
508.805	85.69
509.021	83.69
509.238	81.69
509.454	82.69
509.67	69.69
509.887	77.69
510.103	73.69
510.319	80.69
510.536	76.69
510.752	71.69
510.968	70.69
511.184	87.69
511.401	87.69
511.617	85.69
511.833	72.69
512.049	80.69
512.265	86.69
512.481	62.69
512.698	78.69
512.914	81.69
513.13	77.69
513.346	79.69
513.562	78.69
513.778	83.69
513.994	76.69
514.21	81.69
514.426	71.69
514.642	78.69
514.858	80.69
515.074	87.69
515.29	91.69
515.506	89.69
515.721	85.69
515.937	93.69
516.153	71.69
516.369	83.69
516.585	76.69
516.801	83.69
517.016	74.69
517.232	78.69
517.448	79.69
517.664	77.69
517.879	85.69
518.095	83.69
518.311	80.69
518.527	74.69
518.742	76.69
518.958	92.69
519.173	74.69
519.389	77.69
519.605	77.69
519.82	77.69
520.036	78.69
520.251	79.69
