Data from Dirtheat2_HRD10591_00019.txt Node
Date: Fri Dec 27 15:15:18 EST 2024
User: Yrep
Spectrometer: HR+D1059
Trigger mode: 1
Integration Time (sec): 1.000000E-1
Scans to average: 1
Electric dark correction enabled: true
Nonlinearity correction enabled: false
Boxcar width: 0
XAxis mode: Wavelengths
Number of Pixels in Spectrum: 2048
>>>>>Begin Spectral Data<<<<<
223.165	-38.31
223.4	-38.31
223.635	-38.31
223.869	-14.31
224.104	-14.31
224.338	-22.31
224.573	-20.31
224.808	-12.31
225.042	0.69
225.277	2.69
225.511	-4.31
225.746	11.69
225.98	3.69
226.215	0.69
226.449	23.69
226.683	16.69
226.918	39.69
227.152	26.69
227.387	33.69
227.621	30.69
227.856	52.69
228.09	48.69
228.324	45.69
228.559	47.69
228.793	63.69
229.027	68.69
229.262	50.69
229.496	61.69
229.73	64.69
229.964	66.69
230.199	78.69
230.433	70.69
230.667	86.69
230.901	74.69
231.136	69.69
231.37	82.69
231.604	64.69
231.838	68.69
232.072	93.69
232.306	78.69
232.541	79.69
232.775	76.69
233.009	81.69
233.243	89.69
233.477	82.69
233.711	71.69
233.945	84.69
234.179	81.69
234.413	94.69
234.647	93.69
234.881	89.69
235.115	89.69
235.349	86.69
235.583	93.69
235.817	71.69
236.051	85.69
236.285	88.69
236.519	71.69
236.753	81.69
236.987	82.69
237.221	86.69
237.455	79.69
237.689	82.69
237.922	75.69
238.156	89.69
238.39	71.69
238.624	85.69
238.858	76.69
239.091	63.69
239.325	64.69
239.559	82.69
239.793	68.69
240.027	88.69
240.26	84.69
240.494	69.69
240.728	70.69
240.961	85.69
241.195	78.69
241.429	69.69
241.662	73.69
241.896	81.69
242.13	74.69
242.363	59.69
242.597	65.69
242.83	64.69
243.064	69.69
243.298	75.69
243.531	82.69
243.765	87.69
243.998	93.69
244.232	72.69
244.465	87.69
244.699	70.69
244.932	62.69
245.166	59.69
245.399	66.69
245.633	76.69
245.866	92.69
246.099	74.69
246.333	89.69
246.566	82.69
246.8	78.69
247.033	75.69
247.266	73.69
247.5	74.69
247.733	73.69
247.966	61.69
248.2	68.69
248.433	84.69
248.666	81.69
248.899	81.69
249.133	80.69
249.366	73.69
249.599	86.69
249.832	80.69
250.066	88.69
250.299	81.69
250.532	69.69
250.765	81.69
250.998	83.69
251.231	74.69
251.465	63.69
251.698	73.69
251.931	69.69
252.164	76.69
252.397	71.69
252.63	78.69
252.863	74.69
253.096	84.69
253.329	77.69
253.562	78.69
253.795	89.69
254.028	87.69
254.261	85.69
254.494	94.69
254.727	78.69
254.96	79.69
255.193	75.69
255.426	86.69
255.659	83.69
255.892	80.69
256.124	72.69
256.357	70.69
256.59	79.69
256.823	84.69
257.056	75.69
257.289	80.69
257.521	80.69
257.754	76.69
257.987	75.69
258.22	86.69
258.452	87.69
258.685	93.69
258.918	77.69
259.151	91.69
259.383	86.69
259.616	72.69
259.849	83.69
260.081	63.69
260.314	74.69
260.547	81.69
260.779	86.69
261.012	83.69
261.244	77.69
261.477	77.69
261.71	81.69
261.942	69.69
262.175	83.69
262.407	55.69
262.64	76.69
262.872	75.69
263.105	88.69
263.337	93.69
263.57	70.69
263.802	71.69
264.035	79.69
264.267	71.69
264.499	99.69
264.732	85.69
264.964	89.69
265.197	96.69
265.429	95.69
265.661	84.69
265.894	79.69
266.126	84.69
266.358	95.69
266.591	86.69
266.823	85.69
267.055	93.69
267.287	93.69
267.52	87.69
267.752	86.69
267.984	63.69
268.216	99.69
268.448	89.69
268.681	85.69
268.913	87.69
269.145	75.69
269.377	82.69
269.609	91.69
269.841	88.69
270.073	84.69
270.306	93.69
270.538	94.69
270.77	80.69
271.002	87.69
271.234	88.69
271.466	70.69
271.698	80.69
271.93	68.69
272.162	87.69
272.394	76.69
272.626	80.69
272.858	85.69
273.09	72.69
273.322	89.69
273.553	91.69
273.785	85.69
274.017	72.69
274.249	75.69
274.481	84.69
274.713	80.69
274.945	82.69
275.176	85.69
275.408	75.69
275.64	81.69
275.872	83.69
276.104	70.69
276.335	75.69
276.567	78.69
276.799	80.69
277.031	88.69
277.262	85.69
277.494	71.69
277.726	83.69
277.957	71.69
278.189	82.69
278.421	85.69
278.652	67.69
278.884	98.69
279.115	90.69
279.347	83.69
279.579	91.69
279.81	74.69
280.042	66.69
280.273	82.69
280.505	89.69
280.736	80.69
280.968	84.69
281.199	81.69
281.431	78.69
281.662	81.69
281.894	83.69
282.125	94.69
282.356	86.69
282.588	81.69
282.819	85.69
283.051	71.69
283.282	89.69
283.513	94.69
283.745	77.69
283.976	79.69
284.207	74.69
284.439	84.69
284.67	85.69
284.901	81.69
285.132	82.69
285.364	95.69
285.595	80.69
285.826	82.69
286.057	102.69
286.288	79.69
286.52	84.69
286.751	69.69
286.982	80.69
287.213	85.69
287.444	96.69
287.675	85.69
287.906	91.69
288.138	74.69
288.369	84.69
288.6	87.69
288.831	75.69
289.062	78.69
289.293	83.69
289.524	69.69
289.755	103.69
289.986	85.69
290.217	92.69
290.448	96.69
290.679	78.69
290.91	93.69
291.141	86.69
291.371	73.69
291.602	81.69
291.833	84.69
292.064	77.69
292.295	80.69
292.526	84.69
292.757	80.69
292.987	88.69
293.218	87.69
293.449	86.69
293.68	82.69
293.91	79.69
294.141	84.69
294.372	83.69
294.603	81.69
294.833	72.69
295.064	90.69
295.295	85.69
295.525	95.69
295.756	96.69
295.987	85.69
296.217	85.69
296.448	101.69
296.679	78.69
296.909	85.69
297.14	79.69
297.37	86.69
297.601	82.69
297.831	102.69
298.062	78.69
298.292	86.69
298.523	87.69
298.753	78.69
298.984	91.69
299.214	85.69
299.445	88.69
299.675	77.69
299.905	96.69
300.136	91.69
300.366	79.69
300.597	77.69
300.827	76.69
301.057	86.69
301.288	72.69
301.518	74.69
301.748	80.69
301.979	99.69
302.209	90.69
302.439	90.69
302.669	90.69
302.9	72.69
303.13	89.69
303.36	66.69
303.59	87.69
303.82	84.69
304.051	83.69
304.281	87.69
304.511	92.69
304.741	83.69
304.971	85.69
305.201	97.69
305.431	92.69
305.661	85.69
305.891	72.69
306.121	77.69
306.352	89.69
306.582	79.69
306.812	79.69
307.042	70.69
307.272	80.69
307.502	77.69
307.731	81.69
307.961	86.69
308.191	87.69
308.421	96.69
308.651	85.69
308.881	69.69
309.111	73.69
309.341	94.69
309.571	87.69
309.8	86.69
310.03	82.69
310.26	100.69
310.49	82.69
310.72	70.69
310.949	88.69
311.179	72.69
311.409	80.69
311.639	99.69
311.868	87.69
312.098	80.69
312.328	81.69
312.557	89.69
312.787	87.69
313.017	79.69
313.246	100.69
313.476	86.69
313.706	86.69
313.935	86.69
314.165	86.69
314.394	82.69
314.624	83.69
314.853	91.69
315.083	94.69
315.312	78.69
315.542	77.69
315.771	80.69
316.001	80.69
316.23	86.69
316.46	73.69
316.689	77.69
316.919	100.69
317.148	79.69
317.377	98.69
317.607	94.69
317.836	83.69
318.065	81.69
318.295	81.69
318.524	79.69
318.753	89.69
318.983	82.69
319.212	85.69
319.441	88.69
319.67	90.69
319.9	84.69
320.129	76.69
320.358	84.69
320.587	79.69
320.816	87.69
321.046	84.69
321.275	84.69
321.504	87.69
321.733	89.69
321.962	84.69
322.191	87.69
322.42	90.69
322.649	88.69
322.878	71.69
323.108	83.69
323.337	89.69
323.566	88.69
323.795	87.69
324.024	87.69
324.253	84.69
324.482	92.69
324.71	80.69
324.939	91.69
325.168	87.69
325.397	90.69
325.626	63.69
325.855	82.69
326.084	87.69
326.313	84.69
326.542	92.69
326.77	84.69
326.999	86.69
327.228	96.69
327.457	91.69
327.686	85.69
327.914	84.69
328.143	100.69
328.372	79.69
328.6	83.69
328.829	91.69
329.058	102.69
329.287	99.69
329.515	87.69
329.744	76.69
329.972	74.69
330.201	105.69
330.43	88.69
330.658	94.69
330.887	90.69
331.115	84.69
331.344	80.69
331.572	88.69
331.801	78.69
332.03	83.69
332.258	84.69
332.486	90.69
332.715	79.69
332.943	83.69
333.172	87.69
333.4	73.69
333.629	95.69
333.857	91.69
334.085	71.69
334.314	80.69
334.542	90.69
334.771	85.69
334.999	84.69
335.227	72.69
335.455	96.69
335.684	96.69
335.912	87.69
336.14	78.69
336.369	80.69
336.597	94.69
336.825	89.69
337.053	78.69
337.281	88.69
337.51	73.69
337.738	77.69
337.966	59.69
338.194	87.69
338.422	84.69
338.65	87.69
338.878	95.69
339.106	85.69
339.334	108.69
339.562	88.69
339.79	74.69
340.018	89.69
340.246	78.69
340.474	78.69
340.702	79.69
340.93	87.69
341.158	88.69
341.386	78.69
341.614	70.69
341.842	86.69
342.07	92.69
342.298	90.69
342.526	86.69
342.754	93.69
342.981	85.69
343.209	88.69
343.437	99.69
343.665	73.69
343.893	81.69
344.12	89.69
344.348	85.69
344.576	78.69
344.804	84.69
345.031	81.69
345.259	93.69
345.487	80.69
345.714	90.69
345.942	86.69
346.17	88.69
346.397	87.69
346.625	108.69
346.853	74.69
347.08	94.69
347.308	95.69
347.535	96.69
347.763	83.69
347.99	81.69
348.218	86.69
348.445	77.69
348.673	92.69
348.9	86.69
349.128	92.69
349.355	84.69
349.583	82.69
349.81	74.69
350.037	86.69
350.265	89.69
350.492	88.69
350.72	83.69
350.947	73.69
351.174	97.69
351.402	70.69
351.629	70.69
351.856	62.69
352.083	88.69
352.311	75.69
352.538	70.69
352.765	78.69
352.992	87.69
353.22	89.69
353.447	89.69
353.674	82.69
353.901	85.69
354.128	93.69
354.355	71.69
354.583	80.69
354.81	82.69
355.037	72.69
355.264	75.69
355.491	93.69
355.718	85.69
355.945	84.69
356.172	85.69
356.399	83.69
356.626	102.69
356.853	80.69
357.08	88.69
357.307	88.69
357.534	79.69
357.761	86.69
357.988	95.69
358.215	76.69
358.441	87.69
358.668	88.69
358.895	82.69
359.122	84.69
359.349	81.69
359.576	90.69
359.802	64.69
360.029	86.69
360.256	87.69
360.483	99.69
360.709	87.69
360.936	101.69
361.163	83.69
361.39	75.69
361.616	79.69
361.843	83.69
362.07	83.69
362.296	89.69
362.523	88.69
362.749	81.69
362.976	96.69
363.203	94.69
363.429	83.69
363.656	101.69
363.882	80.69
364.109	94.69
364.335	99.69
364.562	94.69
364.788	85.69
365.015	99.69
365.241	77.69
365.468	95.69
365.694	95.69
365.92	84.69
366.147	81.69
366.373	71.69
366.599	93.69
366.826	85.69
367.052	79.69
367.278	91.69
367.505	78.69
367.731	89.69
367.957	89.69
368.184	86.69
368.41	87.69
368.636	85.69
368.862	95.69
369.089	79.69
369.315	91.69
369.541	77.69
369.767	97.69
369.993	71.69
370.219	72.69
370.445	84.69
370.672	76.69
370.898	74.69
371.124	87.69
371.35	77.69
371.576	71.69
371.802	73.69
372.028	76.69
372.254	87.69
372.48	84.69
372.706	87.69
372.932	90.69
373.158	87.69
373.384	78.69
373.61	85.69
373.835	83.69
374.061	80.69
374.287	81.69
374.513	81.69
374.739	84.69
374.965	94.69
375.191	90.69
375.416	78.69
375.642	79.69
375.868	90.69
376.094	75.69
376.319	84.69
376.545	88.69
376.771	77.69
376.997	83.69
377.222	81.69
377.448	86.69
377.674	84.69
377.899	85.69
378.125	82.69
378.35	85.69
378.576	73.69
378.802	97.69
379.027	92.69
379.253	95.69
379.478	99.69
379.704	85.69
379.929	78.69
380.155	96.69
380.38	99.69
380.606	85.69
380.831	79.69
381.057	80.69
381.282	79.69
381.507	106.69
381.733	104.69
381.958	92.69
382.184	91.69
382.409	82.69
382.634	85.69
382.86	97.69
383.085	87.69
383.31	91.69
383.535	92.69
383.761	72.69
383.986	79.69
384.211	74.69
384.436	91.69
384.662	81.69
384.887	85.69
385.112	86.69
385.337	77.69
385.562	83.69
385.787	86.69
386.013	99.69
386.238	85.69
386.463	77.69
386.688	87.69
386.913	92.69
387.138	93.69
387.363	88.69
387.588	96.69
387.813	92.69
388.038	100.69
388.263	82.69
388.488	79.69
388.713	75.69
388.938	74.69
389.163	74.69
389.387	81.69
389.612	88.69
389.837	93.69
390.062	96.69
390.287	86.69
390.512	85.69
390.736	79.69
390.961	72.69
391.186	84.69
391.411	70.69
391.636	88.69
391.86	84.69
392.085	93.69
392.31	87.69
392.534	74.69
392.759	76.69
392.984	84.69
393.208	113.69
393.433	124.69
393.658	90.69
393.882	94.69
394.107	76.69
394.331	89.69
394.556	92.69
394.78	83.69
395.005	84.69
395.229	77.69
395.454	68.69
395.678	85.69
395.903	103.69
396.127	95.69
396.352	98.69
396.576	99.69
396.801	111.69
397.025	104.69
397.249	100.69
397.474	89.69
397.698	77.69
397.922	93.69
398.147	85.69
398.371	93.69
398.595	80.69
398.82	69.69
399.044	84.69
399.268	86.69
399.492	78.69
399.717	81.69
399.941	76.69
400.165	80.69
400.389	77.69
400.613	75.69
400.837	84.69
401.062	90.69
401.286	82.69
401.51	86.69
401.734	87.69
401.958	81.69
402.182	74.69
402.406	101.69
402.63	84.69
402.854	69.69
403.078	85.69
403.302	84.69
403.526	89.69
403.75	93.69
403.974	86.69
404.198	73.69
404.422	86.69
404.645	73.69
404.869	72.69
405.093	86.69
405.317	75.69
405.541	70.69
405.765	100.69
405.988	74.69
406.212	82.69
406.436	81.69
406.66	78.69
406.883	93.69
407.107	93.69
407.331	81.69
407.555	82.69
407.778	91.69
408.002	95.69
408.226	69.69
408.449	53.69
408.673	87.69
408.896	87.69
409.12	77.69
409.344	87.69
409.567	115.69
409.791	73.69
410.014	83.69
410.238	82.69
410.461	71.69
410.685	71.69
410.908	77.69
411.132	90.69
411.355	77.69
411.578	76.69
411.802	85.69
412.025	66.69
412.249	76.69
412.472	71.69
412.695	83.69
412.919	83.69
413.142	80.69
413.365	75.69
413.589	94.69
413.812	85.69
414.035	80.69
414.258	88.69
414.482	74.69
414.705	80.69
414.928	72.69
415.151	73.69
415.374	71.69
415.597	80.69
415.821	94.69
416.044	75.69
416.267	83.69
416.49	76.69
416.713	87.69
416.936	79.69
417.159	72.69
417.382	89.69
417.605	81.69
417.828	80.69
418.051	72.69
418.274	96.69
418.497	77.69
418.72	81.69
418.943	89.69
419.166	87.69
419.389	87.69
419.611	74.69
419.834	78.69
420.057	95.69
420.28	86.69
420.503	71.69
420.726	69.69
420.948	79.69
421.171	70.69
421.394	86.69
421.617	77.69
421.839	100.69
422.062	87.69
422.285	92.69
422.507	107.69
422.73	113.69
422.953	108.69
423.175	79.69
423.398	98.69
423.621	93.69
423.843	82.69
424.066	104.69
424.288	91.69
424.511	86.69
424.733	78.69
424.956	87.69
425.178	75.69
425.401	67.69
425.623	82.69
425.846	73.69
426.068	88.69
426.291	81.69
426.513	83.69
426.735	75.69
426.958	72.69
427.18	90.69
427.402	83.69
427.625	81.69
427.847	86.69
428.069	95.69
428.292	72.69
428.514	85.69
428.736	80.69
428.958	79.69
429.181	75.69
429.403	71.69
429.625	82.69
429.847	99.69
430.069	99.69
430.292	99.69
430.514	97.69
430.736	96.69
430.958	88.69
431.18	82.69
431.402	83.69
431.624	92.69
431.846	89.69
432.068	84.69
432.29	77.69
432.512	86.69
432.734	83.69
432.956	88.69
433.178	91.69
433.4	86.69
433.622	87.69
433.844	82.69
434.066	75.69
434.287	84.69
434.509	75.69
434.731	79.69
434.953	85.69
435.175	86.69
435.397	84.69
435.618	86.69
435.84	90.69
436.062	79.69
436.284	89.69
436.505	77.69
436.727	75.69
436.949	85.69
437.17	92.69
437.392	76.69
437.614	85.69
437.835	92.69
438.057	80.69
438.278	81.69
438.5	84.69
438.721	87.69
438.943	73.69
439.165	80.69
439.386	94.69
439.608	92.69
439.829	93.69
440.05	72.69
440.272	80.69
440.493	101.69
440.715	71.69
440.936	102.69
441.158	84.69
441.379	85.69
441.6	88.69
441.822	88.69
442.043	80.69
442.264	93.69
442.486	96.69
442.707	92.69
442.928	86.69
443.149	96.69
443.371	103.69
443.592	106.69
443.813	102.69
444.034	83.69
444.255	90.69
444.476	87.69
444.698	94.69
444.919	84.69
445.14	144.69
445.361	113.69
445.582	121.69
445.803	115.69
446.024	102.69
446.245	83.69
446.466	76.69
446.687	77.69
446.908	77.69
447.129	92.69
447.35	87.69
447.571	81.69
447.792	60.69
448.013	91.69
448.234	94.69
448.455	86.69
448.675	80.69
448.896	79.69
449.117	80.69
449.338	80.69
449.559	82.69
449.779	75.69
450	75.69
450.221	74.69
450.442	89.69
450.662	84.69
450.883	86.69
451.104	90.69
451.324	84.69
451.545	70.69
451.766	95.69
451.986	83.69
452.207	85.69
452.428	82.69
452.648	72.69
452.869	88.69
453.089	89.69
453.31	94.69
453.53	82.69
453.751	85.69
453.971	76.69
454.192	69.69
454.412	86.69
454.633	87.69
454.853	74.69
455.073	83.69
455.294	71.69
455.514	77.69
455.734	85.69
455.955	85.69
456.175	77.69
456.395	80.69
456.616	84.69
456.836	86.69
457.056	88.69
457.276	78.69
457.497	79.69
457.717	86.69
457.937	83.69
458.157	93.69
458.377	84.69
458.598	80.69
458.818	94.69
459.038	67.69
459.258	71.69
459.478	78.69
459.698	79.69
459.918	86.69
460.138	81.69
460.358	90.69
460.578	88.69
460.798	88.69
461.018	69.69
461.238	73.69
461.458	95.69
461.678	85.69
461.898	102.69
462.118	76.69
462.338	85.69
462.558	92.69
462.777	76.69
462.997	72.69
463.217	70.69
463.437	81.69
463.657	79.69
463.876	76.69
464.096	85.69
464.316	77.69
464.536	96.69
464.755	88.69
464.975	82.69
465.195	98.69
465.414	90.69
465.634	80.69
465.854	88.69
466.073	80.69
466.293	67.69
466.512	69.69
466.732	67.69
466.951	73.69
467.171	69.69
467.391	75.69
467.61	84.69
467.829	70.69
468.049	92.69
468.268	80.69
468.488	81.69
468.707	85.69
468.927	90.69
469.146	96.69
469.365	87.69
469.585	83.69
469.804	89.69
470.023	73.69
470.243	81.69
470.462	93.69
470.681	86.69
470.901	89.69
471.12	82.69
471.339	86.69
471.558	89.69
471.777	82.69
471.997	83.69
472.216	83.69
472.435	79.69
472.654	87.69
472.873	85.69
473.092	84.69
473.311	77.69
473.53	85.69
473.749	80.69
473.968	82.69
474.187	84.69
474.406	70.69
474.625	86.69
474.844	76.69
475.063	91.69
475.282	76.69
475.501	87.69
475.72	99.69
475.939	85.69
476.158	83.69
476.377	80.69
476.596	78.69
476.814	87.69
477.033	72.69
477.252	81.69
477.471	84.69
477.69	76.69
477.908	80.69
478.127	93.69
478.346	81.69
478.564	70.69
478.783	81.69
479.002	87.69
479.22	85.69
479.439	88.69
479.658	78.69
479.876	90.69
480.095	77.69
480.313	91.69
480.532	90.69
480.751	81.69
480.969	66.69
481.188	73.69
481.406	87.69
481.624	85.69
481.843	92.69
482.061	77.69
482.28	83.69
482.498	87.69
482.717	77.69
482.935	81.69
483.153	91.69
483.372	91.69
483.59	92.69
483.808	79.69
484.027	72.69
484.245	81.69
484.463	89.69
484.681	85.69
484.9	91.69
485.118	84.69
485.336	81.69
485.554	88.69
485.772	90.69
485.99	84.69
486.209	88.69
486.427	65.69
486.645	86.69
486.863	74.69
487.081	76.69
487.299	76.69
487.517	86.69
487.735	87.69
487.953	103.69
488.171	86.69
488.389	85.69
488.607	82.69
488.825	93.69
489.043	82.69
489.261	102.69
489.479	78.69
489.696	89.69
489.914	83.69
490.132	89.69
490.35	80.69
490.568	99.69
490.786	83.69
491.003	88.69
491.221	83.69
491.439	93.69
491.657	88.69
491.874	85.69
492.092	91.69
492.31	100.69
492.527	71.69
492.745	75.69
492.963	79.69
493.18	77.69
493.398	83.69
493.615	79.69
493.833	81.69
494.05	88.69
494.268	80.69
494.485	91.69
494.703	87.69
494.92	79.69
495.138	80.69
495.355	74.69
495.573	80.69
495.79	89.69
496.008	90.69
496.225	92.69
496.442	86.69
496.66	96.69
496.877	73.69
497.094	80.69
497.312	83.69
497.529	77.69
497.746	83.69
497.963	94.69
498.181	74.69
498.398	85.69
498.615	83.69
498.832	78.69
499.049	82.69
499.267	85.69
499.484	64.69
499.701	79.69
499.918	88.69
500.135	76.69
500.352	95.69
500.569	83.69
500.786	99.69
501.003	78.69
501.22	87.69
501.437	93.69
501.654	79.69
501.871	92.69
502.088	84.69
502.305	91.69
502.522	88.69
502.739	94.69
502.956	95.69
503.172	83.69
503.389	80.69
503.606	84.69
503.823	83.69
504.04	101.69
504.256	101.69
504.473	102.69
504.69	102.69
504.907	90.69
505.123	91.69
505.34	84.69
505.557	76.69
505.773	79.69
505.99	82.69
506.207	91.69
506.423	88.69
506.64	90.69
506.856	75.69
507.073	84.69
507.289	74.69
507.506	94.69
507.722	90.69
507.939	78.69
508.155	95.69
508.372	87.69
508.588	90.69
508.805	88.69
509.021	79.69
509.238	94.69
509.454	80.69
509.67	90.69
509.887	91.69
510.103	91.69
510.319	88.69
510.536	84.69
510.752	96.69
510.968	83.69
511.184	74.69
511.401	78.69
511.617	96.69
511.833	92.69
512.049	84.69
512.265	96.69
512.481	103.69
512.698	83.69
512.914	99.69
513.13	88.69
513.346	88.69
513.562	85.69
513.778	68.69
513.994	88.69
514.21	86.69
514.426	85.69
514.642	94.69
514.858	95.69
515.074	81.69
515.29	81.69
515.506	98.69
515.721	89.69
515.937	97.69
516.153	94.69
516.369	74.69
516.585	89.69
516.801	80.69
517.016	93.69
517.232	91.69
517.448	89.69
517.664	87.69
517.879	73.69
518.095	87.69
518.311	80.69
518.527	94.69
518.742	92.69
518.958	91.69
519.173	99.69
519.389	87.69
519.605	84.69
