Data from Dirtheat2_HRD10591_00014.txt Node
Date: Fri Dec 27 15:15:13 EST 2024
User: Yrep
Spectrometer: HR+D1059
Trigger mode: 1
Integration Time (sec): 1.000000E-1
Scans to average: 1
Electric dark correction enabled: true
Nonlinearity correction enabled: false
Boxcar width: 0
XAxis mode: Wavelengths
Number of Pixels in Spectrum: 2048
>>>>>Begin Spectral Data<<<<<
223.165	-7.88
223.4	-7.88
223.635	-7.88
223.869	-24.88
224.104	-14.88
224.338	-11.88
224.573	-18.88
224.808	-6.88
225.042	-7.88
225.277	-3.88
225.511	1.12
225.746	3.12
225.98	6.12
226.215	6.12
226.449	16.12
226.683	16.12
226.918	21.12
227.152	27.12
227.387	32.12
227.621	39.12
227.856	47.12
228.09	38.12
228.324	55.12
228.559	62.12
228.793	41.12
229.027	40.12
229.262	58.12
229.496	72.12
229.73	77.12
229.964	75.12
230.199	66.12
230.433	77.12
230.667	70.12
230.901	100.12
231.136	89.12
231.37	78.12
231.604	75.12
231.838	87.12
232.072	96.12
232.306	80.12
232.541	94.12
232.775	76.12
233.009	85.12
233.243	78.12
233.477	66.12
233.711	73.12
233.945	62.12
234.179	80.12
234.413	68.12
234.647	78.12
234.881	76.12
235.115	84.12
235.349	77.12
235.583	82.12
235.817	87.12
236.051	80.12
236.285	75.12
236.519	80.12
236.753	71.12
236.987	76.12
237.221	64.12
237.455	79.12
237.689	69.12
237.922	74.12
238.156	65.12
238.39	75.12
238.624	74.12
238.858	71.12
239.091	67.12
239.325	80.12
239.559	75.12
239.793	77.12
240.027	69.12
240.26	77.12
240.494	79.12
240.728	80.12
240.961	88.12
241.195	77.12
241.429	73.12
241.662	73.12
241.896	86.12
242.13	74.12
242.363	76.12
242.597	53.12
242.83	74.12
243.064	61.12
243.298	85.12
243.531	74.12
243.765	68.12
243.998	74.12
244.232	91.12
244.465	93.12
244.699	81.12
244.932	79.12
245.166	68.12
245.399	86.12
245.633	64.12
245.866	93.12
246.099	71.12
246.333	82.12
246.566	64.12
246.8	72.12
247.033	84.12
247.266	75.12
247.5	90.12
247.733	79.12
247.966	79.12
248.2	77.12
248.433	75.12
248.666	77.12
248.899	79.12
249.133	78.12
249.366	79.12
249.599	76.12
249.832	78.12
250.066	92.12
250.299	72.12
250.532	78.12
250.765	76.12
250.998	64.12
251.231	68.12
251.465	81.12
251.698	74.12
251.931	96.12
252.164	72.12
252.397	71.12
252.63	72.12
252.863	76.12
253.096	68.12
253.329	78.12
253.562	75.12
253.795	80.12
254.028	77.12
254.261	87.12
254.494	81.12
254.727	75.12
254.96	68.12
255.193	73.12
255.426	76.12
255.659	72.12
255.892	86.12
256.124	83.12
256.357	91.12
256.59	76.12
256.823	83.12
257.056	80.12
257.289	82.12
257.521	80.12
257.754	85.12
257.987	74.12
258.22	91.12
258.452	89.12
258.685	74.12
258.918	76.12
259.151	80.12
259.383	92.12
259.616	63.12
259.849	85.12
260.081	79.12
260.314	77.12
260.547	92.12
260.779	83.12
261.012	82.12
261.244	76.12
261.477	73.12
261.71	63.12
261.942	77.12
262.175	76.12
262.407	84.12
262.64	73.12
262.872	73.12
263.105	82.12
263.337	70.12
263.57	75.12
263.802	85.12
264.035	73.12
264.267	76.12
264.499	88.12
264.732	85.12
264.964	72.12
265.197	76.12
265.429	84.12
265.661	76.12
265.894	78.12
266.126	71.12
266.358	75.12
266.591	90.12
266.823	73.12
267.055	82.12
267.287	71.12
267.52	75.12
267.752	86.12
267.984	84.12
268.216	72.12
268.448	80.12
268.681	70.12
268.913	98.12
269.145	82.12
269.377	81.12
269.609	68.12
269.841	64.12
270.073	87.12
270.306	82.12
270.538	71.12
270.77	82.12
271.002	66.12
271.234	84.12
271.466	78.12
271.698	77.12
271.93	103.12
272.162	75.12
272.394	105.12
272.626	83.12
272.858	93.12
273.09	80.12
273.322	82.12
273.553	88.12
273.785	79.12
274.017	81.12
274.249	61.12
274.481	91.12
274.713	95.12
274.945	78.12
275.176	75.12
275.408	79.12
275.64	82.12
275.872	79.12
276.104	81.12
276.335	90.12
276.567	82.12
276.799	69.12
277.031	86.12
277.262	73.12
277.494	86.12
277.726	75.12
277.957	78.12
278.189	62.12
278.421	87.12
278.652	87.12
278.884	75.12
279.115	87.12
279.347	86.12
279.579	88.12
279.81	90.12
280.042	69.12
280.273	86.12
280.505	85.12
280.736	80.12
280.968	92.12
281.199	83.12
281.431	79.12
281.662	85.12
281.894	84.12
282.125	83.12
282.356	94.12
282.588	87.12
282.819	84.12
283.051	88.12
283.282	80.12
283.513	84.12
283.745	86.12
283.976	88.12
284.207	78.12
284.439	77.12
284.67	83.12
284.901	78.12
285.132	81.12
285.364	78.12
285.595	84.12
285.826	82.12
286.057	103.12
286.288	87.12
286.52	76.12
286.751	75.12
286.982	81.12
287.213	68.12
287.444	99.12
287.675	92.12
287.906	86.12
288.138	85.12
288.369	78.12
288.6	68.12
288.831	65.12
289.062	89.12
289.293	82.12
289.524	81.12
289.755	78.12
289.986	76.12
290.217	78.12
290.448	73.12
290.679	88.12
290.91	92.12
291.141	82.12
291.371	86.12
291.602	83.12
291.833	77.12
292.064	75.12
292.295	78.12
292.526	79.12
292.757	80.12
292.987	79.12
293.218	79.12
293.449	88.12
293.68	93.12
293.91	78.12
294.141	86.12
294.372	98.12
294.603	90.12
294.833	78.12
295.064	78.12
295.295	66.12
295.525	78.12
295.756	69.12
295.987	88.12
296.217	79.12
296.448	81.12
296.679	70.12
296.909	89.12
297.14	91.12
297.37	79.12
297.601	74.12
297.831	72.12
298.062	87.12
298.292	89.12
298.523	88.12
298.753	78.12
298.984	92.12
299.214	82.12
299.445	74.12
299.675	87.12
299.905	77.12
300.136	87.12
300.366	88.12
300.597	68.12
300.827	72.12
301.057	86.12
301.288	84.12
301.518	67.12
301.748	86.12
301.979	78.12
302.209	79.12
302.439	87.12
302.669	76.12
302.9	82.12
303.13	92.12
303.36	66.12
303.59	88.12
303.82	85.12
304.051	88.12
304.281	69.12
304.511	81.12
304.741	78.12
304.971	86.12
305.201	93.12
305.431	88.12
305.661	86.12
305.891	61.12
306.121	84.12
306.352	102.12
306.582	88.12
306.812	71.12
307.042	78.12
307.272	91.12
307.502	83.12
307.731	90.12
307.961	82.12
308.191	85.12
308.421	78.12
308.651	77.12
308.881	84.12
309.111	77.12
309.341	75.12
309.571	66.12
309.8	78.12
310.03	86.12
310.26	78.12
310.49	81.12
310.72	80.12
310.949	79.12
311.179	80.12
311.409	65.12
311.639	89.12
311.868	79.12
312.098	100.12
312.328	84.12
312.557	83.12
312.787	80.12
313.017	88.12
313.246	63.12
313.476	70.12
313.706	85.12
313.935	87.12
314.165	92.12
314.394	79.12
314.624	73.12
314.853	86.12
315.083	85.12
315.312	88.12
315.542	80.12
315.771	74.12
316.001	82.12
316.23	88.12
316.46	82.12
316.689	69.12
316.919	87.12
317.148	78.12
317.377	90.12
317.607	90.12
317.836	86.12
318.065	83.12
318.295	80.12
318.524	86.12
318.753	79.12
318.983	74.12
319.212	73.12
319.441	81.12
319.67	75.12
319.9	75.12
320.129	87.12
320.358	76.12
320.587	76.12
320.816	75.12
321.046	82.12
321.275	82.12
321.504	82.12
321.733	92.12
321.962	74.12
322.191	95.12
322.42	89.12
322.649	88.12
322.878	75.12
323.108	94.12
323.337	92.12
323.566	90.12
323.795	80.12
324.024	84.12
324.253	75.12
324.482	80.12
324.71	81.12
324.939	79.12
325.168	85.12
325.397	90.12
325.626	90.12
325.855	95.12
326.084	58.12
326.313	84.12
326.542	79.12
326.77	77.12
326.999	83.12
327.228	83.12
327.457	86.12
327.686	82.12
327.914	76.12
328.143	84.12
328.372	78.12
328.6	79.12
328.829	86.12
329.058	69.12
329.287	79.12
329.515	76.12
329.744	74.12
329.972	88.12
330.201	73.12
330.43	88.12
330.658	91.12
330.887	86.12
331.115	87.12
331.344	67.12
331.572	82.12
331.801	87.12
332.03	72.12
332.258	82.12
332.486	75.12
332.715	84.12
332.943	87.12
333.172	80.12
333.4	96.12
333.629	85.12
333.857	85.12
334.085	72.12
334.314	78.12
334.542	92.12
334.771	67.12
334.999	76.12
335.227	96.12
335.455	80.12
335.684	85.12
335.912	107.12
336.14	81.12
336.369	89.12
336.597	86.12
336.825	71.12
337.053	78.12
337.281	74.12
337.51	81.12
337.738	86.12
337.966	84.12
338.194	80.12
338.422	70.12
338.65	92.12
338.878	92.12
339.106	72.12
339.334	83.12
339.562	80.12
339.79	64.12
340.018	83.12
340.246	86.12
340.474	78.12
340.702	89.12
340.93	84.12
341.158	78.12
341.386	89.12
341.614	78.12
341.842	80.12
342.07	79.12
342.298	81.12
342.526	91.12
342.754	87.12
342.981	86.12
343.209	85.12
343.437	72.12
343.665	69.12
343.893	73.12
344.12	86.12
344.348	67.12
344.576	79.12
344.804	85.12
345.031	88.12
345.259	71.12
345.487	100.12
345.714	77.12
345.942	78.12
346.17	87.12
346.397	80.12
346.625	82.12
346.853	86.12
347.08	72.12
347.308	85.12
347.535	83.12
347.763	71.12
347.99	79.12
348.218	93.12
348.445	78.12
348.673	84.12
348.9	89.12
349.128	85.12
349.355	63.12
349.583	88.12
349.81	90.12
350.037	86.12
350.265	75.12
350.492	79.12
350.72	79.12
350.947	77.12
351.174	75.12
351.402	82.12
351.629	80.12
351.856	70.12
352.083	82.12
352.311	96.12
352.538	76.12
352.765	90.12
352.992	80.12
353.22	77.12
353.447	81.12
353.674	88.12
353.901	81.12
354.128	86.12
354.355	98.12
354.583	77.12
354.81	81.12
355.037	85.12
355.264	80.12
355.491	79.12
355.718	84.12
355.945	88.12
356.172	83.12
356.399	85.12
356.626	70.12
356.853	90.12
357.08	92.12
357.307	89.12
357.534	87.12
357.761	82.12
357.988	87.12
358.215	83.12
358.441	78.12
358.668	91.12
358.895	82.12
359.122	90.12
359.349	65.12
359.576	66.12
359.802	80.12
360.029	96.12
360.256	89.12
360.483	78.12
360.709	84.12
360.936	93.12
361.163	85.12
361.39	81.12
361.616	72.12
361.843	69.12
362.07	89.12
362.296	77.12
362.523	68.12
362.749	91.12
362.976	82.12
363.203	73.12
363.429	89.12
363.656	80.12
363.882	71.12
364.109	99.12
364.335	84.12
364.562	86.12
364.788	75.12
365.015	81.12
365.241	79.12
365.468	87.12
365.694	71.12
365.92	74.12
366.147	87.12
366.373	76.12
366.599	79.12
366.826	84.12
367.052	75.12
367.278	74.12
367.505	78.12
367.731	92.12
367.957	80.12
368.184	87.12
368.41	86.12
368.636	84.12
368.862	90.12
369.089	86.12
369.315	79.12
369.541	91.12
369.767	74.12
369.993	78.12
370.219	77.12
370.445	86.12
370.672	99.12
370.898	76.12
371.124	78.12
371.35	90.12
371.576	79.12
371.802	91.12
372.028	79.12
372.254	80.12
372.48	83.12
372.706	68.12
372.932	82.12
373.158	86.12
373.384	70.12
373.61	78.12
373.835	82.12
374.061	73.12
374.287	58.12
374.513	65.12
374.739	78.12
374.965	72.12
375.191	94.12
375.416	90.12
375.642	84.12
375.868	93.12
376.094	81.12
376.319	78.12
376.545	82.12
376.771	82.12
376.997	80.12
377.222	76.12
377.448	86.12
377.674	77.12
377.899	83.12
378.125	70.12
378.35	85.12
378.576	75.12
378.802	71.12
379.027	67.12
379.253	73.12
379.478	90.12
379.704	92.12
379.929	88.12
380.155	84.12
380.38	81.12
380.606	71.12
380.831	77.12
381.057	82.12
381.282	73.12
381.507	96.12
381.733	82.12
381.958	84.12
382.184	57.12
382.409	82.12
382.634	84.12
382.86	79.12
383.085	83.12
383.31	84.12
383.535	90.12
383.761	78.12
383.986	77.12
384.211	85.12
384.436	93.12
384.662	88.12
384.887	84.12
385.112	82.12
385.337	83.12
385.562	85.12
385.787	78.12
386.013	86.12
386.238	79.12
386.463	79.12
386.688	101.12
386.913	76.12
387.138	74.12
387.363	66.12
387.588	95.12
387.813	79.12
388.038	88.12
388.263	75.12
388.488	98.12
388.713	74.12
388.938	74.12
389.163	88.12
389.387	88.12
389.612	70.12
389.837	86.12
390.062	76.12
390.287	88.12
390.512	86.12
390.736	77.12
390.961	71.12
391.186	86.12
391.411	77.12
391.636	73.12
391.86	79.12
392.085	83.12
392.31	67.12
392.534	73.12
392.759	83.12
392.984	72.12
393.208	80.12
393.433	76.12
393.658	77.12
393.882	64.12
394.107	74.12
394.331	87.12
394.556	80.12
394.78	90.12
395.005	94.12
395.229	78.12
395.454	83.12
395.678	91.12
395.903	88.12
396.127	79.12
396.352	85.12
396.576	65.12
396.801	86.12
397.025	67.12
397.249	94.12
397.474	81.12
397.698	89.12
397.922	70.12
398.147	74.12
398.371	84.12
398.595	77.12
398.82	79.12
399.044	84.12
399.268	95.12
399.492	95.12
399.717	75.12
399.941	81.12
400.165	71.12
400.389	76.12
400.613	80.12
400.837	79.12
401.062	88.12
401.286	83.12
401.51	77.12
401.734	72.12
401.958	89.12
402.182	84.12
402.406	91.12
402.63	70.12
402.854	84.12
403.078	79.12
403.302	63.12
403.526	73.12
403.75	74.12
403.974	75.12
404.198	79.12
404.422	88.12
404.645	79.12
404.869	85.12
405.093	86.12
405.317	78.12
405.541	80.12
405.765	68.12
405.988	71.12
406.212	82.12
406.436	87.12
406.66	80.12
406.883	72.12
407.107	79.12
407.331	93.12
407.555	71.12
407.778	81.12
408.002	79.12
408.226	69.12
408.449	68.12
408.673	65.12
408.896	88.12
409.12	78.12
409.344	80.12
409.567	84.12
409.791	85.12
410.014	78.12
410.238	84.12
410.461	75.12
410.685	78.12
410.908	68.12
411.132	98.12
411.355	92.12
411.578	100.12
411.802	71.12
412.025	78.12
412.249	84.12
412.472	80.12
412.695	89.12
412.919	82.12
413.142	96.12
413.365	77.12
413.589	88.12
413.812	82.12
414.035	80.12
414.258	70.12
414.482	68.12
414.705	86.12
414.928	81.12
415.151	77.12
415.374	91.12
415.597	78.12
415.821	82.12
416.044	70.12
416.267	82.12
416.49	84.12
416.713	81.12
416.936	67.12
417.159	82.12
417.382	72.12
417.605	76.12
417.828	72.12
418.051	66.12
418.274	71.12
418.497	73.12
418.72	92.12
418.943	82.12
419.166	79.12
419.389	75.12
419.611	84.12
419.834	85.12
420.057	87.12
420.28	83.12
420.503	74.12
420.726	82.12
420.948	78.12
421.171	81.12
421.394	75.12
421.617	71.12
421.839	95.12
422.062	85.12
422.285	92.12
422.507	82.12
422.73	96.12
422.953	89.12
423.175	82.12
423.398	90.12
423.621	75.12
423.843	87.12
424.066	80.12
424.288	77.12
424.511	78.12
424.733	94.12
424.956	80.12
425.178	78.12
425.401	78.12
425.623	83.12
425.846	79.12
426.068	79.12
426.291	76.12
426.513	80.12
426.735	74.12
426.958	84.12
427.18	89.12
427.402	89.12
427.625	88.12
427.847	71.12
428.069	78.12
428.292	87.12
428.514	78.12
428.736	78.12
428.958	80.12
429.181	91.12
429.403	83.12
429.625	88.12
429.847	91.12
430.069	79.12
430.292	87.12
430.514	86.12
430.736	77.12
430.958	94.12
431.18	67.12
431.402	84.12
431.624	73.12
431.846	82.12
432.068	77.12
432.29	82.12
432.512	86.12
432.734	93.12
432.956	81.12
433.178	89.12
433.4	102.12
433.622	85.12
433.844	73.12
434.066	101.12
434.287	69.12
434.509	81.12
434.731	68.12
434.953	77.12
435.175	87.12
435.397	89.12
435.618	83.12
435.84	83.12
436.062	77.12
436.284	80.12
436.505	72.12
436.727	86.12
436.949	83.12
437.17	96.12
437.392	85.12
437.614	84.12
437.835	62.12
438.057	87.12
438.278	84.12
438.5	84.12
438.721	72.12
438.943	58.12
439.165	88.12
439.386	82.12
439.608	80.12
439.829	84.12
440.05	96.12
440.272	72.12
440.493	69.12
440.715	78.12
440.936	87.12
441.158	78.12
441.379	75.12
441.6	74.12
441.822	92.12
442.043	91.12
442.264	85.12
442.486	79.12
442.707	92.12
442.928	84.12
443.149	81.12
443.371	75.12
443.592	64.12
443.813	78.12
444.034	72.12
444.255	90.12
444.476	76.12
444.698	80.12
444.919	80.12
445.14	141.12
445.361	94.12
445.582	84.12
445.803	82.12
446.024	71.12
446.245	98.12
446.466	79.12
446.687	75.12
446.908	71.12
447.129	86.12
447.35	89.12
447.571	100.12
447.792	94.12
448.013	82.12
448.234	78.12
448.455	86.12
448.675	79.12
448.896	67.12
449.117	69.12
449.338	71.12
449.559	92.12
449.779	85.12
450	79.12
450.221	79.12
450.442	75.12
450.662	83.12
450.883	79.12
451.104	97.12
451.324	90.12
451.545	79.12
451.766	68.12
451.986	75.12
452.207	78.12
452.428	86.12
452.648	88.12
452.869	86.12
453.089	75.12
453.31	69.12
453.53	76.12
453.751	80.12
453.971	82.12
454.192	73.12
454.412	75.12
454.633	77.12
454.853	79.12
455.073	88.12
455.294	82.12
455.514	93.12
455.734	83.12
455.955	90.12
456.175	92.12
456.395	81.12
456.616	84.12
456.836	84.12
457.056	73.12
457.276	91.12
457.497	81.12
457.717	84.12
457.937	79.12
458.157	79.12
458.377	85.12
458.598	75.12
458.818	82.12
459.038	67.12
459.258	86.12
459.478	69.12
459.698	77.12
459.918	69.12
460.138	87.12
460.358	70.12
460.578	98.12
460.798	83.12
461.018	86.12
461.238	87.12
461.458	84.12
461.678	83.12
461.898	83.12
462.118	89.12
462.338	82.12
462.558	80.12
462.777	80.12
462.997	84.12
463.217	86.12
463.437	78.12
463.657	87.12
463.876	84.12
464.096	75.12
464.316	89.12
464.536	91.12
464.755	90.12
464.975	88.12
465.195	83.12
465.414	80.12
465.634	94.12
465.854	71.12
466.073	80.12
466.293	70.12
466.512	74.12
466.732	74.12
466.951	71.12
467.171	77.12
467.391	78.12
467.61	84.12
467.829	82.12
468.049	72.12
468.268	73.12
468.488	63.12
468.707	72.12
468.927	82.12
469.146	83.12
469.365	73.12
469.585	91.12
469.804	82.12
470.023	73.12
470.243	79.12
470.462	86.12
470.681	73.12
470.901	83.12
471.12	71.12
471.339	77.12
471.558	65.12
471.777	69.12
471.997	75.12
472.216	74.12
472.435	85.12
472.654	77.12
472.873	83.12
473.092	87.12
473.311	93.12
473.53	82.12
473.749	78.12
473.968	83.12
474.187	86.12
474.406	94.12
474.625	74.12
474.844	76.12
475.063	82.12
475.282	79.12
475.501	78.12
475.72	81.12
475.939	84.12
476.158	74.12
476.377	89.12
476.596	77.12
476.814	76.12
477.033	61.12
477.252	72.12
477.471	82.12
477.69	73.12
477.908	74.12
478.127	99.12
478.346	82.12
478.564	80.12
478.783	88.12
479.002	88.12
479.22	73.12
479.439	62.12
479.658	88.12
479.876	80.12
480.095	75.12
480.313	76.12
480.532	89.12
480.751	75.12
480.969	70.12
481.188	72.12
481.406	53.12
481.624	75.12
481.843	87.12
482.061	88.12
482.28	84.12
482.498	67.12
482.717	83.12
482.935	75.12
483.153	74.12
483.372	102.12
483.59	89.12
483.808	75.12
484.027	99.12
484.245	83.12
484.463	84.12
484.681	92.12
484.9	65.12
485.118	106.12
485.336	86.12
485.554	84.12
485.772	85.12
485.99	99.12
486.209	100.12
486.427	95.12
486.645	93.12
486.863	70.12
487.081	91.12
487.299	86.12
487.517	91.12
487.735	90.12
487.953	100.12
488.171	95.12
488.389	76.12
488.607	76.12
488.825	80.12
489.043	81.12
489.261	89.12
489.479	74.12
489.696	75.12
489.914	82.12
490.132	77.12
490.35	77.12
490.568	83.12
490.786	88.12
491.003	80.12
491.221	83.12
491.439	79.12
491.657	85.12
491.874	91.12
492.092	84.12
492.31	86.12
492.527	89.12
492.745	87.12
492.963	83.12
493.18	69.12
493.398	73.12
493.615	83.12
493.833	81.12
494.05	77.12
494.268	62.12
494.485	94.12
494.703	73.12
494.92	90.12
495.138	85.12
495.355	76.12
495.573	87.12
495.79	70.12
496.008	75.12
496.225	75.12
496.442	81.12
496.66	78.12
496.877	72.12
497.094	87.12
497.312	85.12
497.529	82.12
497.746	80.12
497.963	79.12
498.181	86.12
498.398	82.12
498.615	88.12
498.832	82.12
499.049	79.12
499.267	81.12
499.484	73.12
499.701	78.12
499.918	89.12
500.135	71.12
500.352	65.12
500.569	78.12
500.786	90.12
501.003	77.12
501.22	85.12
501.437	88.12
501.654	69.12
501.871	85.12
502.088	86.12
502.305	78.12
502.522	77.12
502.739	88.12
502.956	89.12
503.172	89.12
503.389	71.12
503.606	86.12
503.823	90.12
504.04	81.12
504.256	90.12
504.473	78.12
504.69	70.12
504.907	94.12
505.123	73.12
505.34	75.12
505.557	71.12
505.773	74.12
505.99	93.12
506.207	71.12
506.423	72.12
506.64	91.12
506.856	71.12
507.073	85.12
507.289	67.12
507.506	67.12
507.722	76.12
507.939	82.12
508.155	76.12
508.372	98.12
508.588	73.12
508.805	96.12
509.021	84.12
509.238	92.12
509.454	82.12
509.67	62.12
509.887	82.12
510.103	80.12
510.319	77.12
510.536	79.12
510.752	96.12
510.968	73.12
511.184	82.12
511.401	74.12
511.617	89.12
511.833	85.12
512.049	75.12
512.265	77.12
512.481	72.12
512.698	88.12
512.914	86.12
513.13	84.12
513.346	82.12
513.562	90.12
513.778	80.12
513.994	88.12
514.21	70.12
514.426	91.12
514.642	72.12
514.858	75.12
515.074	93.12
515.29	71.12
515.506	83.12
515.721	76.12
515.937	82.12
516.153	74.12
516.369	84.12
516.585	75.12
516.801	85.12
517.016	93.12
517.232	88.12
517.448	88.12
517.664	90.12
517.879	89.12
518.095	75.12
518.311	83.12
518.527	78.12
518.742	91.12
518.958	78.12
519.173	92.12
519.389	79.12
519.605	90.12
519.82	78.12
520.036	78.12
