Data from Circ_1993_H10_HRD10591_00058.txt Node
Date: Wed Jan 03 11:44:13 EST 2024
User: Yrep
Spectrometer: HR+D1059
Trigger mode: 1
Integration Time (sec): 1.000000E-1
Scans to average: 1
Electric dark correction enabled: true
Nonlinearity correction enabled: false
Boxcar width: 0
XAxis mode: Wavelengths
Number of Pixels in Spectrum: 2048
>>>>>Begin Spectral Data<<<<<
223.165	-13.88
223.4	-13.88
223.635	-13.88
223.869	-25.88
224.104	-9.88
224.338	-6.88
224.573	-21.88
224.808	-2.88
225.042	-10.88
225.277	-13.88
225.511	-6.88
225.746	1.12
225.98	-1.88
226.215	7.12
226.449	18.12
226.683	25.12
226.918	20.12
227.152	43.12
227.387	35.12
227.621	36.12
227.856	52.12
228.09	57.12
228.324	50.12
228.559	67.12
228.793	41.12
229.027	66.12
229.262	73.12
229.496	67.12
229.73	62.12
229.964	77.12
230.199	77.12
230.433	76.12
230.667	81.12
230.901	80.12
231.136	69.12
231.37	75.12
231.604	76.12
231.838	74.12
232.072	83.12
232.306	88.12
232.541	77.12
232.775	85.12
233.009	81.12
233.243	87.12
233.477	77.12
233.711	83.12
233.945	96.12
234.179	73.12
234.413	78.12
234.647	81.12
234.881	67.12
235.115	63.12
235.349	70.12
235.583	89.12
235.817	85.12
236.051	82.12
236.285	64.12
236.519	84.12
236.753	87.12
236.987	82.12
237.221	65.12
237.455	80.12
237.689	89.12
237.922	81.12
238.156	65.12
238.39	69.12
238.624	64.12
238.858	72.12
239.091	81.12
239.325	90.12
239.559	96.12
239.793	92.12
240.027	80.12
240.26	66.12
240.494	79.12
240.728	93.12
240.961	83.12
241.195	86.12
241.429	81.12
241.662	83.12
241.896	79.12
242.13	87.12
242.363	81.12
242.597	83.12
242.83	86.12
243.064	84.12
243.298	67.12
243.531	77.12
243.765	66.12
243.998	84.12
244.232	66.12
244.465	78.12
244.699	89.12
244.932	84.12
245.166	59.12
245.399	81.12
245.633	79.12
245.866	90.12
246.099	98.12
246.333	76.12
246.566	92.12
246.8	63.12
247.033	81.12
247.266	83.12
247.5	76.12
247.733	85.12
247.966	67.12
248.2	86.12
248.433	89.12
248.666	78.12
248.899	82.12
249.133	87.12
249.366	84.12
249.599	94.12
249.832	80.12
250.066	69.12
250.299	78.12
250.532	66.12
250.765	87.12
250.998	70.12
251.231	89.12
251.465	84.12
251.698	70.12
251.931	73.12
252.164	81.12
252.397	81.12
252.63	82.12
252.863	71.12
253.096	84.12
253.329	99.12
253.562	81.12
253.795	85.12
254.028	74.12
254.261	73.12
254.494	87.12
254.727	67.12
254.96	71.12
255.193	89.12
255.426	85.12
255.659	89.12
255.892	87.12
256.124	74.12
256.357	81.12
256.59	80.12
256.823	83.12
257.056	97.12
257.289	71.12
257.521	84.12
257.754	87.12
257.987	83.12
258.22	91.12
258.452	70.12
258.685	89.12
258.918	86.12
259.151	93.12
259.383	90.12
259.616	91.12
259.849	94.12
260.081	79.12
260.314	77.12
260.547	96.12
260.779	86.12
261.012	99.12
261.244	83.12
261.477	104.12
261.71	89.12
261.942	105.12
262.175	104.12
262.407	93.12
262.64	83.12
262.872	93.12
263.105	98.12
263.337	96.12
263.57	77.12
263.802	89.12
264.035	82.12
264.267	80.12
264.499	77.12
264.732	85.12
264.964	85.12
265.197	76.12
265.429	77.12
265.661	80.12
265.894	84.12
266.126	87.12
266.358	75.12
266.591	73.12
266.823	100.12
267.055	88.12
267.287	77.12
267.52	70.12
267.752	92.12
267.984	84.12
268.216	69.12
268.448	86.12
268.681	81.12
268.913	74.12
269.145	87.12
269.377	80.12
269.609	86.12
269.841	78.12
270.073	85.12
270.306	87.12
270.538	80.12
270.77	71.12
271.002	80.12
271.234	82.12
271.466	83.12
271.698	84.12
271.93	81.12
272.162	78.12
272.394	92.12
272.626	74.12
272.858	86.12
273.09	82.12
273.322	86.12
273.553	83.12
273.785	87.12
274.017	86.12
274.249	82.12
274.481	90.12
274.713	78.12
274.945	91.12
275.176	84.12
275.408	101.12
275.64	86.12
275.872	107.12
276.104	75.12
276.335	93.12
276.567	98.12
276.799	110.12
277.031	98.12
277.262	82.12
277.494	98.12
277.726	96.12
277.957	82.12
278.189	86.12
278.421	87.12
278.652	90.12
278.884	83.12
279.115	89.12
279.347	89.12
279.579	91.12
279.81	97.12
280.042	92.12
280.273	98.12
280.505	89.12
280.736	94.12
280.968	85.12
281.199	85.12
281.431	77.12
281.662	78.12
281.894	75.12
282.125	78.12
282.356	114.12
282.588	125.12
282.819	108.12
283.051	88.12
283.282	91.12
283.513	88.12
283.745	94.12
283.976	85.12
284.207	87.12
284.439	85.12
284.67	91.12
284.901	88.12
285.132	81.12
285.364	88.12
285.595	91.12
285.826	78.12
286.057	86.12
286.288	89.12
286.52	79.12
286.751	80.12
286.982	83.12
287.213	91.12
287.444	89.12
287.675	87.12
287.906	89.12
288.138	83.12
288.369	86.12
288.6	90.12
288.831	88.12
289.062	76.12
289.293	73.12
289.524	73.12
289.755	89.12
289.986	87.12
290.217	79.12
290.448	94.12
290.679	98.12
290.91	94.12
291.141	75.12
291.371	85.12
291.602	85.12
291.833	85.12
292.064	99.12
292.295	83.12
292.526	82.12
292.757	91.12
292.987	85.12
293.218	79.12
293.449	93.12
293.68	99.12
293.91	83.12
294.141	93.12
294.372	96.12
294.603	91.12
294.833	88.12
295.064	85.12
295.295	103.12
295.525	85.12
295.756	88.12
295.987	109.12
296.217	127.12
296.448	134.12
296.679	96.12
296.909	81.12
297.14	83.12
297.37	95.12
297.601	89.12
297.831	95.12
298.062	101.12
298.292	91.12
298.523	93.12
298.753	67.12
298.984	90.12
299.214	91.12
299.445	93.12
299.675	96.12
299.905	82.12
300.136	77.12
300.366	91.12
300.597	95.12
300.827	71.12
301.057	102.12
301.288	83.12
301.518	92.12
301.748	93.12
301.979	110.12
302.209	99.12
302.439	90.12
302.669	97.12
302.9	80.12
303.13	91.12
303.36	92.12
303.59	103.12
303.82	93.12
304.051	97.12
304.281	101.12
304.511	107.12
304.741	94.12
304.971	91.12
305.201	96.12
305.431	98.12
305.661	79.12
305.891	97.12
306.121	91.12
306.352	92.12
306.582	100.12
306.812	94.12
307.042	91.12
307.272	95.12
307.502	100.12
307.731	100.12
307.961	93.12
308.191	86.12
308.421	82.12
308.651	77.12
308.881	97.12
309.111	93.12
309.341	90.12
309.571	95.12
309.8	95.12
310.03	84.12
310.26	89.12
310.49	93.12
310.72	95.12
310.949	102.12
311.179	112.12
311.409	91.12
311.639	103.12
311.868	108.12
312.098	102.12
312.328	90.12
312.557	98.12
312.787	105.12
313.017	94.12
313.246	96.12
313.476	84.12
313.706	83.12
313.935	91.12
314.165	77.12
314.394	103.12
314.624	97.12
314.853	88.12
315.083	83.12
315.312	91.12
315.542	77.12
315.771	85.12
316.001	91.12
316.23	91.12
316.46	84.12
316.689	95.12
316.919	88.12
317.148	105.12
317.377	95.12
317.607	101.12
317.836	101.12
318.065	98.12
318.295	92.12
318.524	90.12
318.753	94.12
318.983	93.12
319.212	89.12
319.441	109.12
319.67	104.12
319.9	95.12
320.129	91.12
320.358	109.12
320.587	90.12
320.816	75.12
321.046	100.12
321.275	84.12
321.504	91.12
321.733	104.12
321.962	102.12
322.191	95.12
322.42	98.12
322.649	105.12
322.878	97.12
323.108	107.12
323.337	107.12
323.566	114.12
323.795	158.12
324.024	177.12
324.253	348.12
324.482	723.12
324.71	1515.12
324.939	2009.12
325.168	735.12
325.397	222.12
325.626	147.12
325.855	119.12
326.084	122.12
326.313	120.12
326.542	152.12
326.77	204.12
326.999	415.12
327.228	839.12
327.457	1500.12
327.686	1211.12
327.914	336.12
328.143	207.12
328.372	189.12
328.6	138.12
328.829	110.12
329.058	125.12
329.287	123.12
329.515	123.12
329.744	117.12
329.972	130.12
330.201	175.12
330.43	219.12
330.658	155.12
330.887	123.12
331.115	115.12
331.344	104.12
331.572	105.12
331.801	116.12
332.03	115.12
332.258	98.12
332.486	102.12
332.715	101.12
332.943	103.12
333.172	91.12
333.4	101.12
333.629	101.12
333.857	117.12
334.085	144.12
334.314	189.12
334.542	265.12
334.771	252.12
334.999	143.12
335.227	109.12
335.455	109.12
335.684	82.12
335.912	102.12
336.14	116.12
336.369	100.12
336.597	100.12
336.825	90.12
337.053	89.12
337.281	94.12
337.51	81.12
337.738	96.12
337.966	67.12
338.194	79.12
338.422	89.12
338.65	108.12
338.878	93.12
339.106	98.12
339.334	95.12
339.562	98.12
339.79	84.12
340.018	101.12
340.246	92.12
340.474	105.12
340.702	79.12
340.93	103.12
341.158	95.12
341.386	98.12
341.614	100.12
341.842	86.12
342.07	84.12
342.298	81.12
342.526	71.12
342.754	93.12
342.981	81.12
343.209	96.12
343.437	101.12
343.665	87.12
343.893	90.12
344.12	82.12
344.348	85.12
344.576	105.12
344.804	84.12
345.031	90.12
345.259	89.12
345.487	95.12
345.714	98.12
345.942	94.12
346.17	81.12
346.397	83.12
346.625	89.12
346.853	93.12
347.08	87.12
347.308	85.12
347.535	88.12
347.763	95.12
347.99	89.12
348.218	93.12
348.445	107.12
348.673	93.12
348.9	91.12
349.128	81.12
349.355	102.12
349.583	89.12
349.81	88.12
350.037	104.12
350.265	93.12
350.492	97.12
350.72	88.12
350.947	103.12
351.174	94.12
351.402	113.12
351.629	121.12
351.856	98.12
352.083	104.12
352.311	110.12
352.538	109.12
352.765	103.12
352.992	118.12
353.22	112.12
353.447	102.12
353.674	114.12
353.901	93.12
354.128	94.12
354.355	100.12
354.583	81.12
354.81	91.12
355.037	91.12
355.264	108.12
355.491	104.12
355.718	103.12
355.945	99.12
356.172	100.12
356.399	97.12
356.626	94.12
356.853	76.12
357.08	93.12
357.307	85.12
357.534	95.12
357.761	98.12
357.988	98.12
358.215	96.12
358.441	101.12
358.668	81.12
358.895	75.12
359.122	78.12
359.349	91.12
359.576	93.12
359.802	100.12
360.029	101.12
360.256	111.12
360.483	84.12
360.709	93.12
360.936	86.12
361.163	94.12
361.39	95.12
361.616	102.12
361.843	86.12
362.07	84.12
362.296	97.12
362.523	101.12
362.749	90.12
362.976	86.12
363.203	100.12
363.429	96.12
363.656	118.12
363.882	100.12
364.109	102.12
364.335	91.12
364.562	80.12
364.788	88.12
365.015	95.12
365.241	109.12
365.468	85.12
365.694	106.12
365.92	110.12
366.147	102.12
366.373	93.12
366.599	87.12
366.826	69.12
367.052	76.12
367.278	83.12
367.505	94.12
367.731	82.12
367.957	85.12
368.184	86.12
368.41	106.12
368.636	114.12
368.862	111.12
369.089	101.12
369.315	91.12
369.541	87.12
369.767	98.12
369.993	96.12
370.219	92.12
370.445	89.12
370.672	80.12
370.898	91.12
371.124	90.12
371.35	81.12
371.576	81.12
371.802	71.12
372.028	99.12
372.254	81.12
372.48	82.12
372.706	74.12
372.932	93.12
373.158	89.12
373.384	91.12
373.61	91.12
373.835	86.12
374.061	86.12
374.287	90.12
374.513	93.12
374.739	96.12
374.965	92.12
375.191	78.12
375.416	90.12
375.642	81.12
375.868	85.12
376.094	90.12
376.319	93.12
376.545	86.12
376.771	85.12
376.997	81.12
377.222	80.12
377.448	81.12
377.674	85.12
377.899	88.12
378.125	88.12
378.35	97.12
378.576	81.12
378.802	105.12
379.027	92.12
379.253	91.12
379.478	100.12
379.704	98.12
379.929	85.12
380.155	108.12
380.38	100.12
380.606	73.12
380.831	86.12
381.057	88.12
381.282	102.12
381.507	106.12
381.733	105.12
381.958	92.12
382.184	106.12
382.409	103.12
382.634	102.12
382.86	110.12
383.085	89.12
383.31	95.12
383.535	97.12
383.761	112.12
383.986	87.12
384.211	91.12
384.436	99.12
384.662	106.12
384.887	102.12
385.112	106.12
385.337	103.12
385.562	118.12
385.787	118.12
386.013	102.12
386.238	120.12
386.463	118.12
386.688	120.12
386.913	116.12
387.138	111.12
387.363	101.12
387.588	100.12
387.813	109.12
388.038	107.12
388.263	119.12
388.488	117.12
388.713	107.12
388.938	89.12
389.163	83.12
389.387	98.12
389.612	96.12
389.837	88.12
390.062	94.12
390.287	84.12
390.512	76.12
390.736	97.12
390.961	94.12
391.186	85.12
391.411	101.12
391.636	91.12
391.86	93.12
392.085	92.12
392.31	89.12
392.534	92.12
392.759	86.12
392.984	85.12
393.208	107.12
393.433	123.12
393.658	118.12
393.882	85.12
394.107	83.12
394.331	73.12
394.556	82.12
394.78	80.12
395.005	85.12
395.229	76.12
395.454	90.12
395.678	94.12
395.903	86.12
396.127	87.12
396.352	89.12
396.576	94.12
396.801	100.12
397.025	96.12
397.249	94.12
397.474	89.12
397.698	88.12
397.922	96.12
398.147	87.12
398.371	71.12
398.595	85.12
398.82	81.12
399.044	74.12
399.268	81.12
399.492	85.12
399.717	86.12
399.941	94.12
400.165	89.12
400.389	108.12
400.613	108.12
400.837	95.12
401.062	85.12
401.286	76.12
401.51	99.12
401.734	90.12
401.958	102.12
402.182	119.12
402.406	145.12
402.63	118.12
402.854	98.12
403.078	81.12
403.302	99.12
403.526	94.12
403.75	87.12
403.974	79.12
404.198	91.12
404.422	98.12
404.645	99.12
404.869	97.12
405.093	92.12
405.317	103.12
405.541	99.12
405.765	90.12
405.988	98.12
406.212	155.12
406.436	193.12
406.66	133.12
406.883	95.12
407.107	97.12
407.331	84.12
407.555	95.12
407.778	88.12
408.002	94.12
408.226	83.12
408.449	96.12
408.673	93.12
408.896	92.12
409.12	76.12
409.344	85.12
409.567	102.12
409.791	84.12
410.014	100.12
410.238	95.12
410.461	97.12
410.685	85.12
410.908	110.12
411.132	89.12
411.355	93.12
411.578	99.12
411.802	85.12
412.025	81.12
412.249	101.12
412.472	99.12
412.695	110.12
412.919	100.12
413.142	94.12
413.365	91.12
413.589	87.12
413.812	83.12
414.035	80.12
414.258	87.12
414.482	100.12
414.705	102.12
414.928	94.12
415.151	100.12
415.374	95.12
415.597	87.12
415.821	77.12
416.044	69.12
416.267	93.12
416.49	95.12
416.713	81.12
416.936	97.12
417.159	85.12
417.382	91.12
417.605	94.12
417.828	96.12
418.051	85.12
418.274	94.12
418.497	98.12
418.72	74.12
418.943	83.12
419.166	95.12
419.389	82.12
419.611	95.12
419.834	88.12
420.057	92.12
420.28	106.12
420.503	73.12
420.726	86.12
420.948	94.12
421.171	101.12
421.394	87.12
421.617	95.12
421.839	85.12
422.062	79.12
422.285	97.12
422.507	104.12
422.73	105.12
422.953	98.12
423.175	81.12
423.398	95.12
423.621	80.12
423.843	70.12
424.066	98.12
424.288	98.12
424.511	88.12
424.733	87.12
424.956	109.12
425.178	110.12
425.401	89.12
425.623	95.12
425.846	97.12
426.068	83.12
426.291	103.12
426.513	103.12
426.735	109.12
426.958	105.12
427.18	107.12
427.402	136.12
427.625	160.12
427.847	149.12
428.069	130.12
428.292	94.12
428.514	99.12
428.736	87.12
428.958	97.12
429.181	90.12
429.403	81.12
429.625	84.12
429.847	102.12
430.069	99.12
430.292	98.12
430.514	79.12
430.736	92.12
430.958	80.12
431.18	92.12
431.402	91.12
431.624	79.12
431.846	76.12
432.068	84.12
432.29	94.12
432.512	86.12
432.734	100.12
432.956	82.12
433.178	92.12
433.4	96.12
433.622	75.12
433.844	97.12
434.066	98.12
434.287	91.12
434.509	92.12
434.731	79.12
434.953	90.12
435.175	81.12
435.397	97.12
435.618	95.12
435.84	108.12
436.062	118.12
436.284	113.12
436.505	108.12
436.727	113.12
436.949	93.12
437.17	99.12
437.392	82.12
437.614	85.12
437.835	99.12
438.057	107.12
438.278	114.12
438.5	93.12
438.721	106.12
438.943	106.12
439.165	89.12
439.386	73.12
439.608	85.12
439.829	94.12
440.05	115.12
440.272	133.12
440.493	85.12
440.715	97.12
440.936	96.12
441.158	102.12
441.379	93.12
441.6	99.12
441.822	101.12
442.043	105.12
442.264	102.12
442.486	101.12
442.707	87.12
442.928	102.12
443.149	124.12
443.371	127.12
443.592	95.12
443.813	101.12
444.034	105.12
444.255	83.12
444.476	83.12
444.698	87.12
444.919	106.12
445.14	134.12
445.361	126.12
445.582	125.12
445.803	151.12
446.024	149.12
446.245	128.12
446.466	107.12
446.687	79.12
446.908	91.12
447.129	84.12
447.35	88.12
447.571	89.12
447.792	88.12
448.013	86.12
448.234	99.12
448.455	89.12
448.675	102.12
448.896	114.12
449.117	115.12
449.338	96.12
449.559	130.12
449.779	123.12
450	97.12
450.221	84.12
450.442	74.12
450.662	86.12
450.883	115.12
451.104	109.12
451.324	111.12
451.545	92.12
451.766	69.12
451.986	94.12
452.207	89.12
452.428	78.12
452.648	97.12
452.869	101.12
453.089	112.12
453.31	107.12
453.53	89.12
453.751	78.12
453.971	88.12
454.192	108.12
454.412	92.12
454.633	83.12
454.853	93.12
455.073	81.12
455.294	74.12
455.514	107.12
455.734	106.12
455.955	86.12
456.175	83.12
456.395	83.12
456.616	82.12
456.836	96.12
457.056	91.12
457.276	97.12
457.497	66.12
457.717	89.12
457.937	90.12
458.157	96.12
458.377	91.12
458.598	94.12
458.818	133.12
459.038	143.12
459.258	109.12
459.478	102.12
459.698	88.12
459.918	80.12
460.138	84.12
460.358	81.12
460.578	102.12
460.798	82.12
461.018	77.12
461.238	78.12
461.458	94.12
461.678	92.12
461.898	90.12
462.118	98.12
462.338	93.12
462.558	89.12
462.777	91.12
462.997	96.12
463.217	74.12
463.437	81.12
463.657	100.12
463.876	91.12
464.096	85.12
464.316	79.12
464.536	73.12
464.755	81.12
464.975	105.12
465.195	161.12
465.414	137.12
465.634	94.12
465.854	90.12
466.073	97.12
466.293	93.12
466.512	92.12
466.732	91.12
466.951	90.12
467.171	86.12
467.391	95.12
467.61	118.12
467.829	110.12
468.049	153.12
468.268	144.12
468.488	111.12
468.707	84.12
468.927	83.12
469.146	77.12
469.365	101.12
469.585	82.12
469.804	102.12
470.023	95.12
470.243	93.12
470.462	89.12
470.681	108.12
470.901	91.12
471.12	103.12
471.339	90.12
471.558	92.12
471.777	97.12
471.997	98.12
472.216	201.12
472.435	333.12
472.654	129.12
472.873	99.12
473.092	75.12
473.311	91.12
473.53	102.12
473.749	93.12
473.968	103.12
474.187	109.12
474.406	89.12
474.625	92.12
474.844	90.12
475.063	80.12
475.282	75.12
475.501	91.12
475.72	93.12
475.939	89.12
476.158	87.12
476.377	80.12
476.596	86.12
476.814	91.12
477.033	91.12
477.252	99.12
477.471	102.12
477.69	89.12
477.908	85.12
478.127	86.12
478.346	70.12
478.564	84.12
478.783	83.12
479.002	102.12
479.22	84.12
479.439	98.12
479.658	106.12
479.876	102.12
480.095	89.12
480.313	73.12
480.532	104.12
480.751	117.12
480.969	210.12
481.188	576.12
481.406	349.12
481.624	117.12
481.843	79.12
482.061	97.12
482.28	81.12
482.498	99.12
482.717	96.12
482.935	92.12
483.153	85.12
483.372	88.12
483.59	85.12
483.808	86.12
484.027	90.12
484.245	84.12
484.463	101.12
484.681	80.12
484.9	93.12
485.118	93.12
485.336	86.12
485.554	100.12
485.772	101.12
485.99	103.12
486.209	105.12
486.427	106.12
486.645	116.12
486.863	125.12
487.081	111.12
487.299	107.12
487.517	97.12
487.735	98.12
487.953	91.12
488.171	98.12
488.389	99.12
488.607	100.12
488.825	80.12
489.043	101.12
489.261	95.12
489.479	97.12
489.696	79.12
489.914	80.12
490.132	109.12
490.35	96.12
490.568	79.12
490.786	81.12
491.003	91.12
491.221	90.12
491.439	97.12
491.657	98.12
491.874	76.12
492.092	98.12
492.31	101.12
492.527	73.12
492.745	100.12
492.963	98.12
493.18	86.12
493.398	85.12
493.615	92.12
493.833	99.12
494.05	99.12
494.268	81.12
494.485	98.12
494.703	97.12
494.92	79.12
495.138	91.12
495.355	93.12
495.573	94.12
495.79	98.12
496.008	100.12
496.225	98.12
496.442	86.12
496.66	87.12
496.877	86.12
497.094	98.12
497.312	85.12
497.529	83.12
497.746	84.12
497.963	97.12
498.181	99.12
498.398	89.12
498.615	105.12
498.832	98.12
499.049	84.12
499.267	87.12
499.484	95.12
499.701	89.12
499.918	92.12
500.135	94.12
500.352	84.12
500.569	97.12
500.786	83.12
501.003	91.12
501.22	91.12
501.437	85.12
501.654	85.12
501.871	117.12
502.088	93.12
502.305	89.12
502.522	89.12
502.739	95.12
502.956	99.12
503.172	85.12
503.389	101.12
503.606	106.12
503.823	93.12
504.04	97.12
504.256	90.12
504.473	86.12
504.69	94.12
504.907	100.12
505.123	92.12
505.34	93.12
505.557	90.12
505.773	84.12
505.99	93.12
506.207	99.12
506.423	98.12
506.64	99.12
506.856	109.12
507.073	96.12
507.289	100.12
507.506	101.12
507.722	105.12
507.939	105.12
508.155	90.12
508.372	86.12
508.588	102.12
508.805	102.12
509.021	101.12
509.238	98.12
509.454	102.12
509.67	77.12
509.887	112.12
510.103	123.12
510.319	198.12
510.536	676.12
510.752	2141.12
510.968	578.12
511.184	135.12
511.401	111.12
511.617	97.12
511.833	96.12
512.049	83.12
512.265	86.12
512.481	93.12
512.698	93.12
512.914	82.12
513.13	89.12
513.346	107.12
513.562	107.12
513.778	99.12
513.994	106.12
514.21	87.12
514.426	122.12
514.642	135.12
514.858	124.12
515.074	155.12
515.29	416.12
