Data from Circ_1993_H10_HRD10591_00004.txt Node
Date: Wed Jan 03 11:44:02 EST 2024
User: Yrep
Spectrometer: HR+D1059
Trigger mode: 1
Integration Time (sec): 1.000000E-1
Scans to average: 1
Electric dark correction enabled: true
Nonlinearity correction enabled: false
Boxcar width: 0
XAxis mode: Wavelengths
Number of Pixels in Spectrum: 2048
>>>>>Begin Spectral Data<<<<<
223.165	-6.81
223.4	-6.81
223.635	-6.81
223.869	-11.81
224.104	-9.81
224.338	-5.81
224.573	-12.81
224.808	-10.81
225.042	-16.81
225.277	0.19
225.511	-6.81
225.746	-4.81
225.98	-3.81
226.215	1.19
226.449	17.19
226.683	26.19
226.918	16.19
227.152	29.19
227.387	19.19
227.621	38.19
227.856	51.19
228.09	53.19
228.324	44.19
228.559	54.19
228.793	56.19
229.027	75.19
229.262	69.19
229.496	66.19
229.73	70.19
229.964	68.19
230.199	75.19
230.433	69.19
230.667	86.19
230.901	79.19
231.136	79.19
231.37	75.19
231.604	84.19
231.838	79.19
232.072	81.19
232.306	77.19
232.541	87.19
232.775	85.19
233.009	83.19
233.243	80.19
233.477	94.19
233.711	80.19
233.945	81.19
234.179	81.19
234.413	90.19
234.647	83.19
234.881	89.19
235.115	83.19
235.349	82.19
235.583	80.19
235.817	82.19
236.051	68.19
236.285	75.19
236.519	91.19
236.753	71.19
236.987	91.19
237.221	84.19
237.455	64.19
237.689	100.19
237.922	77.19
238.156	70.19
238.39	73.19
238.624	86.19
238.858	75.19
239.091	75.19
239.325	70.19
239.559	88.19
239.793	86.19
240.027	77.19
240.26	76.19
240.494	95.19
240.728	76.19
240.961	77.19
241.195	78.19
241.429	74.19
241.662	77.19
241.896	81.19
242.13	63.19
242.363	67.19
242.597	84.19
242.83	81.19
243.064	78.19
243.298	84.19
243.531	78.19
243.765	96.19
243.998	87.19
244.232	80.19
244.465	82.19
244.699	93.19
244.932	89.19
245.166	65.19
245.399	89.19
245.633	81.19
245.866	68.19
246.099	73.19
246.333	73.19
246.566	89.19
246.8	87.19
247.033	80.19
247.266	83.19
247.5	85.19
247.733	85.19
247.966	91.19
248.2	87.19
248.433	82.19
248.666	84.19
248.899	89.19
249.133	91.19
249.366	89.19
249.599	85.19
249.832	92.19
250.066	79.19
250.299	85.19
250.532	81.19
250.765	88.19
250.998	90.19
251.231	81.19
251.465	73.19
251.698	78.19
251.931	95.19
252.164	62.19
252.397	79.19
252.63	80.19
252.863	87.19
253.096	86.19
253.329	90.19
253.562	93.19
253.795	78.19
254.028	85.19
254.261	85.19
254.494	69.19
254.727	70.19
254.96	77.19
255.193	77.19
255.426	81.19
255.659	77.19
255.892	70.19
256.124	89.19
256.357	79.19
256.59	77.19
256.823	85.19
257.056	84.19
257.289	77.19
257.521	73.19
257.754	77.19
257.987	76.19
258.22	79.19
258.452	77.19
258.685	63.19
258.918	93.19
259.151	85.19
259.383	83.19
259.616	73.19
259.849	95.19
260.081	75.19
260.314	79.19
260.547	69.19
260.779	69.19
261.012	75.19
261.244	97.19
261.477	91.19
261.71	96.19
261.942	85.19
262.175	89.19
262.407	89.19
262.64	81.19
262.872	100.19
263.105	95.19
263.337	86.19
263.57	81.19
263.802	85.19
264.035	89.19
264.267	70.19
264.499	81.19
264.732	83.19
264.964	76.19
265.197	98.19
265.429	89.19
265.661	83.19
265.894	84.19
266.126	77.19
266.358	74.19
266.591	80.19
266.823	94.19
267.055	84.19
267.287	84.19
267.52	82.19
267.752	80.19
267.984	76.19
268.216	102.19
268.448	88.19
268.681	89.19
268.913	87.19
269.145	84.19
269.377	81.19
269.609	82.19
269.841	83.19
270.073	89.19
270.306	86.19
270.538	81.19
270.77	88.19
271.002	81.19
271.234	85.19
271.466	80.19
271.698	71.19
271.93	91.19
272.162	71.19
272.394	75.19
272.626	76.19
272.858	71.19
273.09	95.19
273.322	98.19
273.553	103.19
273.785	93.19
274.017	83.19
274.249	70.19
274.481	85.19
274.713	91.19
274.945	98.19
275.176	77.19
275.408	81.19
275.64	84.19
275.872	95.19
276.104	85.19
276.335	96.19
276.567	91.19
276.799	101.19
277.031	91.19
277.262	95.19
277.494	93.19
277.726	98.19
277.957	84.19
278.189	84.19
278.421	87.19
278.652	93.19
278.884	80.19
279.115	83.19
279.347	94.19
279.579	86.19
279.81	86.19
280.042	83.19
280.273	87.19
280.505	80.19
280.736	97.19
280.968	97.19
281.199	101.19
281.431	85.19
281.662	81.19
281.894	92.19
282.125	82.19
282.356	104.19
282.588	121.19
282.819	97.19
283.051	77.19
283.282	87.19
283.513	83.19
283.745	84.19
283.976	88.19
284.207	89.19
284.439	76.19
284.67	93.19
284.901	99.19
285.132	82.19
285.364	95.19
285.595	89.19
285.826	98.19
286.057	90.19
286.288	100.19
286.52	93.19
286.751	81.19
286.982	91.19
287.213	81.19
287.444	100.19
287.675	92.19
287.906	80.19
288.138	86.19
288.369	90.19
288.6	89.19
288.831	69.19
289.062	89.19
289.293	91.19
289.524	95.19
289.755	77.19
289.986	91.19
290.217	100.19
290.448	91.19
290.679	86.19
290.91	81.19
291.141	89.19
291.371	94.19
291.602	89.19
291.833	97.19
292.064	99.19
292.295	90.19
292.526	90.19
292.757	99.19
292.987	90.19
293.218	91.19
293.449	110.19
293.68	111.19
293.91	86.19
294.141	84.19
294.372	85.19
294.603	94.19
294.833	95.19
295.064	93.19
295.295	91.19
295.525	82.19
295.756	103.19
295.987	97.19
296.217	115.19
296.448	95.19
296.679	77.19
296.909	75.19
297.14	86.19
297.37	84.19
297.601	86.19
297.831	106.19
298.062	78.19
298.292	88.19
298.523	97.19
298.753	111.19
298.984	98.19
299.214	107.19
299.445	95.19
299.675	86.19
299.905	81.19
300.136	94.19
300.366	83.19
300.597	81.19
300.827	104.19
301.057	88.19
301.288	93.19
301.518	86.19
301.748	85.19
301.979	93.19
302.209	89.19
302.439	95.19
302.669	101.19
302.9	92.19
303.13	92.19
303.36	101.19
303.59	93.19
303.82	102.19
304.051	100.19
304.281	96.19
304.511	98.19
304.741	88.19
304.971	80.19
305.201	92.19
305.431	110.19
305.661	78.19
305.891	89.19
306.121	95.19
306.352	84.19
306.582	96.19
306.812	97.19
307.042	90.19
307.272	97.19
307.502	85.19
307.731	89.19
307.961	97.19
308.191	84.19
308.421	103.19
308.651	87.19
308.881	91.19
309.111	105.19
309.341	78.19
309.571	90.19
309.8	102.19
310.03	98.19
310.26	101.19
310.49	91.19
310.72	91.19
310.949	92.19
311.179	70.19
311.409	78.19
311.639	88.19
311.868	104.19
312.098	99.19
312.328	86.19
312.557	98.19
312.787	93.19
313.017	97.19
313.246	89.19
313.476	101.19
313.706	89.19
313.935	83.19
314.165	79.19
314.394	100.19
314.624	86.19
314.853	104.19
315.083	91.19
315.312	76.19
315.542	96.19
315.771	107.19
316.001	108.19
316.23	91.19
316.46	94.19
316.689	69.19
316.919	85.19
317.148	92.19
317.377	95.19
317.607	97.19
317.836	84.19
318.065	89.19
318.295	86.19
318.524	95.19
318.753	99.19
318.983	95.19
319.212	105.19
319.441	90.19
319.67	96.19
319.9	95.19
320.129	95.19
320.358	97.19
320.587	77.19
320.816	79.19
321.046	90.19
321.275	98.19
321.504	90.19
321.733	81.19
321.962	95.19
322.191	95.19
322.42	91.19
322.649	102.19
322.878	107.19
323.108	90.19
323.337	113.19
323.566	109.19
323.795	131.19
324.024	168.19
324.253	286.19
324.482	572.19
324.71	1053.19
324.939	1430.19
325.168	534.19
325.397	180.19
325.626	125.19
325.855	114.19
326.084	119.19
326.313	111.19
326.542	139.19
326.77	193.19
326.999	325.19
327.228	658.19
327.457	1157.19
327.686	903.19
327.914	273.19
328.143	155.19
328.372	129.19
328.6	108.19
328.829	96.19
329.058	102.19
329.287	114.19
329.515	103.19
329.744	93.19
329.972	107.19
330.201	96.19
330.43	109.19
330.658	115.19
330.887	126.19
331.115	101.19
331.344	98.19
331.572	89.19
331.801	97.19
332.03	92.19
332.258	97.19
332.486	91.19
332.715	88.19
332.943	107.19
333.172	98.19
333.4	98.19
333.629	104.19
333.857	116.19
334.085	93.19
334.314	101.19
334.542	110.19
334.771	115.19
334.999	103.19
335.227	81.19
335.455	96.19
335.684	101.19
335.912	89.19
336.14	98.19
336.369	97.19
336.597	91.19
336.825	107.19
337.053	80.19
337.281	96.19
337.51	94.19
337.738	102.19
337.966	90.19
338.194	95.19
338.422	98.19
338.65	98.19
338.878	97.19
339.106	95.19
339.334	97.19
339.562	82.19
339.79	78.19
340.018	100.19
340.246	78.19
340.474	93.19
340.702	92.19
340.93	95.19
341.158	93.19
341.386	92.19
341.614	90.19
341.842	91.19
342.07	93.19
342.298	91.19
342.526	89.19
342.754	89.19
342.981	99.19
343.209	89.19
343.437	93.19
343.665	93.19
343.893	98.19
344.12	96.19
344.348	97.19
344.576	92.19
344.804	93.19
345.031	94.19
345.259	90.19
345.487	98.19
345.714	86.19
345.942	101.19
346.17	95.19
346.397	95.19
346.625	98.19
346.853	88.19
347.08	92.19
347.308	89.19
347.535	99.19
347.763	98.19
347.99	90.19
348.218	93.19
348.445	109.19
348.673	88.19
348.9	83.19
349.128	120.19
349.355	83.19
349.583	107.19
349.81	96.19
350.037	104.19
350.265	102.19
350.492	89.19
350.72	88.19
350.947	91.19
351.174	100.19
351.402	91.19
351.629	116.19
351.856	122.19
352.083	101.19
352.311	108.19
352.538	102.19
352.765	87.19
352.992	107.19
353.22	101.19
353.447	94.19
353.674	118.19
353.901	104.19
354.128	99.19
354.355	115.19
354.583	98.19
354.81	117.19
355.037	115.19
355.264	90.19
355.491	99.19
355.718	106.19
355.945	112.19
356.172	100.19
356.399	110.19
356.626	107.19
356.853	102.19
357.08	106.19
357.307	111.19
357.534	98.19
357.761	97.19
357.988	116.19
358.215	123.19
358.441	113.19
358.668	122.19
358.895	115.19
359.122	124.19
359.349	103.19
359.576	92.19
359.802	95.19
360.029	103.19
360.256	99.19
360.483	104.19
360.709	77.19
360.936	88.19
361.163	85.19
361.39	92.19
361.616	92.19
361.843	84.19
362.07	103.19
362.296	93.19
362.523	90.19
362.749	91.19
362.976	97.19
363.203	102.19
363.429	91.19
363.656	92.19
363.882	91.19
364.109	81.19
364.335	82.19
364.562	79.19
364.788	80.19
365.015	90.19
365.241	90.19
365.468	115.19
365.694	100.19
365.92	94.19
366.147	91.19
366.373	98.19
366.599	92.19
366.826	73.19
367.052	83.19
367.278	87.19
367.505	88.19
367.731	78.19
367.957	107.19
368.184	86.19
368.41	95.19
368.636	106.19
368.862	97.19
369.089	102.19
369.315	89.19
369.541	86.19
369.767	103.19
369.993	96.19
370.219	73.19
370.445	95.19
370.672	83.19
370.898	109.19
371.124	106.19
371.35	95.19
371.576	85.19
371.802	105.19
372.028	91.19
372.254	94.19
372.48	108.19
372.706	101.19
372.932	89.19
373.158	98.19
373.384	90.19
373.61	110.19
373.835	102.19
374.061	84.19
374.287	86.19
374.513	80.19
374.739	106.19
374.965	100.19
375.191	99.19
375.416	88.19
375.642	97.19
375.868	95.19
376.094	92.19
376.319	104.19
376.545	98.19
376.771	94.19
376.997	90.19
377.222	108.19
377.448	106.19
377.674	121.19
377.899	112.19
378.125	107.19
378.35	117.19
378.576	106.19
378.802	103.19
379.027	111.19
379.253	108.19
379.478	123.19
379.704	116.19
379.929	121.19
380.155	123.19
380.38	115.19
380.606	123.19
380.831	133.19
381.057	115.19
381.282	132.19
381.507	128.19
381.733	137.19
381.958	131.19
382.184	136.19
382.409	134.19
382.634	136.19
382.86	144.19
383.085	141.19
383.31	156.19
383.535	148.19
383.761	158.19
383.986	162.19
384.211	148.19
384.436	151.19
384.662	154.19
384.887	187.19
385.112	195.19
385.337	190.19
385.562	204.19
385.787	177.19
386.013	187.19
386.238	181.19
386.463	169.19
386.688	179.19
386.913	192.19
387.138	193.19
387.363	179.19
387.588	140.19
387.813	146.19
388.038	163.19
388.263	201.19
388.488	205.19
388.713	121.19
388.938	124.19
389.163	104.19
389.387	106.19
389.612	86.19
389.837	85.19
390.062	102.19
390.287	104.19
390.512	89.19
390.736	97.19
390.961	95.19
391.186	97.19
391.411	100.19
391.636	102.19
391.86	89.19
392.085	78.19
392.31	89.19
392.534	94.19
392.759	118.19
392.984	113.19
393.208	152.19
393.433	226.19
393.658	190.19
393.882	97.19
394.107	86.19
394.331	80.19
394.556	88.19
394.78	92.19
395.005	84.19
395.229	85.19
395.454	94.19
395.678	98.19
395.903	95.19
396.127	98.19
396.352	96.19
396.576	102.19
396.801	136.19
397.025	164.19
397.249	106.19
397.474	92.19
397.698	86.19
397.922	83.19
398.147	91.19
398.371	91.19
398.595	86.19
398.82	88.19
399.044	90.19
399.268	82.19
399.492	94.19
399.717	94.19
399.941	101.19
400.165	84.19
400.389	96.19
400.613	94.19
400.837	91.19
401.062	91.19
401.286	98.19
401.51	102.19
401.734	99.19
401.958	101.19
402.182	120.19
402.406	107.19
402.63	103.19
402.854	89.19
403.078	84.19
403.302	99.19
403.526	101.19
403.75	84.19
403.974	83.19
404.198	97.19
404.422	106.19
404.645	90.19
404.869	104.19
405.093	85.19
405.317	109.19
405.541	114.19
405.765	107.19
405.988	110.19
406.212	137.19
406.436	162.19
406.66	114.19
406.883	90.19
407.107	85.19
407.331	101.19
407.555	107.19
407.778	91.19
408.002	110.19
408.226	91.19
408.449	83.19
408.673	89.19
408.896	113.19
409.12	91.19
409.344	87.19
409.567	103.19
409.791	89.19
410.014	118.19
410.238	96.19
410.461	102.19
410.685	87.19
410.908	107.19
411.132	116.19
411.355	98.19
411.578	91.19
411.802	78.19
412.025	78.19
412.249	92.19
412.472	99.19
412.695	94.19
412.919	107.19
413.142	107.19
413.365	86.19
413.589	92.19
413.812	85.19
414.035	97.19
414.258	110.19
414.482	102.19
414.705	99.19
414.928	109.19
415.151	102.19
415.374	103.19
415.597	105.19
415.821	97.19
416.044	96.19
416.267	95.19
416.49	105.19
416.713	108.19
416.936	97.19
417.159	107.19
417.382	95.19
417.605	90.19
417.828	95.19
418.051	101.19
418.274	98.19
418.497	102.19
418.72	91.19
418.943	88.19
419.166	90.19
419.389	94.19
419.611	104.19
419.834	106.19
420.057	97.19
420.28	91.19
420.503	88.19
420.726	83.19
420.948	90.19
421.171	91.19
421.394	102.19
421.617	92.19
421.839	108.19
422.062	91.19
422.285	109.19
422.507	126.19
422.73	159.19
422.953	159.19
423.175	96.19
423.398	101.19
423.621	74.19
423.843	86.19
424.066	94.19
424.288	89.19
424.511	87.19
424.733	92.19
424.956	100.19
425.178	98.19
425.401	90.19
425.623	82.19
425.846	88.19
426.068	93.19
426.291	94.19
426.513	92.19
426.735	99.19
426.958	97.19
427.18	102.19
427.402	107.19
427.625	140.19
427.847	130.19
428.069	115.19
428.292	94.19
428.514	89.19
428.736	81.19
428.958	95.19
429.181	89.19
429.403	84.19
429.625	76.19
429.847	83.19
430.069	97.19
430.292	94.19
430.514	86.19
430.736	89.19
430.958	94.19
431.18	87.19
431.402	87.19
431.624	82.19
431.846	93.19
432.068	85.19
432.29	82.19
432.512	97.19
432.734	104.19
432.956	92.19
433.178	83.19
433.4	79.19
433.622	93.19
433.844	90.19
434.066	84.19
434.287	94.19
434.509	74.19
434.731	93.19
434.953	93.19
435.175	91.19
435.397	96.19
435.618	97.19
435.84	99.19
436.062	93.19
436.284	108.19
436.505	94.19
436.727	93.19
436.949	98.19
437.17	75.19
437.392	92.19
437.614	76.19
437.835	95.19
438.057	112.19
438.278	93.19
438.5	104.19
438.721	101.19
438.943	98.19
439.165	91.19
439.386	101.19
439.608	86.19
439.829	85.19
440.05	107.19
440.272	125.19
440.493	93.19
440.715	84.19
440.936	86.19
441.158	72.19
441.379	85.19
441.6	87.19
441.822	96.19
442.043	86.19
442.264	104.19
442.486	93.19
442.707	87.19
442.928	95.19
443.149	112.19
443.371	111.19
443.592	93.19
443.813	107.19
444.034	85.19
444.255	98.19
444.476	94.19
444.698	82.19
444.919	101.19
445.14	131.19
445.361	113.19
445.582	106.19
445.803	106.19
446.024	110.19
446.245	116.19
446.466	92.19
446.687	90.19
446.908	104.19
447.129	83.19
447.35	85.19
447.571	80.19
447.792	82.19
448.013	96.19
448.234	81.19
448.455	77.19
448.675	111.19
448.896	97.19
449.117	91.19
449.338	88.19
449.559	130.19
449.779	114.19
450	98.19
450.221	90.19
450.442	99.19
450.662	91.19
450.883	92.19
451.104	93.19
451.324	98.19
451.545	97.19
451.766	89.19
451.986	101.19
452.207	95.19
452.428	92.19
452.648	98.19
452.869	85.19
453.089	109.19
453.31	94.19
453.53	86.19
453.751	82.19
453.971	90.19
454.192	97.19
454.412	82.19
454.633	80.19
454.853	86.19
455.073	99.19
455.294	101.19
455.514	83.19
455.734	86.19
455.955	78.19
456.175	87.19
456.395	100.19
456.616	83.19
456.836	89.19
457.056	85.19
457.276	86.19
457.497	99.19
457.717	87.19
457.937	78.19
458.157	87.19
458.377	92.19
458.598	90.19
458.818	124.19
459.038	103.19
459.258	106.19
459.478	86.19
459.698	94.19
459.918	97.19
460.138	81.19
460.358	81.19
460.578	90.19
460.798	93.19
461.018	89.19
461.238	85.19
461.458	83.19
461.678	87.19
461.898	79.19
462.118	86.19
462.338	86.19
462.558	94.19
462.777	92.19
462.997	94.19
463.217	86.19
463.437	79.19
463.657	85.19
463.876	90.19
464.096	84.19
464.316	91.19
464.536	85.19
464.755	80.19
464.975	103.19
465.195	112.19
465.414	109.19
465.634	97.19
465.854	77.19
466.073	89.19
466.293	93.19
466.512	91.19
466.732	90.19
466.951	95.19
467.171	104.19
467.391	89.19
467.61	105.19
467.829	95.19
468.049	85.19
468.268	93.19
468.488	101.19
468.707	80.19
468.927	94.19
469.146	90.19
469.365	86.19
469.585	77.19
469.804	86.19
470.023	82.19
470.243	79.19
470.462	88.19
470.681	85.19
470.901	89.19
471.12	100.19
471.339	84.19
471.558	85.19
471.777	82.19
471.997	87.19
472.216	115.19
472.435	114.19
472.654	103.19
472.873	89.19
473.092	99.19
473.311	90.19
473.53	84.19
473.749	93.19
473.968	94.19
474.187	93.19
474.406	86.19
474.625	94.19
474.844	104.19
475.063	69.19
475.282	85.19
475.501	85.19
475.72	82.19
475.939	82.19
476.158	81.19
476.377	70.19
476.596	94.19
476.814	101.19
477.033	81.19
477.252	85.19
477.471	93.19
477.69	84.19
477.908	87.19
478.127	92.19
478.346	93.19
478.564	82.19
478.783	100.19
479.002	100.19
479.22	82.19
479.439	87.19
479.658	102.19
479.876	92.19
480.095	83.19
480.313	91.19
480.532	87.19
480.751	88.19
480.969	109.19
481.188	146.19
481.406	123.19
481.624	98.19
481.843	92.19
482.061	87.19
482.28	89.19
482.498	89.19
482.717	81.19
482.935	86.19
483.153	89.19
483.372	78.19
483.59	73.19
483.808	92.19
484.027	89.19
484.245	101.19
484.463	93.19
484.681	89.19
484.9	105.19
485.118	104.19
485.336	101.19
485.554	115.19
485.772	108.19
485.99	116.19
486.209	114.19
486.427	120.19
486.645	101.19
486.863	107.19
487.081	107.19
487.299	99.19
487.517	96.19
487.735	101.19
487.953	103.19
488.171	94.19
488.389	94.19
488.607	90.19
488.825	97.19
489.043	97.19
489.261	87.19
489.479	86.19
489.696	90.19
489.914	97.19
490.132	84.19
490.35	93.19
490.568	103.19
490.786	85.19
491.003	94.19
491.221	91.19
491.439	108.19
491.657	115.19
491.874	86.19
492.092	99.19
492.31	90.19
492.527	91.19
492.745	89.19
492.963	76.19
493.18	83.19
493.398	85.19
493.615	93.19
493.833	95.19
494.05	82.19
494.268	100.19
494.485	83.19
494.703	71.19
494.92	99.19
495.138	85.19
495.355	90.19
495.573	90.19
495.79	94.19
496.008	89.19
496.225	98.19
496.442	83.19
496.66	94.19
496.877	92.19
497.094	91.19
497.312	89.19
497.529	85.19
497.746	88.19
497.963	96.19
498.181	102.19
498.398	89.19
498.615	94.19
498.832	88.19
499.049	84.19
499.267	93.19
499.484	86.19
499.701	92.19
499.918	91.19
500.135	88.19
500.352	79.19
500.569	97.19
500.786	85.19
501.003	86.19
501.22	101.19
501.437	93.19
501.654	90.19
501.871	99.19
502.088	91.19
502.305	108.19
502.522	98.19
502.739	82.19
502.956	83.19
503.172	88.19
503.389	86.19
503.606	102.19
503.823	84.19
504.04	93.19
504.256	85.19
504.473	72.19
504.69	93.19
504.907	83.19
505.123	107.19
505.34	79.19
505.557	98.19
505.773	94.19
505.99	105.19
506.207	83.19
506.423	79.19
506.64	98.19
506.856	89.19
507.073	90.19
507.289	96.19
507.506	104.19
507.722	101.19
507.939	92.19
508.155	94.19
508.372	85.19
508.588	79.19
508.805	91.19
509.021	81.19
509.238	86.19
509.454	89.19
509.67	94.19
509.887	102.19
510.103	101.19
510.319	153.19
510.536	500.19
510.752	1430.19
510.968	429.19
511.184	115.19
511.401	103.19
511.617	105.19
511.833	79.19
512.049	86.19
512.265	89.19
512.481	90.19
512.698	99.19
512.914	86.19
513.13	85.19
513.346	90.19
513.562	90.19
513.778	94.19
513.994	109.19
514.21	86.19
514.426	93.19
514.642	123.19
514.858	113.19
515.074	133.19
515.29	286.19
