Data from Circ_1993_H10_HRD10591_00064.txt Node
Date: Wed Jan 03 11:44:14 EST 2024
User: Yrep
Spectrometer: HR+D1059
Trigger mode: 1
Integration Time (sec): 1.000000E-1
Scans to average: 1
Electric dark correction enabled: true
Nonlinearity correction enabled: false
Boxcar width: 0
XAxis mode: Wavelengths
Number of Pixels in Spectrum: 2048
>>>>>Begin Spectral Data<<<<<
223.165	-14.5
223.4	-14.5
223.635	-14.5
223.869	-0.5
224.104	-24.5
224.338	-19.5
224.573	-8.5
224.808	-10.5
225.042	-14.5
225.277	-5.5
225.511	-1.5
225.746	-2.5
225.98	1.5
226.215	5.5
226.449	10.5
226.683	21.5
226.918	29.5
227.152	33.5
227.387	29.5
227.621	43.5
227.856	47.5
228.09	53.5
228.324	54.5
228.559	52.5
228.793	70.5
229.027	63.5
229.262	72.5
229.496	57.5
229.73	76.5
229.964	83.5
230.199	73.5
230.433	61.5
230.667	86.5
230.901	75.5
231.136	72.5
231.37	92.5
231.604	89.5
231.838	76.5
232.072	69.5
232.306	97.5
232.541	86.5
232.775	81.5
233.009	101.5
233.243	73.5
233.477	80.5
233.711	84.5
233.945	77.5
234.179	69.5
234.413	83.5
234.647	67.5
234.881	70.5
235.115	64.5
235.349	65.5
235.583	76.5
235.817	73.5
236.051	85.5
236.285	79.5
236.519	77.5
236.753	76.5
236.987	86.5
237.221	86.5
237.455	66.5
237.689	81.5
237.922	66.5
238.156	75.5
238.39	80.5
238.624	68.5
238.858	75.5
239.091	78.5
239.325	85.5
239.559	77.5
239.793	77.5
240.027	86.5
240.26	67.5
240.494	87.5
240.728	78.5
240.961	74.5
241.195	69.5
241.429	92.5
241.662	89.5
241.896	81.5
242.13	86.5
242.363	84.5
242.597	82.5
242.83	79.5
243.064	86.5
243.298	71.5
243.531	79.5
243.765	77.5
243.998	82.5
244.232	89.5
244.465	86.5
244.699	84.5
244.932	77.5
245.166	60.5
245.399	71.5
245.633	83.5
245.866	74.5
246.099	82.5
246.333	85.5
246.566	68.5
246.8	84.5
247.033	80.5
247.266	81.5
247.5	71.5
247.733	79.5
247.966	87.5
248.2	71.5
248.433	62.5
248.666	78.5
248.899	75.5
249.133	92.5
249.366	87.5
249.599	89.5
249.832	75.5
250.066	89.5
250.299	66.5
250.532	78.5
250.765	92.5
250.998	69.5
251.231	75.5
251.465	95.5
251.698	85.5
251.931	71.5
252.164	91.5
252.397	94.5
252.63	78.5
252.863	87.5
253.096	65.5
253.329	88.5
253.562	75.5
253.795	92.5
254.028	92.5
254.261	88.5
254.494	81.5
254.727	83.5
254.96	83.5
255.193	84.5
255.426	75.5
255.659	87.5
255.892	86.5
256.124	80.5
256.357	86.5
256.59	77.5
256.823	83.5
257.056	83.5
257.289	85.5
257.521	82.5
257.754	82.5
257.987	90.5
258.22	95.5
258.452	85.5
258.685	80.5
258.918	66.5
259.151	89.5
259.383	80.5
259.616	79.5
259.849	74.5
260.081	79.5
260.314	83.5
260.547	83.5
260.779	76.5
261.012	83.5
261.244	91.5
261.477	82.5
261.71	82.5
261.942	103.5
262.175	103.5
262.407	79.5
262.64	81.5
262.872	71.5
263.105	88.5
263.337	86.5
263.57	78.5
263.802	75.5
264.035	81.5
264.267	76.5
264.499	74.5
264.732	83.5
264.964	77.5
265.197	66.5
265.429	83.5
265.661	81.5
265.894	92.5
266.126	90.5
266.358	89.5
266.591	87.5
266.823	91.5
267.055	77.5
267.287	86.5
267.52	69.5
267.752	90.5
267.984	91.5
268.216	93.5
268.448	89.5
268.681	81.5
268.913	63.5
269.145	79.5
269.377	95.5
269.609	90.5
269.841	106.5
270.073	93.5
270.306	73.5
270.538	80.5
270.77	93.5
271.002	73.5
271.234	73.5
271.466	96.5
271.698	88.5
271.93	85.5
272.162	91.5
272.394	93.5
272.626	87.5
272.858	89.5
273.09	91.5
273.322	89.5
273.553	62.5
273.785	77.5
274.017	67.5
274.249	88.5
274.481	68.5
274.713	94.5
274.945	84.5
275.176	84.5
275.408	82.5
275.64	83.5
275.872	93.5
276.104	81.5
276.335	82.5
276.567	92.5
276.799	94.5
277.031	83.5
277.262	93.5
277.494	103.5
277.726	76.5
277.957	77.5
278.189	95.5
278.421	94.5
278.652	77.5
278.884	81.5
279.115	99.5
279.347	91.5
279.579	92.5
279.81	94.5
280.042	98.5
280.273	94.5
280.505	90.5
280.736	101.5
280.968	94.5
281.199	82.5
281.431	82.5
281.662	93.5
281.894	82.5
282.125	101.5
282.356	113.5
282.588	134.5
282.819	99.5
283.051	98.5
283.282	82.5
283.513	82.5
283.745	86.5
283.976	92.5
284.207	78.5
284.439	93.5
284.67	92.5
284.901	90.5
285.132	85.5
285.364	99.5
285.595	81.5
285.826	94.5
286.057	90.5
286.288	85.5
286.52	80.5
286.751	82.5
286.982	86.5
287.213	91.5
287.444	83.5
287.675	91.5
287.906	96.5
288.138	86.5
288.369	79.5
288.6	98.5
288.831	88.5
289.062	79.5
289.293	102.5
289.524	78.5
289.755	78.5
289.986	77.5
290.217	77.5
290.448	94.5
290.679	79.5
290.91	99.5
291.141	85.5
291.371	87.5
291.602	95.5
291.833	82.5
292.064	94.5
292.295	95.5
292.526	91.5
292.757	90.5
292.987	91.5
293.218	97.5
293.449	93.5
293.68	92.5
293.91	68.5
294.141	92.5
294.372	96.5
294.603	84.5
294.833	92.5
295.064	82.5
295.295	74.5
295.525	86.5
295.756	103.5
295.987	102.5
296.217	116.5
296.448	100.5
296.679	98.5
296.909	89.5
297.14	97.5
297.37	109.5
297.601	86.5
297.831	85.5
298.062	82.5
298.292	85.5
298.523	98.5
298.753	99.5
298.984	94.5
299.214	84.5
299.445	80.5
299.675	72.5
299.905	97.5
300.136	89.5
300.366	87.5
300.597	102.5
300.827	88.5
301.057	85.5
301.288	94.5
301.518	97.5
301.748	85.5
301.979	113.5
302.209	82.5
302.439	94.5
302.669	89.5
302.9	105.5
303.13	69.5
303.36	85.5
303.59	87.5
303.82	103.5
304.051	106.5
304.281	98.5
304.511	89.5
304.741	92.5
304.971	84.5
305.201	85.5
305.431	91.5
305.661	87.5
305.891	73.5
306.121	94.5
306.352	106.5
306.582	111.5
306.812	83.5
307.042	95.5
307.272	104.5
307.502	99.5
307.731	105.5
307.961	111.5
308.191	82.5
308.421	85.5
308.651	95.5
308.881	106.5
309.111	91.5
309.341	93.5
309.571	83.5
309.8	83.5
310.03	104.5
310.26	93.5
310.49	88.5
310.72	99.5
310.949	91.5
311.179	95.5
311.409	96.5
311.639	99.5
311.868	101.5
312.098	101.5
312.328	103.5
312.557	90.5
312.787	92.5
313.017	108.5
313.246	81.5
313.476	93.5
313.706	94.5
313.935	100.5
314.165	96.5
314.394	94.5
314.624	84.5
314.853	101.5
315.083	89.5
315.312	92.5
315.542	92.5
315.771	102.5
316.001	82.5
316.23	107.5
316.46	87.5
316.689	82.5
316.919	96.5
317.148	92.5
317.377	76.5
317.607	99.5
317.836	71.5
318.065	92.5
318.295	81.5
318.524	96.5
318.753	110.5
318.983	94.5
319.212	107.5
319.441	83.5
319.67	103.5
319.9	82.5
320.129	99.5
320.358	98.5
320.587	101.5
320.816	102.5
321.046	81.5
321.275	77.5
321.504	96.5
321.733	95.5
321.962	93.5
322.191	100.5
322.42	89.5
322.649	103.5
322.878	108.5
323.108	105.5
323.337	118.5
323.566	126.5
323.795	121.5
324.024	176.5
324.253	320.5
324.482	623.5
324.71	1298.5
324.939	1675.5
325.168	624.5
325.397	195.5
325.626	128.5
325.855	120.5
326.084	120.5
326.313	117.5
326.542	163.5
326.77	203.5
326.999	376.5
327.228	754.5
327.457	1307.5
327.686	1019.5
327.914	313.5
328.143	186.5
328.372	158.5
328.6	122.5
328.829	113.5
329.058	125.5
329.287	119.5
329.515	108.5
329.744	106.5
329.972	131.5
330.201	188.5
330.43	208.5
330.658	150.5
330.887	128.5
331.115	104.5
331.344	96.5
331.572	91.5
331.801	101.5
332.03	82.5
332.258	83.5
332.486	94.5
332.715	97.5
332.943	89.5
333.172	94.5
333.4	105.5
333.629	110.5
333.857	109.5
334.085	140.5
334.314	189.5
334.542	263.5
334.771	236.5
334.999	125.5
335.227	102.5
335.455	90.5
335.684	94.5
335.912	91.5
336.14	98.5
336.369	110.5
336.597	94.5
336.825	100.5
337.053	84.5
337.281	90.5
337.51	78.5
337.738	116.5
337.966	79.5
338.194	105.5
338.422	93.5
338.65	100.5
338.878	89.5
339.106	89.5
339.334	103.5
339.562	92.5
339.79	78.5
340.018	92.5
340.246	100.5
340.474	95.5
340.702	88.5
340.93	90.5
341.158	97.5
341.386	102.5
341.614	95.5
341.842	96.5
342.07	92.5
342.298	97.5
342.526	81.5
342.754	87.5
342.981	75.5
343.209	81.5
343.437	105.5
343.665	99.5
343.893	85.5
344.12	97.5
344.348	82.5
344.576	92.5
344.804	92.5
345.031	97.5
345.259	90.5
345.487	83.5
345.714	77.5
345.942	98.5
346.17	89.5
346.397	92.5
346.625	81.5
346.853	83.5
347.08	84.5
347.308	80.5
347.535	112.5
347.763	97.5
347.99	98.5
348.218	96.5
348.445	111.5
348.673	100.5
348.9	100.5
349.128	100.5
349.355	80.5
349.583	83.5
349.81	70.5
350.037	100.5
350.265	93.5
350.492	96.5
350.72	103.5
350.947	103.5
351.174	96.5
351.402	94.5
351.629	99.5
351.856	97.5
352.083	93.5
352.311	108.5
352.538	119.5
352.765	108.5
352.992	102.5
353.22	96.5
353.447	99.5
353.674	88.5
353.901	90.5
354.128	101.5
354.355	94.5
354.583	101.5
354.81	99.5
355.037	95.5
355.264	87.5
355.491	90.5
355.718	91.5
355.945	96.5
356.172	102.5
356.399	97.5
356.626	90.5
356.853	86.5
357.08	99.5
357.307	98.5
357.534	83.5
357.761	96.5
357.988	95.5
358.215	92.5
358.441	85.5
358.668	98.5
358.895	93.5
359.122	91.5
359.349	93.5
359.576	85.5
359.802	98.5
360.029	102.5
360.256	106.5
360.483	102.5
360.709	92.5
360.936	99.5
361.163	100.5
361.39	85.5
361.616	90.5
361.843	80.5
362.07	81.5
362.296	87.5
362.523	96.5
362.749	99.5
362.976	85.5
363.203	101.5
363.429	104.5
363.656	89.5
363.882	86.5
364.109	91.5
364.335	91.5
364.562	87.5
364.788	81.5
365.015	81.5
365.241	90.5
365.468	99.5
365.694	106.5
365.92	95.5
366.147	95.5
366.373	99.5
366.599	91.5
366.826	90.5
367.052	101.5
367.278	86.5
367.505	80.5
367.731	79.5
367.957	101.5
368.184	94.5
368.41	99.5
368.636	102.5
368.862	110.5
369.089	107.5
369.315	94.5
369.541	87.5
369.767	83.5
369.993	90.5
370.219	104.5
370.445	82.5
370.672	88.5
370.898	90.5
371.124	88.5
371.35	91.5
371.576	93.5
371.802	80.5
372.028	91.5
372.254	87.5
372.48	93.5
372.706	97.5
372.932	82.5
373.158	79.5
373.384	79.5
373.61	98.5
373.835	82.5
374.061	80.5
374.287	85.5
374.513	83.5
374.739	92.5
374.965	94.5
375.191	87.5
375.416	93.5
375.642	91.5
375.868	98.5
376.094	102.5
376.319	95.5
376.545	86.5
376.771	95.5
376.997	103.5
377.222	76.5
377.448	82.5
377.674	81.5
377.899	85.5
378.125	94.5
378.35	102.5
378.576	82.5
378.802	85.5
379.027	71.5
379.253	90.5
379.478	109.5
379.704	96.5
379.929	91.5
380.155	82.5
380.38	95.5
380.606	95.5
380.831	89.5
381.057	106.5
381.282	90.5
381.507	95.5
381.733	106.5
381.958	93.5
382.184	88.5
382.409	94.5
382.634	104.5
382.86	91.5
383.085	92.5
383.31	97.5
383.535	101.5
383.761	102.5
383.986	99.5
384.211	91.5
384.436	97.5
384.662	97.5
384.887	94.5
385.112	113.5
385.337	101.5
385.562	104.5
385.787	110.5
386.013	120.5
386.238	100.5
386.463	102.5
386.688	124.5
386.913	111.5
387.138	116.5
387.363	110.5
387.588	108.5
387.813	92.5
388.038	114.5
388.263	109.5
388.488	119.5
388.713	95.5
388.938	112.5
389.163	98.5
389.387	81.5
389.612	99.5
389.837	92.5
390.062	95.5
390.287	87.5
390.512	99.5
390.736	93.5
390.961	87.5
391.186	101.5
391.411	93.5
391.636	89.5
391.86	82.5
392.085	83.5
392.31	95.5
392.534	90.5
392.759	92.5
392.984	89.5
393.208	91.5
393.433	103.5
393.658	112.5
393.882	100.5
394.107	81.5
394.331	84.5
394.556	77.5
394.78	101.5
395.005	94.5
395.229	77.5
395.454	89.5
395.678	76.5
395.903	85.5
396.127	94.5
396.352	78.5
396.576	85.5
396.801	102.5
397.025	101.5
397.249	77.5
397.474	102.5
397.698	100.5
397.922	86.5
398.147	96.5
398.371	92.5
398.595	83.5
398.82	77.5
399.044	85.5
399.268	78.5
399.492	83.5
399.717	76.5
399.941	83.5
400.165	90.5
400.389	85.5
400.613	92.5
400.837	79.5
401.062	103.5
401.286	77.5
401.51	94.5
401.734	94.5
401.958	98.5
402.182	115.5
402.406	118.5
402.63	99.5
402.854	95.5
403.078	87.5
403.302	97.5
403.526	89.5
403.75	82.5
403.974	84.5
404.198	102.5
404.422	88.5
404.645	97.5
404.869	93.5
405.093	87.5
405.317	97.5
405.541	102.5
405.765	100.5
405.988	100.5
406.212	128.5
406.436	185.5
406.66	125.5
406.883	99.5
407.107	92.5
407.331	96.5
407.555	90.5
407.778	99.5
408.002	92.5
408.226	94.5
408.449	97.5
408.673	69.5
408.896	85.5
409.12	104.5
409.344	89.5
409.567	76.5
409.791	89.5
410.014	92.5
410.238	89.5
410.461	90.5
410.685	80.5
410.908	111.5
411.132	109.5
411.355	101.5
411.578	108.5
411.802	93.5
412.025	97.5
412.249	97.5
412.472	87.5
412.695	91.5
412.919	92.5
413.142	86.5
413.365	83.5
413.589	93.5
413.812	87.5
414.035	111.5
414.258	81.5
414.482	97.5
414.705	90.5
414.928	97.5
415.151	99.5
415.374	99.5
415.597	84.5
415.821	91.5
416.044	103.5
416.267	96.5
416.49	77.5
416.713	65.5
416.936	85.5
417.159	85.5
417.382	94.5
417.605	85.5
417.828	95.5
418.051	93.5
418.274	80.5
418.497	85.5
418.72	89.5
418.943	89.5
419.166	94.5
419.389	101.5
419.611	95.5
419.834	85.5
420.057	70.5
420.28	88.5
420.503	90.5
420.726	87.5
420.948	95.5
421.171	87.5
421.394	85.5
421.617	100.5
421.839	94.5
422.062	86.5
422.285	100.5
422.507	105.5
422.73	96.5
422.953	100.5
423.175	86.5
423.398	84.5
423.621	91.5
423.843	91.5
424.066	85.5
424.288	92.5
424.511	90.5
424.733	98.5
424.956	89.5
425.178	96.5
425.401	106.5
425.623	107.5
425.846	98.5
426.068	101.5
426.291	88.5
426.513	87.5
426.735	73.5
426.958	87.5
427.18	101.5
427.402	127.5
427.625	141.5
427.847	114.5
428.069	116.5
428.292	89.5
428.514	95.5
428.736	92.5
428.958	76.5
429.181	80.5
429.403	86.5
429.625	83.5
429.847	98.5
430.069	106.5
430.292	93.5
430.514	70.5
430.736	86.5
430.958	94.5
431.18	93.5
431.402	77.5
431.624	72.5
431.846	87.5
432.068	82.5
432.29	99.5
432.512	87.5
432.734	77.5
432.956	88.5
433.178	103.5
433.4	98.5
433.622	87.5
433.844	91.5
434.066	103.5
434.287	89.5
434.509	92.5
434.731	86.5
434.953	90.5
435.175	86.5
435.397	91.5
435.618	82.5
435.84	103.5
436.062	115.5
436.284	114.5
436.505	101.5
436.727	98.5
436.949	96.5
437.17	79.5
437.392	94.5
437.614	91.5
437.835	100.5
438.057	101.5
438.278	94.5
438.5	108.5
438.721	103.5
438.943	91.5
439.165	74.5
439.386	95.5
439.608	95.5
439.829	95.5
440.05	108.5
440.272	113.5
440.493	91.5
440.715	90.5
440.936	74.5
441.158	78.5
441.379	95.5
441.6	105.5
441.822	102.5
442.043	87.5
442.264	96.5
442.486	86.5
442.707	99.5
442.928	105.5
443.149	116.5
443.371	111.5
443.592	99.5
443.813	111.5
444.034	94.5
444.255	78.5
444.476	81.5
444.698	90.5
444.919	98.5
445.14	130.5
445.361	124.5
445.582	112.5
445.803	119.5
446.024	105.5
446.245	111.5
446.466	109.5
446.687	96.5
446.908	86.5
447.129	74.5
447.35	82.5
447.571	104.5
447.792	102.5
448.013	85.5
448.234	114.5
448.455	97.5
448.675	107.5
448.896	109.5
449.117	96.5
449.338	83.5
449.559	122.5
449.779	122.5
450	103.5
450.221	83.5
450.442	98.5
450.662	95.5
450.883	94.5
451.104	102.5
451.324	91.5
451.545	82.5
451.766	77.5
451.986	86.5
452.207	85.5
452.428	96.5
452.648	103.5
452.869	102.5
453.089	107.5
453.31	110.5
453.53	94.5
453.751	89.5
453.971	107.5
454.192	99.5
454.412	92.5
454.633	97.5
454.853	89.5
455.073	78.5
455.294	91.5
455.514	79.5
455.734	85.5
455.955	92.5
456.175	70.5
456.395	79.5
456.616	81.5
456.836	78.5
457.056	79.5
457.276	84.5
457.497	89.5
457.717	85.5
457.937	77.5
458.157	81.5
458.377	92.5
458.598	96.5
458.818	118.5
459.038	153.5
459.258	113.5
459.478	102.5
459.698	82.5
459.918	94.5
460.138	85.5
460.358	94.5
460.578	98.5
460.798	100.5
461.018	90.5
461.238	87.5
461.458	88.5
461.678	80.5
461.898	89.5
462.118	96.5
462.338	103.5
462.558	99.5
462.777	67.5
462.997	84.5
463.217	71.5
463.437	95.5
463.657	85.5
463.876	99.5
464.096	95.5
464.316	89.5
464.536	93.5
464.755	89.5
464.975	105.5
465.195	139.5
465.414	134.5
465.634	94.5
465.854	93.5
466.073	97.5
466.293	87.5
466.512	86.5
466.732	92.5
466.951	92.5
467.171	89.5
467.391	87.5
467.61	121.5
467.829	113.5
468.049	145.5
468.268	144.5
468.488	101.5
468.707	83.5
468.927	93.5
469.146	93.5
469.365	97.5
469.585	81.5
469.804	94.5
470.023	95.5
470.243	99.5
470.462	99.5
470.681	101.5
470.901	89.5
471.12	92.5
471.339	92.5
471.558	80.5
471.777	86.5
471.997	119.5
472.216	196.5
472.435	331.5
472.654	138.5
472.873	89.5
473.092	79.5
473.311	79.5
473.53	78.5
473.749	82.5
473.968	86.5
474.187	92.5
474.406	93.5
474.625	95.5
474.844	81.5
475.063	84.5
475.282	97.5
475.501	91.5
475.72	94.5
475.939	93.5
476.158	83.5
476.377	102.5
476.596	95.5
476.814	93.5
477.033	88.5
477.252	93.5
477.471	76.5
477.69	91.5
477.908	105.5
478.127	93.5
478.346	83.5
478.564	96.5
478.783	84.5
479.002	85.5
479.22	86.5
479.439	100.5
479.658	82.5
479.876	74.5
480.095	78.5
480.313	91.5
480.532	90.5
480.751	107.5
480.969	182.5
481.188	513.5
481.406	329.5
481.624	116.5
481.843	81.5
482.061	82.5
482.28	87.5
482.498	82.5
482.717	91.5
482.935	83.5
483.153	81.5
483.372	81.5
483.59	97.5
483.808	86.5
484.027	89.5
484.245	75.5
484.463	99.5
484.681	91.5
484.9	93.5
485.118	103.5
485.336	90.5
485.554	92.5
485.772	108.5
485.99	103.5
486.209	107.5
486.427	91.5
486.645	116.5
486.863	120.5
487.081	95.5
487.299	90.5
487.517	102.5
487.735	96.5
487.953	95.5
488.171	113.5
488.389	92.5
488.607	93.5
488.825	83.5
489.043	100.5
489.261	102.5
489.479	96.5
489.696	92.5
489.914	87.5
490.132	85.5
490.35	90.5
490.568	91.5
490.786	90.5
491.003	106.5
491.221	86.5
491.439	87.5
491.657	90.5
491.874	97.5
492.092	90.5
492.31	83.5
492.527	86.5
492.745	100.5
492.963	91.5
493.18	89.5
493.398	90.5
493.615	98.5
493.833	90.5
494.05	87.5
494.268	102.5
494.485	97.5
494.703	78.5
494.92	77.5
495.138	94.5
495.355	91.5
495.573	96.5
495.79	82.5
496.008	82.5
496.225	86.5
496.442	94.5
496.66	93.5
496.877	89.5
497.094	103.5
497.312	80.5
497.529	92.5
497.746	103.5
497.963	82.5
498.181	101.5
498.398	88.5
498.615	98.5
498.832	95.5
499.049	108.5
499.267	86.5
499.484	96.5
499.701	108.5
499.918	101.5
500.135	95.5
500.352	82.5
500.569	89.5
500.786	77.5
501.003	78.5
501.22	82.5
501.437	87.5
501.654	90.5
501.871	92.5
502.088	91.5
502.305	91.5
502.522	93.5
502.739	82.5
502.956	86.5
503.172	76.5
503.389	90.5
503.606	85.5
503.823	106.5
504.04	107.5
504.256	91.5
504.473	89.5
504.69	84.5
504.907	99.5
505.123	90.5
505.34	88.5
505.557	113.5
505.773	98.5
505.99	91.5
506.207	87.5
506.423	90.5
506.64	81.5
506.856	102.5
507.073	90.5
507.289	92.5
507.506	97.5
507.722	97.5
507.939	106.5
508.155	88.5
508.372	100.5
508.588	96.5
508.805	85.5
509.021	90.5
509.238	72.5
509.454	85.5
509.67	95.5
509.887	112.5
510.103	125.5
510.319	178.5
510.536	598.5
510.752	1826.5
510.968	524.5
511.184	124.5
511.401	113.5
511.617	91.5
511.833	90.5
512.049	94.5
512.265	90.5
512.481	91.5
512.698	91.5
512.914	98.5
513.13	84.5
513.346	92.5
513.562	80.5
513.778	101.5
513.994	95.5
514.21	101.5
514.426	111.5
514.642	103.5
514.858	104.5
515.074	133.5
515.29	334.5
515.506	1071.5
515.721	377.5
515.937	137.5
516.153	104.5
516.369	99.5
516.585	83.5
516.801	89.5
517.016	103.5
517.232	87.5
517.448	79.5
517.664	82.5
517.879	101.5
518.095	97.5
518.311	105.5
518.527	88.5
518.742	89.5
518.958	81.5
519.173	94.5
519.389	91.5
519.605	98.5
519.82	94.5
520.036	102.5
520.251	102.5
520.467	99.5
520.682	108.5
520.898	105.5
521.113	109.5
521.329	113.5
521.544	179.5
521.76	420.5
521.975	1746.5
522.19	1087.5
522.406	224.5
522.621	114.5
522.836	105.5
523.052	102.5
523.267	87.5
523.482	107.5
523.698	91.5
523.913	113.5
524.128	102.5
524.343	97.5
524.559	91.5
524.774	80.5
524.989	94.5
525.204	103.5
525.419	104.5
525.634	84.5
525.849	90.5
526.064	93.5
526.28	84.5
526.495	90.5
526.71	95.5
526.925	98.5
527.14	77.5
527.355	75.5
527.57	76.5
527.785	97.5
527.999	91.5
528.214	94.5
528.429	96.5
528.644	90.5
528.859	87.5
529.074	92.5
529.289	103.5
529.503	155.5
529.718	93.5
529.933	85.5
530.148	95.5
530.363	102.5
530.577	85.5
530.792	98.5
531.007	94.5
531.221	103.5
531.436	93.5
531.651	93.5
531.865	91.5
532.08	88.5
532.295	90.5
532.509	93.5
532.724	77.5
532.938	73.5
533.153	88.5
533.367	103.5
533.582	74.5
533.796	84.5
534.011	86.5
534.225	77.5
534.44	94.5
534.654	90.5
534.868	97.5
535.083	88.5
535.297	91.5
535.511	96.5
