Data from Circ_1993_H10_HRD10591_00095.txt Node
Date: Wed Jan 03 11:44:21 EST 2024
User: Yrep
Spectrometer: HR+D1059
Trigger mode: 1
Integration Time (sec): 1.000000E-1
Scans to average: 1
Electric dark correction enabled: true
Nonlinearity correction enabled: false
Boxcar width: 0
XAxis mode: Wavelengths
Number of Pixels in Spectrum: 2048
>>>>>Begin Spectral Data<<<<<
223.165	-14.75
223.4	-14.75
223.635	-14.75
223.869	-6.75
224.104	-19.75
224.338	-22.75
224.573	-28.75
224.808	-7.75
225.042	-15.75
225.277	-0.75
225.511	9.25
225.746	2.25
225.98	-3.75
226.215	15.25
226.449	17.25
226.683	19.25
226.918	17.25
227.152	40.25
227.387	37.25
227.621	38.25
227.856	45.25
228.09	51.25
228.324	51.25
228.559	63.25
228.793	157.25
229.027	434.25
229.262	498.25
229.496	600.25
229.73	807.25
229.964	799.25
230.199	549.25
230.433	477.25
230.667	457.25
230.901	452.25
231.136	444.25
231.37	455.25
231.604	441.25
231.838	460.25
232.072	459.25
232.306	464.25
232.541	464.25
232.775	490.25
233.009	468.25
233.243	477.25
233.477	484.25
233.711	492.25
233.945	513.25
234.179	532.25
234.413	516.25
234.647	531.25
234.881	509.25
235.115	533.25
235.349	553.25
235.583	570.25
235.817	616.25
236.051	629.25
236.285	618.25
236.519	623.25
236.753	684.25
236.987	919.25
237.221	1334.25
237.455	1443.25
237.689	882.25
237.922	749.25
238.156	738.25
238.39	681.25
238.624	673.25
238.858	651.25
239.091	645.25
239.325	681.25
239.559	691.25
239.793	728.25
240.027	779.25
240.26	925.25
240.494	980.25
240.728	962.25
240.961	898.25
241.195	816.25
241.429	810.25
241.662	784.25
241.896	784.25
242.13	801.25
242.363	798.25
242.597	807.25
242.83	885.25
243.064	865.25
243.298	852.25
243.531	839.25
243.765	875.25
243.998	885.25
244.232	891.25
244.465	916.25
244.699	911.25
244.932	941.25
245.166	943.25
245.399	907.25
245.633	947.25
245.866	924.25
246.099	957.25
246.333	962.25
246.566	1001.25
246.8	980.25
247.033	1044.25
247.266	1084.25
247.5	1111.25
247.733	1197.25
247.966	1183.25
248.2	1140.25
248.433	1145.25
248.666	1246.25
248.899	1391.25
249.133	1475.25
249.366	1491.25
249.599	1382.25
249.832	1322.25
250.066	1405.25
250.299	1679.25
250.532	1962.25
250.765	2038.25
250.998	2013.25
251.231	1756.25
251.465	1581.25
251.698	1518.25
251.931	1459.25
252.164	1439.25
252.397	1451.25
252.63	1501.25
252.863	1598.25
253.096	1752.25
253.329	1763.25
253.562	1657.25
253.795	1573.25
254.028	1631.25
254.261	1674.25
254.494	1881.25
254.727	2190.25
254.96	2274.25
255.193	2052.25
255.426	1960.25
255.659	2096.25
255.892	2593.25
256.124	3231.25
256.357	2835.25
256.59	2245.25
256.823	1977.25
257.056	1850.25
257.289	1750.25
257.521	1712.25
257.754	1695.25
257.987	1673.25
258.22	1645.25
258.452	1644.25
258.685	1635.25
258.918	1656.25
259.151	1710.25
259.383	1755.25
259.616	1825.25
259.849	1822.25
260.081	1984.25
260.314	2143.25
260.547	2051.25
260.779	1911.25
261.012	1814.25
261.244	1729.25
261.477	1727.25
261.71	1754.25
261.942	1828.25
262.175	1798.25
262.407	1771.25
262.64	1722.25
262.872	1684.25
263.105	1703.25
263.337	1696.25
263.57	1681.25
263.802	1704.25
264.035	1724.25
264.267	1716.25
264.499	1735.25
264.732	1745.25
264.964	1732.25
265.197	1730.25
265.429	1745.25
265.661	1748.25
265.894	1770.25
266.126	1815.25
266.358	1810.25
266.591	1840.25
266.823	1922.25
267.055	1896.25
267.287	1929.25
267.52	1920.25
267.752	1892.25
267.984	1935.25
268.216	1927.25
268.448	1991.25
268.681	2045.25
268.913	2170.25
269.145	2381.25
269.377	2418.25
269.609	2332.25
269.841	2297.25
270.073	2401.25
270.306	2644.25
270.538	2787.25
270.77	2629.25
271.002	2463.25
271.234	2482.25
271.466	2643.25
271.698	2745.25
271.93	2765.25
272.162	2815.25
272.394	2665.25
272.626	2477.25
272.858	2401.25
273.09	2337.25
273.322	2287.25
273.553	2231.25
273.785	2331.25
274.017	2244.25
274.249	2345.25
274.481	2358.25
274.713	2349.25
274.945	2377.25
275.176	2363.25
275.408	2361.25
275.64	2408.25
275.872	2367.25
276.104	2400.25
276.335	2466.25
276.567	2513.25
276.799	2734.25
277.031	2988.25
277.262	3093.25
277.494	2943.25
277.726	2717.25
277.957	2609.25
278.189	2578.25
278.421	2514.25
278.652	2531.25
278.884	2457.25
279.115	2478.25
279.347	2482.25
279.579	2497.25
279.81	2576.25
280.042	2645.25
280.273	2684.25
280.505	2671.25
280.736	2624.25
280.968	2567.25
281.199	2505.25
281.431	2555.25
281.662	2529.25
281.894	2576.25
282.125	2658.25
282.356	2793.25
282.588	2883.25
282.819	2726.25
283.051	2611.25
283.282	2577.25
283.513	2652.25
283.745	2662.25
283.976	2743.25
284.207	2752.25
284.439	2726.25
284.67	2721.25
284.901	2704.25
285.132	2724.25
285.364	2687.25
285.595	2679.25
285.826	2735.25
286.057	2764.25
286.288	2784.25
286.52	2778.25
286.751	2808.25
286.982	2828.25
287.213	2810.25
287.444	2832.25
287.675	2859.25
287.906	2970.25
288.138	2993.25
288.369	3002.25
288.6	2973.25
288.831	2898.25
289.062	2895.25
289.293	2918.25
289.524	2888.25
289.755	2895.25
289.986	2836.25
290.217	2835.25
290.448	2840.25
290.679	2907.25
290.91	2908.25
291.141	2887.25
291.371	2893.25
291.602	2859.25
291.833	2881.25
292.064	2861.25
292.295	2895.25
292.526	2908.25
292.757	2871.25
292.987	2907.25
293.218	2938.25
293.449	2911.25
293.68	2902.25
293.91	2912.25
294.141	2890.25
294.372	2863.25
294.603	2926.25
294.833	2930.25
295.064	2944.25
295.295	2942.25
295.525	2956.25
295.756	3054.25
295.987	3088.25
296.217	3257.25
296.448	3196.25
296.679	2991.25
296.909	2987.25
297.14	3059.25
297.37	3096.25
297.601	3117.25
297.831	3145.25
298.062	3125.25
298.292	3189.25
298.523	3208.25
298.753	3157.25
298.984	3174.25
299.214	3155.25
299.445	3215.25
299.675	3192.25
299.905	3277.25
300.136	3214.25
300.366	3194.25
300.597	3244.25
300.827	3371.25
301.057	3460.25
301.288	3474.25
301.518	3427.25
301.748	3443.25
301.979	3452.25
302.209	3478.25
302.439	3482.25
302.669	3351.25
302.9	3375.25
303.13	3442.25
303.36	3445.25
303.59	3461.25
303.82	3486.25
304.051	3459.25
304.281	3436.25
304.511	3415.25
304.741	3360.25
304.971	3373.25
305.201	3255.25
305.431	3293.25
305.661	3385.25
305.891	3283.25
306.121	3305.25
306.352	3439.25
306.582	3361.25
306.812	3369.25
307.042	3435.25
307.272	3442.25
307.502	3473.25
307.731	3483.25
307.961	3457.25
308.191	3410.25
308.421	3401.25
308.651	3411.25
308.881	3431.25
309.111	3453.25
309.341	3470.25
309.571	3561.25
309.8	3615.25
310.03	3693.25
310.26	3726.25
310.49	3721.25
310.72	3895.25
310.949	3941.25
311.179	3884.25
311.409	3761.25
311.639	3796.25
311.868	3774.25
312.098	3811.25
312.328	3800.25
312.557	4065.25
312.787	4115.25
313.017	4011.25
313.246	3945.25
313.476	3768.25
313.706	3891.25
313.935	4003.25
314.165	4103.25
314.394	4091.25
314.624	3961.25
314.853	3915.25
315.083	3914.25
315.312	3863.25
315.542	3822.25
315.771	3745.25
316.001	3748.25
316.23	3815.25
316.46	3783.25
316.689	3882.25
316.919	3897.25
317.148	3869.25
317.377	3897.25
317.607	3836.25
317.836	3852.25
318.065	3747.25
318.295	3805.25
318.524	3787.25
318.753	3853.25
318.983	3804.25
319.212	3807.25
319.441	3913.25
319.67	3889.25
319.9	3803.25
320.129	3775.25
320.358	3865.25
320.587	3872.25
320.816	3924.25
321.046	3966.25
321.275	3972.25
321.504	4027.25
321.733	4005.25
321.962	4083.25
322.191	4247.25
322.42	4320.25
322.649	4418.25
322.878	4429.25
323.108	4474.25
323.337	4788.25
323.566	4956.25
323.795	5161.25
324.024	5815.25
324.253	7667.25
324.482	11392.25
324.71	15612.25
324.939	15621.25
325.168	13332.25
325.397	6731.25
325.626	5431.25
325.855	5129.25
326.084	5009.25
326.313	5014.25
326.542	5175.25
326.77	5915.25
326.999	7511.25
327.228	10917.25
327.457	14861.25
327.686	14195.25
327.914	8245.25
328.143	7157.25
328.372	7082.25
328.6	6354.25
328.829	6027.25
329.058	6151.25
329.287	6221.25
329.515	5927.25
329.744	6163.25
329.972	7043.25
330.201	8277.25
330.43	9057.25
330.658	7644.25
330.887	6868.25
331.115	6245.25
331.344	5647.25
331.572	5486.25
331.801	5515.25
332.03	5512.25
332.258	5484.25
332.486	5440.25
332.715	5643.25
332.943	5842.25
333.172	5970.25
333.4	6281.25
333.629	6717.25
333.857	7207.25
334.085	8063.25
334.314	9647.25
334.542	11200.25
334.771	10438.25
334.999	7405.25
335.227	6430.25
335.455	6002.25
335.684	5712.25
335.912	5605.25
336.14	5389.25
336.369	5353.25
336.597	5405.25
336.825	5214.25
337.053	5231.25
337.281	5022.25
337.51	4984.25
337.738	4972.25
337.966	4909.25
338.194	4928.25
338.422	4803.25
338.65	4712.25
338.878	4719.25
339.106	4690.25
339.334	4635.25
339.562	4616.25
339.79	4522.25
340.018	4548.25
340.246	4591.25
340.474	4637.25
340.702	4609.25
340.93	4519.25
341.158	4572.25
341.386	4601.25
341.614	4610.25
341.842	4543.25
342.07	4460.25
342.298	4500.25
342.526	4437.25
342.754	4347.25
342.981	4477.25
343.209	4555.25
343.437	4813.25
343.665	5064.25
343.893	5231.25
344.12	5281.25
344.348	5052.25
344.576	4892.25
344.804	4850.25
345.031	4749.25
345.259	4727.25
345.487	4670.25
345.714	4536.25
345.942	4434.25
346.17	4352.25
346.397	4297.25
346.625	4343.25
346.853	4278.25
347.08	4298.25
347.308	4386.25
347.535	4426.25
347.763	4414.25
347.99	4433.25
348.218	4433.25
348.445	4461.25
348.673	4353.25
348.9	4333.25
349.128	4249.25
349.355	4201.25
349.583	4212.25
349.81	4227.25
350.037	4169.25
350.265	4123.25
350.492	4132.25
350.72	4188.25
350.947	4240.25
351.174	4361.25
351.402	4354.25
351.629	4309.25
351.856	4268.25
352.083	4382.25
352.311	4350.25
352.538	4381.25
352.765	4327.25
352.992	4289.25
353.22	4195.25
353.447	4207.25
353.674	4173.25
353.901	4171.25
354.128	4109.25
354.355	3999.25
354.583	4083.25
354.81	4149.25
355.037	4085.25
355.264	4073.25
355.491	4047.25
355.718	4076.25
355.945	4045.25
356.172	4049.25
356.399	4078.25
356.626	4041.25
356.853	4128.25
357.08	4065.25
357.307	4011.25
357.534	4061.25
357.761	4103.25
357.988	4149.25
358.215	4063.25
358.441	4076.25
358.668	4117.25
358.895	4166.25
359.122	4159.25
359.349	4291.25
359.576	4306.25
359.802	4612.25
360.029	4752.25
360.256	4781.25
360.483	4491.25
360.709	4282.25
360.936	4305.25
361.163	4315.25
361.39	4307.25
361.616	4346.25
361.843	4274.25
362.07	4347.25
362.296	4373.25
362.523	4279.25
362.749	4325.25
362.976	4246.25
363.203	4215.25
363.429	4132.25
363.656	4181.25
363.882	4196.25
364.109	4133.25
364.335	4154.25
364.562	4171.25
364.788	4147.25
365.015	4168.25
365.241	4172.25
365.468	4253.25
365.694	4230.25
365.92	4191.25
366.147	4173.25
366.373	4180.25
366.599	4172.25
366.826	4139.25
367.052	4117.25
367.278	4195.25
367.505	4166.25
367.731	4171.25
367.957	4220.25
368.184	4205.25
368.41	4315.25
368.636	4405.25
368.862	4393.25
369.089	4301.25
369.315	4235.25
369.541	4253.25
369.767	4256.25
369.993	4338.25
370.219	4275.25
370.445	4322.25
370.672	4304.25
370.898	4317.25
371.124	4386.25
371.35	4398.25
371.576	4449.25
371.802	4354.25
372.028	4389.25
372.254	4381.25
372.48	4452.25
372.706	4539.25
372.932	4555.25
373.158	4505.25
373.384	4497.25
373.61	4453.25
373.835	4490.25
374.061	4494.25
374.287	4560.25
374.513	4576.25
374.739	4753.25
374.965	4809.25
375.191	4863.25
375.416	4741.25
375.642	4622.25
375.868	4565.25
376.094	4525.25
376.319	4446.25
376.545	4428.25
376.771	4435.25
376.997	4391.25
377.222	4432.25
377.448	4400.25
377.674	4364.25
377.899	4371.25
378.125	4366.25
378.35	4329.25
378.576	4399.25
378.802	4289.25
379.027	4350.25
379.253	4340.25
379.478	4367.25
379.704	4393.25
379.929	4427.25
380.155	4378.25
380.38	4355.25
380.606	4412.25
380.831	4451.25
381.057	4435.25
381.282	4409.25
381.507	4438.25
381.733	4508.25
381.958	4521.25
382.184	4499.25
382.409	4590.25
382.634	4620.25
382.86	4602.25
383.085	4727.25
383.31	4747.25
383.535	4835.25
383.761	4905.25
383.986	4930.25
384.211	5079.25
384.436	5169.25
384.662	5154.25
384.887	5244.25
385.112	5155.25
385.337	5306.25
385.562	5316.25
385.787	5355.25
386.013	5347.25
386.238	5419.25
386.463	5375.25
386.688	5364.25
386.913	5268.25
387.138	5267.25
387.363	5264.25
387.588	5181.25
387.813	5250.25
388.038	5211.25
388.263	5250.25
388.488	5260.25
388.713	5264.25
388.938	5279.25
389.163	5127.25
389.387	5245.25
389.612	5159.25
389.837	5224.25
390.062	5186.25
390.287	5214.25
390.512	5153.25
390.736	5199.25
390.961	5323.25
391.186	5380.25
391.411	5631.25
391.636	5682.25
391.86	5761.25
392.085	5924.25
392.31	5760.25
392.534	5647.25
392.759	5561.25
392.984	5500.25
393.208	5491.25
393.433	5534.25
393.658	5466.25
393.882	5388.25
394.107	5497.25
394.331	5592.25
394.556	5506.25
394.78	5629.25
395.005	5636.25
395.229	5657.25
395.454	5820.25
395.678	5956.25
395.903	5916.25
396.127	5945.25
396.352	5772.25
396.576	5526.25
396.801	5619.25
397.025	5645.25
397.249	5827.25
397.474	5844.25
397.698	5996.25
397.922	6053.25
398.147	6141.25
398.371	6376.25
398.595	6330.25
398.82	6686.25
399.044	7251.25
399.268	8036.25
399.492	8948.25
399.717	9708.25
399.941	9421.25
400.165	8818.25
400.389	8075.25
400.613	7341.25
400.837	7000.25
401.062	6821.25
401.286	6641.25
401.51	6654.25
401.734	6676.25
401.958	6785.25
402.182	6851.25
402.406	6980.25
402.63	7070.25
402.854	7131.25
403.078	7115.25
403.302	7316.25
403.526	7435.25
403.75	7485.25
403.974	7528.25
404.198	7603.25
404.422	7765.25
404.645	7877.25
404.869	7872.25
405.093	8391.25
405.317	8911.25
405.541	8679.25
405.765	7992.25
405.988	7567.25
406.212	7698.25
406.436	7868.25
406.66	7979.25
406.883	7902.25
407.107	8536.25
407.331	8997.25
407.555	9489.25
407.778	9164.25
408.002	8414.25
408.226	8077.25
408.449	7943.25
408.673	7829.25
408.896	7969.25
409.12	8081.25
409.344	7586.25
409.567	7282.25
409.791	7236.25
410.014	7139.25
410.238	7164.25
410.461	7169.25
410.685	7177.25
410.908	7275.25
411.132	7464.25
411.355	7440.25
411.578	7189.25
411.802	7034.25
412.025	7141.25
412.249	7561.25
412.472	8052.25
412.695	8629.25
412.919	7799.25
413.142	7346.25
413.365	7018.25
413.589	6930.25
413.812	6824.25
414.035	6652.25
414.258	6604.25
414.482	6719.25
414.705	6720.25
414.928	6613.25
415.151	6586.25
415.374	6588.25
415.597	6501.25
415.821	6494.25
416.044	6498.25
416.267	6430.25
416.49	6401.25
416.713	6360.25
416.936	6505.25
417.159	6422.25
417.382	6593.25
417.605	6637.25
417.828	6784.25
418.051	6772.25
418.274	6673.25
418.497	6622.25
418.72	6687.25
418.943	6670.25
419.166	6997.25
419.389	7476.25
419.611	7410.25
419.834	7345.25
420.057	7361.25
420.28	7536.25
420.503	7367.25
420.726	7099.25
420.948	7133.25
421.171	7443.25
421.394	7338.25
421.617	6763.25
421.839	6709.25
422.062	6791.25
422.285	7009.25
422.507	7618.25
422.73	8129.25
422.953	7479.25
423.175	7097.25
423.398	7120.25
423.621	7135.25
423.843	7334.25
424.066	7355.25
424.288	7154.25
424.511	7403.25
424.733	7868.25
424.956	8271.25
425.178	7783.25
425.401	7972.25
425.623	7789.25
425.846	6854.25
426.068	6850.25
426.291	6634.25
426.513	6507.25
426.735	6719.25
426.958	7263.25
427.18	8062.25
427.402	9261.25
427.625	9551.25
427.847	8559.25
428.069	8195.25
428.292	6987.25
428.514	6420.25
428.736	6125.25
428.958	6154.25
429.181	6010.25
429.403	6024.25
429.625	6200.25
429.847	6401.25
430.069	6888.25
430.292	6490.25
430.514	5927.25
430.736	5946.25
430.958	5901.25
431.18	5749.25
431.402	5797.25
431.624	5732.25
431.846	5785.25
432.068	5787.25
432.29	5925.25
432.512	5842.25
432.734	5997.25
432.956	5864.25
433.178	5974.25
433.4	5942.25
433.622	5870.25
433.844	5921.25
434.066	5864.25
434.287	5971.25
434.509	6263.25
434.731	6408.25
434.953	6580.25
435.175	6689.25
435.397	6891.25
435.618	6689.25
435.84	7194.25
436.062	7904.25
436.284	7801.25
436.505	6666.25
436.727	6308.25
436.949	6059.25
437.17	5973.25
437.392	5864.25
437.614	6048.25
437.835	6449.25
438.057	7474.25
438.278	8083.25
438.5	7911.25
438.721	8761.25
438.943	7585.25
439.165	6422.25
439.386	6235.25
439.608	6363.25
439.829	6478.25
440.05	6870.25
440.272	7226.25
440.493	6544.25
440.715	6266.25
440.936	6174.25
441.158	6223.25
441.379	6359.25
441.6	6682.25
441.822	6963.25
442.043	7389.25
442.264	8077.25
442.486	7852.25
442.707	6957.25
442.928	6768.25
443.149	7036.25
443.371	7408.25
443.592	7804.25
443.813	8700.25
444.034	8662.25
444.255	7592.25
444.476	7285.25
444.698	7577.25
444.919	7587.25
445.14	7491.25
445.361	7387.25
445.582	7516.25
445.803	8230.25
446.024	8874.25
446.245	8420.25
446.466	7544.25
446.687	6584.25
446.908	6261.25
447.129	5913.25
447.35	5746.25
447.571	5730.25
447.792	5644.25
448.013	5814.25
448.234	5886.25
448.455	6642.25
448.675	7859.25
448.896	8266.25
449.117	6814.25
449.338	7095.25
449.559	8318.25
449.779	8504.25
450	6468.25
450.221	5811.25
450.442	5593.25
450.662	5532.25
450.883	5595.25
451.104	5792.25
451.324	5601.25
451.545	5436.25
451.766	5289.25
451.986	5171.25
452.207	5114.25
452.428	5177.25
452.648	5278.25
452.869	5220.25
453.089	5266.25
453.31	5354.25
453.53	5141.25
453.751	5159.25
453.971	5163.25
454.192	5233.25
454.412	5071.25
454.633	4988.25
454.853	4993.25
455.073	5017.25
455.294	5436.25
455.514	5962.25
455.734	5426.25
455.955	4943.25
456.175	4786.25
456.395	4718.25
456.616	4664.25
456.836	4772.25
457.056	4695.25
457.276	4689.25
457.497	4803.25
457.717	4791.25
457.937	4906.25
458.157	4978.25
458.377	5063.25
458.598	5403.25
458.818	6220.25
459.038	6974.25
459.258	6820.25
459.478	6158.25
459.698	5935.25
459.918	5980.25
460.138	6196.25
460.358	6393.25
460.578	6391.25
460.798	6432.25
461.018	6367.25
461.238	6307.25
461.458	6308.25
461.678	6296.25
461.898	6388.25
462.118	6525.25
462.338	6791.25
462.558	6962.25
462.777	7239.25
462.997	7816.25
463.217	8227.25
463.437	7974.25
463.657	7474.25
463.876	7304.25
464.096	7287.25
464.316	7403.25
464.536	7377.25
464.755	7071.25
464.975	7021.25
465.195	7266.25
465.414	7247.25
465.634	6393.25
465.854	6025.25
466.073	5744.25
466.293	5738.25
466.512	5483.25
466.732	5380.25
466.951	5377.25
467.171	5414.25
467.391	5455.25
467.61	5584.25
467.829	5612.25
468.049	5922.25
468.268	6201.25
468.488	5622.25
468.707	5388.25
468.927	5293.25
469.146	5214.25
469.365	5259.25
469.585	5339.25
469.804	5481.25
470.023	5647.25
470.243	5641.25
470.462	5677.25
470.681	5845.25
470.901	5819.25
471.12	5591.25
471.339	5545.25
471.558	5528.25
471.777	5560.25
471.997	5677.25
472.216	6722.25
472.435	8712.25
472.654	7053.25
472.873	6009.25
473.092	5684.25
473.311	5560.25
473.53	5451.25
473.749	5526.25
473.968	6043.25
474.187	7057.25
474.406	6495.25
474.625	5632.25
474.844	5292.25
475.063	5322.25
475.282	5233.25
475.501	5325.25
475.72	5311.25
475.939	5365.25
476.158	5431.25
476.377	5377.25
476.596	5425.25
476.814	5594.25
477.033	5637.25
477.252	5631.25
477.471	5822.25
477.69	5891.25
477.908	5967.25
478.127	6180.25
478.346	6211.25
478.564	6337.25
478.783	6463.25
479.002	6567.25
479.22	6541.25
479.439	6707.25
479.658	6846.25
479.876	6932.25
480.095	7095.25
480.313	7559.25
480.532	7449.25
480.751	7707.25
480.969	8647.25
481.188	12353.25
481.406	12105.25
481.624	8859.25
481.843	7707.25
482.061	7155.25
482.28	6829.25
482.498	6688.25
482.717	6490.25
482.935	6477.25
483.153	6321.25
483.372	6310.25
483.59	6292.25
483.808	6281.25
484.027	6341.25
484.245	6347.25
484.463	6305.25
484.681	6412.25
484.9	6507.25
485.118	6516.25
485.336	6507.25
485.554	6586.25
485.772	6592.25
485.99	6655.25
486.209	6703.25
486.427	6736.25
486.645	6737.25
486.863	6844.25
487.081	6820.25
487.299	6722.25
487.517	6738.25
487.735	6709.25
