Data from Circ_1993_H10_HRD10591_00032.txt Node
Date: Wed Jan 03 11:44:08 EST 2024
User: Yrep
Spectrometer: HR+D1059
Trigger mode: 1
Integration Time (sec): 1.000000E-1
Scans to average: 1
Electric dark correction enabled: true
Nonlinearity correction enabled: false
Boxcar width: 0
XAxis mode: Wavelengths
Number of Pixels in Spectrum: 2048
>>>>>Begin Spectral Data<<<<<
223.165	-11.75
223.4	-11.75
223.635	-11.75
223.869	-27.75
224.104	-22.75
224.338	-16.75
224.573	0.25
224.808	-14.75
225.042	-7.75
225.277	-14.75
225.511	2.25
225.746	4.25
225.98	13.25
226.215	10.25
226.449	28.25
226.683	11.25
226.918	16.25
227.152	30.25
227.387	38.25
227.621	41.25
227.856	37.25
228.09	42.25
228.324	59.25
228.559	54.25
228.793	57.25
229.027	61.25
229.262	74.25
229.496	54.25
229.73	80.25
229.964	89.25
230.199	89.25
230.433	65.25
230.667	87.25
230.901	90.25
231.136	63.25
231.37	80.25
231.604	67.25
231.838	78.25
232.072	88.25
232.306	74.25
232.541	92.25
232.775	71.25
233.009	75.25
233.243	82.25
233.477	93.25
233.711	86.25
233.945	82.25
234.179	84.25
234.413	95.25
234.647	82.25
234.881	70.25
235.115	72.25
235.349	82.25
235.583	83.25
235.817	84.25
236.051	80.25
236.285	87.25
236.519	74.25
236.753	81.25
236.987	82.25
237.221	70.25
237.455	88.25
237.689	91.25
237.922	92.25
238.156	101.25
238.39	81.25
238.624	76.25
238.858	76.25
239.091	77.25
239.325	89.25
239.559	87.25
239.793	83.25
240.027	72.25
240.26	70.25
240.494	84.25
240.728	90.25
240.961	67.25
241.195	77.25
241.429	73.25
241.662	73.25
241.896	79.25
242.13	88.25
242.363	76.25
242.597	79.25
242.83	80.25
243.064	79.25
243.298	80.25
243.531	65.25
243.765	74.25
243.998	78.25
244.232	82.25
244.465	71.25
244.699	76.25
244.932	90.25
245.166	71.25
245.399	83.25
245.633	87.25
245.866	82.25
246.099	90.25
246.333	86.25
246.566	92.25
246.8	88.25
247.033	78.25
247.266	72.25
247.5	79.25
247.733	82.25
247.966	90.25
248.2	81.25
248.433	76.25
248.666	86.25
248.899	82.25
249.133	95.25
249.366	86.25
249.599	83.25
249.832	88.25
250.066	93.25
250.299	91.25
250.532	95.25
250.765	80.25
250.998	93.25
251.231	84.25
251.465	84.25
251.698	80.25
251.931	91.25
252.164	87.25
252.397	83.25
252.63	76.25
252.863	80.25
253.096	81.25
253.329	75.25
253.562	90.25
253.795	86.25
254.028	110.25
254.261	78.25
254.494	89.25
254.727	92.25
254.96	76.25
255.193	82.25
255.426	87.25
255.659	81.25
255.892	100.25
256.124	78.25
256.357	97.25
256.59	77.25
256.823	92.25
257.056	80.25
257.289	69.25
257.521	87.25
257.754	75.25
257.987	88.25
258.22	90.25
258.452	81.25
258.685	86.25
258.918	91.25
259.151	81.25
259.383	81.25
259.616	86.25
259.849	82.25
260.081	84.25
260.314	82.25
260.547	89.25
260.779	78.25
261.012	94.25
261.244	87.25
261.477	88.25
261.71	81.25
261.942	96.25
262.175	105.25
262.407	112.25
262.64	88.25
262.872	90.25
263.105	86.25
263.337	85.25
263.57	92.25
263.802	86.25
264.035	82.25
264.267	87.25
264.499	91.25
264.732	104.25
264.964	79.25
265.197	98.25
265.429	87.25
265.661	94.25
265.894	83.25
266.126	96.25
266.358	84.25
266.591	92.25
266.823	79.25
267.055	80.25
267.287	95.25
267.52	85.25
267.752	87.25
267.984	89.25
268.216	88.25
268.448	98.25
268.681	97.25
268.913	92.25
269.145	93.25
269.377	89.25
269.609	90.25
269.841	93.25
270.073	91.25
270.306	81.25
270.538	85.25
270.77	79.25
271.002	91.25
271.234	92.25
271.466	83.25
271.698	87.25
271.93	83.25
272.162	84.25
272.394	99.25
272.626	96.25
272.858	86.25
273.09	95.25
273.322	100.25
273.553	88.25
273.785	81.25
274.017	81.25
274.249	80.25
274.481	87.25
274.713	93.25
274.945	96.25
275.176	96.25
275.408	92.25
275.64	96.25
275.872	96.25
276.104	96.25
276.335	88.25
276.567	96.25
276.799	104.25
277.031	96.25
277.262	93.25
277.494	101.25
277.726	94.25
277.957	89.25
278.189	91.25
278.421	85.25
278.652	78.25
278.884	91.25
279.115	85.25
279.347	87.25
279.579	94.25
279.81	76.25
280.042	90.25
280.273	97.25
280.505	84.25
280.736	84.25
280.968	89.25
281.199	79.25
281.431	90.25
281.662	96.25
281.894	88.25
282.125	92.25
282.356	114.25
282.588	134.25
282.819	126.25
283.051	89.25
283.282	84.25
283.513	79.25
283.745	87.25
283.976	81.25
284.207	103.25
284.439	103.25
284.67	94.25
284.901	109.25
285.132	73.25
285.364	88.25
285.595	85.25
285.826	91.25
286.057	89.25
286.288	88.25
286.52	98.25
286.751	91.25
286.982	86.25
287.213	85.25
287.444	93.25
287.675	85.25
287.906	88.25
288.138	84.25
288.369	93.25
288.6	100.25
288.831	91.25
289.062	93.25
289.293	81.25
289.524	94.25
289.755	81.25
289.986	94.25
290.217	87.25
290.448	88.25
290.679	80.25
290.91	86.25
291.141	98.25
291.371	89.25
291.602	93.25
291.833	55.25
292.064	83.25
292.295	82.25
292.526	97.25
292.757	94.25
292.987	98.25
293.218	91.25
293.449	97.25
293.68	90.25
293.91	75.25
294.141	80.25
294.372	81.25
294.603	100.25
294.833	100.25
295.064	102.25
295.295	94.25
295.525	97.25
295.756	97.25
295.987	101.25
296.217	132.25
296.448	125.25
296.679	100.25
296.909	90.25
297.14	85.25
297.37	94.25
297.601	84.25
297.831	94.25
298.062	82.25
298.292	91.25
298.523	97.25
298.753	86.25
298.984	84.25
299.214	99.25
299.445	88.25
299.675	100.25
299.905	108.25
300.136	96.25
300.366	88.25
300.597	93.25
300.827	95.25
301.057	101.25
301.288	114.25
301.518	90.25
301.748	90.25
301.979	110.25
302.209	78.25
302.439	100.25
302.669	100.25
302.9	93.25
303.13	96.25
303.36	100.25
303.59	103.25
303.82	113.25
304.051	102.25
304.281	83.25
304.511	94.25
304.741	93.25
304.971	78.25
305.201	94.25
305.431	87.25
305.661	91.25
305.891	94.25
306.121	100.25
306.352	109.25
306.582	94.25
306.812	95.25
307.042	88.25
307.272	95.25
307.502	100.25
307.731	93.25
307.961	106.25
308.191	100.25
308.421	94.25
308.651	109.25
308.881	105.25
309.111	100.25
309.341	101.25
309.571	103.25
309.8	116.25
310.03	85.25
310.26	90.25
310.49	104.25
310.72	96.25
310.949	100.25
311.179	101.25
311.409	90.25
311.639	93.25
311.868	104.25
312.098	91.25
312.328	101.25
312.557	98.25
312.787	105.25
313.017	94.25
313.246	103.25
313.476	103.25
313.706	89.25
313.935	87.25
314.165	113.25
314.394	106.25
314.624	102.25
314.853	107.25
315.083	103.25
315.312	98.25
315.542	94.25
315.771	91.25
316.001	93.25
316.23	73.25
316.46	89.25
316.689	92.25
316.919	95.25
317.148	103.25
317.377	89.25
317.607	92.25
317.836	82.25
318.065	89.25
318.295	89.25
318.524	88.25
318.753	100.25
318.983	93.25
319.212	107.25
319.441	96.25
319.67	96.25
319.9	102.25
320.129	89.25
320.358	96.25
320.587	100.25
320.816	98.25
321.046	93.25
321.275	101.25
321.504	111.25
321.733	103.25
321.962	100.25
322.191	101.25
322.42	108.25
322.649	99.25
322.878	111.25
323.108	108.25
323.337	113.25
323.566	112.25
323.795	135.25
324.024	171.25
324.253	329.25
324.482	670.25
324.71	1352.25
324.939	1808.25
325.168	674.25
325.397	217.25
325.626	138.25
325.855	112.25
326.084	121.25
326.313	125.25
326.542	144.25
326.77	195.25
326.999	382.25
327.228	786.25
327.457	1425.25
327.686	1136.25
327.914	322.25
328.143	177.25
328.372	162.25
328.6	122.25
328.829	120.25
329.058	107.25
329.287	114.25
329.515	121.25
329.744	100.25
329.972	115.25
330.201	140.25
330.43	164.25
330.658	140.25
330.887	127.25
331.115	113.25
331.344	104.25
331.572	108.25
331.801	110.25
332.03	95.25
332.258	112.25
332.486	96.25
332.715	96.25
332.943	96.25
333.172	105.25
333.4	113.25
333.629	105.25
333.857	120.25
334.085	123.25
334.314	141.25
334.542	176.25
334.771	165.25
334.999	116.25
335.227	90.25
335.455	102.25
335.684	100.25
335.912	87.25
336.14	98.25
336.369	96.25
336.597	81.25
336.825	106.25
337.053	102.25
337.281	86.25
337.51	82.25
337.738	94.25
337.966	109.25
338.194	103.25
338.422	98.25
338.65	101.25
338.878	99.25
339.106	96.25
339.334	88.25
339.562	92.25
339.79	91.25
340.018	99.25
340.246	98.25
340.474	92.25
340.702	96.25
340.93	98.25
341.158	111.25
341.386	102.25
341.614	96.25
341.842	94.25
342.07	71.25
342.298	102.25
342.526	84.25
342.754	94.25
342.981	85.25
343.209	97.25
343.437	101.25
343.665	95.25
343.893	90.25
344.12	86.25
344.348	88.25
344.576	91.25
344.804	103.25
345.031	97.25
345.259	109.25
345.487	106.25
345.714	92.25
345.942	97.25
346.17	90.25
346.397	88.25
346.625	98.25
346.853	100.25
347.08	97.25
347.308	82.25
347.535	98.25
347.763	87.25
347.99	98.25
348.218	96.25
348.445	112.25
348.673	104.25
348.9	99.25
349.128	105.25
349.355	102.25
349.583	88.25
349.81	98.25
350.037	88.25
350.265	89.25
350.492	108.25
350.72	112.25
350.947	102.25
351.174	102.25
351.402	104.25
351.629	107.25
351.856	90.25
352.083	114.25
352.311	92.25
352.538	110.25
352.765	109.25
352.992	103.25
353.22	118.25
353.447	114.25
353.674	89.25
353.901	81.25
354.128	102.25
354.355	111.25
354.583	91.25
354.81	100.25
355.037	110.25
355.264	101.25
355.491	93.25
355.718	100.25
355.945	97.25
356.172	93.25
356.399	98.25
356.626	100.25
356.853	92.25
357.08	79.25
357.307	105.25
357.534	93.25
357.761	97.25
357.988	103.25
358.215	108.25
358.441	104.25
358.668	91.25
358.895	95.25
359.122	102.25
359.349	100.25
359.576	80.25
359.802	117.25
360.029	104.25
360.256	114.25
360.483	111.25
360.709	94.25
360.936	100.25
361.163	85.25
361.39	92.25
361.616	74.25
361.843	85.25
362.07	93.25
362.296	100.25
362.523	93.25
362.749	94.25
362.976	90.25
363.203	109.25
363.429	92.25
363.656	92.25
363.882	90.25
364.109	108.25
364.335	87.25
364.562	93.25
364.788	100.25
365.015	83.25
365.241	117.25
365.468	106.25
365.694	97.25
365.92	94.25
366.147	98.25
366.373	86.25
366.599	94.25
366.826	99.25
367.052	90.25
367.278	88.25
367.505	87.25
367.731	80.25
367.957	87.25
368.184	97.25
368.41	88.25
368.636	118.25
368.862	120.25
369.089	96.25
369.315	83.25
369.541	91.25
369.767	87.25
369.993	93.25
370.219	89.25
370.445	88.25
370.672	82.25
370.898	95.25
371.124	84.25
371.35	93.25
371.576	92.25
371.802	91.25
372.028	92.25
372.254	87.25
372.48	84.25
372.706	87.25
372.932	76.25
373.158	71.25
373.384	90.25
373.61	92.25
373.835	92.25
374.061	90.25
374.287	81.25
374.513	82.25
374.739	93.25
374.965	101.25
375.191	98.25
375.416	93.25
375.642	97.25
375.868	95.25
376.094	93.25
376.319	103.25
376.545	84.25
376.771	95.25
376.997	88.25
377.222	83.25
377.448	96.25
377.674	94.25
377.899	94.25
378.125	89.25
378.35	100.25
378.576	86.25
378.802	96.25
379.027	102.25
379.253	100.25
379.478	93.25
379.704	94.25
379.929	100.25
380.155	103.25
380.38	106.25
380.606	105.25
380.831	95.25
381.057	103.25
381.282	105.25
381.507	93.25
381.733	93.25
381.958	96.25
382.184	105.25
382.409	104.25
382.634	104.25
382.86	111.25
383.085	118.25
383.31	116.25
383.535	112.25
383.761	105.25
383.986	103.25
384.211	114.25
384.436	117.25
384.662	106.25
384.887	104.25
385.112	112.25
385.337	111.25
385.562	111.25
385.787	119.25
386.013	132.25
386.238	123.25
386.463	116.25
386.688	88.25
386.913	114.25
387.138	105.25
387.363	93.25
387.588	100.25
387.813	121.25
388.038	127.25
388.263	134.25
388.488	123.25
388.713	96.25
388.938	95.25
389.163	94.25
389.387	105.25
389.612	102.25
389.837	98.25
390.062	89.25
390.287	91.25
390.512	107.25
390.736	95.25
390.961	99.25
391.186	97.25
391.411	96.25
391.636	82.25
391.86	94.25
392.085	77.25
392.31	88.25
392.534	102.25
392.759	88.25
392.984	90.25
393.208	117.25
393.433	145.25
393.658	123.25
393.882	101.25
394.107	100.25
394.331	73.25
394.556	84.25
394.78	83.25
395.005	81.25
395.229	84.25
395.454	88.25
395.678	90.25
395.903	86.25
396.127	88.25
396.352	81.25
396.576	105.25
396.801	111.25
397.025	121.25
397.249	102.25
397.474	76.25
397.698	84.25
397.922	81.25
398.147	94.25
398.371	80.25
398.595	91.25
398.82	95.25
399.044	93.25
399.268	82.25
399.492	95.25
399.717	80.25
399.941	90.25
400.165	82.25
400.389	97.25
400.613	96.25
400.837	97.25
401.062	95.25
401.286	88.25
401.51	80.25
401.734	86.25
401.958	99.25
402.182	129.25
402.406	138.25
402.63	106.25
402.854	91.25
403.078	85.25
403.302	98.25
403.526	75.25
403.75	80.25
403.974	86.25
404.198	89.25
404.422	76.25
404.645	103.25
404.869	100.25
405.093	81.25
405.317	98.25
405.541	97.25
405.765	106.25
405.988	102.25
406.212	157.25
406.436	197.25
406.66	132.25
406.883	93.25
407.107	83.25
407.331	88.25
407.555	100.25
407.778	105.25
408.002	97.25
408.226	81.25
408.449	94.25
408.673	97.25
408.896	92.25
409.12	94.25
409.344	85.25
409.567	106.25
409.791	91.25
410.014	98.25
410.238	108.25
410.461	103.25
410.685	93.25
410.908	94.25
411.132	117.25
411.355	89.25
411.578	85.25
411.802	82.25
412.025	97.25
412.249	96.25
412.472	93.25
412.695	113.25
412.919	94.25
413.142	93.25
413.365	95.25
413.589	84.25
413.812	86.25
414.035	98.25
414.258	101.25
414.482	99.25
414.705	100.25
414.928	97.25
415.151	96.25
415.374	88.25
415.597	92.25
415.821	94.25
416.044	88.25
416.267	78.25
416.49	95.25
416.713	98.25
416.936	96.25
417.159	74.25
417.382	78.25
417.605	103.25
417.828	101.25
418.051	95.25
418.274	91.25
418.497	90.25
418.72	84.25
418.943	90.25
419.166	83.25
419.389	84.25
419.611	94.25
419.834	96.25
420.057	94.25
420.28	92.25
420.503	100.25
420.726	87.25
420.948	102.25
421.171	98.25
421.394	93.25
421.617	94.25
421.839	86.25
422.062	98.25
422.285	105.25
422.507	111.25
422.73	126.25
422.953	101.25
423.175	92.25
423.398	86.25
423.621	86.25
423.843	92.25
424.066	94.25
424.288	97.25
424.511	94.25
424.733	83.25
424.956	92.25
425.178	96.25
425.401	109.25
425.623	96.25
425.846	86.25
426.068	98.25
426.291	98.25
426.513	101.25
426.735	79.25
426.958	112.25
427.18	109.25
427.402	133.25
427.625	135.25
427.847	122.25
428.069	94.25
428.292	98.25
428.514	85.25
428.736	90.25
428.958	93.25
429.181	86.25
429.403	85.25
429.625	89.25
429.847	80.25
430.069	102.25
430.292	87.25
430.514	100.25
430.736	93.25
430.958	77.25
431.18	92.25
431.402	89.25
431.624	76.25
431.846	80.25
432.068	96.25
432.29	88.25
432.512	84.25
432.734	82.25
432.956	90.25
433.178	93.25
433.4	101.25
433.622	96.25
433.844	94.25
434.066	84.25
434.287	99.25
434.509	96.25
434.731	96.25
434.953	77.25
435.175	101.25
435.397	93.25
435.618	95.25
435.84	90.25
436.062	124.25
436.284	104.25
436.505	90.25
436.727	112.25
436.949	84.25
437.17	87.25
437.392	91.25
437.614	77.25
437.835	92.25
438.057	103.25
438.278	95.25
438.5	95.25
438.721	121.25
438.943	89.25
439.165	99.25
439.386	83.25
439.608	99.25
439.829	82.25
440.05	112.25
440.272	121.25
440.493	87.25
440.715	103.25
440.936	98.25
441.158	88.25
441.379	90.25
441.6	101.25
441.822	97.25
442.043	102.25
442.264	105.25
442.486	95.25
442.707	96.25
442.928	88.25
443.149	122.25
443.371	116.25
443.592	103.25
443.813	114.25
444.034	103.25
444.255	88.25
444.476	97.25
444.698	85.25
444.919	95.25
445.14	149.25
445.361	120.25
445.582	114.25
445.803	116.25
446.024	118.25
446.245	119.25
446.466	97.25
446.687	83.25
446.908	84.25
447.129	95.25
447.35	89.25
447.571	89.25
447.792	89.25
448.013	102.25
448.234	105.25
448.455	96.25
448.675	102.25
448.896	114.25
449.117	94.25
449.338	103.25
449.559	115.25
449.779	137.25
450	95.25
450.221	104.25
450.442	84.25
450.662	99.25
450.883	98.25
451.104	113.25
451.324	108.25
451.545	89.25
451.766	72.25
451.986	76.25
452.207	84.25
452.428	102.25
452.648	86.25
452.869	103.25
453.089	104.25
453.31	98.25
453.53	102.25
453.751	93.25
453.971	86.25
454.192	97.25
454.412	88.25
454.633	80.25
454.853	101.25
455.073	96.25
455.294	93.25
455.514	102.25
455.734	101.25
455.955	81.25
456.175	93.25
456.395	91.25
456.616	93.25
456.836	66.25
457.056	82.25
457.276	95.25
457.497	77.25
457.717	85.25
457.937	95.25
458.157	84.25
458.377	94.25
458.598	117.25
458.818	134.25
459.038	144.25
459.258	98.25
459.478	89.25
459.698	89.25
459.918	88.25
460.138	85.25
460.358	83.25
460.578	84.25
460.798	96.25
461.018	90.25
461.238	101.25
461.458	74.25
461.678	81.25
461.898	87.25
462.118	72.25
462.338	84.25
462.558	92.25
462.777	81.25
462.997	92.25
463.217	86.25
463.437	100.25
463.657	86.25
463.876	88.25
464.096	96.25
464.316	98.25
464.536	104.25
464.755	114.25
464.975	117.25
465.195	142.25
465.414	137.25
465.634	97.25
465.854	91.25
466.073	92.25
466.293	92.25
466.512	92.25
466.732	89.25
466.951	97.25
467.171	104.25
467.391	91.25
467.61	92.25
467.829	97.25
468.049	102.25
468.268	117.25
468.488	103.25
468.707	80.25
468.927	89.25
469.146	96.25
469.365	104.25
469.585	93.25
469.804	103.25
470.023	89.25
470.243	93.25
470.462	96.25
470.681	103.25
470.901	92.25
471.12	86.25
471.339	77.25
471.558	84.25
471.777	97.25
471.997	105.25
472.216	134.25
472.435	184.25
472.654	111.25
472.873	99.25
473.092	79.25
473.311	94.25
473.53	88.25
473.749	88.25
473.968	82.25
474.187	91.25
474.406	87.25
474.625	76.25
474.844	86.25
475.063	98.25
475.282	100.25
475.501	90.25
475.72	89.25
475.939	84.25
476.158	95.25
476.377	89.25
476.596	90.25
476.814	94.25
477.033	97.25
477.252	80.25
477.471	78.25
477.69	92.25
477.908	93.25
478.127	90.25
478.346	86.25
478.564	96.25
478.783	80.25
479.002	89.25
479.22	98.25
479.439	105.25
479.658	94.25
479.876	101.25
480.095	94.25
480.313	96.25
480.532	100.25
480.751	103.25
480.969	140.25
481.188	293.25
481.406	208.25
481.624	116.25
481.843	89.25
482.061	105.25
482.28	85.25
482.498	95.25
482.717	98.25
482.935	100.25
483.153	104.25
483.372	91.25
483.59	110.25
483.808	104.25
484.027	105.25
484.245	90.25
484.463	104.25
484.681	89.25
484.9	109.25
485.118	97.25
485.336	90.25
485.554	108.25
485.772	108.25
485.99	97.25
486.209	117.25
486.427	102.25
486.645	122.25
486.863	109.25
487.081	107.25
487.299	99.25
487.517	100.25
487.735	95.25
487.953	125.25
488.171	95.25
488.389	97.25
488.607	103.25
488.825	85.25
489.043	99.25
489.261	90.25
489.479	89.25
489.696	89.25
489.914	89.25
490.132	93.25
490.35	100.25
490.568	99.25
490.786	99.25
491.003	102.25
491.221	94.25
491.439	76.25
491.657	84.25
491.874	95.25
492.092	92.25
492.31	110.25
492.527	85.25
492.745	94.25
492.963	89.25
493.18	98.25
493.398	85.25
493.615	99.25
493.833	105.25
494.05	83.25
494.268	100.25
494.485	97.25
494.703	90.25
494.92	93.25
495.138	98.25
495.355	82.25
495.573	95.25
495.79	99.25
496.008	93.25
496.225	103.25
496.442	90.25
496.66	98.25
496.877	90.25
497.094	89.25
497.312	100.25
497.529	86.25
497.746	96.25
497.963	92.25
498.181	97.25
498.398	92.25
498.615	117.25
498.832	107.25
499.049	96.25
499.267	101.25
499.484	85.25
499.701	90.25
499.918	96.25
500.135	90.25
500.352	72.25
500.569	84.25
500.786	96.25
501.003	94.25
501.22	97.25
501.437	100.25
501.654	92.25
501.871	79.25
502.088	80.25
502.305	94.25
502.522	102.25
502.739	85.25
502.956	104.25
503.172	103.25
503.389	95.25
503.606	108.25
503.823	95.25
504.04	88.25
504.256	100.25
504.473	77.25
504.69	88.25
504.907	105.25
505.123	96.25
505.34	88.25
505.557	105.25
505.773	88.25
505.99	97.25
506.207	100.25
506.423	85.25
506.64	98.25
506.856	101.25
507.073	99.25
507.289	98.25
507.506	102.25
507.722	98.25
507.939	116.25
508.155	95.25
508.372	92.25
508.588	92.25
508.805	91.25
509.021	97.25
509.238	91.25
509.454	81.25
509.67	92.25
509.887	103.25
510.103	120.25
510.319	206.25
510.536	634.25
510.752	1919.25
510.968	543.25
511.184	125.25
511.401	125.25
511.617	102.25
511.833	93.25
512.049	108.25
512.265	97.25
512.481	105.25
512.698	101.25
512.914	83.25
513.13	94.25
513.346	93.25
513.562	96.25
513.778	99.25
513.994	106.25
514.21	101.25
514.426	115.25
