Data from Circ_1993_H10_HRD10591_00019.txt Node
Date: Wed Jan 03 11:44:05 EST 2024
User: Yrep
Spectrometer: HR+D1059
Trigger mode: 1
Integration Time (sec): 1.000000E-1
Scans to average: 1
Electric dark correction enabled: true
Nonlinearity correction enabled: false
Boxcar width: 0
XAxis mode: Wavelengths
Number of Pixels in Spectrum: 2048
>>>>>Begin Spectral Data<<<<<
223.165	-16.38
223.4	-16.38
223.635	-16.38
223.869	-8.38
224.104	-18.38
224.338	-7.38
224.573	-22.38
224.808	-17.38
225.042	-12.38
225.277	-3.38
225.511	12.62
225.746	11.62
225.98	-4.38
226.215	17.62
226.449	-2.38
226.683	25.62
226.918	27.62
227.152	17.62
227.387	32.62
227.621	33.62
227.856	27.62
228.09	52.62
228.324	58.62
228.559	54.62
228.793	49.62
229.027	54.62
229.262	70.62
229.496	74.62
229.73	79.62
229.964	78.62
230.199	78.62
230.433	75.62
230.667	65.62
230.901	71.62
231.136	79.62
231.37	84.62
231.604	79.62
231.838	63.62
232.072	87.62
232.306	95.62
232.541	85.62
232.775	100.62
233.009	79.62
233.243	78.62
233.477	82.62
233.711	91.62
233.945	89.62
234.179	83.62
234.413	77.62
234.647	73.62
234.881	81.62
235.115	74.62
235.349	70.62
235.583	87.62
235.817	98.62
236.051	67.62
236.285	68.62
236.519	81.62
236.753	84.62
236.987	95.62
237.221	80.62
237.455	77.62
237.689	68.62
237.922	85.62
238.156	69.62
238.39	69.62
238.624	75.62
238.858	65.62
239.091	90.62
239.325	58.62
239.559	84.62
239.793	77.62
240.027	88.62
240.26	81.62
240.494	76.62
240.728	86.62
240.961	65.62
241.195	70.62
241.429	94.62
241.662	75.62
241.896	85.62
242.13	77.62
242.363	82.62
242.597	77.62
242.83	82.62
243.064	82.62
243.298	73.62
243.531	77.62
243.765	75.62
243.998	77.62
244.232	83.62
244.465	70.62
244.699	70.62
244.932	81.62
245.166	69.62
245.399	83.62
245.633	84.62
245.866	62.62
246.099	79.62
246.333	73.62
246.566	76.62
246.8	84.62
247.033	82.62
247.266	85.62
247.5	78.62
247.733	83.62
247.966	80.62
248.2	99.62
248.433	75.62
248.666	78.62
248.899	74.62
249.133	78.62
249.366	87.62
249.599	98.62
249.832	76.62
250.066	93.62
250.299	82.62
250.532	82.62
250.765	84.62
250.998	85.62
251.231	77.62
251.465	80.62
251.698	69.62
251.931	85.62
252.164	81.62
252.397	81.62
252.63	70.62
252.863	76.62
253.096	81.62
253.329	85.62
253.562	73.62
253.795	82.62
254.028	100.62
254.261	79.62
254.494	79.62
254.727	88.62
254.96	83.62
255.193	74.62
255.426	98.62
255.659	79.62
255.892	69.62
256.124	79.62
256.357	80.62
256.59	82.62
256.823	76.62
257.056	83.62
257.289	67.62
257.521	91.62
257.754	81.62
257.987	66.62
258.22	87.62
258.452	95.62
258.685	80.62
258.918	85.62
259.151	75.62
259.383	67.62
259.616	83.62
259.849	71.62
260.081	78.62
260.314	81.62
260.547	88.62
260.779	100.62
261.012	84.62
261.244	76.62
261.477	102.62
261.71	72.62
261.942	82.62
262.175	107.62
262.407	95.62
262.64	94.62
262.872	78.62
263.105	78.62
263.337	83.62
263.57	69.62
263.802	94.62
264.035	91.62
264.267	88.62
264.499	81.62
264.732	85.62
264.964	92.62
265.197	61.62
265.429	91.62
265.661	80.62
265.894	86.62
266.126	97.62
266.358	89.62
266.591	82.62
266.823	79.62
267.055	73.62
267.287	79.62
267.52	74.62
267.752	84.62
267.984	81.62
268.216	79.62
268.448	90.62
268.681	70.62
268.913	75.62
269.145	82.62
269.377	83.62
269.609	77.62
269.841	96.62
270.073	77.62
270.306	86.62
270.538	97.62
270.77	93.62
271.002	81.62
271.234	93.62
271.466	75.62
271.698	88.62
271.93	79.62
272.162	95.62
272.394	83.62
272.626	69.62
272.858	85.62
273.09	84.62
273.322	81.62
273.553	84.62
273.785	89.62
274.017	80.62
274.249	75.62
274.481	75.62
274.713	89.62
274.945	85.62
275.176	93.62
275.408	108.62
275.64	82.62
275.872	87.62
276.104	85.62
276.335	85.62
276.567	87.62
276.799	98.62
277.031	89.62
277.262	85.62
277.494	93.62
277.726	78.62
277.957	91.62
278.189	81.62
278.421	99.62
278.652	79.62
278.884	88.62
279.115	79.62
279.347	71.62
279.579	84.62
279.81	75.62
280.042	102.62
280.273	86.62
280.505	90.62
280.736	96.62
280.968	80.62
281.199	84.62
281.431	73.62
281.662	90.62
281.894	99.62
282.125	85.62
282.356	108.62
282.588	120.62
282.819	104.62
283.051	98.62
283.282	98.62
283.513	99.62
283.745	104.62
283.976	78.62
284.207	90.62
284.439	94.62
284.67	90.62
284.901	92.62
285.132	96.62
285.364	99.62
285.595	85.62
285.826	76.62
286.057	86.62
286.288	90.62
286.52	87.62
286.751	84.62
286.982	91.62
287.213	99.62
287.444	73.62
287.675	75.62
287.906	100.62
288.138	74.62
288.369	81.62
288.6	91.62
288.831	90.62
289.062	92.62
289.293	88.62
289.524	80.62
289.755	79.62
289.986	92.62
290.217	81.62
290.448	71.62
290.679	89.62
290.91	94.62
291.141	82.62
291.371	87.62
291.602	94.62
291.833	91.62
292.064	82.62
292.295	86.62
292.526	81.62
292.757	88.62
292.987	83.62
293.218	80.62
293.449	82.62
293.68	84.62
293.91	83.62
294.141	75.62
294.372	86.62
294.603	93.62
294.833	83.62
295.064	93.62
295.295	75.62
295.525	80.62
295.756	98.62
295.987	106.62
296.217	130.62
296.448	113.62
296.679	94.62
296.909	87.62
297.14	79.62
297.37	84.62
297.601	81.62
297.831	93.62
298.062	93.62
298.292	95.62
298.523	98.62
298.753	96.62
298.984	90.62
299.214	86.62
299.445	98.62
299.675	83.62
299.905	94.62
300.136	104.62
300.366	93.62
300.597	85.62
300.827	98.62
301.057	103.62
301.288	105.62
301.518	85.62
301.748	84.62
301.979	101.62
302.209	91.62
302.439	93.62
302.669	88.62
302.9	104.62
303.13	77.62
303.36	99.62
303.59	107.62
303.82	90.62
304.051	81.62
304.281	98.62
304.511	91.62
304.741	79.62
304.971	88.62
305.201	81.62
305.431	85.62
305.661	90.62
305.891	84.62
306.121	90.62
306.352	107.62
306.582	95.62
306.812	86.62
307.042	86.62
307.272	86.62
307.502	92.62
307.731	85.62
307.961	86.62
308.191	86.62
308.421	85.62
308.651	94.62
308.881	103.62
309.111	92.62
309.341	89.62
309.571	105.62
309.8	101.62
310.03	92.62
310.26	98.62
310.49	91.62
310.72	93.62
310.949	100.62
311.179	95.62
311.409	91.62
311.639	106.62
311.868	91.62
312.098	81.62
312.328	94.62
312.557	98.62
312.787	100.62
313.017	80.62
313.246	85.62
313.476	101.62
313.706	96.62
313.935	98.62
314.165	89.62
314.394	97.62
314.624	93.62
314.853	85.62
315.083	87.62
315.312	86.62
315.542	94.62
315.771	86.62
316.001	98.62
316.23	89.62
316.46	81.62
316.689	93.62
316.919	77.62
317.148	86.62
317.377	112.62
317.607	74.62
317.836	74.62
318.065	91.62
318.295	86.62
318.524	82.62
318.753	106.62
318.983	102.62
319.212	97.62
319.441	86.62
319.67	94.62
319.9	84.62
320.129	92.62
320.358	96.62
320.587	91.62
320.816	83.62
321.046	95.62
321.275	103.62
321.504	86.62
321.733	89.62
321.962	73.62
322.191	90.62
322.42	105.62
322.649	109.62
322.878	114.62
323.108	118.62
323.337	106.62
323.566	99.62
323.795	127.62
324.024	170.62
324.253	293.62
324.482	585.62
324.71	1169.62
324.939	1549.62
325.168	571.62
325.397	191.62
325.626	130.62
325.855	114.62
326.084	114.62
326.313	111.62
326.542	125.62
326.77	179.62
326.999	368.62
327.228	692.62
327.457	1200.62
327.686	981.62
327.914	294.62
328.143	167.62
328.372	126.62
328.6	113.62
328.829	110.62
329.058	106.62
329.287	108.62
329.515	97.62
329.744	98.62
329.972	109.62
330.201	110.62
330.43	121.62
330.658	123.62
330.887	109.62
331.115	109.62
331.344	106.62
331.572	97.62
331.801	104.62
332.03	78.62
332.258	95.62
332.486	99.62
332.715	96.62
332.943	98.62
333.172	89.62
333.4	81.62
333.629	107.62
333.857	98.62
334.085	101.62
334.314	121.62
334.542	141.62
334.771	133.62
334.999	87.62
335.227	93.62
335.455	99.62
335.684	98.62
335.912	100.62
336.14	89.62
336.369	89.62
336.597	93.62
336.825	99.62
337.053	94.62
337.281	86.62
337.51	115.62
337.738	105.62
337.966	83.62
338.194	90.62
338.422	95.62
338.65	86.62
338.878	99.62
339.106	101.62
339.334	95.62
339.562	90.62
339.79	98.62
340.018	90.62
340.246	81.62
340.474	91.62
340.702	85.62
340.93	87.62
341.158	92.62
341.386	86.62
341.614	90.62
341.842	87.62
342.07	86.62
342.298	107.62
342.526	89.62
342.754	92.62
342.981	83.62
343.209	100.62
343.437	106.62
343.665	94.62
343.893	95.62
344.12	99.62
344.348	79.62
344.576	81.62
344.804	79.62
345.031	89.62
345.259	83.62
345.487	95.62
345.714	84.62
345.942	93.62
346.17	84.62
346.397	78.62
346.625	82.62
346.853	99.62
347.08	103.62
347.308	90.62
347.535	96.62
347.763	97.62
347.99	97.62
348.218	99.62
348.445	110.62
348.673	103.62
348.9	95.62
349.128	101.62
349.355	80.62
349.583	98.62
349.81	77.62
350.037	72.62
350.265	93.62
350.492	106.62
350.72	94.62
350.947	110.62
351.174	96.62
351.402	113.62
351.629	97.62
351.856	108.62
352.083	102.62
352.311	109.62
352.538	93.62
352.765	100.62
352.992	118.62
353.22	110.62
353.447	96.62
353.674	109.62
353.901	91.62
354.128	92.62
354.355	101.62
354.583	103.62
354.81	79.62
355.037	80.62
355.264	87.62
355.491	94.62
355.718	95.62
355.945	95.62
356.172	98.62
356.399	91.62
356.626	85.62
356.853	94.62
357.08	91.62
357.307	78.62
357.534	92.62
357.761	95.62
357.988	100.62
358.215	96.62
358.441	117.62
358.668	91.62
358.895	104.62
359.122	91.62
359.349	82.62
359.576	91.62
359.802	90.62
360.029	85.62
360.256	98.62
360.483	83.62
360.709	95.62
360.936	101.62
361.163	86.62
361.39	97.62
361.616	77.62
361.843	86.62
362.07	87.62
362.296	93.62
362.523	90.62
362.749	93.62
362.976	83.62
363.203	86.62
363.429	87.62
363.656	75.62
363.882	93.62
364.109	93.62
364.335	93.62
364.562	87.62
364.788	90.62
365.015	93.62
365.241	92.62
365.468	106.62
365.694	108.62
365.92	79.62
366.147	83.62
366.373	83.62
366.599	97.62
366.826	85.62
367.052	77.62
367.278	74.62
367.505	90.62
367.731	93.62
367.957	81.62
368.184	89.62
368.41	87.62
368.636	104.62
368.862	119.62
369.089	98.62
369.315	89.62
369.541	95.62
369.767	105.62
369.993	105.62
370.219	98.62
370.445	81.62
370.672	83.62
370.898	94.62
371.124	89.62
371.35	78.62
371.576	81.62
371.802	78.62
372.028	96.62
372.254	81.62
372.48	93.62
372.706	83.62
372.932	93.62
373.158	97.62
373.384	105.62
373.61	86.62
373.835	77.62
374.061	89.62
374.287	91.62
374.513	86.62
374.739	104.62
374.965	102.62
375.191	86.62
375.416	90.62
375.642	101.62
375.868	89.62
376.094	90.62
376.319	81.62
376.545	95.62
376.771	100.62
376.997	100.62
377.222	96.62
377.448	102.62
377.674	82.62
377.899	90.62
378.125	99.62
378.35	103.62
378.576	102.62
378.802	95.62
379.027	110.62
379.253	103.62
379.478	98.62
379.704	94.62
379.929	99.62
380.155	100.62
380.38	97.62
380.606	114.62
380.831	92.62
381.057	99.62
381.282	112.62
381.507	95.62
381.733	100.62
381.958	114.62
382.184	108.62
382.409	106.62
382.634	129.62
382.86	119.62
383.085	112.62
383.31	120.62
383.535	110.62
383.761	105.62
383.986	117.62
384.211	110.62
384.436	119.62
384.662	126.62
384.887	133.62
385.112	145.62
385.337	123.62
385.562	134.62
385.787	141.62
386.013	149.62
386.238	134.62
386.463	129.62
386.688	123.62
386.913	125.62
387.138	144.62
387.363	137.62
387.588	125.62
387.813	128.62
388.038	129.62
388.263	155.62
388.488	139.62
388.713	105.62
388.938	105.62
389.163	87.62
389.387	102.62
389.612	83.62
389.837	86.62
390.062	99.62
390.287	96.62
390.512	90.62
390.736	97.62
390.961	81.62
391.186	97.62
391.411	94.62
391.636	91.62
391.86	90.62
392.085	83.62
392.31	97.62
392.534	82.62
392.759	96.62
392.984	101.62
393.208	125.62
393.433	177.62
393.658	147.62
393.882	92.62
394.107	96.62
394.331	100.62
394.556	110.62
394.78	108.62
395.005	78.62
395.229	86.62
395.454	93.62
395.678	93.62
395.903	92.62
396.127	89.62
396.352	94.62
396.576	95.62
396.801	115.62
397.025	137.62
397.249	115.62
397.474	91.62
397.698	84.62
397.922	103.62
398.147	89.62
398.371	78.62
398.595	83.62
398.82	79.62
399.044	85.62
399.268	74.62
399.492	73.62
399.717	89.62
399.941	79.62
400.165	81.62
400.389	90.62
400.613	84.62
400.837	86.62
401.062	95.62
401.286	88.62
401.51	89.62
401.734	86.62
401.958	90.62
402.182	115.62
402.406	141.62
402.63	102.62
402.854	90.62
403.078	91.62
403.302	87.62
403.526	99.62
403.75	97.62
403.974	77.62
404.198	94.62
404.422	96.62
404.645	91.62
404.869	91.62
405.093	91.62
405.317	101.62
405.541	103.62
405.765	103.62
405.988	114.62
406.212	145.62
406.436	173.62
406.66	116.62
406.883	102.62
407.107	99.62
407.331	93.62
407.555	89.62
407.778	94.62
408.002	97.62
408.226	85.62
408.449	91.62
408.673	90.62
408.896	96.62
409.12	97.62
409.344	97.62
409.567	103.62
409.791	91.62
410.014	92.62
410.238	98.62
410.461	99.62
410.685	94.62
410.908	99.62
411.132	103.62
411.355	98.62
411.578	109.62
411.802	103.62
412.025	106.62
412.249	89.62
412.472	93.62
412.695	96.62
412.919	85.62
413.142	89.62
413.365	89.62
413.589	77.62
413.812	88.62
414.035	94.62
414.258	105.62
414.482	105.62
414.705	88.62
414.928	90.62
415.151	94.62
415.374	92.62
415.597	96.62
415.821	97.62
416.044	102.62
416.267	92.62
416.49	94.62
416.713	101.62
416.936	81.62
417.159	79.62
417.382	77.62
417.605	85.62
417.828	87.62
418.051	92.62
418.274	90.62
418.497	94.62
418.72	90.62
418.943	98.62
419.166	101.62
419.389	90.62
419.611	79.62
419.834	86.62
420.057	98.62
420.28	92.62
420.503	99.62
420.726	95.62
420.948	91.62
421.171	102.62
421.394	92.62
421.617	90.62
421.839	92.62
422.062	103.62
422.285	88.62
422.507	106.62
422.73	129.62
422.953	117.62
423.175	92.62
423.398	82.62
423.621	99.62
423.843	94.62
424.066	98.62
424.288	70.62
424.511	89.62
424.733	98.62
424.956	104.62
425.178	98.62
425.401	98.62
425.623	97.62
425.846	86.62
426.068	95.62
426.291	80.62
426.513	90.62
426.735	91.62
426.958	104.62
427.18	104.62
427.402	111.62
427.625	129.62
427.847	121.62
428.069	113.62
428.292	93.62
428.514	88.62
428.736	94.62
428.958	93.62
429.181	77.62
429.403	103.62
429.625	83.62
429.847	83.62
430.069	103.62
430.292	94.62
430.514	74.62
430.736	79.62
430.958	94.62
431.18	78.62
431.402	84.62
431.624	71.62
431.846	89.62
432.068	77.62
432.29	87.62
432.512	94.62
432.734	77.62
432.956	90.62
433.178	108.62
433.4	104.62
433.622	101.62
433.844	97.62
434.066	83.62
434.287	104.62
434.509	99.62
434.731	97.62
434.953	78.62
435.175	82.62
435.397	93.62
435.618	84.62
435.84	100.62
436.062	98.62
436.284	90.62
436.505	97.62
436.727	107.62
436.949	80.62
437.17	92.62
437.392	86.62
437.614	92.62
437.835	105.62
438.057	89.62
438.278	99.62
438.5	74.62
438.721	92.62
438.943	105.62
439.165	95.62
439.386	101.62
439.608	94.62
439.829	105.62
440.05	98.62
440.272	101.62
440.493	92.62
440.715	82.62
440.936	96.62
441.158	95.62
441.379	80.62
441.6	96.62
441.822	87.62
442.043	103.62
442.264	108.62
442.486	84.62
442.707	87.62
442.928	96.62
443.149	124.62
443.371	116.62
443.592	92.62
443.813	97.62
444.034	103.62
444.255	91.62
444.476	87.62
444.698	87.62
444.919	83.62
445.14	122.62
445.361	107.62
445.582	115.62
445.803	112.62
446.024	109.62
446.245	130.62
446.466	108.62
446.687	89.62
446.908	98.62
447.129	92.62
447.35	86.62
447.571	86.62
447.792	94.62
448.013	91.62
448.234	106.62
448.455	92.62
448.675	113.62
448.896	89.62
449.117	92.62
449.338	95.62
449.559	107.62
449.779	122.62
450	87.62
450.221	98.62
450.442	82.62
450.662	82.62
450.883	93.62
451.104	98.62
451.324	84.62
451.545	91.62
451.766	95.62
451.986	82.62
452.207	85.62
452.428	90.62
452.648	88.62
452.869	94.62
453.089	100.62
453.31	94.62
453.53	83.62
453.751	98.62
453.971	99.62
454.192	87.62
454.412	85.62
454.633	97.62
454.853	81.62
455.073	97.62
455.294	99.62
455.514	114.62
455.734	94.62
455.955	78.62
456.175	86.62
456.395	82.62
456.616	83.62
456.836	84.62
457.056	82.62
457.276	83.62
457.497	83.62
457.717	75.62
457.937	73.62
458.157	80.62
458.377	87.62
458.598	103.62
458.818	113.62
459.038	130.62
459.258	95.62
459.478	85.62
459.698	91.62
459.918	90.62
460.138	85.62
460.358	83.62
460.578	87.62
460.798	86.62
461.018	81.62
461.238	90.62
461.458	79.62
461.678	81.62
461.898	93.62
462.118	91.62
462.338	89.62
462.558	88.62
462.777	88.62
462.997	77.62
463.217	85.62
463.437	80.62
463.657	78.62
463.876	85.62
464.096	95.62
464.316	74.62
464.536	97.62
464.755	97.62
464.975	112.62
465.195	137.62
465.414	123.62
465.634	94.62
465.854	86.62
466.073	84.62
466.293	87.62
466.512	78.62
466.732	90.62
466.951	97.62
467.171	82.62
467.391	75.62
467.61	85.62
467.829	91.62
468.049	106.62
468.268	102.62
468.488	86.62
468.707	90.62
468.927	88.62
469.146	92.62
469.365	81.62
469.585	93.62
469.804	87.62
470.023	97.62
470.243	97.62
470.462	104.62
470.681	107.62
470.901	83.62
471.12	92.62
471.339	82.62
471.558	91.62
471.777	82.62
471.997	88.62
472.216	115.62
472.435	137.62
472.654	103.62
472.873	85.62
473.092	85.62
473.311	91.62
473.53	87.62
473.749	108.62
473.968	86.62
474.187	98.62
474.406	95.62
474.625	93.62
474.844	82.62
475.063	78.62
475.282	62.62
475.501	96.62
475.72	89.62
475.939	86.62
476.158	85.62
476.377	79.62
476.596	92.62
476.814	91.62
477.033	85.62
477.252	98.62
477.471	90.62
477.69	92.62
477.908	77.62
478.127	88.62
478.346	86.62
478.564	87.62
478.783	87.62
479.002	92.62
479.22	101.62
479.439	81.62
479.658	93.62
479.876	100.62
480.095	95.62
480.313	91.62
480.532	91.62
480.751	91.62
480.969	112.62
481.188	202.62
481.406	147.62
481.624	85.62
481.843	77.62
482.061	94.62
482.28	85.62
482.498	86.62
482.717	94.62
482.935	96.62
483.153	81.62
483.372	88.62
483.59	90.62
483.808	95.62
484.027	91.62
484.245	91.62
484.463	89.62
484.681	110.62
484.9	102.62
485.118	97.62
485.336	100.62
485.554	121.62
485.772	113.62
485.99	117.62
486.209	109.62
486.427	90.62
486.645	102.62
486.863	117.62
487.081	127.62
487.299	88.62
487.517	99.62
487.735	115.62
487.953	89.62
488.171	91.62
488.389	88.62
488.607	95.62
488.825	90.62
489.043	100.62
489.261	101.62
489.479	107.62
489.696	96.62
489.914	87.62
490.132	96.62
490.35	80.62
490.568	106.62
490.786	89.62
491.003	70.62
491.221	99.62
491.439	93.62
491.657	98.62
491.874	93.62
492.092	92.62
492.31	81.62
492.527	90.62
492.745	97.62
492.963	106.62
493.18	94.62
493.398	90.62
493.615	93.62
493.833	108.62
494.05	95.62
494.268	86.62
494.485	101.62
494.703	91.62
494.92	98.62
495.138	87.62
495.355	97.62
495.573	97.62
495.79	70.62
496.008	91.62
496.225	80.62
496.442	79.62
496.66	111.62
496.877	78.62
497.094	94.62
497.312	76.62
497.529	102.62
497.746	92.62
497.963	99.62
498.181	95.62
498.398	99.62
498.615	98.62
498.832	96.62
499.049	102.62
499.267	94.62
499.484	96.62
499.701	93.62
499.918	75.62
500.135	78.62
500.352	91.62
500.569	79.62
500.786	93.62
501.003	78.62
501.22	98.62
501.437	99.62
501.654	94.62
501.871	104.62
502.088	83.62
502.305	89.62
502.522	91.62
502.739	84.62
502.956	102.62
503.172	108.62
503.389	97.62
503.606	110.62
503.823	81.62
504.04	91.62
504.256	93.62
504.473	104.62
504.69	102.62
504.907	100.62
505.123	94.62
505.34	95.62
505.557	100.62
505.773	77.62
505.99	91.62
506.207	90.62
506.423	91.62
506.64	88.62
506.856	81.62
507.073	109.62
507.289	87.62
507.506	100.62
507.722	102.62
507.939	103.62
508.155	104.62
508.372	82.62
508.588	91.62
508.805	95.62
509.021	94.62
509.238	93.62
509.454	103.62
509.67	93.62
509.887	103.62
510.103	117.62
510.319	188.62
510.536	590.62
510.752	1682.62
510.968	482.62
511.184	125.62
511.401	109.62
511.617	95.62
511.833	90.62
512.049	95.62
512.265	98.62
512.481	95.62
512.698	87.62
512.914	95.62
513.13	92.62
513.346	91.62
513.562	84.62
513.778	77.62
513.994	97.62
514.21	93.62
514.426	99.62
514.642	109.62
514.858	107.62
515.074	134.62
515.29	315.62
515.506	960.62
515.721	374.62
