Data from Circ_1993_H10_HRD10591_00089.txt Node
Date: Wed Jan 03 11:44:19 EST 2024
User: Yrep
Spectrometer: HR+D1059
Trigger mode: 1
Integration Time (sec): 1.000000E-1
Scans to average: 1
Electric dark correction enabled: true
Nonlinearity correction enabled: false
Boxcar width: 0
XAxis mode: Wavelengths
Number of Pixels in Spectrum: 2048
>>>>>Begin Spectral Data<<<<<
223.165	-13.12
223.4	-13.12
223.635	-13.12
223.869	-23.12
224.104	-12.12
224.338	-8.12
224.573	-21.12
224.808	-22.12
225.042	-24.12
225.277	-8.12
225.511	6.88
225.746	8.88
225.98	12.88
226.215	22.88
226.449	15.88
226.683	16.88
226.918	12.88
227.152	34.88
227.387	17.88
227.621	30.88
227.856	39.88
228.09	45.88
228.324	47.88
228.559	39.88
228.793	59.88
229.027	64.88
229.262	58.88
229.496	78.88
229.73	71.88
229.964	91.88
230.199	78.88
230.433	58.88
230.667	80.88
230.901	80.88
231.136	81.88
231.37	62.88
231.604	76.88
231.838	86.88
232.072	79.88
232.306	78.88
232.541	73.88
232.775	79.88
233.009	72.88
233.243	82.88
233.477	73.88
233.711	73.88
233.945	79.88
234.179	83.88
234.413	82.88
234.647	65.88
234.881	73.88
235.115	72.88
235.349	74.88
235.583	77.88
235.817	87.88
236.051	76.88
236.285	69.88
236.519	62.88
236.753	73.88
236.987	81.88
237.221	83.88
237.455	86.88
237.689	76.88
237.922	66.88
238.156	66.88
238.39	65.88
238.624	83.88
238.858	80.88
239.091	87.88
239.325	79.88
239.559	65.88
239.793	78.88
240.027	81.88
240.26	65.88
240.494	81.88
240.728	68.88
240.961	81.88
241.195	63.88
241.429	74.88
241.662	72.88
241.896	76.88
242.13	69.88
242.363	77.88
242.597	66.88
242.83	77.88
243.064	88.88
243.298	85.88
243.531	87.88
243.765	69.88
243.998	77.88
244.232	78.88
244.465	78.88
244.699	80.88
244.932	69.88
245.166	71.88
245.399	74.88
245.633	70.88
245.866	72.88
246.099	66.88
246.333	73.88
246.566	79.88
246.8	87.88
247.033	65.88
247.266	71.88
247.5	82.88
247.733	81.88
247.966	70.88
248.2	78.88
248.433	74.88
248.666	80.88
248.899	80.88
249.133	86.88
249.366	107.88
249.599	85.88
249.832	86.88
250.066	67.88
250.299	87.88
250.532	85.88
250.765	67.88
250.998	75.88
251.231	66.88
251.465	91.88
251.698	78.88
251.931	79.88
252.164	79.88
252.397	69.88
252.63	81.88
252.863	66.88
253.096	75.88
253.329	89.88
253.562	76.88
253.795	81.88
254.028	77.88
254.261	72.88
254.494	81.88
254.727	71.88
254.96	77.88
255.193	74.88
255.426	70.88
255.659	68.88
255.892	72.88
256.124	78.88
256.357	59.88
256.59	66.88
256.823	82.88
257.056	83.88
257.289	79.88
257.521	72.88
257.754	66.88
257.987	60.88
258.22	79.88
258.452	70.88
258.685	93.88
258.918	86.88
259.151	86.88
259.383	65.88
259.616	66.88
259.849	80.88
260.081	83.88
260.314	77.88
260.547	88.88
260.779	85.88
261.012	79.88
261.244	91.88
261.477	92.88
261.71	85.88
261.942	120.88
262.175	100.88
262.407	70.88
262.64	88.88
262.872	76.88
263.105	81.88
263.337	73.88
263.57	69.88
263.802	67.88
264.035	79.88
264.267	67.88
264.499	63.88
264.732	75.88
264.964	59.88
265.197	66.88
265.429	70.88
265.661	80.88
265.894	73.88
266.126	73.88
266.358	71.88
266.591	79.88
266.823	67.88
267.055	85.88
267.287	78.88
267.52	82.88
267.752	78.88
267.984	71.88
268.216	70.88
268.448	82.88
268.681	90.88
268.913	92.88
269.145	83.88
269.377	64.88
269.609	75.88
269.841	83.88
270.073	78.88
270.306	73.88
270.538	76.88
270.77	78.88
271.002	71.88
271.234	73.88
271.466	81.88
271.698	78.88
271.93	85.88
272.162	92.88
272.394	78.88
272.626	79.88
272.858	82.88
273.09	89.88
273.322	89.88
273.553	73.88
273.785	69.88
274.017	75.88
274.249	82.88
274.481	88.88
274.713	71.88
274.945	81.88
275.176	86.88
275.408	92.88
275.64	88.88
275.872	77.88
276.104	78.88
276.335	99.88
276.567	80.88
276.799	85.88
277.031	85.88
277.262	92.88
277.494	89.88
277.726	83.88
277.957	71.88
278.189	77.88
278.421	74.88
278.652	84.88
278.884	73.88
279.115	90.88
279.347	90.88
279.579	69.88
279.81	78.88
280.042	92.88
280.273	109.88
280.505	84.88
280.736	71.88
280.968	99.88
281.199	82.88
281.431	91.88
281.662	90.88
281.894	79.88
282.125	94.88
282.356	99.88
282.588	130.88
282.819	103.88
283.051	85.88
283.282	81.88
283.513	74.88
283.745	80.88
283.976	86.88
284.207	93.88
284.439	84.88
284.67	83.88
284.901	99.88
285.132	85.88
285.364	82.88
285.595	87.88
285.826	98.88
286.057	96.88
286.288	71.88
286.52	89.88
286.751	94.88
286.982	89.88
287.213	79.88
287.444	79.88
287.675	81.88
287.906	84.88
288.138	78.88
288.369	89.88
288.6	88.88
288.831	85.88
289.062	69.88
289.293	81.88
289.524	77.88
289.755	82.88
289.986	82.88
290.217	82.88
290.448	79.88
290.679	75.88
290.91	74.88
291.141	77.88
291.371	87.88
291.602	68.88
291.833	74.88
292.064	88.88
292.295	103.88
292.526	71.88
292.757	79.88
292.987	91.88
293.218	63.88
293.449	82.88
293.68	86.88
293.91	82.88
294.141	90.88
294.372	81.88
294.603	72.88
294.833	89.88
295.064	79.88
295.295	94.88
295.525	91.88
295.756	94.88
295.987	99.88
296.217	109.88
296.448	106.88
296.679	95.88
296.909	79.88
297.14	78.88
297.37	97.88
297.601	78.88
297.831	95.88
298.062	78.88
298.292	77.88
298.523	88.88
298.753	83.88
298.984	105.88
299.214	87.88
299.445	96.88
299.675	81.88
299.905	82.88
300.136	94.88
300.366	73.88
300.597	81.88
300.827	74.88
301.057	77.88
301.288	82.88
301.518	86.88
301.748	79.88
301.979	85.88
302.209	83.88
302.439	66.88
302.669	81.88
302.9	95.88
303.13	83.88
303.36	85.88
303.59	98.88
303.82	108.88
304.051	85.88
304.281	83.88
304.511	89.88
304.741	79.88
304.971	80.88
305.201	85.88
305.431	89.88
305.661	80.88
305.891	86.88
306.121	86.88
306.352	85.88
306.582	85.88
306.812	97.88
307.042	89.88
307.272	98.88
307.502	94.88
307.731	99.88
307.961	98.88
308.191	86.88
308.421	85.88
308.651	83.88
308.881	81.88
309.111	94.88
309.341	90.88
309.571	105.88
309.8	72.88
310.03	82.88
310.26	100.88
310.49	89.88
310.72	82.88
310.949	90.88
311.179	87.88
311.409	87.88
311.639	96.88
311.868	86.88
312.098	70.88
312.328	92.88
312.557	106.88
312.787	97.88
313.017	99.88
313.246	88.88
313.476	87.88
313.706	79.88
313.935	97.88
314.165	80.88
314.394	102.88
314.624	89.88
314.853	68.88
315.083	75.88
315.312	77.88
315.542	96.88
315.771	92.88
316.001	88.88
316.23	98.88
316.46	83.88
316.689	89.88
316.919	96.88
317.148	91.88
317.377	87.88
317.607	92.88
317.836	96.88
318.065	86.88
318.295	73.88
318.524	79.88
318.753	72.88
318.983	81.88
319.212	93.88
319.441	93.88
319.67	90.88
319.9	100.88
320.129	87.88
320.358	84.88
320.587	85.88
320.816	88.88
321.046	87.88
321.275	102.88
321.504	106.88
321.733	81.88
321.962	85.88
322.191	109.88
322.42	86.88
322.649	103.88
322.878	112.88
323.108	103.88
323.337	113.88
323.566	113.88
323.795	134.88
324.024	173.88
324.253	338.88
324.482	691.88
324.71	1429.88
324.939	1879.88
325.168	675.88
325.397	222.88
325.626	127.88
325.855	115.88
326.084	120.88
326.313	111.88
326.542	131.88
326.77	214.88
326.999	416.88
327.228	814.88
327.457	1497.88
327.686	1195.88
327.914	327.88
328.143	223.88
328.372	196.88
328.6	146.88
328.829	109.88
329.058	111.88
329.287	108.88
329.515	111.88
329.744	113.88
329.972	158.88
330.201	220.88
330.43	255.88
330.658	167.88
330.887	155.88
331.115	103.88
331.344	94.88
331.572	89.88
331.801	84.88
332.03	92.88
332.258	89.88
332.486	105.88
332.715	91.88
332.943	79.88
333.172	101.88
333.4	100.88
333.629	109.88
333.857	112.88
334.085	137.88
334.314	216.88
334.542	321.88
334.771	312.88
334.999	128.88
335.227	101.88
335.455	97.88
335.684	94.88
335.912	106.88
336.14	89.88
336.369	77.88
336.597	97.88
336.825	73.88
337.053	73.88
337.281	96.88
337.51	77.88
337.738	86.88
337.966	95.88
338.194	101.88
338.422	91.88
338.65	76.88
338.878	87.88
339.106	71.88
339.334	95.88
339.562	83.88
339.79	88.88
340.018	82.88
340.246	94.88
340.474	74.88
340.702	76.88
340.93	89.88
341.158	86.88
341.386	74.88
341.614	86.88
341.842	89.88
342.07	94.88
342.298	90.88
342.526	79.88
342.754	80.88
342.981	83.88
343.209	74.88
343.437	89.88
343.665	77.88
343.893	85.88
344.12	82.88
344.348	80.88
344.576	86.88
344.804	83.88
345.031	105.88
345.259	94.88
345.487	97.88
345.714	89.88
345.942	85.88
346.17	86.88
346.397	83.88
346.625	89.88
346.853	98.88
347.08	89.88
347.308	79.88
347.535	95.88
347.763	95.88
347.99	83.88
348.218	96.88
348.445	86.88
348.673	90.88
348.9	81.88
349.128	99.88
349.355	86.88
349.583	87.88
349.81	103.88
350.037	84.88
350.265	90.88
350.492	82.88
350.72	93.88
350.947	103.88
351.174	99.88
351.402	88.88
351.629	87.88
351.856	98.88
352.083	96.88
352.311	98.88
352.538	94.88
352.765	93.88
352.992	113.88
353.22	89.88
353.447	91.88
353.674	95.88
353.901	82.88
354.128	74.88
354.355	107.88
354.583	94.88
354.81	101.88
355.037	104.88
355.264	94.88
355.491	89.88
355.718	87.88
355.945	81.88
356.172	105.88
356.399	90.88
356.626	87.88
356.853	82.88
357.08	78.88
357.307	94.88
357.534	83.88
357.761	97.88
357.988	89.88
358.215	78.88
358.441	89.88
358.668	95.88
358.895	93.88
359.122	79.88
359.349	86.88
359.576	81.88
359.802	73.88
360.029	116.88
360.256	92.88
360.483	81.88
360.709	86.88
360.936	82.88
361.163	87.88
361.39	86.88
361.616	89.88
361.843	87.88
362.07	99.88
362.296	86.88
362.523	97.88
362.749	78.88
362.976	82.88
363.203	74.88
363.429	86.88
363.656	81.88
363.882	83.88
364.109	91.88
364.335	99.88
364.562	93.88
364.788	88.88
365.015	97.88
365.241	100.88
365.468	102.88
365.694	95.88
365.92	79.88
366.147	78.88
366.373	97.88
366.599	91.88
366.826	99.88
367.052	79.88
367.278	87.88
367.505	80.88
367.731	87.88
367.957	83.88
368.184	82.88
368.41	82.88
368.636	102.88
368.862	99.88
369.089	107.88
369.315	85.88
369.541	87.88
369.767	88.88
369.993	80.88
370.219	93.88
370.445	84.88
370.672	92.88
370.898	105.88
371.124	76.88
371.35	75.88
371.576	99.88
371.802	85.88
372.028	100.88
372.254	89.88
372.48	89.88
372.706	78.88
372.932	75.88
373.158	90.88
373.384	71.88
373.61	83.88
373.835	80.88
374.061	80.88
374.287	78.88
374.513	73.88
374.739	74.88
374.965	85.88
375.191	81.88
375.416	82.88
375.642	90.88
375.868	103.88
376.094	81.88
376.319	93.88
376.545	83.88
376.771	81.88
376.997	82.88
377.222	77.88
377.448	78.88
377.674	78.88
377.899	89.88
378.125	89.88
378.35	94.88
378.576	87.88
378.802	89.88
379.027	80.88
379.253	79.88
379.478	97.88
379.704	79.88
379.929	82.88
380.155	90.88
380.38	85.88
380.606	95.88
380.831	92.88
381.057	104.88
381.282	90.88
381.507	102.88
381.733	111.88
381.958	102.88
382.184	94.88
382.409	91.88
382.634	96.88
382.86	97.88
383.085	92.88
383.31	84.88
383.535	109.88
383.761	98.88
383.986	85.88
384.211	87.88
384.436	96.88
384.662	90.88
384.887	93.88
385.112	102.88
385.337	91.88
385.562	105.88
385.787	95.88
386.013	95.88
386.238	105.88
386.463	100.88
386.688	110.88
386.913	99.88
387.138	96.88
387.363	84.88
387.588	86.88
387.813	90.88
388.038	99.88
388.263	88.88
388.488	98.88
388.713	97.88
388.938	93.88
389.163	94.88
389.387	95.88
389.612	86.88
389.837	89.88
390.062	91.88
390.287	93.88
390.512	90.88
390.736	93.88
390.961	90.88
391.186	98.88
391.411	94.88
391.636	80.88
391.86	74.88
392.085	77.88
392.31	101.88
392.534	90.88
392.759	97.88
392.984	86.88
393.208	102.88
393.433	97.88
393.658	107.88
393.882	94.88
394.107	69.88
394.331	84.88
394.556	74.88
394.78	82.88
395.005	85.88
395.229	75.88
395.454	90.88
395.678	88.88
395.903	83.88
396.127	87.88
396.352	95.88
396.576	95.88
396.801	84.88
397.025	91.88
397.249	84.88
397.474	85.88
397.698	70.88
397.922	82.88
398.147	72.88
398.371	90.88
398.595	91.88
398.82	87.88
399.044	71.88
399.268	74.88
399.492	86.88
399.717	72.88
399.941	85.88
400.165	94.88
400.389	89.88
400.613	91.88
400.837	82.88
401.062	81.88
401.286	89.88
401.51	95.88
401.734	93.88
401.958	104.88
402.182	110.88
402.406	137.88
402.63	100.88
402.854	87.88
403.078	81.88
403.302	81.88
403.526	86.88
403.75	85.88
403.974	83.88
404.198	98.88
404.422	87.88
404.645	96.88
404.869	96.88
405.093	82.88
405.317	107.88
405.541	114.88
405.765	104.88
405.988	107.88
406.212	137.88
406.436	186.88
406.66	117.88
406.883	86.88
407.107	94.88
407.331	91.88
407.555	100.88
407.778	90.88
408.002	93.88
408.226	97.88
408.449	90.88
408.673	81.88
408.896	89.88
409.12	81.88
409.344	89.88
409.567	84.88
409.791	85.88
410.014	103.88
410.238	82.88
410.461	77.88
410.685	87.88
410.908	98.88
411.132	91.88
411.355	84.88
411.578	96.88
411.802	86.88
412.025	84.88
412.249	87.88
412.472	96.88
412.695	103.88
412.919	79.88
413.142	87.88
413.365	90.88
413.589	86.88
413.812	98.88
414.035	88.88
414.258	79.88
414.482	102.88
414.705	84.88
414.928	75.88
415.151	86.88
415.374	87.88
415.597	86.88
415.821	77.88
416.044	83.88
416.267	86.88
416.49	93.88
416.713	77.88
416.936	83.88
417.159	83.88
417.382	96.88
417.605	92.88
417.828	86.88
418.051	77.88
418.274	74.88
418.497	71.88
418.72	72.88
418.943	78.88
419.166	80.88
419.389	78.88
419.611	92.88
419.834	86.88
420.057	83.88
420.28	85.88
420.503	90.88
420.726	74.88
420.948	89.88
421.171	93.88
421.394	81.88
421.617	79.88
421.839	81.88
422.062	74.88
422.285	102.88
422.507	93.88
422.73	94.88
422.953	100.88
423.175	78.88
423.398	102.88
423.621	93.88
423.843	69.88
424.066	85.88
424.288	106.88
424.511	96.88
424.733	98.88
424.956	93.88
425.178	96.88
425.401	94.88
425.623	80.88
425.846	91.88
426.068	78.88
426.291	89.88
426.513	89.88
426.735	93.88
426.958	85.88
427.18	101.88
427.402	114.88
427.625	157.88
427.847	124.88
428.069	118.88
428.292	95.88
428.514	103.88
428.736	71.88
428.958	91.88
429.181	91.88
429.403	74.88
429.625	76.88
429.847	94.88
430.069	95.88
430.292	99.88
430.514	84.88
430.736	80.88
430.958	74.88
431.18	83.88
431.402	84.88
431.624	95.88
431.846	95.88
432.068	93.88
432.29	82.88
432.512	88.88
432.734	86.88
432.956	90.88
433.178	98.88
433.4	93.88
433.622	93.88
433.844	80.88
434.066	80.88
434.287	99.88
434.509	96.88
434.731	89.88
434.953	77.88
435.175	66.88
435.397	90.88
435.618	83.88
435.84	94.88
436.062	113.88
436.284	109.88
436.505	88.88
436.727	85.88
436.949	89.88
437.17	86.88
437.392	63.88
437.614	78.88
437.835	93.88
438.057	110.88
438.278	92.88
438.5	88.88
438.721	111.88
438.943	113.88
439.165	79.88
439.386	90.88
439.608	93.88
439.829	100.88
440.05	126.88
440.272	135.88
440.493	91.88
440.715	83.88
440.936	84.88
441.158	81.88
441.379	86.88
441.6	90.88
441.822	81.88
442.043	103.88
442.264	92.88
442.486	94.88
442.707	101.88
442.928	99.88
443.149	116.88
443.371	97.88
443.592	98.88
443.813	102.88
444.034	113.88
444.255	86.88
444.476	77.88
444.698	85.88
444.919	81.88
445.14	143.88
445.361	113.88
445.582	117.88
445.803	127.88
446.024	116.88
446.245	117.88
446.466	94.88
446.687	83.88
446.908	77.88
447.129	88.88
447.35	90.88
447.571	90.88
447.792	82.88
448.013	91.88
448.234	95.88
448.455	87.88
448.675	100.88
448.896	115.88
449.117	98.88
449.338	90.88
449.559	109.88
449.779	129.88
450	87.88
450.221	90.88
450.442	97.88
450.662	87.88
450.883	88.88
451.104	95.88
451.324	107.88
451.545	91.88
451.766	92.88
451.986	87.88
452.207	81.88
452.428	80.88
452.648	94.88
452.869	104.88
453.089	92.88
453.31	103.88
453.53	81.88
453.751	75.88
453.971	83.88
454.192	108.88
454.412	82.88
454.633	96.88
454.853	91.88
455.073	85.88
455.294	73.88
455.514	90.88
455.734	96.88
455.955	82.88
456.175	73.88
456.395	86.88
456.616	91.88
456.836	83.88
457.056	92.88
457.276	88.88
457.497	88.88
457.717	89.88
457.937	82.88
458.157	65.88
458.377	75.88
458.598	85.88
458.818	117.88
459.038	129.88
459.258	113.88
459.478	80.88
459.698	88.88
459.918	88.88
460.138	86.88
460.358	87.88
460.578	80.88
460.798	93.88
461.018	82.88
461.238	91.88
461.458	66.88
461.678	61.88
461.898	81.88
462.118	78.88
462.338	82.88
462.558	83.88
462.777	95.88
462.997	86.88
463.217	86.88
463.437	91.88
463.657	83.88
463.876	78.88
464.096	74.88
464.316	77.88
464.536	85.88
464.755	85.88
464.975	87.88
465.195	137.88
465.414	144.88
465.634	89.88
465.854	79.88
466.073	70.88
466.293	84.88
466.512	95.88
466.732	77.88
466.951	87.88
467.171	81.88
467.391	87.88
467.61	102.88
467.829	101.88
468.049	162.88
468.268	180.88
468.488	94.88
468.707	89.88
468.927	81.88
469.146	80.88
469.365	90.88
469.585	86.88
469.804	97.88
470.023	101.88
470.243	85.88
470.462	94.88
470.681	111.88
470.901	95.88
471.12	86.88
471.339	91.88
471.558	84.88
471.777	98.88
471.997	116.88
472.216	254.88
472.435	453.88
472.654	160.88
472.873	91.88
473.092	83.88
473.311	71.88
473.53	90.88
473.749	85.88
473.968	91.88
474.187	88.88
474.406	86.88
474.625	92.88
474.844	76.88
475.063	89.88
475.282	78.88
475.501	94.88
475.72	95.88
475.939	95.88
476.158	84.88
476.377	76.88
476.596	89.88
476.814	81.88
477.033	98.88
477.252	96.88
477.471	87.88
477.69	64.88
477.908	90.88
478.127	76.88
478.346	99.88
478.564	81.88
478.783	111.88
479.002	83.88
479.22	86.88
479.439	105.88
479.658	83.88
479.876	93.88
480.095	95.88
480.313	87.88
480.532	100.88
480.751	111.88
480.969	235.88
481.188	775.88
481.406	470.88
481.624	120.88
481.843	96.88
482.061	92.88
482.28	86.88
482.498	81.88
482.717	88.88
482.935	75.88
483.153	86.88
483.372	92.88
483.59	93.88
483.808	88.88
484.027	95.88
484.245	83.88
484.463	97.88
484.681	94.88
484.9	80.88
485.118	84.88
485.336	96.88
485.554	95.88
485.772	97.88
485.99	98.88
486.209	114.88
486.427	115.88
486.645	112.88
486.863	92.88
487.081	88.88
487.299	96.88
487.517	93.88
487.735	86.88
487.953	99.88
488.171	90.88
488.389	87.88
488.607	107.88
488.825	91.88
489.043	97.88
489.261	78.88
489.479	90.88
489.696	85.88
489.914	83.88
490.132	104.88
490.35	92.88
490.568	77.88
490.786	94.88
491.003	81.88
491.221	94.88
491.439	95.88
491.657	96.88
491.874	107.88
492.092	97.88
492.31	82.88
492.527	90.88
492.745	74.88
492.963	79.88
493.18	86.88
493.398	101.88
493.615	98.88
493.833	70.88
494.05	89.88
494.268	87.88
494.485	79.88
494.703	82.88
494.92	95.88
495.138	78.88
495.355	90.88
495.573	92.88
495.79	93.88
496.008	94.88
496.225	88.88
496.442	78.88
496.66	82.88
496.877	87.88
497.094	92.88
497.312	83.88
497.529	86.88
497.746	71.88
497.963	79.88
498.181	77.88
498.398	86.88
498.615	104.88
498.832	95.88
499.049	74.88
499.267	105.88
499.484	78.88
499.701	73.88
499.918	91.88
500.135	74.88
500.352	91.88
500.569	89.88
500.786	90.88
501.003	87.88
501.22	93.88
501.437	100.88
501.654	88.88
501.871	99.88
502.088	81.88
502.305	83.88
502.522	90.88
502.739	84.88
502.956	87.88
503.172	89.88
503.389	92.88
503.606	98.88
503.823	89.88
504.04	81.88
504.256	89.88
504.473	85.88
504.69	90.88
504.907	84.88
505.123	91.88
505.34	89.88
505.557	76.88
505.773	90.88
505.99	84.88
506.207	78.88
506.423	68.88
506.64	81.88
506.856	88.88
507.073	83.88
507.289	81.88
507.506	99.88
507.722	99.88
507.939	98.88
508.155	87.88
508.372	84.88
508.588	91.88
508.805	91.88
509.021	92.88
509.238	82.88
509.454	64.88
509.67	94.88
509.887	107.88
510.103	117.88
510.319	174.88
510.536	597.88
510.752	1831.88
510.968	505.88
511.184	132.88
511.401	88.88
511.617	96.88
511.833	97.88
512.049	102.88
512.265	90.88
512.481	86.88
512.698	82.88
512.914	79.88
513.13	97.88
513.346	98.88
513.562	89.88
513.778	93.88
513.994	88.88
514.21	98.88
514.426	97.88
514.642	107.88
514.858	116.88
515.074	142.88
515.29	348.88
515.506	1069.88
515.721	425.88
515.937	134.88
516.153	105.88
516.369	93.88
516.585	98.88
516.801	87.88
517.016	91.88
517.232	82.88
