Data from Circ_1993_H10_HRD10591_00081.txt Node
Date: Wed Jan 03 11:44:18 EST 2024
User: Yrep
Spectrometer: HR+D1059
Trigger mode: 1
Integration Time (sec): 1.000000E-1
Scans to average: 1
Electric dark correction enabled: true
Nonlinearity correction enabled: false
Boxcar width: 0
XAxis mode: Wavelengths
Number of Pixels in Spectrum: 2048
>>>>>Begin Spectral Data<<<<<
223.165	-24.56
223.4	-24.56
223.635	-24.56
223.869	-15.56
224.104	-14.56
224.338	-25.56
224.573	-24.56
224.808	-11.56
225.042	-1.56
225.277	0.44
225.511	-8.56
225.746	7.44
225.98	-7.56
226.215	13.44
226.449	11.44
226.683	14.44
226.918	45.44
227.152	41.44
227.387	23.44
227.621	38.44
227.856	44.44
228.09	41.44
228.324	52.44
228.559	51.44
228.793	67.44
229.027	66.44
229.262	79.44
229.496	76.44
229.73	96.44
229.964	83.44
230.199	86.44
230.433	57.44
230.667	86.44
230.901	90.44
231.136	69.44
231.37	87.44
231.604	93.44
231.838	83.44
232.072	71.44
232.306	97.44
232.541	83.44
232.775	87.44
233.009	84.44
233.243	83.44
233.477	93.44
233.711	92.44
233.945	75.44
234.179	85.44
234.413	86.44
234.647	93.44
234.881	90.44
235.115	59.44
235.349	83.44
235.583	72.44
235.817	77.44
236.051	77.44
236.285	81.44
236.519	89.44
236.753	86.44
236.987	82.44
237.221	88.44
237.455	83.44
237.689	79.44
237.922	85.44
238.156	78.44
238.39	76.44
238.624	79.44
238.858	76.44
239.091	75.44
239.325	85.44
239.559	78.44
239.793	75.44
240.027	73.44
240.26	81.44
240.494	83.44
240.728	84.44
240.961	69.44
241.195	84.44
241.429	90.44
241.662	84.44
241.896	82.44
242.13	76.44
242.363	78.44
242.597	75.44
242.83	88.44
243.064	83.44
243.298	83.44
243.531	87.44
243.765	82.44
243.998	77.44
244.232	70.44
244.465	91.44
244.699	83.44
244.932	94.44
245.166	73.44
245.399	76.44
245.633	72.44
245.866	79.44
246.099	77.44
246.333	69.44
246.566	87.44
246.8	81.44
247.033	93.44
247.266	87.44
247.5	75.44
247.733	77.44
247.966	84.44
248.2	91.44
248.433	69.44
248.666	75.44
248.899	88.44
249.133	79.44
249.366	93.44
249.599	84.44
249.832	78.44
250.066	75.44
250.299	81.44
250.532	81.44
250.765	94.44
250.998	81.44
251.231	92.44
251.465	81.44
251.698	97.44
251.931	93.44
252.164	79.44
252.397	79.44
252.63	86.44
252.863	92.44
253.096	93.44
253.329	81.44
253.562	102.44
253.795	84.44
254.028	83.44
254.261	80.44
254.494	85.44
254.727	79.44
254.96	77.44
255.193	92.44
255.426	81.44
255.659	80.44
255.892	103.44
256.124	84.44
256.357	84.44
256.59	79.44
256.823	75.44
257.056	80.44
257.289	94.44
257.521	91.44
257.754	84.44
257.987	75.44
258.22	84.44
258.452	85.44
258.685	82.44
258.918	83.44
259.151	85.44
259.383	83.44
259.616	91.44
259.849	101.44
260.081	78.44
260.314	95.44
260.547	78.44
260.779	79.44
261.012	86.44
261.244	77.44
261.477	87.44
261.71	95.44
261.942	115.44
262.175	131.44
262.407	80.44
262.64	63.44
262.872	93.44
263.105	95.44
263.337	86.44
263.57	86.44
263.802	87.44
264.035	62.44
264.267	92.44
264.499	93.44
264.732	84.44
264.964	89.44
265.197	90.44
265.429	72.44
265.661	90.44
265.894	89.44
266.126	79.44
266.358	99.44
266.591	93.44
266.823	86.44
267.055	82.44
267.287	85.44
267.52	78.44
267.752	86.44
267.984	69.44
268.216	87.44
268.448	91.44
268.681	87.44
268.913	88.44
269.145	95.44
269.377	71.44
269.609	99.44
269.841	76.44
270.073	79.44
270.306	84.44
270.538	82.44
270.77	79.44
271.002	69.44
271.234	87.44
271.466	97.44
271.698	92.44
271.93	78.44
272.162	93.44
272.394	94.44
272.626	84.44
272.858	104.44
273.09	96.44
273.322	95.44
273.553	88.44
273.785	92.44
274.017	90.44
274.249	89.44
274.481	91.44
274.713	104.44
274.945	98.44
275.176	79.44
275.408	78.44
275.64	95.44
275.872	75.44
276.104	87.44
276.335	103.44
276.567	80.44
276.799	92.44
277.031	94.44
277.262	97.44
277.494	97.44
277.726	85.44
277.957	82.44
278.189	92.44
278.421	94.44
278.652	98.44
278.884	73.44
279.115	85.44
279.347	84.44
279.579	96.44
279.81	96.44
280.042	101.44
280.273	97.44
280.505	111.44
280.736	84.44
280.968	89.44
281.199	91.44
281.431	84.44
281.662	86.44
281.894	100.44
282.125	103.44
282.356	110.44
282.588	141.44
282.819	110.44
283.051	82.44
283.282	93.44
283.513	85.44
283.745	94.44
283.976	105.44
284.207	93.44
284.439	88.44
284.67	88.44
284.901	88.44
285.132	108.44
285.364	101.44
285.595	87.44
285.826	73.44
286.057	95.44
286.288	91.44
286.52	83.44
286.751	85.44
286.982	86.44
287.213	97.44
287.444	104.44
287.675	85.44
287.906	75.44
288.138	89.44
288.369	95.44
288.6	98.44
288.831	77.44
289.062	88.44
289.293	86.44
289.524	90.44
289.755	95.44
289.986	96.44
290.217	100.44
290.448	80.44
290.679	85.44
290.91	83.44
291.141	90.44
291.371	87.44
291.602	83.44
291.833	85.44
292.064	83.44
292.295	93.44
292.526	87.44
292.757	91.44
292.987	81.44
293.218	87.44
293.449	91.44
293.68	84.44
293.91	91.44
294.141	80.44
294.372	84.44
294.603	87.44
294.833	91.44
295.064	86.44
295.295	88.44
295.525	87.44
295.756	100.44
295.987	115.44
296.217	126.44
296.448	121.44
296.679	95.44
296.909	87.44
297.14	77.44
297.37	93.44
297.601	105.44
297.831	98.44
298.062	85.44
298.292	91.44
298.523	96.44
298.753	93.44
298.984	96.44
299.214	70.44
299.445	84.44
299.675	85.44
299.905	91.44
300.136	95.44
300.366	86.44
300.597	88.44
300.827	95.44
301.057	97.44
301.288	100.44
301.518	97.44
301.748	94.44
301.979	87.44
302.209	89.44
302.439	110.44
302.669	97.44
302.9	98.44
303.13	94.44
303.36	94.44
303.59	94.44
303.82	96.44
304.051	86.44
304.281	84.44
304.511	95.44
304.741	80.44
304.971	89.44
305.201	83.44
305.431	85.44
305.661	100.44
305.891	97.44
306.121	102.44
306.352	101.44
306.582	95.44
306.812	92.44
307.042	93.44
307.272	97.44
307.502	91.44
307.731	107.44
307.961	102.44
308.191	85.44
308.421	106.44
308.651	93.44
308.881	85.44
309.111	92.44
309.341	101.44
309.571	84.44
309.8	85.44
310.03	92.44
310.26	95.44
310.49	84.44
310.72	96.44
310.949	116.44
311.179	105.44
311.409	107.44
311.639	97.44
311.868	95.44
312.098	89.44
312.328	92.44
312.557	102.44
312.787	104.44
313.017	86.44
313.246	84.44
313.476	94.44
313.706	98.44
313.935	96.44
314.165	104.44
314.394	105.44
314.624	95.44
314.853	99.44
315.083	86.44
315.312	96.44
315.542	94.44
315.771	107.44
316.001	104.44
316.23	92.44
316.46	88.44
316.689	90.44
316.919	99.44
317.148	103.44
317.377	91.44
317.607	104.44
317.836	94.44
318.065	89.44
318.295	103.44
318.524	101.44
318.753	96.44
318.983	92.44
319.212	106.44
319.441	110.44
319.67	99.44
319.9	97.44
320.129	110.44
320.358	96.44
320.587	79.44
320.816	97.44
321.046	100.44
321.275	92.44
321.504	99.44
321.733	86.44
321.962	99.44
322.191	97.44
322.42	95.44
322.649	108.44
322.878	98.44
323.108	105.44
323.337	131.44
323.566	113.44
323.795	155.44
324.024	186.44
324.253	352.44
324.482	685.44
324.71	1445.44
324.939	1938.44
325.168	702.44
325.397	216.44
325.626	137.44
325.855	131.44
326.084	134.44
326.313	133.44
326.542	142.44
326.77	191.44
326.999	384.44
327.228	783.44
327.457	1486.44
327.686	1190.44
327.914	328.44
328.143	215.44
328.372	189.44
328.6	134.44
328.829	123.44
329.058	132.44
329.287	123.44
329.515	111.44
329.744	104.44
329.972	152.44
330.201	214.44
330.43	260.44
330.658	180.44
330.887	134.44
331.115	117.44
331.344	85.44
331.572	105.44
331.801	105.44
332.03	109.44
332.258	107.44
332.486	96.44
332.715	87.44
332.943	115.44
333.172	98.44
333.4	87.44
333.629	97.44
333.857	118.44
334.085	145.44
334.314	199.44
334.542	301.44
334.771	295.44
334.999	131.44
335.227	116.44
335.455	101.44
335.684	85.44
335.912	93.44
336.14	100.44
336.369	103.44
336.597	93.44
336.825	99.44
337.053	97.44
337.281	90.44
337.51	92.44
337.738	98.44
337.966	96.44
338.194	84.44
338.422	92.44
338.65	91.44
338.878	101.44
339.106	89.44
339.334	102.44
339.562	91.44
339.79	81.44
340.018	79.44
340.246	88.44
340.474	96.44
340.702	92.44
340.93	84.44
341.158	86.44
341.386	100.44
341.614	97.44
341.842	103.44
342.07	90.44
342.298	83.44
342.526	92.44
342.754	97.44
342.981	81.44
343.209	83.44
343.437	98.44
343.665	99.44
343.893	96.44
344.12	106.44
344.348	88.44
344.576	104.44
344.804	93.44
345.031	98.44
345.259	108.44
345.487	94.44
345.714	93.44
345.942	99.44
346.17	83.44
346.397	90.44
346.625	73.44
346.853	91.44
347.08	88.44
347.308	87.44
347.535	96.44
347.763	102.44
347.99	84.44
348.218	99.44
348.445	86.44
348.673	95.44
348.9	106.44
349.128	101.44
349.355	82.44
349.583	88.44
349.81	81.44
350.037	96.44
350.265	105.44
350.492	106.44
350.72	85.44
350.947	103.44
351.174	99.44
351.402	115.44
351.629	91.44
351.856	106.44
352.083	98.44
352.311	85.44
352.538	121.44
352.765	113.44
352.992	103.44
353.22	112.44
353.447	99.44
353.674	109.44
353.901	92.44
354.128	100.44
354.355	85.44
354.583	96.44
354.81	89.44
355.037	105.44
355.264	91.44
355.491	95.44
355.718	92.44
355.945	90.44
356.172	88.44
356.399	96.44
356.626	111.44
356.853	109.44
357.08	104.44
357.307	97.44
357.534	98.44
357.761	103.44
357.988	83.44
358.215	96.44
358.441	97.44
358.668	97.44
358.895	86.44
359.122	91.44
359.349	88.44
359.576	93.44
359.802	105.44
360.029	104.44
360.256	112.44
360.483	89.44
360.709	98.44
360.936	97.44
361.163	99.44
361.39	88.44
361.616	104.44
361.843	95.44
362.07	98.44
362.296	101.44
362.523	92.44
362.749	101.44
362.976	98.44
363.203	102.44
363.429	100.44
363.656	94.44
363.882	84.44
364.109	91.44
364.335	90.44
364.562	95.44
364.788	100.44
365.015	94.44
365.241	99.44
365.468	111.44
365.694	109.44
365.92	84.44
366.147	81.44
366.373	97.44
366.599	84.44
366.826	91.44
367.052	92.44
367.278	93.44
367.505	95.44
367.731	88.44
367.957	89.44
368.184	92.44
368.41	97.44
368.636	100.44
368.862	109.44
369.089	103.44
369.315	82.44
369.541	91.44
369.767	93.44
369.993	96.44
370.219	81.44
370.445	87.44
370.672	97.44
370.898	96.44
371.124	74.44
371.35	96.44
371.576	89.44
371.802	79.44
372.028	107.44
372.254	93.44
372.48	104.44
372.706	87.44
372.932	77.44
373.158	83.44
373.384	77.44
373.61	92.44
373.835	81.44
374.061	88.44
374.287	84.44
374.513	86.44
374.739	87.44
374.965	83.44
375.191	88.44
375.416	98.44
375.642	95.44
375.868	106.44
376.094	91.44
376.319	91.44
376.545	105.44
376.771	99.44
376.997	80.44
377.222	93.44
377.448	94.44
377.674	85.44
377.899	86.44
378.125	93.44
378.35	93.44
378.576	94.44
378.802	81.44
379.027	85.44
379.253	81.44
379.478	87.44
379.704	95.44
379.929	109.44
380.155	96.44
380.38	101.44
380.606	93.44
380.831	97.44
381.057	87.44
381.282	103.44
381.507	96.44
381.733	118.44
381.958	83.44
382.184	95.44
382.409	103.44
382.634	112.44
382.86	113.44
383.085	94.44
383.31	109.44
383.535	114.44
383.761	111.44
383.986	86.44
384.211	115.44
384.436	105.44
384.662	92.44
384.887	95.44
385.112	103.44
385.337	107.44
385.562	87.44
385.787	88.44
386.013	99.44
386.238	98.44
386.463	96.44
386.688	109.44
386.913	105.44
387.138	103.44
387.363	97.44
387.588	114.44
387.813	102.44
388.038	109.44
388.263	107.44
388.488	104.44
388.713	100.44
388.938	102.44
389.163	100.44
389.387	92.44
389.612	85.44
389.837	106.44
390.062	81.44
390.287	82.44
390.512	97.44
390.736	86.44
390.961	87.44
391.186	99.44
391.411	101.44
391.636	99.44
391.86	82.44
392.085	92.44
392.31	96.44
392.534	79.44
392.759	76.44
392.984	104.44
393.208	98.44
393.433	113.44
393.658	105.44
393.882	99.44
394.107	100.44
394.331	97.44
394.556	88.44
394.78	78.44
395.005	88.44
395.229	81.44
395.454	95.44
395.678	74.44
395.903	91.44
396.127	87.44
396.352	96.44
396.576	97.44
396.801	96.44
397.025	102.44
397.249	92.44
397.474	96.44
397.698	97.44
397.922	84.44
398.147	86.44
398.371	84.44
398.595	82.44
398.82	80.44
399.044	92.44
399.268	78.44
399.492	88.44
399.717	78.44
399.941	94.44
400.165	79.44
400.389	89.44
400.613	81.44
400.837	87.44
401.062	103.44
401.286	85.44
401.51	78.44
401.734	81.44
401.958	100.44
402.182	118.44
402.406	136.44
402.63	105.44
402.854	80.44
403.078	88.44
403.302	96.44
403.526	84.44
403.75	93.44
403.974	84.44
404.198	93.44
404.422	75.44
404.645	90.44
404.869	95.44
405.093	87.44
405.317	103.44
405.541	106.44
405.765	91.44
405.988	105.44
406.212	165.44
406.436	206.44
406.66	143.44
406.883	100.44
407.107	92.44
407.331	90.44
407.555	96.44
407.778	102.44
408.002	91.44
408.226	85.44
408.449	91.44
408.673	102.44
408.896	90.44
409.12	104.44
409.344	96.44
409.567	92.44
409.791	95.44
410.014	89.44
410.238	90.44
410.461	84.44
410.685	92.44
410.908	104.44
411.132	98.44
411.355	96.44
411.578	91.44
411.802	98.44
412.025	91.44
412.249	86.44
412.472	95.44
412.695	98.44
412.919	83.44
413.142	94.44
413.365	93.44
413.589	81.44
413.812	89.44
414.035	86.44
414.258	81.44
414.482	91.44
414.705	91.44
414.928	93.44
415.151	101.44
415.374	97.44
415.597	84.44
415.821	92.44
416.044	97.44
416.267	94.44
416.49	98.44
416.713	86.44
416.936	86.44
417.159	99.44
417.382	85.44
417.605	92.44
417.828	86.44
418.051	105.44
418.274	105.44
418.497	85.44
418.72	84.44
418.943	77.44
419.166	88.44
419.389	90.44
419.611	93.44
419.834	90.44
420.057	83.44
420.28	90.44
420.503	75.44
420.726	85.44
420.948	94.44
421.171	90.44
421.394	87.44
421.617	87.44
421.839	95.44
422.062	88.44
422.285	94.44
422.507	100.44
422.73	95.44
422.953	95.44
423.175	91.44
423.398	91.44
423.621	105.44
423.843	101.44
424.066	92.44
424.288	93.44
424.511	99.44
424.733	83.44
424.956	89.44
425.178	113.44
425.401	107.44
425.623	89.44
425.846	83.44
426.068	93.44
426.291	103.44
426.513	87.44
426.735	104.44
426.958	102.44
427.18	114.44
427.402	133.44
427.625	140.44
427.847	128.44
428.069	124.44
428.292	106.44
428.514	80.44
428.736	85.44
428.958	93.44
429.181	97.44
429.403	97.44
429.625	109.44
429.847	97.44
430.069	97.44
430.292	96.44
430.514	78.44
430.736	92.44
430.958	88.44
431.18	87.44
431.402	93.44
431.624	82.44
431.846	92.44
432.068	91.44
432.29	91.44
432.512	97.44
432.734	87.44
432.956	98.44
433.178	98.44
433.4	107.44
433.622	94.44
433.844	93.44
434.066	82.44
434.287	89.44
434.509	93.44
434.731	99.44
434.953	104.44
435.175	75.44
435.397	77.44
435.618	114.44
435.84	97.44
436.062	111.44
436.284	97.44
436.505	105.44
436.727	105.44
436.949	102.44
437.17	101.44
437.392	89.44
437.614	86.44
437.835	101.44
438.057	105.44
438.278	111.44
438.5	110.44
438.721	126.44
438.943	112.44
439.165	96.44
439.386	100.44
439.608	100.44
439.829	92.44
440.05	120.44
440.272	135.44
440.493	109.44
440.715	88.44
440.936	96.44
441.158	92.44
441.379	95.44
441.6	97.44
441.822	114.44
442.043	95.44
442.264	96.44
442.486	102.44
442.707	82.44
442.928	108.44
443.149	116.44
443.371	113.44
443.592	102.44
443.813	118.44
444.034	92.44
444.255	103.44
444.476	96.44
444.698	109.44
444.919	99.44
445.14	143.44
445.361	117.44
445.582	107.44
445.803	143.44
446.024	142.44
446.245	125.44
446.466	121.44
446.687	84.44
446.908	96.44
447.129	104.44
447.35	96.44
447.571	85.44
447.792	87.44
448.013	97.44
448.234	103.44
448.455	94.44
448.675	123.44
448.896	123.44
449.117	111.44
449.338	112.44
449.559	127.44
449.779	123.44
450	103.44
450.221	79.44
450.442	95.44
450.662	118.44
450.883	96.44
451.104	108.44
451.324	92.44
451.545	65.44
451.766	95.44
451.986	81.44
452.207	85.44
452.428	98.44
452.648	102.44
452.869	113.44
453.089	120.44
453.31	115.44
453.53	84.44
453.751	84.44
453.971	101.44
454.192	110.44
454.412	102.44
454.633	89.44
454.853	99.44
455.073	90.44
455.294	82.44
455.514	90.44
455.734	109.44
455.955	108.44
456.175	80.44
456.395	76.44
456.616	94.44
456.836	83.44
457.056	87.44
457.276	89.44
457.497	86.44
457.717	100.44
457.937	89.44
458.157	99.44
458.377	77.44
458.598	89.44
458.818	130.44
459.038	137.44
459.258	102.44
459.478	95.44
459.698	100.44
459.918	94.44
460.138	77.44
460.358	96.44
460.578	98.44
460.798	105.44
461.018	89.44
461.238	96.44
461.458	95.44
461.678	98.44
461.898	91.44
462.118	86.44
462.338	95.44
462.558	85.44
462.777	77.44
462.997	80.44
463.217	85.44
463.437	100.44
463.657	86.44
463.876	89.44
464.096	95.44
464.316	86.44
464.536	98.44
464.755	91.44
464.975	97.44
465.195	164.44
465.414	151.44
465.634	106.44
465.854	91.44
466.073	94.44
466.293	105.44
466.512	104.44
466.732	97.44
466.951	88.44
467.171	99.44
467.391	101.44
467.61	103.44
467.829	118.44
468.049	158.44
468.268	181.44
468.488	102.44
468.707	83.44
468.927	68.44
469.146	89.44
469.365	79.44
469.585	103.44
469.804	100.44
470.023	80.44
470.243	98.44
470.462	103.44
470.681	105.44
470.901	99.44
471.12	82.44
471.339	96.44
471.558	92.44
471.777	90.44
471.997	122.44
472.216	247.44
472.435	412.44
472.654	140.44
472.873	101.44
473.092	111.44
473.311	80.44
473.53	87.44
473.749	101.44
473.968	107.44
474.187	105.44
474.406	104.44
474.625	92.44
474.844	92.44
475.063	89.44
475.282	89.44
475.501	86.44
475.72	76.44
475.939	93.44
476.158	92.44
476.377	82.44
476.596	89.44
476.814	102.44
477.033	84.44
477.252	103.44
477.471	72.44
477.69	88.44
477.908	91.44
478.127	93.44
478.346	84.44
478.564	105.44
478.783	93.44
479.002	92.44
479.22	98.44
479.439	108.44
479.658	103.44
479.876	87.44
480.095	111.44
480.313	93.44
480.532	93.44
480.751	111.44
480.969	246.44
481.188	712.44
481.406	414.44
481.624	133.44
481.843	102.44
482.061	95.44
482.28	77.44
482.498	86.44
482.717	91.44
482.935	86.44
483.153	93.44
483.372	95.44
483.59	81.44
483.808	89.44
484.027	92.44
484.245	99.44
484.463	98.44
484.681	101.44
484.9	87.44
485.118	98.44
485.336	104.44
485.554	94.44
485.772	115.44
485.99	111.44
486.209	97.44
486.427	113.44
486.645	117.44
486.863	102.44
487.081	98.44
487.299	101.44
487.517	95.44
487.735	94.44
487.953	84.44
488.171	91.44
488.389	98.44
488.607	105.44
488.825	101.44
489.043	83.44
489.261	87.44
489.479	88.44
489.696	92.44
489.914	94.44
490.132	94.44
490.35	80.44
490.568	88.44
490.786	97.44
491.003	83.44
491.221	97.44
491.439	84.44
491.657	96.44
491.874	104.44
492.092	81.44
492.31	92.44
492.527	92.44
492.745	93.44
492.963	92.44
493.18	103.44
493.398	88.44
493.615	107.44
493.833	103.44
494.05	88.44
494.268	93.44
494.485	95.44
494.703	105.44
494.92	87.44
495.138	87.44
495.355	93.44
495.573	90.44
495.79	92.44
496.008	79.44
496.225	92.44
496.442	100.44
496.66	85.44
496.877	100.44
497.094	91.44
497.312	87.44
497.529	97.44
497.746	87.44
497.963	87.44
498.181	88.44
498.398	103.44
498.615	93.44
498.832	107.44
499.049	93.44
499.267	97.44
499.484	91.44
499.701	106.44
499.918	88.44
500.135	79.44
500.352	96.44
500.569	85.44
500.786	93.44
501.003	92.44
501.22	86.44
501.437	94.44
501.654	93.44
501.871	102.44
502.088	104.44
502.305	89.44
502.522	92.44
502.739	82.44
502.956	96.44
503.172	101.44
503.389	82.44
503.606	100.44
503.823	91.44
504.04	109.44
504.256	83.44
504.473	97.44
504.69	97.44
504.907	84.44
505.123	103.44
505.34	102.44
505.557	87.44
505.773	92.44
505.99	92.44
506.207	104.44
506.423	89.44
506.64	83.44
506.856	99.44
507.073	98.44
507.289	72.44
507.506	91.44
507.722	120.44
507.939	101.44
508.155	95.44
508.372	97.44
508.588	95.44
508.805	94.44
509.021	88.44
509.238	109.44
509.454	103.44
509.67	104.44
509.887	121.44
510.103	136.44
510.319	189.44
510.536	650.44
510.752	1973.44
510.968	563.44
511.184	162.44
511.401	111.44
511.617	105.44
511.833	108.44
512.049	104.44
512.265	93.44
512.481	91.44
512.698	92.44
512.914	86.44
513.13	106.44
513.346	91.44
513.562	106.44
513.778	104.44
513.994	102.44
514.21	113.44
514.426	115.44
514.642	119.44
514.858	108.44
