Data from Circ_1993_H10_HRD10591_00090.txt Node
Date: Wed Jan 03 11:44:20 EST 2024
User: Yrep
Spectrometer: HR+D1059
Trigger mode: 1
Integration Time (sec): 1.000000E-1
Scans to average: 1
Electric dark correction enabled: true
Nonlinearity correction enabled: false
Boxcar width: 0
XAxis mode: Wavelengths
Number of Pixels in Spectrum: 2048
>>>>>Begin Spectral Data<<<<<
223.165	-18
223.4	-18
223.635	-18
223.869	-21
224.104	-33
224.338	-12
224.573	-28
224.808	-13
225.042	-5
225.277	-5
225.511	5
225.746	2
225.98	20
226.215	5
226.449	24
226.683	24
226.918	21
227.152	34
227.387	43
227.621	29
227.856	32
228.09	42
228.324	51
228.559	54
228.793	50
229.027	48
229.262	49
229.496	69
229.73	80
229.964	80
230.199	73
230.433	70
230.667	69
230.901	57
231.136	78
231.37	76
231.604	75
231.838	73
232.072	76
232.306	86
232.541	70
232.775	70
233.009	82
233.243	78
233.477	77
233.711	82
233.945	86
234.179	78
234.413	79
234.647	94
234.881	77
235.115	84
235.349	74
235.583	86
235.817	86
236.051	68
236.285	63
236.519	82
236.753	89
236.987	71
237.221	87
237.455	78
237.689	60
237.922	76
238.156	72
238.39	94
238.624	79
238.858	66
239.091	70
239.325	84
239.559	90
239.793	86
240.027	89
240.26	80
240.494	75
240.728	64
240.961	81
241.195	81
241.429	90
241.662	82
241.896	71
242.13	76
242.363	72
242.597	85
242.83	67
243.064	74
243.298	86
243.531	77
243.765	74
243.998	76
244.232	83
244.465	77
244.699	76
244.932	67
245.166	63
245.399	79
245.633	78
245.866	77
246.099	82
246.333	77
246.566	76
246.8	91
247.033	84
247.266	76
247.5	73
247.733	62
247.966	81
248.2	70
248.433	88
248.666	80
248.899	84
249.133	76
249.366	85
249.599	84
249.832	93
250.066	76
250.299	78
250.532	75
250.765	72
250.998	73
251.231	78
251.465	81
251.698	66
251.931	72
252.164	69
252.397	84
252.63	69
252.863	74
253.096	82
253.329	84
253.562	89
253.795	83
254.028	81
254.261	92
254.494	91
254.727	80
254.96	77
255.193	85
255.426	72
255.659	72
255.892	73
256.124	81
256.357	66
256.59	74
256.823	81
257.056	77
257.289	72
257.521	77
257.754	78
257.987	81
258.22	82
258.452	89
258.685	86
258.918	83
259.151	80
259.383	80
259.616	85
259.849	92
260.081	68
260.314	89
260.547	82
260.779	83
261.012	101
261.244	82
261.477	92
261.71	78
261.942	84
262.175	97
262.407	83
262.64	76
262.872	90
263.105	81
263.337	89
263.57	65
263.802	77
264.035	77
264.267	93
264.499	68
264.732	87
264.964	77
265.197	86
265.429	73
265.661	94
265.894	66
266.126	78
266.358	91
266.591	70
266.823	77
267.055	97
267.287	92
267.52	76
267.752	89
267.984	83
268.216	82
268.448	87
268.681	81
268.913	86
269.145	82
269.377	90
269.609	65
269.841	79
270.073	87
270.306	82
270.538	84
270.77	77
271.002	82
271.234	90
271.466	79
271.698	76
271.93	95
272.162	94
272.394	80
272.626	84
272.858	86
273.09	83
273.322	96
273.553	95
273.785	84
274.017	87
274.249	77
274.481	79
274.713	74
274.945	77
275.176	81
275.408	88
275.64	90
275.872	69
276.104	77
276.335	91
276.567	76
276.799	108
277.031	95
277.262	91
277.494	106
277.726	87
277.957	77
278.189	92
278.421	80
278.652	89
278.884	89
279.115	77
279.347	82
279.579	78
279.81	89
280.042	93
280.273	98
280.505	102
280.736	73
280.968	91
281.199	90
281.431	74
281.662	78
281.894	89
282.125	104
282.356	93
282.588	124
282.819	98
283.051	80
283.282	78
283.513	73
283.745	73
283.976	76
284.207	78
284.439	85
284.67	96
284.901	90
285.132	89
285.364	80
285.595	74
285.826	75
286.057	91
286.288	86
286.52	85
286.751	93
286.982	72
287.213	84
287.444	90
287.675	94
287.906	89
288.138	85
288.369	77
288.6	86
288.831	93
289.062	91
289.293	76
289.524	102
289.755	81
289.986	92
290.217	84
290.448	96
290.679	92
290.91	89
291.141	78
291.371	85
291.602	99
291.833	79
292.064	104
292.295	88
292.526	74
292.757	89
292.987	102
293.218	96
293.449	91
293.68	84
293.91	75
294.141	89
294.372	99
294.603	84
294.833	86
295.064	93
295.295	92
295.525	90
295.756	91
295.987	115
296.217	122
296.448	98
296.679	83
296.909	94
297.14	92
297.37	84
297.601	98
297.831	85
298.062	90
298.292	99
298.523	88
298.753	89
298.984	77
299.214	75
299.445	80
299.675	71
299.905	88
300.136	90
300.366	76
300.597	72
300.827	82
301.057	90
301.288	86
301.518	93
301.748	94
301.979	94
302.209	88
302.439	78
302.669	78
302.9	84
303.13	97
303.36	82
303.59	82
303.82	92
304.051	85
304.281	88
304.511	97
304.741	100
304.971	90
305.201	77
305.431	86
305.661	90
305.891	78
306.121	96
306.352	104
306.582	97
306.812	82
307.042	94
307.272	88
307.502	94
307.731	107
307.961	86
308.191	80
308.421	88
308.651	86
308.881	95
309.111	96
309.341	78
309.571	93
309.8	102
310.03	87
310.26	100
310.49	96
310.72	83
310.949	97
311.179	97
311.409	92
311.639	91
311.868	83
312.098	91
312.328	94
312.557	106
312.787	100
313.017	93
313.246	93
313.476	91
313.706	92
313.935	95
314.165	83
314.394	99
314.624	96
314.853	89
315.083	79
315.312	92
315.542	99
315.771	95
316.001	85
316.23	93
316.46	88
316.689	88
316.919	80
317.148	91
317.377	85
317.607	104
317.836	81
318.065	76
318.295	89
318.524	91
318.753	80
318.983	74
319.212	92
319.441	98
319.67	106
319.9	94
320.129	95
320.358	103
320.587	93
320.816	83
321.046	89
321.275	93
321.504	85
321.733	94
321.962	109
322.191	94
322.42	94
322.649	112
322.878	101
323.108	117
323.337	105
323.566	111
323.795	128
324.024	172
324.253	295
324.482	627
324.71	1232
324.939	1639
325.168	634
325.397	200
325.626	137
325.855	115
326.084	102
326.313	127
326.542	128
326.77	165
326.999	350
327.228	740
327.457	1296
327.686	1042
327.914	307
328.143	192
328.372	187
328.6	133
328.829	108
329.058	97
329.287	119
329.515	96
329.744	112
329.972	147
330.201	212
330.43	256
330.658	166
330.887	127
331.115	109
331.344	102
331.572	98
331.801	93
332.03	90
332.258	85
332.486	90
332.715	101
332.943	86
333.172	95
333.4	101
333.629	95
333.857	120
334.085	151
334.314	216
334.542	307
334.771	291
334.999	127
335.227	93
335.455	90
335.684	85
335.912	89
336.14	107
336.369	101
336.597	98
336.825	104
337.053	106
337.281	89
337.51	92
337.738	89
337.966	90
338.194	103
338.422	98
338.65	88
338.878	98
339.106	93
339.334	86
339.562	90
339.79	103
340.018	88
340.246	88
340.474	76
340.702	90
340.93	85
341.158	98
341.386	86
341.614	83
341.842	89
342.07	88
342.298	87
342.526	85
342.754	79
342.981	94
343.209	83
343.437	85
343.665	86
343.893	84
344.12	84
344.348	96
344.576	88
344.804	99
345.031	85
345.259	93
345.487	98
345.714	101
345.942	97
346.17	94
346.397	91
346.625	83
346.853	86
347.08	73
347.308	89
347.535	90
347.763	84
347.99	82
348.218	96
348.445	99
348.673	114
348.9	99
349.128	90
349.355	100
349.583	106
349.81	80
350.037	92
350.265	95
350.492	90
350.72	98
350.947	109
351.174	95
351.402	111
351.629	97
351.856	101
352.083	103
352.311	98
352.538	86
352.765	102
352.992	94
353.22	101
353.447	105
353.674	90
353.901	81
354.128	97
354.355	102
354.583	92
354.81	91
355.037	110
355.264	88
355.491	97
355.718	101
355.945	92
356.172	91
356.399	96
356.626	89
356.853	96
357.08	91
357.307	98
357.534	89
357.761	103
357.988	112
358.215	89
358.441	102
358.668	76
358.895	91
359.122	85
359.349	94
359.576	78
359.802	91
360.029	115
360.256	110
360.483	95
360.709	92
360.936	88
361.163	76
361.39	94
361.616	83
361.843	85
362.07	98
362.296	97
362.523	91
362.749	80
362.976	89
363.203	102
363.429	92
363.656	80
363.882	87
364.109	89
364.335	82
364.562	99
364.788	87
365.015	81
365.241	90
365.468	94
365.694	93
365.92	69
366.147	77
366.373	83
366.599	86
366.826	91
367.052	89
367.278	96
367.505	88
367.731	85
367.957	95
368.184	93
368.41	88
368.636	113
368.862	101
369.089	104
369.315	91
369.541	89
369.767	91
369.993	101
370.219	82
370.445	83
370.672	76
370.898	87
371.124	89
371.35	84
371.576	85
371.802	73
372.028	77
372.254	89
372.48	88
372.706	78
372.932	96
373.158	87
373.384	93
373.61	93
373.835	74
374.061	85
374.287	88
374.513	82
374.739	72
374.965	88
375.191	73
375.416	85
375.642	100
375.868	97
376.094	83
376.319	84
376.545	97
376.771	91
376.997	88
377.222	78
377.448	85
377.674	96
377.899	98
378.125	91
378.35	93
378.576	79
378.802	76
379.027	96
379.253	80
379.478	88
379.704	83
379.929	84
380.155	91
380.38	94
380.606	94
380.831	84
381.057	88
381.282	79
381.507	101
381.733	97
381.958	85
382.184	94
382.409	110
382.634	98
382.86	80
383.085	92
383.31	99
383.535	100
383.761	76
383.986	96
384.211	93
384.436	87
384.662	109
384.887	88
385.112	112
385.337	105
385.562	88
385.787	89
386.013	123
386.238	110
386.463	110
386.688	100
386.913	98
387.138	102
387.363	96
387.588	99
387.813	110
388.038	119
388.263	103
388.488	91
388.713	82
388.938	80
389.163	106
389.387	86
389.612	98
389.837	107
390.062	105
390.287	94
390.512	93
390.736	96
390.961	87
391.186	94
391.411	88
391.636	79
391.86	74
392.085	84
392.31	88
392.534	84
392.759	60
392.984	80
393.208	95
393.433	100
393.658	94
393.882	74
394.107	91
394.331	79
394.556	93
394.78	88
395.005	89
395.229	67
395.454	85
395.678	83
395.903	84
396.127	81
396.352	84
396.576	93
396.801	97
397.025	86
397.249	105
397.474	95
397.698	86
397.922	88
398.147	85
398.371	99
398.595	86
398.82	83
399.044	93
399.268	83
399.492	91
399.717	86
399.941	89
400.165	88
400.389	92
400.613	78
400.837	99
401.062	76
401.286	93
401.51	82
401.734	88
401.958	89
402.182	105
402.406	130
402.63	114
402.854	92
403.078	81
403.302	83
403.526	80
403.75	94
403.974	75
404.198	80
404.422	80
404.645	77
404.869	88
405.093	106
405.317	92
405.541	107
405.765	88
405.988	107
406.212	132
406.436	166
406.66	117
406.883	100
407.107	82
407.331	88
407.555	86
407.778	89
408.002	81
408.226	79
408.449	90
408.673	93
408.896	94
409.12	91
409.344	88
409.567	98
409.791	102
410.014	87
410.238	84
410.461	88
410.685	97
410.908	105
411.132	94
411.355	96
411.578	76
411.802	78
412.025	94
412.249	98
412.472	95
412.695	107
412.919	107
413.142	90
413.365	83
413.589	78
413.812	91
414.035	89
414.258	77
414.482	79
414.705	88
414.928	98
415.151	93
415.374	94
415.597	66
415.821	91
416.044	102
416.267	102
416.49	92
416.713	88
416.936	70
417.159	86
417.382	60
417.605	76
417.828	89
418.051	85
418.274	78
418.497	82
418.72	75
418.943	99
419.166	75
419.389	97
419.611	88
419.834	109
420.057	100
420.28	96
420.503	96
420.726	91
420.948	78
421.171	100
421.394	86
421.617	94
421.839	89
422.062	98
422.285	88
422.507	92
422.73	105
422.953	85
423.175	91
423.398	84
423.621	81
423.843	90
424.066	90
424.288	93
424.511	98
424.733	99
424.956	84
425.178	97
425.401	103
425.623	97
425.846	78
426.068	85
426.291	93
426.513	84
426.735	97
426.958	94
427.18	90
427.402	112
427.625	138
427.847	107
428.069	113
428.292	91
428.514	91
428.736	101
428.958	84
429.181	76
429.403	87
429.625	83
429.847	86
430.069	102
430.292	93
430.514	80
430.736	77
430.958	92
431.18	93
431.402	81
431.624	83
431.846	64
432.068	88
432.29	85
432.512	88
432.734	82
432.956	88
433.178	86
433.4	85
433.622	89
433.844	86
434.066	89
434.287	90
434.509	88
434.731	88
434.953	93
435.175	105
435.397	91
435.618	102
435.84	99
436.062	99
436.284	99
436.505	86
436.727	100
436.949	106
437.17	96
437.392	95
437.614	85
437.835	99
438.057	98
438.278	102
438.5	101
438.721	108
438.943	99
439.165	72
439.386	88
439.608	83
439.829	99
440.05	117
440.272	119
440.493	90
440.715	93
440.936	84
441.158	89
441.379	81
441.6	97
441.822	87
442.043	84
442.264	95
442.486	88
442.707	74
442.928	108
443.149	120
443.371	97
443.592	101
443.813	109
444.034	108
444.255	103
444.476	88
444.698	68
444.919	85
445.14	133
445.361	106
445.582	112
445.803	123
446.024	117
446.245	114
446.466	105
446.687	92
446.908	74
447.129	85
447.35	94
447.571	86
447.792	84
448.013	98
448.234	106
448.455	101
448.675	108
448.896	108
449.117	100
449.338	81
449.559	100
449.779	133
450	97
450.221	91
450.442	88
450.662	89
450.883	96
451.104	91
451.324	87
451.545	88
451.766	89
451.986	98
452.207	89
452.428	85
452.648	99
452.869	105
453.089	105
453.31	104
453.53	89
453.751	74
453.971	89
454.192	102
454.412	98
454.633	81
454.853	78
455.073	94
455.294	85
455.514	96
455.734	92
455.955	76
456.175	68
456.395	81
456.616	88
456.836	99
457.056	83
457.276	84
457.497	70
457.717	88
457.937	94
458.157	89
458.377	86
458.598	89
458.818	119
459.038	127
459.258	99
459.478	97
459.698	89
459.918	89
460.138	86
460.358	89
460.578	92
460.798	85
461.018	93
461.238	76
461.458	87
461.678	98
461.898	84
462.118	75
462.338	74
462.558	77
462.777	75
462.997	76
463.217	97
463.437	90
463.657	72
463.876	84
464.096	90
464.316	82
464.536	90
464.755	101
464.975	108
465.195	135
465.414	134
465.634	74
465.854	78
466.073	81
466.293	84
466.512	80
466.732	75
466.951	91
467.171	93
467.391	85
467.61	100
467.829	96
468.049	150
468.268	176
468.488	98
468.707	92
468.927	90
469.146	88
469.365	89
469.585	100
469.804	92
470.023	93
470.243	105
470.462	94
470.681	115
470.901	82
471.12	63
471.339	77
471.558	86
471.777	94
471.997	108
472.216	232
472.435	409
472.654	143
472.873	88
473.092	77
473.311	92
473.53	70
473.749	100
473.968	85
474.187	100
474.406	79
474.625	92
474.844	95
475.063	94
475.282	86
475.501	96
475.72	97
475.939	85
476.158	87
476.377	80
476.596	80
476.814	89
477.033	81
477.252	86
477.471	75
477.69	97
477.908	86
478.127	80
478.346	104
478.564	97
478.783	87
479.002	97
479.22	93
479.439	101
479.658	105
479.876	94
480.095	83
480.313	93
480.532	96
480.751	114
480.969	231
481.188	694
481.406	399
481.624	133
481.843	92
482.061	80
482.28	77
482.498	95
482.717	77
482.935	88
483.153	81
483.372	85
483.59	100
483.808	80
484.027	70
484.245	97
484.463	98
484.681	101
484.9	83
485.118	85
485.336	94
485.554	99
485.772	97
485.99	106
486.209	118
486.427	108
486.645	100
486.863	106
487.081	102
487.299	79
487.517	88
487.735	89
487.953	94
488.171	85
488.389	100
488.607	102
488.825	101
489.043	96
489.261	83
489.479	78
489.696	96
489.914	78
490.132	89
490.35	82
490.568	94
490.786	98
491.003	101
491.221	76
491.439	72
491.657	92
491.874	85
492.092	81
492.31	102
492.527	80
492.745	81
492.963	86
493.18	93
493.398	84
493.615	91
493.833	96
494.05	79
494.268	93
494.485	93
494.703	73
494.92	118
495.138	76
495.355	69
495.573	92
495.79	93
496.008	94
496.225	93
496.442	89
496.66	92
496.877	84
497.094	100
497.312	68
497.529	81
497.746	88
497.963	92
498.181	93
498.398	97
498.615	92
498.832	93
499.049	108
499.267	97
499.484	83
499.701	88
499.918	82
500.135	97
500.352	95
500.569	82
500.786	96
501.003	78
501.22	75
501.437	91
501.654	100
501.871	110
502.088	92
502.305	93
502.522	78
502.739	88
502.956	92
503.172	94
503.389	90
503.606	91
503.823	98
504.04	104
504.256	86
504.473	90
504.69	94
504.907	86
505.123	80
505.34	77
505.557	81
505.773	96
505.99	93
506.207	79
506.423	89
506.64	93
506.856	91
507.073	103
507.289	108
507.506	97
507.722	99
507.939	101
508.155	85
508.372	97
508.588	96
508.805	106
509.021	104
509.238	90
509.454	100
509.67	90
509.887	114
510.103	112
510.319	183
510.536	528
510.752	1639
510.968	464
511.184	122
511.401	88
511.617	101
511.833	88
512.049	102
512.265	86
512.481	100
512.698	88
512.914	85
513.13	102
513.346	90
513.562	90
513.778	85
513.994	84
514.21	92
514.426	79
514.642	116
514.858	113
515.074	126
515.29	308
515.506	974
515.721	356
515.937	113
516.153	106
516.369	84
516.585	88
516.801	99
517.016	84
517.232	85
517.448	89
517.664	97
517.879	107
518.095	88
518.311	98
518.527	91
518.742	94
518.958	105
519.173	90
519.389	97
519.605	97
519.82	94
520.036	98
520.251	106
520.467	102
520.682	91
520.898	100
521.113	92
521.329	121
521.544	157
521.76	396
521.975	1546
522.19	986
522.406	232
522.621	99
522.836	103
523.052	99
523.267	95
523.482	85
523.698	84
523.913	92
524.128	94
524.343	94
524.559	92
524.774	89
524.989	80
525.204	102
525.419	102
525.634	93
525.849	97
526.064	86
526.28	98
526.495	80
526.71	79
526.925	76
527.14	87
527.355	89
527.57	85
527.785	82
527.999	81
528.214	85
528.429	93
528.644	77
528.859	91
529.074	86
529.289	116
529.503	126
529.718	93
529.933	80
530.148	85
530.363	72
530.577	101
530.792	87
531.007	85
531.221	102
531.436	86
531.651	90
531.865	101
532.08	93
532.295	102
532.509	80
532.724	78
532.938	80
533.153	90
533.367	103
533.582	101
533.796	102
534.011	100
534.225	84
534.44	86
534.654	93
534.868	90
535.083	96
535.297	87
535.511	106
535.726	101
535.94	72
536.154	96
536.369	86
536.583	91
536.797	94
537.011	89
537.225	86
537.44	82
537.654	85
537.868	96
538.082	101
538.296	97
538.51	102
538.724	92
538.938	94
539.153	98
539.367	115
539.581	104
539.795	90
540.009	91
540.222	90
540.436	80
540.65	87
540.864	104
541.078	81
541.292	79
541.506	100
541.72	67
541.934	81
542.147	84
542.361	84
542.575	88
542.789	88
543.002	93
543.216	106
543.43	100
543.644	93
543.857	92
544.071	91
544.285	90
544.498	89
544.712	101
544.925	81
545.139	83
545.352	84
545.566	92
545.779	97
545.993	82
546.206	84
546.42	98
546.633	87
546.847	83
547.06	87
547.274	76
547.487	82
547.7	83
547.914	77
548.127	105
548.34	98
548.554	78
548.767	98
548.98	94
549.193	91
549.407	106
549.62	90
549.833	84
550.046	85
550.259	99
550.473	72
550.686	92
550.899	79
551.112	85
551.325	101
551.538	87
551.751	84
551.964	82
552.177	88
552.39	88
552.603	90
552.816	76
553.029	76
553.242	91
553.455	102
553.667	114
553.88	103
554.093	88
554.306	92
554.519	110
554.732	81
554.944	83
555.157	97
555.37	97
555.583	87
555.795	111
556.008	90
556.221	74
556.433	86
556.646	85
556.859	87
557.071	88
557.284	100
557.496	96
557.709	98
557.921	82
558.134	97
558.346	84
558.559	88
558.771	91
558.984	91
559.196	93
559.409	86
559.621	92
559.833	77
560.046	85
560.258	85
560.47	84
560.683	91
560.895	76
561.107	88
561.32	82
561.532	97
561.744	90
561.956	91
562.168	89
562.381	92
562.593	93
562.805	98
563.017	86
563.229	100
563.441	80
563.653	97
563.865	84
564.077	82
564.289	89
564.501	94
564.713	82
564.925	97
565.137	92
565.349	87
565.561	83
565.773	87
565.985	94
566.197	85
566.408	81
566.62	83
566.832	80
567.044	91
567.255	76
567.467	92
567.679	74
567.891	104
568.102	90
568.314	64
568.526	68
568.737	90
568.949	85
569.161	84
569.372	86
569.584	97
569.795	100
570.007	110
570.218	193
570.43	117
570.641	97
570.853	82
571.064	91
571.276	99
571.487	74
571.698	94
571.91	90
572.121	90
572.333	86
572.544	88
572.755	81
572.966	88
573.178	85
573.389	79
573.6	94
573.811	99
574.023	91
574.234	90
574.445	83
574.656	93
574.867	95
575.078	94
575.289	96
575.501	82
575.712	90
575.923	85
576.134	91
576.345	84
576.556	73
576.767	86
576.978	92
577.188	96
577.399	82
577.61	82
577.821	106
578.032	107
578.243	217
578.454	528
578.665	158
578.875	102
579.086	89
579.297	72
579.508	90
579.718	95
579.929	94
580.14	77
580.35	89
580.561	84
580.772	86
580.982	74
581.193	87
581.403	88
581.614	109
581.825	84
582.035	96
582.246	80
582.456	89
582.667	93
582.877	74
583.087	74
583.298	88
583.508	87
583.719	81
583.929	88
584.139	84
584.35	88
584.56	80
584.77	90
584.981	73
585.191	89
585.401	87
585.611	92
