Data from Circ_1993_H10_HRD10591_00011.txt Node
Date: Wed Jan 03 11:44:04 EST 2024
User: Yrep
Spectrometer: HR+D1059
Trigger mode: 1
Integration Time (sec): 1.000000E-1
Scans to average: 1
Electric dark correction enabled: true
Nonlinearity correction enabled: false
Boxcar width: 0
XAxis mode: Wavelengths
Number of Pixels in Spectrum: 2048
>>>>>Begin Spectral Data<<<<<
223.165	-10.5
223.4	-10.5
223.635	-10.5
223.869	-24.5
224.104	-17.5
224.338	-16.5
224.573	-26.5
224.808	-8.5
225.042	-21.5
225.277	-4.5
225.511	0.5
225.746	-1.5
225.98	-3.5
226.215	18.5
226.449	24.5
226.683	22.5
226.918	28.5
227.152	40.5
227.387	37.5
227.621	30.5
227.856	52.5
228.09	36.5
228.324	66.5
228.559	70.5
228.793	71.5
229.027	68.5
229.262	71.5
229.496	83.5
229.73	79.5
229.964	87.5
230.199	73.5
230.433	94.5
230.667	72.5
230.901	79.5
231.136	86.5
231.37	82.5
231.604	87.5
231.838	80.5
232.072	74.5
232.306	80.5
232.541	87.5
232.775	75.5
233.009	78.5
233.243	79.5
233.477	74.5
233.711	99.5
233.945	86.5
234.179	85.5
234.413	87.5
234.647	100.5
234.881	79.5
235.115	74.5
235.349	78.5
235.583	84.5
235.817	65.5
236.051	78.5
236.285	68.5
236.519	83.5
236.753	87.5
236.987	87.5
237.221	94.5
237.455	80.5
237.689	78.5
237.922	78.5
238.156	78.5
238.39	88.5
238.624	80.5
238.858	79.5
239.091	82.5
239.325	94.5
239.559	80.5
239.793	88.5
240.027	76.5
240.26	78.5
240.494	78.5
240.728	73.5
240.961	72.5
241.195	59.5
241.429	69.5
241.662	75.5
241.896	80.5
242.13	74.5
242.363	77.5
242.597	81.5
242.83	78.5
243.064	71.5
243.298	84.5
243.531	80.5
243.765	76.5
243.998	83.5
244.232	78.5
244.465	94.5
244.699	100.5
244.932	79.5
245.166	81.5
245.399	96.5
245.633	90.5
245.866	78.5
246.099	92.5
246.333	95.5
246.566	98.5
246.8	86.5
247.033	81.5
247.266	61.5
247.5	81.5
247.733	82.5
247.966	88.5
248.2	96.5
248.433	80.5
248.666	75.5
248.899	89.5
249.133	90.5
249.366	115.5
249.599	95.5
249.832	92.5
250.066	78.5
250.299	91.5
250.532	84.5
250.765	72.5
250.998	71.5
251.231	73.5
251.465	89.5
251.698	87.5
251.931	85.5
252.164	89.5
252.397	78.5
252.63	88.5
252.863	67.5
253.096	87.5
253.329	87.5
253.562	81.5
253.795	89.5
254.028	78.5
254.261	78.5
254.494	89.5
254.727	91.5
254.96	86.5
255.193	84.5
255.426	79.5
255.659	78.5
255.892	75.5
256.124	83.5
256.357	69.5
256.59	76.5
256.823	88.5
257.056	68.5
257.289	87.5
257.521	90.5
257.754	88.5
257.987	90.5
258.22	87.5
258.452	89.5
258.685	80.5
258.918	85.5
259.151	85.5
259.383	92.5
259.616	82.5
259.849	82.5
260.081	89.5
260.314	96.5
260.547	106.5
260.779	81.5
261.012	83.5
261.244	86.5
261.477	90.5
261.71	102.5
261.942	94.5
262.175	106.5
262.407	89.5
262.64	98.5
262.872	88.5
263.105	81.5
263.337	103.5
263.57	96.5
263.802	93.5
264.035	95.5
264.267	85.5
264.499	95.5
264.732	95.5
264.964	73.5
265.197	96.5
265.429	78.5
265.661	67.5
265.894	76.5
266.126	82.5
266.358	97.5
266.591	92.5
266.823	80.5
267.055	80.5
267.287	73.5
267.52	95.5
267.752	80.5
267.984	85.5
268.216	73.5
268.448	89.5
268.681	79.5
268.913	85.5
269.145	88.5
269.377	99.5
269.609	87.5
269.841	88.5
270.073	92.5
270.306	80.5
270.538	87.5
270.77	94.5
271.002	83.5
271.234	96.5
271.466	81.5
271.698	79.5
271.93	95.5
272.162	79.5
272.394	90.5
272.626	80.5
272.858	100.5
273.09	88.5
273.322	76.5
273.553	87.5
273.785	90.5
274.017	103.5
274.249	91.5
274.481	82.5
274.713	96.5
274.945	86.5
275.176	84.5
275.408	84.5
275.64	76.5
275.872	80.5
276.104	79.5
276.335	94.5
276.567	83.5
276.799	95.5
277.031	94.5
277.262	93.5
277.494	83.5
277.726	85.5
277.957	82.5
278.189	94.5
278.421	75.5
278.652	90.5
278.884	89.5
279.115	91.5
279.347	93.5
279.579	83.5
279.81	71.5
280.042	100.5
280.273	89.5
280.505	88.5
280.736	92.5
280.968	108.5
281.199	87.5
281.431	89.5
281.662	86.5
281.894	87.5
282.125	99.5
282.356	84.5
282.588	106.5
282.819	101.5
283.051	81.5
283.282	69.5
283.513	104.5
283.745	92.5
283.976	96.5
284.207	86.5
284.439	97.5
284.67	82.5
284.901	78.5
285.132	89.5
285.364	85.5
285.595	101.5
285.826	85.5
286.057	91.5
286.288	89.5
286.52	96.5
286.751	85.5
286.982	88.5
287.213	90.5
287.444	99.5
287.675	90.5
287.906	92.5
288.138	92.5
288.369	87.5
288.6	82.5
288.831	90.5
289.062	96.5
289.293	102.5
289.524	103.5
289.755	87.5
289.986	85.5
290.217	98.5
290.448	84.5
290.679	84.5
290.91	91.5
291.141	96.5
291.371	73.5
291.602	104.5
291.833	72.5
292.064	85.5
292.295	96.5
292.526	97.5
292.757	87.5
292.987	88.5
293.218	87.5
293.449	92.5
293.68	82.5
293.91	87.5
294.141	85.5
294.372	93.5
294.603	91.5
294.833	90.5
295.064	90.5
295.295	88.5
295.525	91.5
295.756	109.5
295.987	98.5
296.217	122.5
296.448	110.5
296.679	86.5
296.909	100.5
297.14	83.5
297.37	105.5
297.601	87.5
297.831	70.5
298.062	88.5
298.292	94.5
298.523	88.5
298.753	66.5
298.984	90.5
299.214	93.5
299.445	75.5
299.675	94.5
299.905	92.5
300.136	93.5
300.366	85.5
300.597	100.5
300.827	84.5
301.057	98.5
301.288	96.5
301.518	97.5
301.748	102.5
301.979	102.5
302.209	98.5
302.439	84.5
302.669	86.5
302.9	77.5
303.13	93.5
303.36	103.5
303.59	88.5
303.82	90.5
304.051	92.5
304.281	93.5
304.511	102.5
304.741	96.5
304.971	85.5
305.201	84.5
305.431	93.5
305.661	88.5
305.891	90.5
306.121	95.5
306.352	92.5
306.582	97.5
306.812	87.5
307.042	102.5
307.272	104.5
307.502	111.5
307.731	98.5
307.961	98.5
308.191	90.5
308.421	90.5
308.651	88.5
308.881	86.5
309.111	104.5
309.341	88.5
309.571	85.5
309.8	97.5
310.03	96.5
310.26	103.5
310.49	109.5
310.72	110.5
310.949	93.5
311.179	78.5
311.409	100.5
311.639	103.5
311.868	96.5
312.098	86.5
312.328	103.5
312.557	102.5
312.787	109.5
313.017	96.5
313.246	102.5
313.476	93.5
313.706	98.5
313.935	106.5
314.165	85.5
314.394	101.5
314.624	91.5
314.853	98.5
315.083	100.5
315.312	105.5
315.542	97.5
315.771	100.5
316.001	103.5
316.23	96.5
316.46	73.5
316.689	98.5
316.919	86.5
317.148	112.5
317.377	100.5
317.607	103.5
317.836	105.5
318.065	92.5
318.295	90.5
318.524	95.5
318.753	94.5
318.983	88.5
319.212	94.5
319.441	84.5
319.67	105.5
319.9	115.5
320.129	101.5
320.358	100.5
320.587	91.5
320.816	93.5
321.046	110.5
321.275	99.5
321.504	104.5
321.733	101.5
321.962	101.5
322.191	95.5
322.42	117.5
322.649	110.5
322.878	100.5
323.108	110.5
323.337	109.5
323.566	123.5
323.795	127.5
324.024	161.5
324.253	311.5
324.482	594.5
324.71	1162.5
324.939	1466.5
325.168	591.5
325.397	206.5
325.626	133.5
325.855	119.5
326.084	122.5
326.313	133.5
326.542	134.5
326.77	200.5
326.999	350.5
327.228	676.5
327.457	1168.5
327.686	939.5
327.914	279.5
328.143	157.5
328.372	135.5
328.6	107.5
328.829	92.5
329.058	96.5
329.287	115.5
329.515	116.5
329.744	94.5
329.972	99.5
330.201	117.5
330.43	110.5
330.658	112.5
330.887	121.5
331.115	95.5
331.344	90.5
331.572	99.5
331.801	103.5
332.03	96.5
332.258	105.5
332.486	93.5
332.715	95.5
332.943	89.5
333.172	87.5
333.4	89.5
333.629	99.5
333.857	101.5
334.085	97.5
334.314	115.5
334.542	121.5
334.771	121.5
334.999	111.5
335.227	95.5
335.455	97.5
335.684	97.5
335.912	102.5
336.14	107.5
336.369	92.5
336.597	91.5
336.825	95.5
337.053	87.5
337.281	100.5
337.51	91.5
337.738	87.5
337.966	91.5
338.194	82.5
338.422	86.5
338.65	93.5
338.878	103.5
339.106	106.5
339.334	103.5
339.562	96.5
339.79	101.5
340.018	85.5
340.246	94.5
340.474	103.5
340.702	99.5
340.93	99.5
341.158	103.5
341.386	97.5
341.614	98.5
341.842	75.5
342.07	92.5
342.298	89.5
342.526	94.5
342.754	80.5
342.981	78.5
343.209	98.5
343.437	104.5
343.665	95.5
343.893	104.5
344.12	95.5
344.348	113.5
344.576	94.5
344.804	85.5
345.031	92.5
345.259	99.5
345.487	85.5
345.714	102.5
345.942	101.5
346.17	103.5
346.397	97.5
346.625	100.5
346.853	106.5
347.08	112.5
347.308	88.5
347.535	101.5
347.763	108.5
347.99	108.5
348.218	88.5
348.445	95.5
348.673	104.5
348.9	103.5
349.128	105.5
349.355	97.5
349.583	81.5
349.81	106.5
350.037	95.5
350.265	97.5
350.492	97.5
350.72	101.5
350.947	103.5
351.174	104.5
351.402	107.5
351.629	107.5
351.856	105.5
352.083	126.5
352.311	110.5
352.538	88.5
352.765	88.5
352.992	94.5
353.22	119.5
353.447	111.5
353.674	103.5
353.901	109.5
354.128	107.5
354.355	102.5
354.583	104.5
354.81	104.5
355.037	102.5
355.264	101.5
355.491	92.5
355.718	101.5
355.945	105.5
356.172	105.5
356.399	109.5
356.626	102.5
356.853	113.5
357.08	96.5
357.307	101.5
357.534	105.5
357.761	97.5
357.988	102.5
358.215	116.5
358.441	128.5
358.668	122.5
358.895	112.5
359.122	110.5
359.349	104.5
359.576	96.5
359.802	106.5
360.029	103.5
360.256	116.5
360.483	107.5
360.709	84.5
360.936	85.5
361.163	72.5
361.39	108.5
361.616	103.5
361.843	89.5
362.07	91.5
362.296	80.5
362.523	106.5
362.749	97.5
362.976	93.5
363.203	100.5
363.429	86.5
363.656	97.5
363.882	101.5
364.109	86.5
364.335	105.5
364.562	106.5
364.788	96.5
365.015	95.5
365.241	85.5
365.468	104.5
365.694	105.5
365.92	93.5
366.147	72.5
366.373	87.5
366.599	84.5
366.826	97.5
367.052	79.5
367.278	90.5
367.505	87.5
367.731	97.5
367.957	109.5
368.184	100.5
368.41	95.5
368.636	95.5
368.862	100.5
369.089	103.5
369.315	96.5
369.541	100.5
369.767	88.5
369.993	92.5
370.219	87.5
370.445	94.5
370.672	85.5
370.898	103.5
371.124	83.5
371.35	94.5
371.576	100.5
371.802	91.5
372.028	94.5
372.254	86.5
372.48	90.5
372.706	104.5
372.932	89.5
373.158	97.5
373.384	89.5
373.61	101.5
373.835	105.5
374.061	95.5
374.287	83.5
374.513	88.5
374.739	97.5
374.965	90.5
375.191	89.5
375.416	92.5
375.642	92.5
375.868	103.5
376.094	96.5
376.319	89.5
376.545	98.5
376.771	105.5
376.997	95.5
377.222	102.5
377.448	88.5
377.674	110.5
377.899	104.5
378.125	96.5
378.35	87.5
378.576	97.5
378.802	110.5
379.027	103.5
379.253	117.5
379.478	105.5
379.704	102.5
379.929	105.5
380.155	105.5
380.38	109.5
380.606	125.5
380.831	132.5
381.057	117.5
381.282	113.5
381.507	126.5
381.733	117.5
381.958	127.5
382.184	132.5
382.409	136.5
382.634	136.5
382.86	133.5
383.085	119.5
383.31	126.5
383.535	123.5
383.761	121.5
383.986	129.5
384.211	122.5
384.436	135.5
384.662	152.5
384.887	140.5
385.112	169.5
385.337	150.5
385.562	141.5
385.787	160.5
386.013	163.5
386.238	172.5
386.463	160.5
386.688	160.5
386.913	149.5
387.138	180.5
387.363	148.5
387.588	130.5
387.813	133.5
388.038	170.5
388.263	192.5
388.488	158.5
388.713	116.5
388.938	100.5
389.163	108.5
389.387	89.5
389.612	91.5
389.837	104.5
390.062	106.5
390.287	94.5
390.512	89.5
390.736	83.5
390.961	92.5
391.186	112.5
391.411	100.5
391.636	89.5
391.86	86.5
392.085	96.5
392.31	91.5
392.534	92.5
392.759	102.5
392.984	94.5
393.208	160.5
393.433	238.5
393.658	184.5
393.882	101.5
394.107	96.5
394.331	86.5
394.556	95.5
394.78	96.5
395.005	115.5
395.229	86.5
395.454	97.5
395.678	94.5
395.903	98.5
396.127	90.5
396.352	88.5
396.576	112.5
396.801	132.5
397.025	170.5
397.249	115.5
397.474	90.5
397.698	89.5
397.922	88.5
398.147	94.5
398.371	96.5
398.595	97.5
398.82	82.5
399.044	87.5
399.268	105.5
399.492	100.5
399.717	72.5
399.941	91.5
400.165	98.5
400.389	86.5
400.613	95.5
400.837	104.5
401.062	97.5
401.286	90.5
401.51	94.5
401.734	92.5
401.958	98.5
402.182	122.5
402.406	131.5
402.63	100.5
402.854	74.5
403.078	96.5
403.302	95.5
403.526	86.5
403.75	82.5
403.974	78.5
404.198	88.5
404.422	93.5
404.645	88.5
404.869	92.5
405.093	105.5
405.317	92.5
405.541	101.5
405.765	108.5
405.988	107.5
406.212	146.5
406.436	180.5
406.66	127.5
406.883	113.5
407.107	96.5
407.331	110.5
407.555	98.5
407.778	84.5
408.002	102.5
408.226	95.5
408.449	97.5
408.673	89.5
408.896	97.5
409.12	96.5
409.344	101.5
409.567	106.5
409.791	88.5
410.014	110.5
410.238	93.5
410.461	91.5
410.685	101.5
410.908	103.5
411.132	93.5
411.355	96.5
411.578	86.5
411.802	93.5
412.025	89.5
412.249	98.5
412.472	86.5
412.695	108.5
412.919	99.5
413.142	95.5
413.365	106.5
413.589	98.5
413.812	86.5
414.035	95.5
414.258	92.5
414.482	91.5
414.705	92.5
414.928	92.5
415.151	105.5
415.374	117.5
415.597	105.5
415.821	93.5
416.044	94.5
416.267	101.5
416.49	95.5
416.713	94.5
416.936	101.5
417.159	99.5
417.382	93.5
417.605	90.5
417.828	91.5
418.051	93.5
418.274	81.5
418.497	106.5
418.72	93.5
418.943	106.5
419.166	100.5
419.389	88.5
419.611	101.5
419.834	91.5
420.057	92.5
420.28	91.5
420.503	97.5
420.726	92.5
420.948	93.5
421.171	98.5
421.394	94.5
421.617	108.5
421.839	93.5
422.062	88.5
422.285	102.5
422.507	118.5
422.73	152.5
422.953	147.5
423.175	112.5
423.398	87.5
423.621	98.5
423.843	88.5
424.066	79.5
424.288	93.5
424.511	98.5
424.733	91.5
424.956	100.5
425.178	102.5
425.401	105.5
425.623	91.5
425.846	102.5
426.068	86.5
426.291	83.5
426.513	94.5
426.735	95.5
426.958	94.5
427.18	88.5
427.402	127.5
427.625	143.5
427.847	128.5
428.069	108.5
428.292	98.5
428.514	88.5
428.736	100.5
428.958	82.5
429.181	96.5
429.403	104.5
429.625	93.5
429.847	93.5
430.069	104.5
430.292	88.5
430.514	98.5
430.736	81.5
430.958	102.5
431.18	96.5
431.402	92.5
431.624	88.5
431.846	97.5
432.068	95.5
432.29	100.5
432.512	99.5
432.734	105.5
432.956	90.5
433.178	97.5
433.4	105.5
433.622	95.5
433.844	91.5
434.066	114.5
434.287	109.5
434.509	96.5
434.731	98.5
434.953	80.5
435.175	93.5
435.397	86.5
435.618	82.5
435.84	94.5
436.062	101.5
436.284	120.5
436.505	86.5
436.727	84.5
436.949	84.5
437.17	93.5
437.392	77.5
437.614	89.5
437.835	108.5
438.057	117.5
438.278	113.5
438.5	114.5
438.721	112.5
438.943	92.5
439.165	94.5
439.386	101.5
439.608	94.5
439.829	93.5
440.05	111.5
440.272	121.5
440.493	85.5
440.715	85.5
440.936	85.5
441.158	94.5
441.379	88.5
441.6	89.5
441.822	85.5
442.043	96.5
442.264	84.5
442.486	81.5
442.707	98.5
442.928	104.5
443.149	106.5
443.371	114.5
443.592	120.5
443.813	103.5
444.034	93.5
444.255	90.5
444.476	82.5
444.698	105.5
444.919	82.5
445.14	125.5
445.361	119.5
445.582	109.5
445.803	114.5
446.024	121.5
446.245	117.5
446.466	94.5
446.687	100.5
446.908	99.5
447.129	85.5
447.35	92.5
447.571	85.5
447.792	92.5
448.013	103.5
448.234	98.5
448.455	95.5
448.675	106.5
448.896	98.5
449.117	94.5
449.338	104.5
449.559	134.5
449.779	113.5
450	97.5
450.221	97.5
450.442	98.5
450.662	83.5
450.883	97.5
451.104	110.5
451.324	98.5
451.545	94.5
451.766	85.5
451.986	92.5
452.207	80.5
452.428	87.5
452.648	82.5
452.869	97.5
453.089	102.5
453.31	106.5
453.53	107.5
453.751	87.5
453.971	103.5
454.192	116.5
454.412	94.5
454.633	102.5
454.853	105.5
455.073	102.5
455.294	104.5
455.514	89.5
455.734	90.5
455.955	95.5
456.175	88.5
456.395	105.5
456.616	95.5
456.836	97.5
457.056	93.5
457.276	93.5
457.497	82.5
457.717	85.5
457.937	104.5
458.157	104.5
458.377	81.5
458.598	109.5
458.818	120.5
459.038	126.5
459.258	121.5
459.478	102.5
459.698	76.5
459.918	81.5
460.138	83.5
460.358	92.5
460.578	98.5
460.798	80.5
461.018	95.5
461.238	95.5
461.458	82.5
461.678	94.5
461.898	91.5
462.118	86.5
462.338	85.5
462.558	67.5
462.777	83.5
462.997	88.5
463.217	91.5
463.437	103.5
463.657	82.5
463.876	89.5
464.096	96.5
464.316	87.5
464.536	85.5
464.755	88.5
464.975	110.5
465.195	137.5
465.414	135.5
465.634	105.5
465.854	100.5
466.073	96.5
466.293	95.5
466.512	80.5
466.732	81.5
466.951	96.5
467.171	89.5
467.391	96.5
467.61	112.5
467.829	106.5
468.049	96.5
468.268	104.5
468.488	94.5
468.707	77.5
468.927	96.5
469.146	81.5
469.365	102.5
469.585	100.5
469.804	89.5
470.023	99.5
470.243	94.5
470.462	91.5
470.681	109.5
470.901	95.5
471.12	78.5
471.339	84.5
471.558	78.5
471.777	90.5
471.997	87.5
472.216	100.5
472.435	138.5
472.654	98.5
472.873	82.5
473.092	86.5
473.311	85.5
473.53	81.5
473.749	99.5
473.968	96.5
474.187	111.5
474.406	93.5
474.625	102.5
474.844	86.5
475.063	96.5
475.282	98.5
475.501	73.5
475.72	92.5
475.939	89.5
476.158	88.5
476.377	89.5
476.596	98.5
476.814	115.5
477.033	96.5
477.252	94.5
477.471	93.5
477.69	104.5
477.908	90.5
478.127	101.5
478.346	103.5
478.564	94.5
478.783	97.5
479.002	83.5
479.22	90.5
479.439	91.5
479.658	92.5
479.876	86.5
480.095	97.5
480.313	86.5
480.532	92.5
480.751	85.5
480.969	116.5
481.188	170.5
481.406	133.5
481.624	96.5
481.843	92.5
482.061	87.5
482.28	94.5
482.498	98.5
482.717	96.5
482.935	90.5
483.153	105.5
483.372	91.5
483.59	92.5
483.808	80.5
484.027	101.5
484.245	104.5
484.463	98.5
484.681	104.5
484.9	87.5
485.118	104.5
485.336	111.5
485.554	109.5
485.772	111.5
485.99	115.5
486.209	126.5
486.427	110.5
486.645	103.5
486.863	119.5
487.081	113.5
487.299	104.5
487.517	109.5
487.735	110.5
487.953	80.5
488.171	82.5
488.389	106.5
488.607	95.5
488.825	94.5
489.043	88.5
489.261	98.5
489.479	88.5
489.696	93.5
489.914	99.5
490.132	101.5
490.35	97.5
490.568	96.5
490.786	111.5
491.003	99.5
491.221	85.5
491.439	90.5
491.657	90.5
491.874	105.5
492.092	99.5
492.31	99.5
492.527	108.5
492.745	114.5
492.963	91.5
493.18	102.5
493.398	91.5
493.615	92.5
493.833	101.5
494.05	95.5
494.268	96.5
494.485	79.5
494.703	96.5
494.92	104.5
495.138	80.5
495.355	89.5
495.573	111.5
495.79	100.5
496.008	104.5
496.225	93.5
496.442	90.5
496.66	93.5
496.877	96.5
497.094	79.5
497.312	86.5
497.529	93.5
497.746	100.5
497.963	94.5
498.181	98.5
498.398	84.5
498.615	106.5
498.832	92.5
499.049	93.5
499.267	83.5
499.484	101.5
499.701	86.5
499.918	88.5
500.135	89.5
500.352	99.5
500.569	89.5
500.786	104.5
501.003	72.5
501.22	88.5
501.437	87.5
501.654	106.5
501.871	110.5
502.088	96.5
502.305	86.5
502.522	83.5
502.739	99.5
502.956	106.5
503.172	106.5
503.389	105.5
503.606	100.5
503.823	96.5
504.04	105.5
504.256	94.5
504.473	89.5
504.69	98.5
504.907	104.5
505.123	87.5
505.34	94.5
505.557	101.5
505.773	89.5
505.99	105.5
506.207	85.5
506.423	106.5
506.64	104.5
506.856	95.5
507.073	86.5
507.289	83.5
507.506	88.5
507.722	112.5
507.939	106.5
508.155	107.5
508.372	116.5
508.588	100.5
508.805	97.5
509.021	96.5
509.238	112.5
509.454	93.5
509.67	112.5
509.887	107.5
510.103	101.5
510.319	174.5
510.536	551.5
510.752	1636.5
510.968	485.5
511.184	142.5
511.401	103.5
511.617	104.5
511.833	111.5
512.049	103.5
512.265	77.5
512.481	101.5
512.698	98.5
512.914	76.5
513.13	114.5
513.346	87.5
513.562	102.5
513.778	110.5
513.994	105.5
514.21	104.5
514.426	110.5
514.642	117.5
514.858	116.5
515.074	133.5
515.29	318.5
515.506	914.5
515.721	350.5
515.937	137.5
516.153	90.5
516.369	88.5
516.585	105.5
516.801	94.5
517.016	97.5
517.232	100.5
517.448	92.5
517.664	80.5
517.879	87.5
518.095	88.5
518.311	90.5
518.527	95.5
518.742	96.5
518.958	94.5
519.173	96.5
519.389	113.5
519.605	97.5
519.82	90.5
520.036	97.5
520.251	116.5
520.467	112.5
520.682	101.5
520.898	102.5
521.113	115.5
521.329	121.5
521.544	175.5
521.76	385.5
521.975	1543.5
522.19	926.5
522.406	225.5
522.621	110.5
522.836	89.5
523.052	92.5
523.267	101.5
523.482	89.5
523.698	111.5
523.913	102.5
524.128	96.5
524.343	106.5
524.559	109.5
524.774	85.5
524.989	106.5
525.204	108.5
525.419	98.5
525.634	95.5
525.849	80.5
526.064	95.5
526.28	100.5
526.495	97.5
526.71	102.5
526.925	105.5
527.14	88.5
527.355	105.5
527.57	105.5
527.785	92.5
527.999	89.5
528.214	101.5
528.429	103.5
528.644	89.5
528.859	93.5
529.074	101.5
529.289	118.5
529.503	125.5
529.718	93.5
529.933	93.5
530.148	101.5
530.363	117.5
530.577	99.5
530.792	109.5
531.007	94.5
531.221	86.5
531.436	107.5
531.651	99.5
531.865	101.5
532.08	106.5
532.295	109.5
532.509	97.5
532.724	84.5
532.938	97.5
