Data from Circ_1993_H10_HRD10591_00016.txt Node
Date: Wed Jan 03 11:44:05 EST 2024
User: Yrep
Spectrometer: HR+D1059
Trigger mode: 1
Integration Time (sec): 1.000000E-1
Scans to average: 1
Electric dark correction enabled: true
Nonlinearity correction enabled: false
Boxcar width: 0
XAxis mode: Wavelengths
Number of Pixels in Spectrum: 2048
>>>>>Begin Spectral Data<<<<<
223.165	-26
223.4	-26
223.635	-26
223.869	-22
224.104	-22
224.338	-19
224.573	-3
224.808	-33
225.042	-5
225.277	-7
225.511	8
225.746	5
225.98	1
226.215	7
226.449	21
226.683	21
226.918	29
227.152	45
227.387	28
227.621	29
227.856	35
228.09	52
228.324	42
228.559	51
228.793	62
229.027	54
229.262	45
229.496	74
229.73	74
229.964	77
230.199	65
230.433	68
230.667	78
230.901	67
231.136	85
231.37	79
231.604	79
231.838	83
232.072	75
232.306	76
232.541	80
232.775	74
233.009	89
233.243	94
233.477	84
233.711	72
233.945	73
234.179	72
234.413	89
234.647	86
234.881	70
235.115	82
235.349	76
235.583	81
235.817	74
236.051	61
236.285	75
236.519	80
236.753	91
236.987	76
237.221	70
237.455	83
237.689	67
237.922	68
238.156	91
238.39	68
238.624	85
238.858	68
239.091	87
239.325	85
239.559	80
239.793	83
240.027	96
240.26	72
240.494	67
240.728	80
240.961	91
241.195	80
241.429	72
241.662	86
241.896	67
242.13	78
242.363	77
242.597	73
242.83	84
243.064	72
243.298	63
243.531	68
243.765	80
243.998	81
244.232	80
244.465	86
244.699	78
244.932	80
245.166	86
245.399	85
245.633	76
245.866	68
246.099	80
246.333	83
246.566	70
246.8	84
247.033	72
247.266	78
247.5	78
247.733	72
247.966	94
248.2	105
248.433	76
248.666	78
248.899	74
249.133	83
249.366	77
249.599	86
249.832	85
250.066	84
250.299	77
250.532	68
250.765	65
250.998	82
251.231	87
251.465	78
251.698	89
251.931	93
252.164	82
252.397	86
252.63	94
252.863	91
253.096	91
253.329	85
253.562	89
253.795	92
254.028	81
254.261	79
254.494	72
254.727	78
254.96	90
255.193	81
255.426	85
255.659	88
255.892	82
256.124	96
256.357	78
256.59	81
256.823	80
257.056	82
257.289	88
257.521	67
257.754	74
257.987	80
258.22	89
258.452	85
258.685	95
258.918	92
259.151	76
259.383	78
259.616	75
259.849	90
260.081	88
260.314	83
260.547	85
260.779	98
261.012	80
261.244	93
261.477	99
261.71	81
261.942	102
262.175	109
262.407	84
262.64	79
262.872	82
263.105	72
263.337	80
263.57	82
263.802	84
264.035	77
264.267	76
264.499	73
264.732	86
264.964	75
265.197	83
265.429	93
265.661	91
265.894	78
266.126	81
266.358	83
266.591	84
266.823	76
267.055	86
267.287	85
267.52	99
267.752	83
267.984	80
268.216	77
268.448	82
268.681	76
268.913	88
269.145	87
269.377	82
269.609	76
269.841	90
270.073	86
270.306	98
270.538	97
270.77	78
271.002	76
271.234	105
271.466	77
271.698	79
271.93	86
272.162	76
272.394	89
272.626	86
272.858	79
273.09	90
273.322	80
273.553	81
273.785	74
274.017	83
274.249	80
274.481	85
274.713	93
274.945	82
275.176	77
275.408	74
275.64	82
275.872	84
276.104	89
276.335	91
276.567	91
276.799	109
277.031	107
277.262	78
277.494	80
277.726	80
277.957	91
278.189	93
278.421	85
278.652	85
278.884	80
279.115	102
279.347	89
279.579	85
279.81	84
280.042	90
280.273	92
280.505	84
280.736	80
280.968	91
281.199	90
281.431	89
281.662	87
281.894	89
282.125	81
282.356	109
282.588	114
282.819	105
283.051	91
283.282	84
283.513	87
283.745	87
283.976	95
284.207	93
284.439	85
284.67	93
284.901	88
285.132	81
285.364	97
285.595	89
285.826	88
286.057	85
286.288	82
286.52	87
286.751	78
286.982	89
287.213	80
287.444	83
287.675	84
287.906	85
288.138	93
288.369	86
288.6	81
288.831	82
289.062	107
289.293	83
289.524	87
289.755	92
289.986	83
290.217	85
290.448	88
290.679	91
290.91	90
291.141	88
291.371	92
291.602	94
291.833	84
292.064	93
292.295	101
292.526	107
292.757	82
292.987	95
293.218	85
293.449	100
293.68	88
293.91	82
294.141	95
294.372	98
294.603	98
294.833	85
295.064	82
295.295	88
295.525	99
295.756	94
295.987	96
296.217	101
296.448	112
296.679	83
296.909	98
297.14	88
297.37	90
297.601	81
297.831	93
298.062	97
298.292	90
298.523	89
298.753	96
298.984	80
299.214	82
299.445	86
299.675	80
299.905	94
300.136	88
300.366	92
300.597	88
300.827	97
301.057	94
301.288	94
301.518	94
301.748	84
301.979	95
302.209	88
302.439	92
302.669	80
302.9	90
303.13	98
303.36	85
303.59	98
303.82	102
304.051	81
304.281	93
304.511	81
304.741	80
304.971	76
305.201	74
305.431	90
305.661	94
305.891	94
306.121	90
306.352	84
306.582	91
306.812	98
307.042	88
307.272	85
307.502	88
307.731	96
307.961	105
308.191	82
308.421	101
308.651	89
308.881	92
309.111	96
309.341	90
309.571	83
309.8	97
310.03	101
310.26	91
310.49	106
310.72	94
310.949	83
311.179	88
311.409	86
311.639	88
311.868	85
312.098	91
312.328	96
312.557	105
312.787	102
313.017	102
313.246	98
313.476	97
313.706	85
313.935	82
314.165	84
314.394	108
314.624	92
314.853	90
315.083	88
315.312	80
315.542	85
315.771	88
316.001	96
316.23	78
316.46	90
316.689	85
316.919	89
317.148	83
317.377	95
317.607	93
317.836	92
318.065	79
318.295	88
318.524	92
318.753	83
318.983	101
319.212	97
319.441	97
319.67	82
319.9	92
320.129	83
320.358	85
320.587	99
320.816	85
321.046	84
321.275	99
321.504	96
321.733	94
321.962	91
322.191	90
322.42	104
322.649	105
322.878	99
323.108	111
323.337	100
323.566	107
323.795	122
324.024	174
324.253	295
324.482	570
324.71	1154
324.939	1453
325.168	592
325.397	192
325.626	133
325.855	115
326.084	109
326.313	120
326.542	124
326.77	189
326.999	342
327.228	655
327.457	1189
327.686	915
327.914	269
328.143	162
328.372	131
328.6	110
328.829	98
329.058	122
329.287	107
329.515	105
329.744	105
329.972	85
330.201	100
330.43	114
330.658	99
330.887	125
331.115	105
331.344	94
331.572	96
331.801	78
332.03	93
332.258	91
332.486	105
332.715	92
332.943	99
333.172	94
333.4	93
333.629	106
333.857	106
334.085	113
334.314	108
334.542	114
334.771	126
334.999	105
335.227	99
335.455	90
335.684	92
335.912	100
336.14	84
336.369	97
336.597	100
336.825	97
337.053	104
337.281	84
337.51	76
337.738	98
337.966	103
338.194	89
338.422	99
338.65	95
338.878	92
339.106	98
339.334	85
339.562	80
339.79	87
340.018	92
340.246	94
340.474	100
340.702	84
340.93	95
341.158	98
341.386	110
341.614	73
341.842	101
342.07	98
342.298	102
342.526	89
342.754	84
342.981	87
343.209	85
343.437	106
343.665	79
343.893	79
344.12	89
344.348	104
344.576	81
344.804	93
345.031	89
345.259	89
345.487	82
345.714	88
345.942	91
346.17	94
346.397	78
346.625	85
346.853	91
347.08	95
347.308	84
347.535	82
347.763	90
347.99	87
348.218	88
348.445	86
348.673	97
348.9	96
349.128	89
349.355	97
349.583	99
349.81	82
350.037	91
350.265	98
350.492	98
350.72	100
350.947	105
351.174	93
351.402	108
351.629	86
351.856	107
352.083	100
352.311	98
352.538	92
352.765	107
352.992	104
353.22	120
353.447	107
353.674	92
353.901	99
354.128	102
354.355	102
354.583	107
354.81	108
355.037	98
355.264	80
355.491	98
355.718	106
355.945	93
356.172	99
356.399	92
356.626	92
356.853	88
357.08	95
357.307	80
357.534	100
357.761	93
357.988	91
358.215	100
358.441	113
358.668	100
358.895	93
359.122	115
359.349	84
359.576	85
359.802	98
360.029	100
360.256	100
360.483	105
360.709	92
360.936	93
361.163	94
361.39	95
361.616	82
361.843	84
362.07	101
362.296	98
362.523	91
362.749	85
362.976	96
363.203	80
363.429	79
363.656	98
363.882	94
364.109	91
364.335	98
364.562	85
364.788	88
365.015	101
365.241	82
365.468	101
365.694	91
365.92	84
366.147	89
366.373	83
366.599	82
366.826	100
367.052	80
367.278	79
367.505	94
367.731	93
367.957	81
368.184	99
368.41	93
368.636	107
368.862	118
369.089	94
369.315	83
369.541	85
369.767	79
369.993	103
370.219	94
370.445	94
370.672	90
370.898	90
371.124	84
371.35	85
371.576	92
371.802	91
372.028	91
372.254	93
372.48	89
372.706	73
372.932	92
373.158	96
373.384	78
373.61	78
373.835	91
374.061	96
374.287	90
374.513	91
374.739	93
374.965	94
375.191	74
375.416	73
375.642	97
375.868	96
376.094	92
376.319	88
376.545	93
376.771	85
376.997	85
377.222	94
377.448	86
377.674	91
377.899	94
378.125	112
378.35	101
378.576	102
378.802	95
379.027	92
379.253	95
379.478	110
379.704	104
379.929	108
380.155	111
380.38	93
380.606	110
380.831	108
381.057	110
381.282	96
381.507	122
381.733	108
381.958	111
382.184	109
382.409	110
382.634	120
382.86	109
383.085	112
383.31	115
383.535	120
383.761	125
383.986	115
384.211	117
384.436	119
384.662	106
384.887	133
385.112	115
385.337	141
385.562	135
385.787	124
386.013	125
386.238	140
386.463	134
386.688	150
386.913	125
387.138	132
387.363	123
387.588	113
387.813	119
388.038	137
388.263	158
388.488	141
388.713	107
388.938	110
389.163	92
389.387	92
389.612	82
389.837	92
390.062	90
390.287	93
390.512	100
390.736	81
390.961	109
391.186	105
391.411	91
391.636	84
391.86	83
392.085	92
392.31	101
392.534	79
392.759	88
392.984	127
393.208	171
393.433	293
393.658	238
393.882	112
394.107	99
394.331	98
394.556	95
394.78	85
395.005	80
395.229	66
395.454	89
395.678	72
395.903	84
396.127	93
396.352	86
396.576	113
396.801	165
397.025	234
397.249	108
397.474	81
397.698	98
397.922	85
398.147	95
398.371	87
398.595	78
398.82	83
399.044	83
399.268	83
399.492	90
399.717	93
399.941	76
400.165	106
400.389	74
400.613	95
400.837	86
401.062	81
401.286	83
401.51	78
401.734	85
401.958	99
402.182	110
402.406	121
402.63	101
402.854	78
403.078	91
403.302	93
403.526	88
403.75	85
403.974	85
404.198	93
404.422	96
404.645	86
404.869	93
405.093	91
405.317	87
405.541	108
405.765	90
405.988	93
406.212	139
406.436	183
406.66	116
406.883	83
407.107	98
407.331	99
407.555	82
407.778	98
408.002	93
408.226	86
408.449	92
408.673	86
408.896	90
409.12	93
409.344	86
409.567	100
409.791	109
410.014	110
410.238	98
410.461	89
410.685	100
410.908	86
411.132	113
411.355	91
411.578	92
411.802	104
412.025	96
412.249	97
412.472	87
412.695	98
412.919	99
413.142	93
413.365	93
413.589	92
413.812	81
414.035	99
414.258	94
414.482	100
414.705	92
414.928	94
415.151	82
415.374	110
415.597	88
415.821	97
416.044	92
416.267	93
416.49	82
416.713	78
416.936	93
417.159	87
417.382	92
417.605	76
417.828	107
418.051	102
418.274	85
418.497	78
418.72	79
418.943	92
419.166	92
419.389	74
419.611	83
419.834	91
420.057	90
420.28	72
420.503	82
420.726	91
420.948	80
421.171	97
421.394	84
421.617	86
421.839	96
422.062	93
422.285	90
422.507	105
422.73	132
422.953	114
423.175	78
423.398	92
423.621	86
423.843	79
424.066	82
424.288	92
424.511	94
424.733	106
424.956	89
425.178	99
425.401	87
425.623	92
425.846	92
426.068	101
426.291	79
426.513	87
426.735	66
426.958	91
427.18	85
427.402	98
427.625	147
427.847	101
428.069	93
428.292	99
428.514	78
428.736	79
428.958	78
429.181	90
429.403	82
429.625	97
429.847	106
430.069	84
430.292	90
430.514	80
430.736	80
430.958	85
431.18	67
431.402	90
431.624	82
431.846	73
432.068	75
432.29	86
432.512	76
432.734	82
432.956	79
433.178	91
433.4	105
433.622	99
433.844	80
434.066	88
434.287	93
434.509	77
434.731	86
434.953	84
435.175	80
435.397	77
435.618	87
435.84	91
436.062	108
436.284	104
436.505	88
436.727	106
436.949	98
437.17	92
437.392	76
437.614	94
437.835	99
438.057	104
438.278	97
438.5	89
438.721	112
438.943	90
439.165	91
439.386	110
439.608	84
439.829	72
440.05	98
440.272	110
440.493	94
440.715	79
440.936	94
441.158	82
441.379	76
441.6	85
441.822	88
442.043	94
442.264	84
442.486	86
442.707	90
442.928	96
443.149	100
443.371	112
443.592	105
443.813	108
444.034	90
444.255	106
444.476	95
444.698	83
444.919	90
445.14	132
445.361	116
445.582	116
445.803	116
446.024	109
446.245	120
446.466	103
446.687	99
446.908	93
447.129	83
447.35	96
447.571	81
447.792	91
448.013	84
448.234	78
448.455	93
448.675	85
448.896	95
449.117	90
449.338	95
449.559	99
449.779	103
450	83
450.221	85
450.442	80
450.662	76
450.883	89
451.104	106
451.324	84
451.545	74
451.766	86
451.986	90
452.207	92
452.428	77
452.648	81
452.869	107
453.089	103
453.31	100
453.53	85
453.751	68
453.971	93
454.192	110
454.412	92
454.633	80
454.853	79
455.073	81
455.294	75
455.514	87
455.734	96
455.955	92
456.175	78
456.395	92
456.616	91
456.836	76
457.056	68
457.276	76
457.497	76
457.717	75
457.937	82
458.157	80
458.377	82
458.598	98
458.818	113
459.038	145
459.258	105
459.478	85
459.698	98
459.918	89
460.138	76
460.358	94
460.578	86
460.798	72
461.018	74
461.238	79
461.458	86
461.678	93
461.898	99
462.118	87
462.338	80
462.558	76
462.777	59
462.997	89
463.217	86
463.437	80
463.657	91
463.876	81
464.096	87
464.316	91
464.536	83
464.755	107
464.975	116
465.195	128
465.414	122
465.634	89
465.854	78
466.073	84
466.293	98
466.512	80
466.732	82
466.951	85
467.171	97
467.391	95
467.61	88
467.829	87
468.049	107
468.268	107
468.488	99
468.707	91
468.927	77
469.146	93
469.365	83
469.585	86
469.804	84
470.023	105
470.243	77
470.462	93
470.681	94
470.901	90
471.12	88
471.339	96
471.558	90
471.777	93
471.997	84
472.216	112
472.435	128
472.654	77
472.873	84
473.092	80
473.311	82
473.53	86
473.749	94
473.968	88
474.187	92
474.406	92
474.625	96
474.844	91
475.063	66
475.282	90
475.501	85
475.72	93
475.939	83
476.158	69
476.377	88
476.596	90
476.814	94
477.033	94
477.252	103
477.471	94
477.69	88
477.908	84
478.127	89
478.346	91
478.564	93
478.783	83
479.002	70
479.22	76
479.439	98
479.658	92
479.876	96
480.095	85
480.313	102
480.532	84
480.751	95
480.969	96
481.188	187
481.406	141
481.624	95
481.843	98
482.061	69
482.28	79
482.498	88
482.717	90
482.935	81
483.153	89
483.372	98
483.59	90
483.808	87
484.027	84
484.245	81
484.463	107
484.681	99
484.9	89
485.118	95
485.336	99
485.554	111
485.772	109
485.99	109
486.209	107
486.427	110
486.645	116
486.863	110
487.081	102
487.299	91
487.517	100
487.735	97
487.953	98
488.171	93
488.389	91
488.607	97
488.825	105
489.043	100
489.261	103
489.479	99
489.696	89
489.914	96
490.132	93
490.35	83
490.568	84
490.786	101
491.003	88
491.221	91
491.439	87
491.657	113
491.874	83
492.092	86
492.31	99
492.527	80
492.745	104
492.963	98
493.18	96
493.398	104
493.615	93
493.833	106
494.05	98
494.268	88
494.485	86
494.703	82
494.92	88
495.138	85
495.355	85
495.573	94
495.79	92
496.008	84
496.225	94
496.442	86
496.66	88
496.877	98
497.094	93
497.312	74
497.529	81
497.746	88
497.963	86
498.181	86
498.398	80
498.615	100
498.832	86
499.049	91
499.267	96
499.484	84
499.701	102
499.918	86
500.135	97
500.352	89
500.569	86
500.786	100
501.003	78
501.22	81
501.437	84
501.654	76
501.871	89
502.088	82
502.305	85
502.522	94
502.739	89
502.956	88
503.172	88
503.389	83
503.606	89
503.823	102
504.04	93
504.256	90
504.473	91
504.69	100
504.907	89
505.123	85
505.34	94
505.557	80
505.773	76
505.99	86
506.207	94
506.423	95
506.64	78
506.856	89
507.073	73
507.289	85
507.506	91
507.722	96
507.939	106
508.155	88
508.372	102
508.588	85
508.805	103
509.021	104
509.238	93
509.454	92
509.67	100
509.887	98
510.103	123
510.319	172
510.536	544
510.752	1592
510.968	442
511.184	124
511.401	96
511.617	86
511.833	89
512.049	95
512.265	94
512.481	83
512.698	90
512.914	85
513.13	85
513.346	86
513.562	80
513.778	89
513.994	82
514.21	93
514.426	109
514.642	99
514.858	101
515.074	123
515.29	298
515.506	924
515.721	357
515.937	123
516.153	116
516.369	90
516.585	76
516.801	98
517.016	99
517.232	93
517.448	90
517.664	92
517.879	102
518.095	89
518.311	90
518.527	92
518.742	108
518.958	99
519.173	108
519.389	94
519.605	91
519.82	97
520.036	100
520.251	97
520.467	103
520.682	96
520.898	102
521.113	112
521.329	124
521.544	168
521.76	376
521.975	1480
522.19	883
522.406	217
522.621	105
522.836	95
523.052	102
523.267	96
523.482	98
523.698	99
523.913	107
524.128	101
524.343	83
524.559	90
524.774	79
524.989	88
525.204	97
525.419	90
525.634	94
525.849	91
526.064	84
526.28	94
526.495	92
526.71	81
526.925	84
527.14	85
527.355	109
527.57	83
527.785	85
527.999	79
528.214	96
528.429	89
528.644	92
528.859	99
529.074	86
529.289	93
529.503	141
529.718	106
529.933	100
530.148	93
530.363	90
530.577	91
530.792	99
531.007	92
531.221	100
531.436	82
531.651	76
531.865	87
532.08	91
532.295	91
532.509	93
532.724	88
532.938	95
533.153	99
533.367	95
533.582	84
533.796	92
534.011	93
534.225	101
534.44	94
534.654	107
534.868	90
535.083	94
535.297	95
535.511	89
535.726	94
535.94	90
536.154	94
536.369	105
536.583	91
536.797	109
537.011	88
537.225	99
537.44	94
537.654	80
537.868	82
538.082	97
538.296	89
538.51	99
538.724	81
538.938	74
539.153	92
539.367	86
539.581	78
539.795	91
540.009	96
540.222	93
540.436	88
540.65	88
540.864	87
541.078	83
541.292	86
541.506	96
541.72	92
541.934	83
542.147	90
542.361	88
542.575	86
542.789	84
543.002	73
543.216	94
543.43	109
543.644	81
543.857	99
544.071	97
544.285	90
544.498	92
544.712	86
544.925	98
545.139	84
545.352	74
545.566	92
545.779	88
545.993	97
546.206	90
546.42	82
546.633	93
546.847	94
547.06	82
547.274	88
547.487	83
547.7	78
547.914	84
548.127	95
548.34	97
548.554	85
548.767	80
548.98	88
549.193	85
549.407	99
549.62	85
549.833	85
550.046	89
550.259	88
550.473	91
550.686	86
550.899	85
551.112	86
551.325	91
551.538	100
551.751	78
551.964	91
552.177	93
552.39	85
552.603	89
552.816	80
553.029	96
553.242	97
553.455	82
553.667	98
553.88	100
554.093	95
554.306	82
554.519	90
554.732	87
554.944	87
555.157	78
555.37	82
555.583	87
555.795	82
556.008	94
556.221	86
556.433	102
556.646	90
556.859	88
557.071	80
557.284	83
557.496	100
557.709	89
557.921	76
558.134	96
558.346	88
558.559	94
558.771	88
558.984	86
559.196	82
559.409	83
559.621	85
559.833	86
560.046	87
560.258	94
560.47	92
560.683	80
560.895	100
561.107	88
561.32	82
561.532	83
561.744	92
561.956	88
562.168	85
562.381	96
562.593	97
562.805	91
563.017	89
563.229	92
563.441	111
563.653	93
563.865	97
564.077	84
564.289	99
564.501	88
564.713	90
564.925	88
565.137	96
565.349	94
565.561	80
565.773	92
565.985	88
566.197	99
566.408	92
566.62	77
566.832	103
567.044	92
567.255	80
567.467	86
567.679	86
567.891	64
568.102	71
568.314	94
568.526	99
568.737	98
568.949	96
569.161	82
569.372	70
569.584	86
569.795	97
570.007	106
570.218	193
570.43	121
570.641	85
570.853	79
571.064	92
571.276	94
571.487	92
571.698	97
571.91	98
572.121	90
572.333	85
572.544	96
572.755	97
572.966	96
573.178	98
573.389	92
573.6	94
573.811	98
574.023	78
574.234	79
574.445	64
574.656	83
574.867	93
575.078	73
575.289	85
575.501	99
575.712	83
575.923	86
576.134	96
576.345	80
576.556	96
576.767	83
576.978	80
577.188	83
577.399	84
577.61	91
577.821	96
578.032	100
578.243	206
578.454	521
578.665	178
578.875	93
579.086	88
579.297	82
579.508	94
579.718	95
579.929	90
580.14	76
580.35	78
580.561	81
580.772	87
580.982	95
581.193	92
581.403	96
581.614	84
581.825	83
582.035	81
582.246	85
582.456	82
582.667	72
582.877	90
583.087	86
583.298	68
583.508	75
583.719	66
583.929	92
584.139	85
584.35	96
584.56	74
584.77	93
584.981	89
585.191	80
585.401	98
