Data from Circ_1993_H10_HRD10591_00084.txt Node
Date: Wed Jan 03 11:44:18 EST 2024
User: Yrep
Spectrometer: HR+D1059
Trigger mode: 1
Integration Time (sec): 1.000000E-1
Scans to average: 1
Electric dark correction enabled: true
Nonlinearity correction enabled: false
Boxcar width: 0
XAxis mode: Wavelengths
Number of Pixels in Spectrum: 2048
>>>>>Begin Spectral Data<<<<<
223.165	-12.44
223.4	-12.44
223.635	-12.44
223.869	-26.44
224.104	-11.44
224.338	-19.44
224.573	-18.44
224.808	-11.44
225.042	-6.44
225.277	-23.44
225.511	-10.44
225.746	2.56
225.98	-0.44
226.215	13.56
226.449	22.56
226.683	19.56
226.918	40.56
227.152	41.56
227.387	43.56
227.621	47.56
227.856	61.56
228.09	29.56
228.324	44.56
228.559	72.56
228.793	65.56
229.027	72.56
229.262	75.56
229.496	77.56
229.73	72.56
229.964	83.56
230.199	74.56
230.433	75.56
230.667	70.56
230.901	73.56
231.136	72.56
231.37	76.56
231.604	68.56
231.838	72.56
232.072	87.56
232.306	77.56
232.541	76.56
232.775	89.56
233.009	69.56
233.243	90.56
233.477	73.56
233.711	90.56
233.945	66.56
234.179	77.56
234.413	79.56
234.647	68.56
234.881	85.56
235.115	75.56
235.349	80.56
235.583	88.56
235.817	88.56
236.051	66.56
236.285	68.56
236.519	72.56
236.753	82.56
236.987	86.56
237.221	77.56
237.455	96.56
237.689	76.56
237.922	74.56
238.156	69.56
238.39	69.56
238.624	81.56
238.858	72.56
239.091	85.56
239.325	74.56
239.559	78.56
239.793	77.56
240.027	84.56
240.26	65.56
240.494	74.56
240.728	73.56
240.961	73.56
241.195	86.56
241.429	84.56
241.662	78.56
241.896	88.56
242.13	75.56
242.363	82.56
242.597	78.56
242.83	69.56
243.064	74.56
243.298	81.56
243.531	81.56
243.765	70.56
243.998	76.56
244.232	82.56
244.465	80.56
244.699	75.56
244.932	79.56
245.166	74.56
245.399	79.56
245.633	80.56
245.866	80.56
246.099	82.56
246.333	80.56
246.566	56.56
246.8	89.56
247.033	62.56
247.266	69.56
247.5	68.56
247.733	62.56
247.966	77.56
248.2	86.56
248.433	76.56
248.666	83.56
248.899	77.56
249.133	83.56
249.366	92.56
249.599	92.56
249.832	94.56
250.066	76.56
250.299	67.56
250.532	82.56
250.765	70.56
250.998	71.56
251.231	84.56
251.465	80.56
251.698	71.56
251.931	84.56
252.164	80.56
252.397	91.56
252.63	88.56
252.863	86.56
253.096	78.56
253.329	93.56
253.562	76.56
253.795	83.56
254.028	80.56
254.261	67.56
254.494	66.56
254.727	70.56
254.96	88.56
255.193	96.56
255.426	72.56
255.659	79.56
255.892	80.56
256.124	77.56
256.357	82.56
256.59	83.56
256.823	78.56
257.056	77.56
257.289	81.56
257.521	80.56
257.754	83.56
257.987	82.56
258.22	75.56
258.452	70.56
258.685	91.56
258.918	80.56
259.151	96.56
259.383	86.56
259.616	75.56
259.849	80.56
260.081	78.56
260.314	84.56
260.547	66.56
260.779	68.56
261.012	81.56
261.244	72.56
261.477	76.56
261.71	89.56
261.942	98.56
262.175	113.56
262.407	106.56
262.64	85.56
262.872	84.56
263.105	69.56
263.337	75.56
263.57	86.56
263.802	85.56
264.035	77.56
264.267	81.56
264.499	75.56
264.732	72.56
264.964	81.56
265.197	78.56
265.429	91.56
265.661	78.56
265.894	81.56
266.126	88.56
266.358	79.56
266.591	85.56
266.823	79.56
267.055	87.56
267.287	79.56
267.52	60.56
267.752	80.56
267.984	97.56
268.216	91.56
268.448	87.56
268.681	91.56
268.913	82.56
269.145	89.56
269.377	88.56
269.609	78.56
269.841	63.56
270.073	88.56
270.306	90.56
270.538	85.56
270.77	86.56
271.002	91.56
271.234	90.56
271.466	81.56
271.698	86.56
271.93	76.56
272.162	93.56
272.394	84.56
272.626	89.56
272.858	83.56
273.09	91.56
273.322	86.56
273.553	83.56
273.785	85.56
274.017	94.56
274.249	72.56
274.481	87.56
274.713	96.56
274.945	86.56
275.176	82.56
275.408	93.56
275.64	88.56
275.872	89.56
276.104	94.56
276.335	92.56
276.567	104.56
276.799	91.56
277.031	104.56
277.262	98.56
277.494	81.56
277.726	79.56
277.957	78.56
278.189	83.56
278.421	82.56
278.652	76.56
278.884	96.56
279.115	93.56
279.347	86.56
279.579	87.56
279.81	91.56
280.042	98.56
280.273	99.56
280.505	94.56
280.736	85.56
280.968	93.56
281.199	100.56
281.431	92.56
281.662	99.56
281.894	76.56
282.125	103.56
282.356	96.56
282.588	119.56
282.819	95.56
283.051	83.56
283.282	85.56
283.513	84.56
283.745	90.56
283.976	85.56
284.207	85.56
284.439	77.56
284.67	87.56
284.901	82.56
285.132	88.56
285.364	78.56
285.595	93.56
285.826	83.56
286.057	83.56
286.288	76.56
286.52	88.56
286.751	86.56
286.982	80.56
287.213	90.56
287.444	92.56
287.675	78.56
287.906	74.56
288.138	83.56
288.369	85.56
288.6	102.56
288.831	94.56
289.062	93.56
289.293	93.56
289.524	85.56
289.755	84.56
289.986	88.56
290.217	92.56
290.448	96.56
290.679	95.56
290.91	99.56
291.141	94.56
291.371	90.56
291.602	89.56
291.833	79.56
292.064	88.56
292.295	80.56
292.526	100.56
292.757	74.56
292.987	81.56
293.218	96.56
293.449	70.56
293.68	82.56
293.91	85.56
294.141	102.56
294.372	95.56
294.603	82.56
294.833	79.56
295.064	87.56
295.295	89.56
295.525	98.56
295.756	88.56
295.987	106.56
296.217	148.56
296.448	115.56
296.679	108.56
296.909	106.56
297.14	70.56
297.37	94.56
297.601	92.56
297.831	92.56
298.062	77.56
298.292	83.56
298.523	84.56
298.753	86.56
298.984	64.56
299.214	79.56
299.445	73.56
299.675	96.56
299.905	94.56
300.136	87.56
300.366	80.56
300.597	99.56
300.827	86.56
301.057	106.56
301.288	100.56
301.518	80.56
301.748	94.56
301.979	103.56
302.209	90.56
302.439	77.56
302.669	93.56
302.9	92.56
303.13	97.56
303.36	88.56
303.59	96.56
303.82	112.56
304.051	97.56
304.281	87.56
304.511	101.56
304.741	94.56
304.971	99.56
305.201	86.56
305.431	75.56
305.661	86.56
305.891	99.56
306.121	85.56
306.352	84.56
306.582	102.56
306.812	95.56
307.042	88.56
307.272	112.56
307.502	103.56
307.731	109.56
307.961	85.56
308.191	84.56
308.421	91.56
308.651	100.56
308.881	94.56
309.111	74.56
309.341	96.56
309.571	94.56
309.8	96.56
310.03	94.56
310.26	98.56
310.49	107.56
310.72	96.56
310.949	91.56
311.179	101.56
311.409	80.56
311.639	81.56
311.868	88.56
312.098	82.56
312.328	96.56
312.557	90.56
312.787	103.56
313.017	93.56
313.246	106.56
313.476	96.56
313.706	85.56
313.935	78.56
314.165	99.56
314.394	96.56
314.624	91.56
314.853	92.56
315.083	103.56
315.312	95.56
315.542	97.56
315.771	89.56
316.001	77.56
316.23	93.56
316.46	76.56
316.689	81.56
316.919	104.56
317.148	87.56
317.377	84.56
317.607	84.56
317.836	82.56
318.065	79.56
318.295	94.56
318.524	99.56
318.753	105.56
318.983	81.56
319.212	87.56
319.441	100.56
319.67	96.56
319.9	84.56
320.129	99.56
320.358	93.56
320.587	102.56
320.816	88.56
321.046	97.56
321.275	84.56
321.504	89.56
321.733	97.56
321.962	89.56
322.191	100.56
322.42	99.56
322.649	109.56
322.878	118.56
323.108	115.56
323.337	110.56
323.566	123.56
323.795	153.56
324.024	175.56
324.253	352.56
324.482	708.56
324.71	1462.56
324.939	1915.56
325.168	691.56
325.397	206.56
325.626	136.56
325.855	124.56
326.084	124.56
326.313	132.56
326.542	144.56
326.77	198.56
326.999	417.56
327.228	804.56
327.457	1445.56
327.686	1173.56
327.914	341.56
328.143	217.56
328.372	188.56
328.6	132.56
328.829	122.56
329.058	125.56
329.287	118.56
329.515	112.56
329.744	128.56
329.972	153.56
330.201	202.56
330.43	278.56
330.658	178.56
330.887	143.56
331.115	117.56
331.344	100.56
331.572	93.56
331.801	97.56
332.03	93.56
332.258	91.56
332.486	107.56
332.715	106.56
332.943	86.56
333.172	101.56
333.4	108.56
333.629	103.56
333.857	122.56
334.085	129.56
334.314	204.56
334.542	344.56
334.771	324.56
334.999	136.56
335.227	100.56
335.455	84.56
335.684	83.56
335.912	85.56
336.14	99.56
336.369	109.56
336.597	106.56
336.825	106.56
337.053	79.56
337.281	100.56
337.51	87.56
337.738	73.56
337.966	88.56
338.194	93.56
338.422	104.56
338.65	98.56
338.878	104.56
339.106	82.56
339.334	97.56
339.562	82.56
339.79	86.56
340.018	89.56
340.246	103.56
340.474	83.56
340.702	94.56
340.93	92.56
341.158	100.56
341.386	90.56
341.614	94.56
341.842	96.56
342.07	88.56
342.298	100.56
342.526	98.56
342.754	83.56
342.981	90.56
343.209	97.56
343.437	88.56
343.665	82.56
343.893	85.56
344.12	104.56
344.348	81.56
344.576	97.56
344.804	90.56
345.031	96.56
345.259	96.56
345.487	99.56
345.714	96.56
345.942	103.56
346.17	91.56
346.397	92.56
346.625	90.56
346.853	90.56
347.08	95.56
347.308	88.56
347.535	103.56
347.763	102.56
347.99	96.56
348.218	91.56
348.445	103.56
348.673	100.56
348.9	85.56
349.128	89.56
349.355	83.56
349.583	99.56
349.81	91.56
350.037	99.56
350.265	91.56
350.492	97.56
350.72	94.56
350.947	80.56
351.174	101.56
351.402	115.56
351.629	103.56
351.856	97.56
352.083	111.56
352.311	98.56
352.538	92.56
352.765	103.56
352.992	108.56
353.22	101.56
353.447	102.56
353.674	90.56
353.901	85.56
354.128	93.56
354.355	105.56
354.583	99.56
354.81	98.56
355.037	99.56
355.264	90.56
355.491	93.56
355.718	83.56
355.945	78.56
356.172	102.56
356.399	102.56
356.626	90.56
356.853	89.56
357.08	78.56
357.307	84.56
357.534	86.56
357.761	93.56
357.988	112.56
358.215	85.56
358.441	89.56
358.668	74.56
358.895	96.56
359.122	89.56
359.349	86.56
359.576	98.56
359.802	104.56
360.029	102.56
360.256	102.56
360.483	101.56
360.709	99.56
360.936	89.56
361.163	103.56
361.39	80.56
361.616	106.56
361.843	83.56
362.07	83.56
362.296	84.56
362.523	88.56
362.749	89.56
362.976	92.56
363.203	73.56
363.429	86.56
363.656	84.56
363.882	88.56
364.109	87.56
364.335	96.56
364.562	86.56
364.788	83.56
365.015	89.56
365.241	96.56
365.468	100.56
365.694	86.56
365.92	90.56
366.147	90.56
366.373	81.56
366.599	98.56
366.826	86.56
367.052	93.56
367.278	105.56
367.505	91.56
367.731	89.56
367.957	113.56
368.184	79.56
368.41	100.56
368.636	105.56
368.862	105.56
369.089	95.56
369.315	92.56
369.541	78.56
369.767	101.56
369.993	74.56
370.219	88.56
370.445	88.56
370.672	83.56
370.898	99.56
371.124	98.56
371.35	91.56
371.576	77.56
371.802	94.56
372.028	88.56
372.254	87.56
372.48	86.56
372.706	83.56
372.932	79.56
373.158	85.56
373.384	91.56
373.61	83.56
373.835	89.56
374.061	85.56
374.287	101.56
374.513	100.56
374.739	93.56
374.965	98.56
375.191	74.56
375.416	106.56
375.642	92.56
375.868	94.56
376.094	86.56
376.319	86.56
376.545	98.56
376.771	81.56
376.997	105.56
377.222	88.56
377.448	97.56
377.674	100.56
377.899	92.56
378.125	82.56
378.35	84.56
378.576	92.56
378.802	92.56
379.027	94.56
379.253	87.56
379.478	88.56
379.704	100.56
379.929	96.56
380.155	102.56
380.38	88.56
380.606	83.56
380.831	91.56
381.057	98.56
381.282	93.56
381.507	98.56
381.733	85.56
381.958	83.56
382.184	94.56
382.409	83.56
382.634	85.56
382.86	89.56
383.085	106.56
383.31	98.56
383.535	81.56
383.761	107.56
383.986	97.56
384.211	111.56
384.436	92.56
384.662	113.56
384.887	109.56
385.112	97.56
385.337	106.56
385.562	102.56
385.787	112.56
386.013	131.56
386.238	115.56
386.463	80.56
386.688	99.56
386.913	94.56
387.138	92.56
387.363	113.56
387.588	109.56
387.813	100.56
388.038	96.56
388.263	105.56
388.488	107.56
388.713	96.56
388.938	97.56
389.163	99.56
389.387	82.56
389.612	94.56
389.837	85.56
390.062	93.56
390.287	98.56
390.512	94.56
390.736	78.56
390.961	84.56
391.186	100.56
391.411	100.56
391.636	88.56
391.86	80.56
392.085	75.56
392.31	80.56
392.534	91.56
392.759	93.56
392.984	70.56
393.208	85.56
393.433	105.56
393.658	100.56
393.882	91.56
394.107	88.56
394.331	100.56
394.556	91.56
394.78	96.56
395.005	68.56
395.229	83.56
395.454	86.56
395.678	101.56
395.903	88.56
396.127	99.56
396.352	94.56
396.576	85.56
396.801	80.56
397.025	107.56
397.249	96.56
397.474	96.56
397.698	86.56
397.922	77.56
398.147	75.56
398.371	88.56
398.595	95.56
398.82	75.56
399.044	97.56
399.268	92.56
399.492	84.56
399.717	91.56
399.941	110.56
400.165	96.56
400.389	85.56
400.613	84.56
400.837	89.56
401.062	77.56
401.286	80.56
401.51	86.56
401.734	94.56
401.958	111.56
402.182	117.56
402.406	126.56
402.63	128.56
402.854	88.56
403.078	91.56
403.302	85.56
403.526	82.56
403.75	76.56
403.974	85.56
404.198	76.56
404.422	71.56
404.645	88.56
404.869	90.56
405.093	94.56
405.317	110.56
405.541	112.56
405.765	89.56
405.988	110.56
406.212	163.56
406.436	198.56
406.66	136.56
406.883	102.56
407.107	76.56
407.331	92.56
407.555	90.56
407.778	80.56
408.002	90.56
408.226	84.56
408.449	96.56
408.673	83.56
408.896	100.56
409.12	97.56
409.344	83.56
409.567	87.56
409.791	77.56
410.014	91.56
410.238	103.56
410.461	92.56
410.685	94.56
410.908	111.56
411.132	102.56
411.355	98.56
411.578	96.56
411.802	90.56
412.025	100.56
412.249	93.56
412.472	96.56
412.695	94.56
412.919	95.56
413.142	86.56
413.365	85.56
413.589	83.56
413.812	80.56
414.035	89.56
414.258	83.56
414.482	79.56
414.705	84.56
414.928	91.56
415.151	92.56
415.374	76.56
415.597	94.56
415.821	104.56
416.044	98.56
416.267	97.56
416.49	79.56
416.713	77.56
416.936	94.56
417.159	81.56
417.382	85.56
417.605	101.56
417.828	95.56
418.051	101.56
418.274	92.56
418.497	85.56
418.72	85.56
418.943	86.56
419.166	90.56
419.389	90.56
419.611	72.56
419.834	91.56
420.057	82.56
420.28	76.56
420.503	73.56
420.726	85.56
420.948	61.56
421.171	80.56
421.394	89.56
421.617	91.56
421.839	80.56
422.062	76.56
422.285	89.56
422.507	87.56
422.73	97.56
422.953	94.56
423.175	84.56
423.398	88.56
423.621	84.56
423.843	97.56
424.066	90.56
424.288	108.56
424.511	95.56
424.733	93.56
424.956	103.56
425.178	86.56
425.401	88.56
425.623	86.56
425.846	79.56
426.068	85.56
426.291	92.56
426.513	93.56
426.735	88.56
426.958	105.56
427.18	93.56
427.402	114.56
427.625	152.56
427.847	142.56
428.069	124.56
428.292	96.56
428.514	93.56
428.736	85.56
428.958	73.56
429.181	88.56
429.403	101.56
429.625	76.56
429.847	91.56
430.069	89.56
430.292	93.56
430.514	89.56
430.736	94.56
430.958	96.56
431.18	69.56
431.402	93.56
431.624	78.56
431.846	90.56
432.068	94.56
432.29	89.56
432.512	84.56
432.734	88.56
432.956	99.56
433.178	105.56
433.4	92.56
433.622	89.56
433.844	110.56
434.066	97.56
434.287	93.56
434.509	86.56
434.731	82.56
434.953	89.56
435.175	81.56
435.397	82.56
435.618	95.56
435.84	99.56
436.062	128.56
436.284	101.56
436.505	101.56
436.727	107.56
436.949	83.56
437.17	82.56
437.392	69.56
437.614	93.56
437.835	96.56
438.057	119.56
438.278	104.56
438.5	101.56
438.721	113.56
438.943	102.56
439.165	85.56
439.386	96.56
439.608	87.56
439.829	90.56
440.05	104.56
440.272	125.56
440.493	93.56
440.715	93.56
440.936	80.56
441.158	92.56
441.379	96.56
441.6	79.56
441.822	97.56
442.043	96.56
442.264	107.56
442.486	89.56
442.707	98.56
442.928	89.56
443.149	118.56
443.371	94.56
443.592	106.56
443.813	105.56
444.034	111.56
444.255	90.56
444.476	85.56
444.698	75.56
444.919	91.56
445.14	141.56
445.361	127.56
445.582	113.56
445.803	117.56
446.024	132.56
446.245	105.56
446.466	104.56
446.687	94.56
446.908	94.56
447.129	96.56
447.35	81.56
447.571	81.56
447.792	89.56
448.013	80.56
448.234	93.56
448.455	82.56
448.675	102.56
448.896	113.56
449.117	72.56
449.338	114.56
449.559	109.56
449.779	131.56
450	93.56
450.221	89.56
450.442	91.56
450.662	111.56
450.883	91.56
451.104	86.56
451.324	94.56
451.545	84.56
451.766	77.56
451.986	88.56
452.207	87.56
452.428	86.56
452.648	104.56
452.869	110.56
453.089	100.56
453.31	104.56
453.53	83.56
453.751	85.56
453.971	89.56
454.192	101.56
454.412	75.56
454.633	74.56
454.853	78.56
455.073	85.56
455.294	68.56
455.514	85.56
455.734	77.56
455.955	78.56
456.175	82.56
456.395	80.56
456.616	88.56
456.836	74.56
457.056	77.56
457.276	69.56
457.497	85.56
457.717	80.56
457.937	93.56
458.157	69.56
458.377	93.56
458.598	92.56
458.818	129.56
459.038	137.56
459.258	100.56
459.478	88.56
459.698	76.56
459.918	85.56
460.138	75.56
460.358	81.56
460.578	112.56
460.798	83.56
461.018	86.56
461.238	89.56
461.458	85.56
461.678	95.56
461.898	86.56
462.118	98.56
462.338	79.56
462.558	97.56
462.777	91.56
462.997	99.56
463.217	72.56
463.437	95.56
463.657	79.56
463.876	84.56
464.096	101.56
464.316	80.56
464.536	78.56
464.755	82.56
464.975	98.56
465.195	143.56
465.414	141.56
465.634	80.56
465.854	74.56
466.073	85.56
466.293	90.56
466.512	87.56
466.732	91.56
466.951	89.56
467.171	76.56
467.391	95.56
467.61	101.56
467.829	103.56
468.049	158.56
468.268	193.56
468.488	99.56
468.707	80.56
468.927	86.56
469.146	78.56
469.365	84.56
469.585	96.56
469.804	88.56
470.023	99.56
470.243	92.56
470.462	77.56
470.681	123.56
470.901	84.56
471.12	91.56
471.339	86.56
471.558	85.56
471.777	96.56
471.997	95.56
472.216	245.56
472.435	436.56
472.654	162.56
472.873	101.56
473.092	82.56
473.311	74.56
473.53	91.56
473.749	100.56
473.968	115.56
474.187	90.56
474.406	89.56
474.625	81.56
474.844	66.56
475.063	86.56
475.282	82.56
475.501	97.56
475.72	89.56
475.939	93.56
476.158	79.56
476.377	84.56
476.596	88.56
476.814	93.56
477.033	94.56
477.252	91.56
477.471	84.56
477.69	97.56
477.908	83.56
478.127	100.56
478.346	74.56
478.564	86.56
478.783	102.56
479.002	93.56
479.22	95.56
479.439	94.56
479.658	92.56
479.876	107.56
480.095	92.56
480.313	107.56
480.532	96.56
480.751	125.56
480.969	253.56
481.188	753.56
481.406	450.56
481.624	129.56
481.843	98.56
482.061	100.56
482.28	99.56
482.498	77.56
482.717	90.56
482.935	94.56
483.153	93.56
483.372	86.56
483.59	92.56
483.808	83.56
484.027	95.56
484.245	78.56
484.463	81.56
484.681	84.56
484.9	86.56
485.118	93.56
485.336	89.56
485.554	113.56
485.772	106.56
485.99	93.56
486.209	118.56
486.427	89.56
486.645	92.56
486.863	117.56
487.081	110.56
487.299	98.56
487.517	105.56
487.735	101.56
487.953	95.56
488.171	87.56
488.389	93.56
488.607	109.56
488.825	93.56
489.043	88.56
489.261	93.56
489.479	81.56
489.696	78.56
489.914	84.56
490.132	90.56
490.35	97.56
490.568	90.56
490.786	79.56
491.003	92.56
491.221	84.56
491.439	98.56
491.657	84.56
491.874	88.56
492.092	81.56
492.31	97.56
492.527	86.56
492.745	106.56
492.963	86.56
493.18	86.56
493.398	80.56
493.615	104.56
493.833	97.56
494.05	104.56
494.268	80.56
494.485	77.56
494.703	90.56
494.92	83.56
495.138	78.56
495.355	100.56
495.573	91.56
495.79	97.56
496.008	97.56
496.225	89.56
496.442	75.56
496.66	84.56
496.877	82.56
497.094	89.56
497.312	95.56
497.529	97.56
497.746	83.56
497.963	97.56
498.181	107.56
498.398	87.56
498.615	100.56
498.832	103.56
499.049	87.56
499.267	85.56
499.484	74.56
499.701	83.56
499.918	88.56
500.135	88.56
500.352	90.56
500.569	102.56
500.786	81.56
501.003	83.56
501.22	85.56
501.437	96.56
501.654	93.56
501.871	89.56
502.088	81.56
502.305	94.56
502.522	97.56
502.739	92.56
502.956	86.56
503.172	99.56
503.389	88.56
503.606	92.56
503.823	92.56
504.04	82.56
504.256	95.56
504.473	74.56
504.69	93.56
504.907	100.56
505.123	97.56
505.34	95.56
505.557	81.56
505.773	80.56
505.99	80.56
506.207	80.56
506.423	84.56
506.64	87.56
506.856	86.56
507.073	99.56
507.289	89.56
507.506	84.56
507.722	100.56
507.939	104.56
508.155	90.56
508.372	88.56
508.588	93.56
508.805	97.56
509.021	100.56
509.238	86.56
509.454	97.56
509.67	106.56
509.887	103.56
510.103	117.56
510.319	191.56
510.536	675.56
510.752	2012.56
510.968	558.56
511.184	145.56
511.401	94.56
511.617	109.56
511.833	91.56
512.049	95.56
512.265	86.56
512.481	88.56
512.698	88.56
512.914	100.56
513.13	92.56
513.346	101.56
513.562	95.56
513.778	94.56
513.994	86.56
514.21	102.56
514.426	106.56
514.642	127.56
514.858	110.56
515.074	165.56
515.29	394.56
515.506	1252.56
515.721	473.56
515.937	144.56
