Data from Circ_1993_H10_HRD10591_00097.txt Node
Date: Wed Jan 03 11:44:21 EST 2024
User: Yrep
Spectrometer: HR+D1059
Trigger mode: 1
Integration Time (sec): 1.000000E-1
Scans to average: 1
Electric dark correction enabled: true
Nonlinearity correction enabled: false
Boxcar width: 0
XAxis mode: Wavelengths
Number of Pixels in Spectrum: 2048
>>>>>Begin Spectral Data<<<<<
223.165	-22.44
223.4	-22.44
223.635	-22.44
223.869	-26.44
224.104	-16.44
224.338	-8.44
224.573	-15.44
224.808	-22.44
225.042	1.56
225.277	-18.44
225.511	0.56
225.746	9.56
225.98	15.56
226.215	20.56
226.449	16.56
226.683	28.56
226.918	15.56
227.152	21.56
227.387	36.56
227.621	39.56
227.856	51.56
228.09	62.56
228.324	61.56
228.559	55.56
228.793	68.56
229.027	60.56
229.262	91.56
229.496	81.56
229.73	80.56
229.964	76.56
230.199	75.56
230.433	69.56
230.667	84.56
230.901	76.56
231.136	84.56
231.37	87.56
231.604	96.56
231.838	73.56
232.072	99.56
232.306	86.56
232.541	74.56
232.775	75.56
233.009	74.56
233.243	91.56
233.477	94.56
233.711	79.56
233.945	79.56
234.179	93.56
234.413	97.56
234.647	75.56
234.881	67.56
235.115	71.56
235.349	78.56
235.583	76.56
235.817	98.56
236.051	76.56
236.285	71.56
236.519	95.56
236.753	77.56
236.987	101.56
237.221	75.56
237.455	83.56
237.689	81.56
237.922	84.56
238.156	82.56
238.39	90.56
238.624	88.56
238.858	76.56
239.091	67.56
239.325	90.56
239.559	76.56
239.793	72.56
240.027	78.56
240.26	78.56
240.494	88.56
240.728	76.56
240.961	74.56
241.195	79.56
241.429	68.56
241.662	74.56
241.896	84.56
242.13	92.56
242.363	82.56
242.597	75.56
242.83	79.56
243.064	82.56
243.298	90.56
243.531	71.56
243.765	83.56
243.998	69.56
244.232	84.56
244.465	87.56
244.699	67.56
244.932	80.56
245.166	96.56
245.399	87.56
245.633	82.56
245.866	83.56
246.099	67.56
246.333	83.56
246.566	65.56
246.8	80.56
247.033	78.56
247.266	79.56
247.5	92.56
247.733	76.56
247.966	87.56
248.2	72.56
248.433	91.56
248.666	78.56
248.899	87.56
249.133	93.56
249.366	97.56
249.599	89.56
249.832	92.56
250.066	81.56
250.299	78.56
250.532	76.56
250.765	85.56
250.998	92.56
251.231	76.56
251.465	93.56
251.698	79.56
251.931	71.56
252.164	81.56
252.397	81.56
252.63	75.56
252.863	87.56
253.096	71.56
253.329	97.56
253.562	80.56
253.795	80.56
254.028	83.56
254.261	91.56
254.494	80.56
254.727	79.56
254.96	75.56
255.193	71.56
255.426	84.56
255.659	78.56
255.892	83.56
256.124	83.56
256.357	79.56
256.59	71.56
256.823	77.56
257.056	95.56
257.289	86.56
257.521	97.56
257.754	88.56
257.987	88.56
258.22	80.56
258.452	75.56
258.685	97.56
258.918	98.56
259.151	84.56
259.383	85.56
259.616	75.56
259.849	81.56
260.081	81.56
260.314	81.56
260.547	91.56
260.779	99.56
261.012	91.56
261.244	102.56
261.477	98.56
261.71	71.56
261.942	110.56
262.175	97.56
262.407	87.56
262.64	79.56
262.872	83.56
263.105	82.56
263.337	78.56
263.57	84.56
263.802	85.56
264.035	76.56
264.267	80.56
264.499	84.56
264.732	96.56
264.964	73.56
265.197	74.56
265.429	88.56
265.661	67.56
265.894	70.56
266.126	85.56
266.358	89.56
266.591	97.56
266.823	82.56
267.055	90.56
267.287	76.56
267.52	96.56
267.752	88.56
267.984	91.56
268.216	80.56
268.448	74.56
268.681	84.56
268.913	82.56
269.145	67.56
269.377	78.56
269.609	85.56
269.841	93.56
270.073	79.56
270.306	84.56
270.538	92.56
270.77	86.56
271.002	94.56
271.234	86.56
271.466	90.56
271.698	85.56
271.93	80.56
272.162	96.56
272.394	93.56
272.626	83.56
272.858	77.56
273.09	86.56
273.322	91.56
273.553	78.56
273.785	76.56
274.017	101.56
274.249	82.56
274.481	84.56
274.713	80.56
274.945	92.56
275.176	86.56
275.408	86.56
275.64	81.56
275.872	89.56
276.104	103.56
276.335	95.56
276.567	98.56
276.799	108.56
277.031	104.56
277.262	96.56
277.494	86.56
277.726	80.56
277.957	96.56
278.189	90.56
278.421	80.56
278.652	88.56
278.884	90.56
279.115	92.56
279.347	87.56
279.579	79.56
279.81	88.56
280.042	79.56
280.273	118.56
280.505	96.56
280.736	101.56
280.968	88.56
281.199	84.56
281.431	82.56
281.662	85.56
281.894	90.56
282.125	102.56
282.356	110.56
282.588	122.56
282.819	84.56
283.051	100.56
283.282	88.56
283.513	82.56
283.745	80.56
283.976	76.56
284.207	81.56
284.439	88.56
284.67	69.56
284.901	90.56
285.132	102.56
285.364	86.56
285.595	80.56
285.826	82.56
286.057	78.56
286.288	103.56
286.52	96.56
286.751	83.56
286.982	80.56
287.213	90.56
287.444	83.56
287.675	98.56
287.906	87.56
288.138	87.56
288.369	82.56
288.6	90.56
288.831	83.56
289.062	83.56
289.293	92.56
289.524	94.56
289.755	84.56
289.986	83.56
290.217	83.56
290.448	94.56
290.679	82.56
290.91	89.56
291.141	72.56
291.371	95.56
291.602	88.56
291.833	78.56
292.064	78.56
292.295	100.56
292.526	99.56
292.757	80.56
292.987	74.56
293.218	85.56
293.449	87.56
293.68	95.56
293.91	81.56
294.141	84.56
294.372	94.56
294.603	97.56
294.833	87.56
295.064	100.56
295.295	93.56
295.525	90.56
295.756	109.56
295.987	90.56
296.217	126.56
296.448	107.56
296.679	86.56
296.909	97.56
297.14	82.56
297.37	82.56
297.601	88.56
297.831	99.56
298.062	99.56
298.292	82.56
298.523	92.56
298.753	82.56
298.984	93.56
299.214	98.56
299.445	88.56
299.675	119.56
299.905	96.56
300.136	99.56
300.366	80.56
300.597	91.56
300.827	96.56
301.057	86.56
301.288	100.56
301.518	87.56
301.748	83.56
301.979	99.56
302.209	87.56
302.439	98.56
302.669	108.56
302.9	92.56
303.13	82.56
303.36	96.56
303.59	86.56
303.82	98.56
304.051	80.56
304.281	96.56
304.511	80.56
304.741	79.56
304.971	85.56
305.201	87.56
305.431	84.56
305.661	90.56
305.891	78.56
306.121	79.56
306.352	115.56
306.582	98.56
306.812	83.56
307.042	84.56
307.272	101.56
307.502	111.56
307.731	110.56
307.961	98.56
308.191	93.56
308.421	99.56
308.651	82.56
308.881	85.56
309.111	98.56
309.341	99.56
309.571	82.56
309.8	84.56
310.03	88.56
310.26	107.56
310.49	94.56
310.72	94.56
310.949	99.56
311.179	109.56
311.409	93.56
311.639	92.56
311.868	84.56
312.098	94.56
312.328	110.56
312.557	109.56
312.787	105.56
313.017	93.56
313.246	105.56
313.476	87.56
313.706	89.56
313.935	91.56
314.165	95.56
314.394	86.56
314.624	102.56
314.853	107.56
315.083	96.56
315.312	100.56
315.542	90.56
315.771	84.56
316.001	90.56
316.23	90.56
316.46	89.56
316.689	94.56
316.919	83.56
317.148	93.56
317.377	104.56
317.607	92.56
317.836	87.56
318.065	92.56
318.295	99.56
318.524	95.56
318.753	86.56
318.983	92.56
319.212	119.56
319.441	117.56
319.67	114.56
319.9	95.56
320.129	92.56
320.358	83.56
320.587	97.56
320.816	87.56
321.046	105.56
321.275	98.56
321.504	96.56
321.733	88.56
321.962	82.56
322.191	90.56
322.42	97.56
322.649	103.56
322.878	104.56
323.108	124.56
323.337	130.56
323.566	128.56
323.795	135.56
324.024	185.56
324.253	341.56
324.482	738.56
324.71	1455.56
324.939	1983.56
325.168	728.56
325.397	233.56
325.626	154.56
325.855	118.56
326.084	110.56
326.313	114.56
326.542	142.56
326.77	213.56
326.999	398.56
327.228	830.56
327.457	1561.56
327.686	1246.56
327.914	347.56
328.143	227.56
328.372	206.56
328.6	166.56
328.829	104.56
329.058	123.56
329.287	123.56
329.515	114.56
329.744	127.56
329.972	163.56
330.201	251.56
330.43	310.56
330.658	191.56
330.887	150.56
331.115	119.56
331.344	106.56
331.572	107.56
331.801	107.56
332.03	106.56
332.258	102.56
332.486	93.56
332.715	84.56
332.943	98.56
333.172	107.56
333.4	98.56
333.629	113.56
333.857	121.56
334.085	154.56
334.314	246.56
334.542	387.56
334.771	357.56
334.999	146.56
335.227	98.56
335.455	101.56
335.684	96.56
335.912	103.56
336.14	102.56
336.369	101.56
336.597	107.56
336.825	88.56
337.053	100.56
337.281	94.56
337.51	91.56
337.738	92.56
337.966	95.56
338.194	85.56
338.422	94.56
338.65	92.56
338.878	82.56
339.106	100.56
339.334	87.56
339.562	91.56
339.79	90.56
340.018	70.56
340.246	87.56
340.474	98.56
340.702	91.56
340.93	94.56
341.158	87.56
341.386	99.56
341.614	90.56
341.842	104.56
342.07	88.56
342.298	94.56
342.526	86.56
342.754	77.56
342.981	85.56
343.209	87.56
343.437	80.56
343.665	102.56
343.893	90.56
344.12	96.56
344.348	85.56
344.576	91.56
344.804	102.56
345.031	99.56
345.259	98.56
345.487	93.56
345.714	99.56
345.942	97.56
346.17	83.56
346.397	88.56
346.625	83.56
346.853	97.56
347.08	94.56
347.308	100.56
347.535	85.56
347.763	110.56
347.99	98.56
348.218	100.56
348.445	101.56
348.673	96.56
348.9	88.56
349.128	91.56
349.355	102.56
349.583	84.56
349.81	90.56
350.037	104.56
350.265	86.56
350.492	101.56
350.72	93.56
350.947	91.56
351.174	116.56
351.402	99.56
351.629	108.56
351.856	83.56
352.083	95.56
352.311	118.56
352.538	100.56
352.765	102.56
352.992	107.56
353.22	103.56
353.447	86.56
353.674	86.56
353.901	87.56
354.128	86.56
354.355	101.56
354.583	86.56
354.81	91.56
355.037	90.56
355.264	94.56
355.491	86.56
355.718	99.56
355.945	83.56
356.172	99.56
356.399	83.56
356.626	92.56
356.853	75.56
357.08	99.56
357.307	96.56
357.534	87.56
357.761	98.56
357.988	75.56
358.215	98.56
358.441	96.56
358.668	95.56
358.895	101.56
359.122	91.56
359.349	79.56
359.576	88.56
359.802	87.56
360.029	95.56
360.256	112.56
360.483	92.56
360.709	87.56
360.936	101.56
361.163	110.56
361.39	103.56
361.616	92.56
361.843	93.56
362.07	83.56
362.296	84.56
362.523	96.56
362.749	99.56
362.976	86.56
363.203	102.56
363.429	86.56
363.656	95.56
363.882	90.56
364.109	86.56
364.335	96.56
364.562	91.56
364.788	86.56
365.015	101.56
365.241	95.56
365.468	103.56
365.694	92.56
365.92	98.56
366.147	87.56
366.373	99.56
366.599	104.56
366.826	104.56
367.052	101.56
367.278	97.56
367.505	83.56
367.731	90.56
367.957	86.56
368.184	100.56
368.41	91.56
368.636	97.56
368.862	110.56
369.089	97.56
369.315	91.56
369.541	99.56
369.767	102.56
369.993	96.56
370.219	91.56
370.445	93.56
370.672	91.56
370.898	84.56
371.124	88.56
371.35	95.56
371.576	82.56
371.802	80.56
372.028	94.56
372.254	83.56
372.48	98.56
372.706	75.56
372.932	93.56
373.158	94.56
373.384	93.56
373.61	92.56
373.835	82.56
374.061	86.56
374.287	96.56
374.513	101.56
374.739	85.56
374.965	94.56
375.191	93.56
375.416	91.56
375.642	85.56
375.868	77.56
376.094	87.56
376.319	87.56
376.545	84.56
376.771	83.56
376.997	99.56
377.222	95.56
377.448	99.56
377.674	78.56
377.899	94.56
378.125	94.56
378.35	96.56
378.576	81.56
378.802	81.56
379.027	91.56
379.253	93.56
379.478	103.56
379.704	87.56
379.929	99.56
380.155	100.56
380.38	86.56
380.606	99.56
380.831	92.56
381.057	112.56
381.282	91.56
381.507	85.56
381.733	92.56
381.958	94.56
382.184	97.56
382.409	106.56
382.634	99.56
382.86	94.56
383.085	105.56
383.31	99.56
383.535	105.56
383.761	106.56
383.986	103.56
384.211	98.56
384.436	99.56
384.662	101.56
384.887	113.56
385.112	97.56
385.337	89.56
385.562	112.56
385.787	100.56
386.013	120.56
386.238	107.56
386.463	94.56
386.688	111.56
386.913	101.56
387.138	99.56
387.363	96.56
387.588	108.56
387.813	92.56
388.038	94.56
388.263	94.56
388.488	111.56
388.713	71.56
388.938	84.56
389.163	86.56
389.387	98.56
389.612	77.56
389.837	89.56
390.062	87.56
390.287	100.56
390.512	84.56
390.736	83.56
390.961	99.56
391.186	75.56
391.411	86.56
391.636	95.56
391.86	101.56
392.085	97.56
392.31	96.56
392.534	93.56
392.759	104.56
392.984	89.56
393.208	92.56
393.433	108.56
393.658	100.56
393.882	75.56
394.107	93.56
394.331	90.56
394.556	97.56
394.78	89.56
395.005	83.56
395.229	86.56
395.454	88.56
395.678	95.56
395.903	100.56
396.127	94.56
396.352	87.56
396.576	78.56
396.801	90.56
397.025	104.56
397.249	89.56
397.474	104.56
397.698	76.56
397.922	81.56
398.147	84.56
398.371	82.56
398.595	81.56
398.82	96.56
399.044	83.56
399.268	96.56
399.492	102.56
399.717	87.56
399.941	88.56
400.165	103.56
400.389	92.56
400.613	77.56
400.837	83.56
401.062	111.56
401.286	84.56
401.51	82.56
401.734	92.56
401.958	105.56
402.182	114.56
402.406	145.56
402.63	107.56
402.854	98.56
403.078	85.56
403.302	92.56
403.526	82.56
403.75	90.56
403.974	85.56
404.198	90.56
404.422	93.56
404.645	82.56
404.869	78.56
405.093	100.56
405.317	111.56
405.541	104.56
405.765	103.56
405.988	112.56
406.212	150.56
406.436	211.56
406.66	138.56
406.883	96.56
407.107	88.56
407.331	101.56
407.555	104.56
407.778	100.56
408.002	98.56
408.226	99.56
408.449	96.56
408.673	97.56
408.896	98.56
409.12	97.56
409.344	87.56
409.567	91.56
409.791	91.56
410.014	88.56
410.238	91.56
410.461	84.56
410.685	91.56
410.908	91.56
411.132	119.56
411.355	94.56
411.578	96.56
411.802	85.56
412.025	99.56
412.249	96.56
412.472	91.56
412.695	106.56
412.919	93.56
413.142	82.56
413.365	90.56
413.589	86.56
413.812	83.56
414.035	94.56
414.258	93.56
414.482	99.56
414.705	104.56
414.928	96.56
415.151	91.56
415.374	91.56
415.597	80.56
415.821	87.56
416.044	100.56
416.267	88.56
416.49	89.56
416.713	85.56
416.936	94.56
417.159	107.56
417.382	93.56
417.605	95.56
417.828	91.56
418.051	97.56
418.274	80.56
418.497	93.56
418.72	90.56
418.943	75.56
419.166	75.56
419.389	86.56
419.611	96.56
419.834	87.56
420.057	93.56
420.28	90.56
420.503	88.56
420.726	81.56
420.948	79.56
421.171	103.56
421.394	105.56
421.617	74.56
421.839	92.56
422.062	91.56
422.285	91.56
422.507	115.56
422.73	114.56
422.953	91.56
423.175	102.56
423.398	98.56
423.621	94.56
423.843	102.56
424.066	90.56
424.288	102.56
424.511	95.56
424.733	104.56
424.956	106.56
425.178	107.56
425.401	98.56
425.623	101.56
425.846	100.56
426.068	100.56
426.291	80.56
426.513	86.56
426.735	88.56
426.958	90.56
427.18	104.56
427.402	140.56
427.625	152.56
427.847	125.56
428.069	141.56
428.292	99.56
428.514	90.56
428.736	77.56
428.958	84.56
429.181	74.56
429.403	80.56
429.625	78.56
429.847	79.56
430.069	100.56
430.292	93.56
430.514	83.56
430.736	91.56
430.958	88.56
431.18	103.56
431.402	101.56
431.624	79.56
431.846	84.56
432.068	95.56
432.29	85.56
432.512	87.56
432.734	96.56
432.956	112.56
433.178	106.56
433.4	108.56
433.622	100.56
433.844	87.56
434.066	84.56
434.287	90.56
434.509	104.56
434.731	86.56
434.953	83.56
435.175	106.56
435.397	94.56
435.618	102.56
435.84	106.56
436.062	133.56
436.284	116.56
436.505	96.56
436.727	101.56
436.949	107.56
437.17	96.56
437.392	90.56
437.614	92.56
437.835	104.56
438.057	118.56
438.278	110.56
438.5	101.56
438.721	124.56
438.943	98.56
439.165	104.56
439.386	84.56
439.608	88.56
439.829	113.56
440.05	113.56
440.272	128.56
440.493	101.56
440.715	88.56
440.936	85.56
441.158	90.56
441.379	84.56
441.6	100.56
441.822	88.56
442.043	88.56
442.264	117.56
442.486	91.56
442.707	102.56
442.928	99.56
443.149	128.56
443.371	125.56
443.592	95.56
443.813	104.56
444.034	119.56
444.255	99.56
444.476	91.56
444.698	106.56
444.919	87.56
445.14	130.56
445.361	135.56
445.582	135.56
445.803	143.56
446.024	145.56
446.245	127.56
446.466	114.56
446.687	96.56
446.908	88.56
447.129	96.56
447.35	92.56
447.571	87.56
447.792	98.56
448.013	92.56
448.234	96.56
448.455	103.56
448.675	119.56
448.896	125.56
449.117	95.56
449.338	107.56
449.559	132.56
449.779	128.56
450	91.56
450.221	92.56
450.442	80.56
450.662	96.56
450.883	111.56
451.104	107.56
451.324	102.56
451.545	94.56
451.766	85.56
451.986	87.56
452.207	102.56
452.428	88.56
452.648	99.56
452.869	113.56
453.089	122.56
453.31	119.56
453.53	84.56
453.751	87.56
453.971	104.56
454.192	107.56
454.412	101.56
454.633	76.56
454.853	85.56
455.073	102.56
455.294	93.56
455.514	96.56
455.734	91.56
455.955	86.56
456.175	84.56
456.395	86.56
456.616	77.56
456.836	77.56
457.056	81.56
457.276	88.56
457.497	89.56
457.717	90.56
457.937	107.56
458.157	102.56
458.377	95.56
458.598	99.56
458.818	141.56
459.038	141.56
459.258	112.56
459.478	92.56
459.698	79.56
459.918	76.56
460.138	84.56
460.358	83.56
460.578	97.56
460.798	95.56
461.018	113.56
461.238	69.56
461.458	101.56
461.678	95.56
461.898	94.56
462.118	79.56
462.338	95.56
462.558	86.56
462.777	96.56
462.997	97.56
463.217	79.56
463.437	82.56
463.657	80.56
463.876	93.56
464.096	78.56
464.316	87.56
464.536	83.56
464.755	91.56
464.975	108.56
465.195	156.56
465.414	139.56
465.634	90.56
465.854	92.56
466.073	68.56
466.293	79.56
466.512	86.56
466.732	93.56
466.951	95.56
467.171	90.56
467.391	101.56
467.61	96.56
467.829	110.56
468.049	175.56
468.268	202.56
468.488	97.56
468.707	83.56
468.927	98.56
469.146	76.56
469.365	74.56
469.585	97.56
469.804	90.56
470.023	110.56
470.243	92.56
470.462	103.56
470.681	111.56
470.901	94.56
471.12	100.56
471.339	87.56
471.558	98.56
471.777	90.56
471.997	123.56
472.216	274.56
472.435	495.56
472.654	171.56
472.873	112.56
473.092	90.56
473.311	76.56
473.53	96.56
473.749	75.56
473.968	82.56
474.187	104.56
474.406	90.56
474.625	99.56
474.844	104.56
475.063	83.56
475.282	91.56
475.501	87.56
475.72	100.56
475.939	95.56
476.158	91.56
476.377	76.56
476.596	91.56
476.814	103.56
477.033	101.56
477.252	87.56
477.471	99.56
477.69	91.56
477.908	88.56
478.127	99.56
478.346	94.56
478.564	88.56
478.783	91.56
479.002	97.56
479.22	86.56
479.439	105.56
479.658	105.56
479.876	100.56
480.095	86.56
480.313	103.56
480.532	104.56
480.751	130.56
480.969	271.56
481.188	862.56
481.406	525.56
481.624	138.56
481.843	97.56
482.061	100.56
482.28	96.56
482.498	89.56
482.717	89.56
482.935	79.56
483.153	77.56
483.372	92.56
483.59	86.56
483.808	88.56
484.027	94.56
484.245	99.56
484.463	102.56
484.681	96.56
484.9	93.56
485.118	100.56
485.336	90.56
485.554	100.56
485.772	94.56
485.99	106.56
486.209	112.56
486.427	112.56
486.645	101.56
486.863	110.56
487.081	104.56
487.299	102.56
487.517	94.56
487.735	87.56
487.953	99.56
488.171	95.56
488.389	92.56
488.607	98.56
488.825	87.56
489.043	101.56
489.261	83.56
489.479	102.56
489.696	109.56
489.914	80.56
490.132	98.56
490.35	86.56
490.568	96.56
490.786	81.56
491.003	92.56
491.221	89.56
491.439	78.56
491.657	90.56
491.874	87.56
492.092	100.56
492.31	98.56
492.527	99.56
492.745	87.56
492.963	97.56
493.18	91.56
493.398	87.56
493.615	101.56
493.833	95.56
494.05	91.56
494.268	83.56
494.485	86.56
494.703	83.56
494.92	91.56
495.138	92.56
495.355	104.56
495.573	87.56
495.79	92.56
496.008	92.56
496.225	92.56
496.442	87.56
496.66	81.56
496.877	95.56
497.094	101.56
497.312	108.56
497.529	91.56
497.746	96.56
497.963	88.56
498.181	100.56
498.398	93.56
498.615	110.56
498.832	94.56
499.049	95.56
499.267	82.56
499.484	97.56
499.701	102.56
499.918	98.56
500.135	106.56
500.352	96.56
500.569	94.56
500.786	75.56
501.003	93.56
501.22	102.56
501.437	91.56
501.654	91.56
501.871	102.56
502.088	88.56
502.305	94.56
502.522	99.56
502.739	96.56
502.956	100.56
503.172	92.56
503.389	93.56
503.606	111.56
503.823	105.56
504.04	99.56
504.256	81.56
504.473	87.56
504.69	76.56
504.907	91.56
505.123	85.56
505.34	95.56
505.557	94.56
505.773	85.56
505.99	92.56
506.207	92.56
506.423	100.56
506.64	80.56
506.856	93.56
507.073	84.56
507.289	86.56
507.506	78.56
507.722	107.56
507.939	110.56
508.155	99.56
508.372	90.56
508.588	81.56
508.805	98.56
509.021	102.56
509.238	94.56
509.454	95.56
509.67	94.56
509.887	110.56
510.103	120.56
510.319	188.56
510.536	634.56
510.752	1914.56
510.968	547.56
511.184	146.56
511.401	108.56
511.617	95.56
511.833	91.56
512.049	92.56
512.265	109.56
512.481	94.56
512.698	93.56
512.914	86.56
513.13	92.56
513.346	99.56
513.562	106.56
513.778	91.56
513.994	109.56
514.21	101.56
514.426	125.56
514.642	134.56
514.858	120.56
515.074	141.56
515.29	381.56
