Data from Circ_1993_H10_HRD10591_00018.txt Node
Date: Wed Jan 03 11:44:05 EST 2024
User: Yrep
Spectrometer: HR+D1059
Trigger mode: 1
Integration Time (sec): 1.000000E-1
Scans to average: 1
Electric dark correction enabled: true
Nonlinearity correction enabled: false
Boxcar width: 0
XAxis mode: Wavelengths
Number of Pixels in Spectrum: 2048
>>>>>Begin Spectral Data<<<<<
223.165	-27.81
223.4	-27.81
223.635	-27.81
223.869	-27.81
224.104	-20.81
224.338	-16.81
224.573	-4.81
224.808	-0.81
225.042	-11.81
225.277	-7.81
225.511	2.19
225.746	-2.81
225.98	-0.81
226.215	23.19
226.449	34.19
226.683	7.19
226.918	27.19
227.152	28.19
227.387	33.19
227.621	47.19
227.856	53.19
228.09	55.19
228.324	45.19
228.559	52.19
228.793	51.19
229.027	62.19
229.262	73.19
229.496	77.19
229.73	74.19
229.964	76.19
230.199	84.19
230.433	82.19
230.667	80.19
230.901	82.19
231.136	65.19
231.37	90.19
231.604	84.19
231.838	80.19
232.072	78.19
232.306	74.19
232.541	75.19
232.775	81.19
233.009	86.19
233.243	76.19
233.477	70.19
233.711	85.19
233.945	70.19
234.179	84.19
234.413	82.19
234.647	75.19
234.881	83.19
235.115	81.19
235.349	67.19
235.583	77.19
235.817	71.19
236.051	75.19
236.285	70.19
236.519	70.19
236.753	81.19
236.987	70.19
237.221	80.19
237.455	87.19
237.689	85.19
237.922	82.19
238.156	86.19
238.39	80.19
238.624	82.19
238.858	89.19
239.091	74.19
239.325	82.19
239.559	76.19
239.793	65.19
240.027	72.19
240.26	79.19
240.494	78.19
240.728	74.19
240.961	63.19
241.195	91.19
241.429	85.19
241.662	75.19
241.896	86.19
242.13	70.19
242.363	76.19
242.597	83.19
242.83	74.19
243.064	76.19
243.298	63.19
243.531	70.19
243.765	79.19
243.998	73.19
244.232	81.19
244.465	73.19
244.699	73.19
244.932	76.19
245.166	74.19
245.399	73.19
245.633	78.19
245.866	78.19
246.099	80.19
246.333	77.19
246.566	71.19
246.8	75.19
247.033	81.19
247.266	85.19
247.5	74.19
247.733	79.19
247.966	77.19
248.2	68.19
248.433	78.19
248.666	86.19
248.899	81.19
249.133	89.19
249.366	89.19
249.599	75.19
249.832	77.19
250.066	87.19
250.299	67.19
250.532	82.19
250.765	73.19
250.998	84.19
251.231	81.19
251.465	88.19
251.698	66.19
251.931	77.19
252.164	71.19
252.397	73.19
252.63	98.19
252.863	83.19
253.096	91.19
253.329	77.19
253.562	78.19
253.795	84.19
254.028	81.19
254.261	82.19
254.494	91.19
254.727	87.19
254.96	85.19
255.193	73.19
255.426	93.19
255.659	88.19
255.892	90.19
256.124	66.19
256.357	75.19
256.59	75.19
256.823	82.19
257.056	86.19
257.289	69.19
257.521	83.19
257.754	70.19
257.987	67.19
258.22	85.19
258.452	77.19
258.685	71.19
258.918	89.19
259.151	83.19
259.383	79.19
259.616	81.19
259.849	96.19
260.081	84.19
260.314	95.19
260.547	83.19
260.779	79.19
261.012	83.19
261.244	93.19
261.477	81.19
261.71	86.19
261.942	98.19
262.175	90.19
262.407	94.19
262.64	73.19
262.872	82.19
263.105	79.19
263.337	87.19
263.57	72.19
263.802	77.19
264.035	77.19
264.267	82.19
264.499	77.19
264.732	78.19
264.964	89.19
265.197	94.19
265.429	85.19
265.661	79.19
265.894	74.19
266.126	81.19
266.358	86.19
266.591	85.19
266.823	93.19
267.055	90.19
267.287	92.19
267.52	78.19
267.752	77.19
267.984	82.19
268.216	82.19
268.448	77.19
268.681	75.19
268.913	98.19
269.145	89.19
269.377	87.19
269.609	85.19
269.841	86.19
270.073	84.19
270.306	90.19
270.538	80.19
270.77	89.19
271.002	82.19
271.234	79.19
271.466	76.19
271.698	92.19
271.93	84.19
272.162	89.19
272.394	98.19
272.626	81.19
272.858	84.19
273.09	79.19
273.322	83.19
273.553	96.19
273.785	99.19
274.017	75.19
274.249	84.19
274.481	87.19
274.713	91.19
274.945	93.19
275.176	91.19
275.408	87.19
275.64	83.19
275.872	83.19
276.104	79.19
276.335	69.19
276.567	90.19
276.799	100.19
277.031	87.19
277.262	97.19
277.494	91.19
277.726	89.19
277.957	83.19
278.189	81.19
278.421	78.19
278.652	93.19
278.884	79.19
279.115	79.19
279.347	86.19
279.579	91.19
279.81	91.19
280.042	79.19
280.273	78.19
280.505	76.19
280.736	86.19
280.968	94.19
281.199	84.19
281.431	83.19
281.662	99.19
281.894	82.19
282.125	87.19
282.356	98.19
282.588	126.19
282.819	104.19
283.051	96.19
283.282	85.19
283.513	84.19
283.745	98.19
283.976	74.19
284.207	83.19
284.439	87.19
284.67	82.19
284.901	88.19
285.132	90.19
285.364	86.19
285.595	93.19
285.826	94.19
286.057	94.19
286.288	102.19
286.52	88.19
286.751	87.19
286.982	92.19
287.213	92.19
287.444	90.19
287.675	87.19
287.906	77.19
288.138	95.19
288.369	89.19
288.6	91.19
288.831	90.19
289.062	101.19
289.293	86.19
289.524	86.19
289.755	90.19
289.986	82.19
290.217	93.19
290.448	69.19
290.679	101.19
290.91	93.19
291.141	94.19
291.371	89.19
291.602	97.19
291.833	98.19
292.064	82.19
292.295	90.19
292.526	79.19
292.757	88.19
292.987	90.19
293.218	91.19
293.449	86.19
293.68	97.19
293.91	89.19
294.141	101.19
294.372	87.19
294.603	80.19
294.833	86.19
295.064	96.19
295.295	91.19
295.525	75.19
295.756	103.19
295.987	103.19
296.217	140.19
296.448	112.19
296.679	89.19
296.909	95.19
297.14	99.19
297.37	80.19
297.601	93.19
297.831	86.19
298.062	93.19
298.292	99.19
298.523	93.19
298.753	99.19
298.984	90.19
299.214	93.19
299.445	99.19
299.675	103.19
299.905	86.19
300.136	95.19
300.366	82.19
300.597	99.19
300.827	86.19
301.057	93.19
301.288	95.19
301.518	96.19
301.748	80.19
301.979	95.19
302.209	86.19
302.439	104.19
302.669	90.19
302.9	90.19
303.13	105.19
303.36	101.19
303.59	91.19
303.82	95.19
304.051	102.19
304.281	81.19
304.511	93.19
304.741	87.19
304.971	70.19
305.201	86.19
305.431	89.19
305.661	83.19
305.891	94.19
306.121	100.19
306.352	98.19
306.582	93.19
306.812	100.19
307.042	94.19
307.272	92.19
307.502	87.19
307.731	83.19
307.961	86.19
308.191	74.19
308.421	85.19
308.651	92.19
308.881	96.19
309.111	93.19
309.341	85.19
309.571	101.19
309.8	102.19
310.03	92.19
310.26	96.19
310.49	90.19
310.72	84.19
310.949	82.19
311.179	101.19
311.409	96.19
311.639	90.19
311.868	92.19
312.098	81.19
312.328	91.19
312.557	95.19
312.787	87.19
313.017	99.19
313.246	86.19
313.476	100.19
313.706	89.19
313.935	97.19
314.165	91.19
314.394	89.19
314.624	81.19
314.853	79.19
315.083	100.19
315.312	81.19
315.542	92.19
315.771	94.19
316.001	92.19
316.23	96.19
316.46	85.19
316.689	87.19
316.919	85.19
317.148	94.19
317.377	94.19
317.607	114.19
317.836	103.19
318.065	100.19
318.295	87.19
318.524	76.19
318.753	83.19
318.983	89.19
319.212	103.19
319.441	90.19
319.67	87.19
319.9	86.19
320.129	95.19
320.358	100.19
320.587	86.19
320.816	90.19
321.046	96.19
321.275	95.19
321.504	98.19
321.733	91.19
321.962	106.19
322.191	104.19
322.42	101.19
322.649	83.19
322.878	79.19
323.108	111.19
323.337	109.19
323.566	116.19
323.795	120.19
324.024	159.19
324.253	296.19
324.482	606.19
324.71	1195.19
324.939	1550.19
325.168	602.19
325.397	189.19
325.626	149.19
325.855	127.19
326.084	108.19
326.313	110.19
326.542	144.19
326.77	187.19
326.999	353.19
327.228	668.19
327.457	1237.19
327.686	979.19
327.914	291.19
328.143	158.19
328.372	126.19
328.6	112.19
328.829	94.19
329.058	109.19
329.287	105.19
329.515	110.19
329.744	101.19
329.972	102.19
330.201	119.19
330.43	119.19
330.658	111.19
330.887	113.19
331.115	105.19
331.344	97.19
331.572	104.19
331.801	91.19
332.03	102.19
332.258	95.19
332.486	91.19
332.715	91.19
332.943	90.19
333.172	84.19
333.4	93.19
333.629	104.19
333.857	118.19
334.085	109.19
334.314	108.19
334.542	118.19
334.771	123.19
334.999	104.19
335.227	94.19
335.455	100.19
335.684	100.19
335.912	108.19
336.14	107.19
336.369	99.19
336.597	92.19
336.825	97.19
337.053	94.19
337.281	89.19
337.51	101.19
337.738	72.19
337.966	69.19
338.194	84.19
338.422	85.19
338.65	82.19
338.878	78.19
339.106	85.19
339.334	80.19
339.562	76.19
339.79	92.19
340.018	88.19
340.246	93.19
340.474	85.19
340.702	84.19
340.93	82.19
341.158	79.19
341.386	71.19
341.614	100.19
341.842	105.19
342.07	89.19
342.298	79.19
342.526	110.19
342.754	82.19
342.981	91.19
343.209	79.19
343.437	98.19
343.665	96.19
343.893	94.19
344.12	99.19
344.348	105.19
344.576	90.19
344.804	84.19
345.031	100.19
345.259	101.19
345.487	98.19
345.714	97.19
345.942	102.19
346.17	103.19
346.397	89.19
346.625	82.19
346.853	91.19
347.08	96.19
347.308	80.19
347.535	96.19
347.763	90.19
347.99	115.19
348.218	105.19
348.445	77.19
348.673	98.19
348.9	98.19
349.128	94.19
349.355	75.19
349.583	81.19
349.81	91.19
350.037	93.19
350.265	91.19
350.492	86.19
350.72	93.19
350.947	106.19
351.174	101.19
351.402	105.19
351.629	85.19
351.856	98.19
352.083	106.19
352.311	87.19
352.538	101.19
352.765	107.19
352.992	103.19
353.22	112.19
353.447	105.19
353.674	100.19
353.901	99.19
354.128	97.19
354.355	89.19
354.583	92.19
354.81	97.19
355.037	83.19
355.264	98.19
355.491	80.19
355.718	83.19
355.945	92.19
356.172	101.19
356.399	95.19
356.626	91.19
356.853	85.19
357.08	93.19
357.307	103.19
357.534	85.19
357.761	101.19
357.988	98.19
358.215	98.19
358.441	102.19
358.668	95.19
358.895	92.19
359.122	80.19
359.349	85.19
359.576	99.19
359.802	103.19
360.029	101.19
360.256	83.19
360.483	85.19
360.709	74.19
360.936	76.19
361.163	99.19
361.39	84.19
361.616	82.19
361.843	97.19
362.07	94.19
362.296	98.19
362.523	83.19
362.749	83.19
362.976	98.19
363.203	92.19
363.429	97.19
363.656	106.19
363.882	79.19
364.109	97.19
364.335	109.19
364.562	104.19
364.788	80.19
365.015	81.19
365.241	98.19
365.468	109.19
365.694	85.19
365.92	90.19
366.147	94.19
366.373	76.19
366.599	94.19
366.826	83.19
367.052	90.19
367.278	91.19
367.505	97.19
367.731	100.19
367.957	94.19
368.184	82.19
368.41	103.19
368.636	110.19
368.862	112.19
369.089	100.19
369.315	95.19
369.541	98.19
369.767	84.19
369.993	93.19
370.219	76.19
370.445	81.19
370.672	98.19
370.898	78.19
371.124	87.19
371.35	70.19
371.576	73.19
371.802	81.19
372.028	75.19
372.254	83.19
372.48	86.19
372.706	81.19
372.932	80.19
373.158	100.19
373.384	91.19
373.61	100.19
373.835	81.19
374.061	92.19
374.287	104.19
374.513	93.19
374.739	76.19
374.965	85.19
375.191	92.19
375.416	87.19
375.642	96.19
375.868	91.19
376.094	93.19
376.319	92.19
376.545	74.19
376.771	90.19
376.997	97.19
377.222	102.19
377.448	107.19
377.674	99.19
377.899	86.19
378.125	91.19
378.35	110.19
378.576	98.19
378.802	89.19
379.027	103.19
379.253	89.19
379.478	85.19
379.704	95.19
379.929	93.19
380.155	100.19
380.38	99.19
380.606	115.19
380.831	101.19
381.057	107.19
381.282	104.19
381.507	112.19
381.733	106.19
381.958	90.19
382.184	112.19
382.409	110.19
382.634	112.19
382.86	110.19
383.085	118.19
383.31	128.19
383.535	123.19
383.761	112.19
383.986	129.19
384.211	116.19
384.436	114.19
384.662	126.19
384.887	132.19
385.112	140.19
385.337	134.19
385.562	138.19
385.787	122.19
386.013	138.19
386.238	112.19
386.463	122.19
386.688	118.19
386.913	127.19
387.138	109.19
387.363	118.19
387.588	112.19
387.813	119.19
388.038	123.19
388.263	129.19
388.488	137.19
388.713	122.19
388.938	102.19
389.163	98.19
389.387	90.19
389.612	100.19
389.837	93.19
390.062	90.19
390.287	97.19
390.512	83.19
390.736	87.19
390.961	84.19
391.186	100.19
391.411	99.19
391.636	79.19
391.86	78.19
392.085	98.19
392.31	85.19
392.534	82.19
392.759	90.19
392.984	106.19
393.208	122.19
393.433	154.19
393.658	139.19
393.882	83.19
394.107	90.19
394.331	100.19
394.556	87.19
394.78	81.19
395.005	86.19
395.229	91.19
395.454	96.19
395.678	87.19
395.903	86.19
396.127	101.19
396.352	82.19
396.576	95.19
396.801	124.19
397.025	130.19
397.249	103.19
397.474	89.19
397.698	85.19
397.922	101.19
398.147	84.19
398.371	67.19
398.595	89.19
398.82	92.19
399.044	94.19
399.268	79.19
399.492	102.19
399.717	96.19
399.941	85.19
400.165	98.19
400.389	85.19
400.613	83.19
400.837	79.19
401.062	81.19
401.286	73.19
401.51	85.19
401.734	90.19
401.958	90.19
402.182	111.19
402.406	127.19
402.63	103.19
402.854	91.19
403.078	91.19
403.302	89.19
403.526	92.19
403.75	93.19
403.974	78.19
404.198	85.19
404.422	98.19
404.645	97.19
404.869	76.19
405.093	95.19
405.317	93.19
405.541	96.19
405.765	86.19
405.988	98.19
406.212	139.19
406.436	180.19
406.66	114.19
406.883	93.19
407.107	82.19
407.331	98.19
407.555	70.19
407.778	90.19
408.002	94.19
408.226	80.19
408.449	77.19
408.673	98.19
408.896	105.19
409.12	105.19
409.344	90.19
409.567	95.19
409.791	83.19
410.014	94.19
410.238	100.19
410.461	95.19
410.685	106.19
410.908	104.19
411.132	99.19
411.355	97.19
411.578	85.19
411.802	96.19
412.025	75.19
412.249	95.19
412.472	93.19
412.695	92.19
412.919	99.19
413.142	92.19
413.365	93.19
413.589	98.19
413.812	90.19
414.035	90.19
414.258	101.19
414.482	100.19
414.705	87.19
414.928	97.19
415.151	107.19
415.374	91.19
415.597	89.19
415.821	93.19
416.044	94.19
416.267	87.19
416.49	91.19
416.713	106.19
416.936	94.19
417.159	94.19
417.382	82.19
417.605	93.19
417.828	96.19
418.051	86.19
418.274	96.19
418.497	87.19
418.72	99.19
418.943	90.19
419.166	80.19
419.389	94.19
419.611	91.19
419.834	110.19
420.057	88.19
420.28	73.19
420.503	82.19
420.726	102.19
420.948	89.19
421.171	97.19
421.394	90.19
421.617	75.19
421.839	101.19
422.062	85.19
422.285	93.19
422.507	102.19
422.73	112.19
422.953	108.19
423.175	102.19
423.398	93.19
423.621	79.19
423.843	90.19
424.066	84.19
424.288	88.19
424.511	79.19
424.733	96.19
424.956	96.19
425.178	93.19
425.401	86.19
425.623	85.19
425.846	84.19
426.068	91.19
426.291	76.19
426.513	70.19
426.735	95.19
426.958	77.19
427.18	86.19
427.402	115.19
427.625	133.19
427.847	114.19
428.069	107.19
428.292	82.19
428.514	74.19
428.736	89.19
428.958	70.19
429.181	73.19
429.403	92.19
429.625	86.19
429.847	84.19
430.069	82.19
430.292	83.19
430.514	92.19
430.736	93.19
430.958	94.19
431.18	97.19
431.402	75.19
431.624	82.19
431.846	82.19
432.068	77.19
432.29	89.19
432.512	85.19
432.734	89.19
432.956	82.19
433.178	93.19
433.4	82.19
433.622	89.19
433.844	87.19
434.066	97.19
434.287	86.19
434.509	85.19
434.731	102.19
434.953	94.19
435.175	90.19
435.397	86.19
435.618	97.19
435.84	114.19
436.062	130.19
436.284	116.19
436.505	93.19
436.727	98.19
436.949	91.19
437.17	85.19
437.392	84.19
437.614	88.19
437.835	106.19
438.057	113.19
438.278	109.19
438.5	98.19
438.721	114.19
438.943	84.19
439.165	80.19
439.386	86.19
439.608	87.19
439.829	97.19
440.05	102.19
440.272	141.19
440.493	98.19
440.715	90.19
440.936	79.19
441.158	86.19
441.379	73.19
441.6	98.19
441.822	89.19
442.043	87.19
442.264	109.19
442.486	100.19
442.707	100.19
442.928	97.19
443.149	112.19
443.371	105.19
443.592	95.19
443.813	96.19
444.034	99.19
444.255	101.19
444.476	83.19
444.698	90.19
444.919	87.19
445.14	130.19
445.361	111.19
445.582	109.19
445.803	109.19
446.024	100.19
446.245	117.19
446.466	108.19
446.687	83.19
446.908	82.19
447.129	85.19
447.35	84.19
447.571	87.19
447.792	98.19
448.013	101.19
448.234	95.19
448.455	87.19
448.675	106.19
448.896	89.19
449.117	89.19
449.338	113.19
449.559	119.19
449.779	120.19
450	93.19
450.221	93.19
450.442	89.19
450.662	90.19
450.883	114.19
451.104	91.19
451.324	90.19
451.545	86.19
451.766	92.19
451.986	97.19
452.207	87.19
452.428	90.19
452.648	83.19
452.869	103.19
453.089	95.19
453.31	99.19
453.53	91.19
453.751	79.19
453.971	101.19
454.192	114.19
454.412	97.19
454.633	88.19
454.853	93.19
455.073	76.19
455.294	93.19
455.514	99.19
455.734	82.19
455.955	93.19
456.175	85.19
456.395	88.19
456.616	95.19
456.836	82.19
457.056	79.19
457.276	81.19
457.497	89.19
457.717	93.19
457.937	83.19
458.157	84.19
458.377	104.19
458.598	97.19
458.818	122.19
459.038	146.19
459.258	114.19
459.478	84.19
459.698	89.19
459.918	91.19
460.138	90.19
460.358	89.19
460.578	70.19
460.798	85.19
461.018	73.19
461.238	79.19
461.458	93.19
461.678	82.19
461.898	80.19
462.118	81.19
462.338	83.19
462.558	85.19
462.777	85.19
462.997	82.19
463.217	97.19
463.437	90.19
463.657	84.19
463.876	77.19
464.096	83.19
464.316	84.19
464.536	90.19
464.755	92.19
464.975	103.19
465.195	136.19
465.414	121.19
465.634	98.19
465.854	66.19
466.073	74.19
466.293	88.19
466.512	88.19
466.732	103.19
466.951	79.19
467.171	88.19
467.391	87.19
467.61	95.19
467.829	93.19
468.049	95.19
468.268	88.19
468.488	96.19
468.707	71.19
468.927	75.19
469.146	86.19
469.365	89.19
469.585	93.19
469.804	81.19
470.023	79.19
470.243	98.19
470.462	99.19
470.681	94.19
470.901	80.19
471.12	92.19
471.339	85.19
471.558	92.19
471.777	90.19
471.997	97.19
472.216	110.19
472.435	150.19
472.654	77.19
472.873	81.19
473.092	82.19
473.311	85.19
473.53	77.19
473.749	86.19
473.968	101.19
474.187	87.19
474.406	97.19
474.625	99.19
474.844	88.19
475.063	88.19
475.282	79.19
475.501	87.19
475.72	107.19
475.939	79.19
476.158	73.19
476.377	78.19
476.596	90.19
476.814	92.19
477.033	99.19
477.252	83.19
477.471	96.19
477.69	102.19
477.908	81.19
478.127	97.19
478.346	90.19
478.564	91.19
478.783	85.19
479.002	83.19
479.22	83.19
479.439	94.19
479.658	95.19
479.876	92.19
480.095	85.19
480.313	85.19
480.532	97.19
480.751	106.19
480.969	120.19
481.188	205.19
481.406	158.19
481.624	99.19
481.843	99.19
482.061	84.19
482.28	102.19
482.498	93.19
482.717	75.19
482.935	95.19
483.153	80.19
483.372	74.19
483.59	76.19
483.808	85.19
484.027	91.19
484.245	97.19
484.463	97.19
484.681	95.19
484.9	94.19
485.118	97.19
485.336	100.19
485.554	102.19
485.772	121.19
485.99	96.19
486.209	111.19
486.427	127.19
486.645	116.19
486.863	123.19
487.081	107.19
487.299	106.19
487.517	100.19
487.735	101.19
487.953	100.19
488.171	108.19
488.389	104.19
488.607	92.19
488.825	91.19
489.043	77.19
489.261	103.19
489.479	94.19
489.696	102.19
489.914	83.19
490.132	81.19
490.35	99.19
490.568	94.19
490.786	98.19
491.003	84.19
491.221	94.19
491.439	101.19
491.657	112.19
491.874	80.19
492.092	83.19
492.31	77.19
492.527	73.19
492.745	90.19
492.963	92.19
493.18	106.19
493.398	95.19
493.615	103.19
493.833	106.19
494.05	79.19
494.268	78.19
494.485	82.19
494.703	84.19
494.92	93.19
495.138	96.19
495.355	77.19
495.573	89.19
495.79	89.19
496.008	92.19
496.225	82.19
496.442	80.19
496.66	92.19
496.877	83.19
497.094	88.19
497.312	80.19
497.529	87.19
497.746	83.19
497.963	92.19
498.181	83.19
498.398	103.19
498.615	108.19
498.832	98.19
499.049	79.19
499.267	85.19
499.484	94.19
499.701	79.19
499.918	95.19
500.135	95.19
500.352	68.19
500.569	79.19
500.786	97.19
501.003	87.19
501.22	89.19
501.437	102.19
501.654	110.19
501.871	95.19
502.088	96.19
502.305	89.19
502.522	91.19
502.739	93.19
502.956	82.19
503.172	79.19
503.389	77.19
503.606	107.19
503.823	93.19
504.04	93.19
504.256	78.19
504.473	83.19
504.69	83.19
504.907	102.19
505.123	101.19
505.34	85.19
505.557	85.19
505.773	80.19
505.99	82.19
506.207	87.19
506.423	92.19
506.64	93.19
506.856	99.19
507.073	75.19
507.289	99.19
507.506	108.19
507.722	105.19
507.939	99.19
508.155	98.19
508.372	86.19
508.588	83.19
508.805	89.19
509.021	86.19
509.238	93.19
509.454	103.19
509.67	95.19
509.887	92.19
510.103	101.19
510.319	154.19
510.536	544.19
510.752	1611.19
510.968	475.19
511.184	135.19
511.401	109.19
511.617	87.19
511.833	93.19
512.049	107.19
512.265	105.19
512.481	95.19
512.698	92.19
512.914	95.19
513.13	83.19
513.346	91.19
513.562	92.19
513.778	93.19
513.994	108.19
514.21	99.19
514.426	89.19
514.642	117.19
514.858	118.19
515.074	126.19
515.29	315.19
515.506	959.19
515.721	377.19
515.937	131.19
