Data from Circ_1993_H10_HRD10591_00055.txt Node
Date: Wed Jan 03 11:44:13 EST 2024
User: Yrep
Spectrometer: HR+D1059
Trigger mode: 1
Integration Time (sec): 1.000000E-1
Scans to average: 1
Electric dark correction enabled: true
Nonlinearity correction enabled: false
Boxcar width: 0
XAxis mode: Wavelengths
Number of Pixels in Spectrum: 2048
>>>>>Begin Spectral Data<<<<<
223.165	-18.62
223.4	-18.62
223.635	-18.62
223.869	-36.62
224.104	-14.62
224.338	-8.62
224.573	-6.62
224.808	-9.62
225.042	-6.62
225.277	-14.62
225.511	3.38
225.746	-0.62
225.98	4.38
226.215	10.38
226.449	23.38
226.683	15.38
226.918	10.38
227.152	49.38
227.387	31.38
227.621	36.38
227.856	48.38
228.09	40.38
228.324	39.38
228.559	45.38
228.793	148.38
229.027	439.38
229.262	516.38
229.496	597.38
229.73	720.38
229.964	733.38
230.199	513.38
230.433	441.38
230.667	464.38
230.901	469.38
231.136	443.38
231.37	451.38
231.604	440.38
231.838	444.38
232.072	436.38
232.306	443.38
232.541	457.38
232.775	471.38
233.009	484.38
233.243	465.38
233.477	490.38
233.711	475.38
233.945	501.38
234.179	492.38
234.413	490.38
234.647	492.38
234.881	523.38
235.115	527.38
235.349	539.38
235.583	562.38
235.817	583.38
236.051	613.38
236.285	598.38
236.519	603.38
236.753	673.38
236.987	845.38
237.221	1249.38
237.455	1363.38
237.689	839.38
237.922	723.38
238.156	714.38
238.39	666.38
238.624	636.38
238.858	648.38
239.091	655.38
239.325	673.38
239.559	670.38
239.793	692.38
240.027	745.38
240.26	883.38
240.494	933.38
240.728	910.38
240.961	888.38
241.195	807.38
241.429	784.38
241.662	793.38
241.896	773.38
242.13	795.38
242.363	777.38
242.597	818.38
242.83	823.38
243.064	840.38
243.298	819.38
243.531	835.38
243.765	850.38
243.998	866.38
244.232	850.38
244.465	873.38
244.699	873.38
244.932	936.38
245.166	875.38
245.399	910.38
245.633	897.38
245.866	923.38
246.099	924.38
246.333	962.38
246.566	935.38
246.8	986.38
247.033	1000.38
247.266	1051.38
247.5	1074.38
247.733	1145.38
247.966	1131.38
248.2	1148.38
248.433	1180.38
248.666	1223.38
248.899	1291.38
249.133	1417.38
249.366	1379.38
249.599	1329.38
249.832	1295.38
250.066	1332.38
250.299	1406.38
250.532	1604.38
250.765	1716.38
250.998	1759.38
251.231	1699.38
251.465	1480.38
251.698	1447.38
251.931	1425.38
252.164	1400.38
252.397	1402.38
252.63	1466.38
252.863	1524.38
253.096	1627.38
253.329	1689.38
253.562	1586.38
253.795	1558.38
254.028	1554.38
254.261	1624.38
254.494	1739.38
254.727	2075.38
254.96	2154.38
255.193	1954.38
255.426	1826.38
255.659	1869.38
255.892	2056.38
256.124	2271.38
256.357	2195.38
256.59	1969.38
256.823	1750.38
257.056	1692.38
257.289	1631.38
257.521	1640.38
257.754	1617.38
257.987	1601.38
258.22	1569.38
258.452	1569.38
258.685	1593.38
258.918	1579.38
259.151	1619.38
259.383	1683.38
259.616	1687.38
259.849	1753.38
260.081	1914.38
260.314	2047.38
260.547	1995.38
260.779	1835.38
261.012	1759.38
261.244	1721.38
261.477	1654.38
261.71	1711.38
261.942	1724.38
262.175	1776.38
262.407	1740.38
262.64	1649.38
262.872	1656.38
263.105	1660.38
263.337	1662.38
263.57	1696.38
263.802	1693.38
264.035	1698.38
264.267	1711.38
264.499	1711.38
264.732	1699.38
264.964	1681.38
265.197	1691.38
265.429	1714.38
265.661	1716.38
265.894	1720.38
266.126	1765.38
266.358	1800.38
266.591	1793.38
266.823	1868.38
267.055	1888.38
267.287	1875.38
267.52	1851.38
267.752	1879.38
267.984	1877.38
268.216	1895.38
268.448	1944.38
268.681	2028.38
268.913	2096.38
269.145	2276.38
269.377	2373.38
269.609	2237.38
269.841	2239.38
270.073	2323.38
270.306	2616.38
270.538	2751.38
270.77	2575.38
271.002	2429.38
271.234	2411.38
271.466	2502.38
271.698	2626.38
271.93	2661.38
272.162	2655.38
272.394	2621.38
272.626	2435.38
272.858	2359.38
273.09	2267.38
273.322	2283.38
273.553	2243.38
273.785	2244.38
274.017	2254.38
274.249	2282.38
274.481	2284.38
274.713	2249.38
274.945	2317.38
275.176	2338.38
275.408	2306.38
275.64	2305.38
275.872	2323.38
276.104	2294.38
276.335	2385.38
276.567	2430.38
276.799	2563.38
277.031	2807.38
277.262	2857.38
277.494	2746.38
277.726	2635.38
277.957	2569.38
278.189	2491.38
278.421	2442.38
278.652	2453.38
278.884	2488.38
279.115	2404.38
279.347	2447.38
279.579	2383.38
279.81	2469.38
280.042	2517.38
280.273	2559.38
280.505	2531.38
280.736	2440.38
280.968	2487.38
281.199	2493.38
281.431	2524.38
281.662	2512.38
281.894	2568.38
282.125	2575.38
282.356	2715.38
282.588	2828.38
282.819	2721.38
283.051	2627.38
283.282	2590.38
283.513	2609.38
283.745	2644.38
283.976	2705.38
284.207	2681.38
284.439	2642.38
284.67	2661.38
284.901	2659.38
285.132	2651.38
285.364	2618.38
285.595	2675.38
285.826	2669.38
286.057	2730.38
286.288	2739.38
286.52	2744.38
286.751	2707.38
286.982	2775.38
287.213	2770.38
287.444	2768.38
287.675	2835.38
287.906	2914.38
288.138	2930.38
288.369	2953.38
288.6	2957.38
288.831	2881.38
289.062	2845.38
289.293	2874.38
289.524	2863.38
289.755	2873.38
289.986	2866.38
290.217	2834.38
290.448	2859.38
290.679	2839.38
290.91	2808.38
291.141	2854.38
291.371	2860.38
291.602	2877.38
291.833	2847.38
292.064	2819.38
292.295	2889.38
292.526	2915.38
292.757	2894.38
292.987	2889.38
293.218	2860.38
293.449	2929.38
293.68	2894.38
293.91	2912.38
294.141	2836.38
294.372	2935.38
294.603	2928.38
294.833	2941.38
295.064	2946.38
295.295	2905.38
295.525	2924.38
295.756	3010.38
295.987	3030.38
296.217	3283.38
296.448	3164.38
296.679	3025.38
296.909	2981.38
297.14	3063.38
297.37	3033.38
297.601	3090.38
297.831	3100.38
298.062	3075.38
298.292	3198.38
298.523	3158.38
298.753	3180.38
298.984	3177.38
299.214	3099.38
299.445	3142.38
299.675	3211.38
299.905	3234.38
300.136	3168.38
300.366	3192.38
300.597	3216.38
300.827	3302.38
301.057	3418.38
301.288	3475.38
301.518	3398.38
301.748	3384.38
301.979	3457.38
302.209	3419.38
302.439	3454.38
302.669	3422.38
302.9	3347.38
303.13	3275.38
303.36	3415.38
303.59	3376.38
303.82	3439.38
304.051	3410.38
304.281	3400.38
304.511	3384.38
304.741	3360.38
304.971	3353.38
305.201	3281.38
305.431	3267.38
305.661	3327.38
305.891	3301.38
306.121	3343.38
306.352	3375.38
306.582	3402.38
306.812	3267.38
307.042	3401.38
307.272	3412.38
307.502	3353.38
307.731	3420.38
307.961	3385.38
308.191	3337.38
308.421	3321.38
308.651	3396.38
308.881	3391.38
309.111	3474.38
309.341	3411.38
309.571	3522.38
309.8	3622.38
310.03	3588.38
310.26	3620.38
310.49	3626.38
310.72	3787.38
310.949	3777.38
311.179	3817.38
311.409	3641.38
311.639	3688.38
311.868	3743.38
312.098	3723.38
312.328	3828.38
312.557	3956.38
312.787	3995.38
313.017	3888.38
313.246	3843.38
313.476	3805.38
313.706	3833.38
313.935	3937.38
314.165	3977.38
314.394	4020.38
314.624	3944.38
314.853	3861.38
315.083	3843.38
315.312	3794.38
315.542	3801.38
315.771	3771.38
316.001	3759.38
316.23	3806.38
316.46	3764.38
316.689	3772.38
316.919	3784.38
317.148	3840.38
317.377	3842.38
317.607	3771.38
317.836	3759.38
318.065	3724.38
318.295	3767.38
318.524	3759.38
318.753	3816.38
318.983	3772.38
319.212	3774.38
319.441	3864.38
319.67	3787.38
319.9	3756.38
320.129	3745.38
320.358	3764.38
320.587	3824.38
320.816	3879.38
321.046	3933.38
321.275	3864.38
321.504	3940.38
321.733	4000.38
321.962	4045.38
322.191	4053.38
322.42	4158.38
322.649	4294.38
322.878	4274.38
323.108	4387.38
323.337	4583.38
323.566	4712.38
323.795	4988.38
324.024	5514.38
324.253	7032.38
324.482	10367.38
324.71	14785.38
324.939	15621.38
325.168	11976.38
325.397	6336.38
325.626	5284.38
325.855	4948.38
326.084	4776.38
326.313	4814.38
326.542	4960.38
326.77	5592.38
326.999	6910.38
327.228	9899.38
327.457	13900.38
327.686	13086.38
327.914	7343.38
328.143	6273.38
328.372	6026.38
328.6	5577.38
328.829	5445.38
329.058	5562.38
329.287	5561.38
329.515	5347.38
329.744	5335.38
329.972	5746.38
330.201	6363.38
330.43	6903.38
330.658	6276.38
330.887	6113.38
331.115	5687.38
331.344	5207.38
331.572	5095.38
331.801	5191.38
332.03	5215.38
332.258	5178.38
332.486	5238.38
332.715	5328.38
332.943	5593.38
333.172	5654.38
333.4	5905.38
333.629	6100.38
333.857	6396.38
334.085	6738.38
334.314	7352.38
334.542	8099.38
334.771	7657.38
334.999	6329.38
335.227	5859.38
335.455	5564.38
335.684	5363.38
335.912	5295.38
336.14	5166.38
336.369	5174.38
336.597	5236.38
336.825	5113.38
337.053	4943.38
337.281	4877.38
337.51	4912.38
337.738	4951.38
337.966	4862.38
338.194	4863.38
338.422	4796.38
338.65	4610.38
338.878	4659.38
339.106	4631.38
339.334	4641.38
339.562	4552.38
339.79	4487.38
340.018	4500.38
340.246	4532.38
340.474	4547.38
340.702	4562.38
340.93	4544.38
341.158	4521.38
341.386	4517.38
341.614	4489.38
341.842	4454.38
342.07	4453.38
342.298	4437.38
342.526	4375.38
342.754	4346.38
342.981	4417.38
343.209	4569.38
343.437	4684.38
343.665	5040.38
343.893	5261.38
344.12	5266.38
344.348	5060.38
344.576	4903.38
344.804	4795.38
345.031	4712.38
345.259	4676.38
345.487	4525.38
345.714	4455.38
345.942	4310.38
346.17	4308.38
346.397	4329.38
346.625	4272.38
346.853	4275.38
347.08	4216.38
347.308	4283.38
347.535	4361.38
347.763	4347.38
347.99	4335.38
348.218	4390.38
348.445	4419.38
348.673	4260.38
348.9	4273.38
349.128	4242.38
349.355	4188.38
349.583	4143.38
349.81	4118.38
350.037	4117.38
350.265	4099.38
350.492	4151.38
350.72	4133.38
350.947	4157.38
351.174	4234.38
351.402	4297.38
351.629	4248.38
351.856	4197.38
352.083	4351.38
352.311	4321.38
352.538	4308.38
352.765	4254.38
352.992	4219.38
353.22	4179.38
353.447	4136.38
353.674	4108.38
353.901	4068.38
354.128	4031.38
354.355	4068.38
354.583	4051.38
354.81	4068.38
355.037	4035.38
355.264	4031.38
355.491	4061.38
355.718	4011.38
355.945	4024.38
356.172	4064.38
356.399	4072.38
356.626	4005.38
356.853	4051.38
357.08	3992.38
357.307	4068.38
357.534	4056.38
357.761	4140.38
357.988	4052.38
358.215	4023.38
358.441	4154.38
358.668	4062.38
358.895	4160.38
359.122	4147.38
359.349	4220.38
359.576	4360.38
359.802	4479.38
360.029	4710.38
360.256	4605.38
360.483	4465.38
360.709	4325.38
360.936	4316.38
361.163	4308.38
361.39	4301.38
361.616	4325.38
361.843	4297.38
362.07	4283.38
362.296	4315.38
362.523	4145.38
362.749	4172.38
362.976	4228.38
363.203	4141.38
363.429	4146.38
363.656	4131.38
363.882	4183.38
364.109	4118.38
364.335	4041.38
364.562	4086.38
364.788	4109.38
365.015	4127.38
365.241	4103.38
365.468	4203.38
365.694	4227.38
365.92	4163.38
366.147	4123.38
366.373	4173.38
366.599	4103.38
366.826	4078.38
367.052	4059.38
367.278	4095.38
367.505	4148.38
367.731	4222.38
367.957	4156.38
368.184	4183.38
368.41	4287.38
368.636	4298.38
368.862	4322.38
369.089	4266.38
369.315	4248.38
369.541	4208.38
369.767	4346.38
369.993	4282.38
370.219	4249.38
370.445	4264.38
370.672	4332.38
370.898	4272.38
371.124	4350.38
371.35	4411.38
371.576	4420.38
371.802	4363.38
372.028	4339.38
372.254	4402.38
372.48	4461.38
372.706	4593.38
372.932	4538.38
373.158	4445.38
373.384	4421.38
373.61	4380.38
373.835	4434.38
374.061	4475.38
374.287	4571.38
374.513	4606.38
374.739	4771.38
374.965	4837.38
375.191	4804.38
375.416	4750.38
375.642	4608.38
375.868	4592.38
376.094	4488.38
376.319	4559.38
376.545	4443.38
376.771	4431.38
376.997	4393.38
377.222	4428.38
377.448	4425.38
377.674	4420.38
377.899	4344.38
378.125	4363.38
378.35	4359.38
378.576	4372.38
378.802	4360.38
379.027	4380.38
379.253	4401.38
379.478	4292.38
379.704	4346.38
379.929	4429.38
380.155	4478.38
380.38	4413.38
380.606	4464.38
380.831	4439.38
381.057	4415.38
381.282	4414.38
381.507	4476.38
381.733	4496.38
381.958	4536.38
382.184	4540.38
382.409	4720.38
382.634	4626.38
382.86	4719.38
383.085	4688.38
383.31	4763.38
383.535	4818.38
383.761	4891.38
383.986	4939.38
384.211	5128.38
384.436	5140.38
384.662	5151.38
384.887	5265.38
385.112	5232.38
385.337	5299.38
385.562	5385.38
385.787	5339.38
386.013	5487.38
386.238	5440.38
386.463	5436.38
386.688	5383.38
386.913	5263.38
387.138	5291.38
387.363	5285.38
387.588	5226.38
387.813	5272.38
388.038	5229.38
388.263	5256.38
388.488	5334.38
388.713	5275.38
388.938	5265.38
389.163	5236.38
389.387	5211.38
389.612	5075.38
389.837	5152.38
390.062	5225.38
390.287	5218.38
390.512	5212.38
390.736	5313.38
390.961	5348.38
391.186	5366.38
391.411	5606.38
391.636	5780.38
391.86	5870.38
392.085	5967.38
392.31	5821.38
392.534	5717.38
392.759	5563.38
392.984	5594.38
393.208	5492.38
393.433	5608.38
393.658	5540.38
393.882	5480.38
394.107	5523.38
394.331	5555.38
394.556	5603.38
394.78	5651.38
395.005	5673.38
395.229	5631.38
395.454	5800.38
395.678	5985.38
395.903	5987.38
396.127	5975.38
396.352	5824.38
396.576	5628.38
396.801	5602.38
397.025	5794.38
397.249	5837.38
397.474	5995.38
397.698	6029.38
397.922	6127.38
398.147	6187.38
398.371	6312.38
398.595	6500.38
398.82	6758.38
399.044	7343.38
399.268	8042.38
399.492	9082.38
399.717	9703.38
399.941	9383.38
400.165	8831.38
400.389	8048.38
400.613	7319.38
400.837	7002.38
401.062	6793.38
401.286	6649.38
401.51	6709.38
401.734	6731.38
401.958	6789.38
402.182	6855.38
402.406	6949.38
402.63	7073.38
402.854	7065.38
403.078	7246.38
403.302	7299.38
403.526	7448.38
403.75	7480.38
403.974	7699.38
404.198	7565.38
404.422	7728.38
404.645	7744.38
404.869	7685.38
405.093	8203.38
405.317	8427.38
405.541	8418.38
405.765	7700.38
405.988	7579.38
406.212	7674.38
406.436	7696.38
406.66	7921.38
406.883	7872.38
407.107	8465.38
407.331	8912.38
407.555	9487.38
407.778	9024.38
408.002	8336.38
408.226	8044.38
408.449	7995.38
408.673	7804.38
408.896	7945.38
409.12	8133.38
409.344	7566.38
409.567	7335.38
409.791	7217.38
410.014	7189.38
410.238	7184.38
410.461	7194.38
410.685	7289.38
410.908	7322.38
411.132	7393.38
411.355	7431.38
411.578	7181.38
411.802	6996.38
412.025	7069.38
412.249	7412.38
412.472	7589.38
412.695	8005.38
412.919	7417.38
413.142	7085.38
413.365	6840.38
413.589	6917.38
413.812	6649.38
414.035	6560.38
414.258	6664.38
414.482	6652.38
414.705	6706.38
414.928	6595.38
415.151	6612.38
415.374	6611.38
415.597	6562.38
415.821	6491.38
416.044	6432.38
416.267	6385.38
416.49	6406.38
416.713	6385.38
416.936	6477.38
417.159	6471.38
417.382	6572.38
417.605	6536.38
417.828	6715.38
418.051	6825.38
418.274	6639.38
418.497	6632.38
418.72	6704.38
418.943	6616.38
419.166	7155.38
419.389	7408.38
419.611	7343.38
419.834	7222.38
420.057	7232.38
420.28	7072.38
420.503	7010.38
420.726	6904.38
420.948	7007.38
421.171	7220.38
421.394	7175.38
421.617	6724.38
421.839	6665.38
422.062	6782.38
422.285	6884.38
422.507	7483.38
422.73	8009.38
422.953	7406.38
423.175	7076.38
423.398	7106.38
423.621	7139.38
423.843	7364.38
424.066	7236.38
424.288	7214.38
424.511	7464.38
424.733	7810.38
424.956	8176.38
425.178	7789.38
425.401	7909.38
425.623	7778.38
425.846	6853.38
426.068	6697.38
426.291	6622.38
426.513	6592.38
426.735	6745.38
426.958	7062.38
427.18	7845.38
427.402	8930.38
427.625	9148.38
427.847	7934.38
428.069	7470.38
428.292	6719.38
428.514	6287.38
428.736	6107.38
428.958	6160.38
429.181	5866.38
429.403	6024.38
429.625	6160.38
429.847	6354.38
430.069	6892.38
430.292	6353.38
430.514	5965.38
430.736	5887.38
430.958	5837.38
431.18	5724.38
431.402	5798.38
431.624	5819.38
431.846	5874.38
432.068	5786.38
432.29	5973.38
432.512	5812.38
432.734	5915.38
432.956	5881.38
433.178	5973.38
433.4	5943.38
433.622	5870.38
433.844	5906.38
434.066	5847.38
434.287	5947.38
434.509	6276.38
434.731	6443.38
434.953	6511.38
435.175	6629.38
435.397	6801.38
435.618	6625.38
435.84	6895.38
436.062	7759.38
436.284	7674.38
436.505	6554.38
436.727	6315.38
436.949	6063.38
437.17	5885.38
437.392	5889.38
437.614	5983.38
437.835	6400.38
438.057	7187.38
438.278	7831.38
438.5	7683.38
438.721	8528.38
438.943	7426.38
439.165	6351.38
439.386	6192.38
439.608	6319.38
439.829	6406.38
440.05	6782.38
440.272	6990.38
440.493	6483.38
440.715	6243.38
440.936	6202.38
441.158	6286.38
441.379	6391.38
441.6	6728.38
441.822	6927.38
442.043	7333.38
442.264	8024.38
442.486	7668.38
442.707	6961.38
442.928	6784.38
443.149	6919.38
443.371	7083.38
443.592	7736.38
443.813	8532.38
444.034	8468.38
444.255	7561.38
444.476	7385.38
444.698	7614.38
444.919	7633.38
445.14	7482.38
445.361	7416.38
445.582	7497.38
445.803	7938.38
446.024	8507.38
446.245	8094.38
446.466	7393.38
446.687	6446.38
446.908	6215.38
447.129	5871.38
447.35	5763.38
447.571	5748.38
447.792	5588.38
448.013	5757.38
448.234	5877.38
448.455	6483.38
448.675	7578.38
448.896	7950.38
449.117	6679.38
449.338	6868.38
449.559	8019.38
449.779	8183.38
450	6341.38
450.221	5795.38
450.442	5564.38
450.662	5501.38
450.883	5621.38
451.104	5701.38
451.324	5462.38
451.545	5393.38
451.766	5214.38
451.986	5125.38
452.207	5085.38
452.428	5095.38
452.648	5119.38
452.869	5169.38
453.089	5216.38
453.31	5234.38
453.53	5149.38
453.751	5178.38
453.971	5111.38
454.192	5268.38
454.412	5035.38
454.633	4984.38
454.853	4988.38
455.073	5082.38
455.294	5384.38
455.514	5854.38
455.734	5310.38
455.955	4886.38
456.175	4779.38
456.395	4750.38
456.616	4714.38
456.836	4744.38
457.056	4780.38
457.276	4663.38
457.497	4935.38
457.717	4784.38
457.937	4952.38
458.157	4951.38
458.377	5060.38
458.598	5369.38
458.818	6009.38
459.038	6676.38
459.258	6564.38
459.478	5952.38
459.698	5905.38
459.918	6000.38
460.138	6155.38
460.358	6381.38
460.578	6415.38
460.798	6486.38
461.018	6494.38
461.238	6395.38
461.458	6419.38
461.678	6299.38
461.898	6498.38
462.118	6555.38
462.338	6847.38
462.558	7058.38
462.777	7237.38
462.997	7833.38
463.217	8290.38
463.437	8112.38
463.657	7495.38
463.876	7298.38
464.096	7374.38
464.316	7377.38
464.536	7414.38
464.755	7021.38
464.975	7021.38
465.195	7158.38
465.414	7080.38
465.634	6336.38
465.854	6006.38
466.073	5818.38
466.293	5617.38
466.512	5517.38
466.732	5347.38
466.951	5315.38
467.171	5379.38
467.391	5411.38
467.61	5579.38
467.829	5449.38
468.049	5508.38
468.268	5641.38
468.488	5351.38
468.707	5191.38
468.927	5248.38
469.146	5098.38
469.365	5205.38
469.585	5240.38
469.804	5444.38
470.023	5561.38
470.243	5583.38
470.462	5650.38
470.681	5681.38
470.901	5639.38
471.12	5564.38
471.339	5477.38
471.558	5480.38
471.777	5399.38
471.997	5372.38
472.216	5869.38
472.435	6673.38
472.654	5873.38
472.873	5421.38
473.092	5384.38
473.311	5244.38
473.53	5271.38
473.749	5316.38
473.968	5834.38
474.187	6689.38
474.406	6219.38
474.625	5419.38
474.844	5219.38
475.063	5129.38
475.282	5169.38
475.501	5283.38
475.72	5303.38
475.939	5361.38
476.158	5331.38
476.377	5289.38
476.596	5324.38
476.814	5502.38
477.033	5467.38
477.252	5659.38
477.471	5679.38
477.69	5833.38
477.908	5993.38
478.127	6157.38
478.346	6190.38
478.564	6317.38
478.783	6402.38
479.002	6486.38
479.22	6481.38
479.439	6552.38
479.658	6628.38
479.876	6736.38
480.095	7048.38
480.313	7439.38
480.532	7349.38
480.751	7351.38
480.969	7728.38
481.188	9497.38
481.406	9025.38
481.624	7483.38
481.843	6939.38
482.061	6586.38
482.28	6461.38
482.498	6280.38
482.717	6279.38
482.935	6221.38
483.153	6172.38
483.372	6153.38
483.59	6147.38
483.808	6123.38
484.027	6099.38
484.245	6323.38
484.463	6213.38
484.681	6309.38
484.9	6370.38
485.118	6415.38
485.336	6351.38
485.554	6501.38
485.772	6483.38
485.99	6497.38
486.209	6490.38
486.427	6578.38
486.645	6675.38
486.863	6689.38
487.081	6670.38
487.299	6561.38
487.517	6556.38
487.735	6540.38
487.953	6533.38
