Data from Circ_1993_H10_HRD10591_00068.txt Node
Date: Wed Jan 03 11:44:15 EST 2024
User: Yrep
Spectrometer: HR+D1059
Trigger mode: 1
Integration Time (sec): 1.000000E-1
Scans to average: 1
Electric dark correction enabled: true
Nonlinearity correction enabled: false
Boxcar width: 0
XAxis mode: Wavelengths
Number of Pixels in Spectrum: 2048
>>>>>Begin Spectral Data<<<<<
223.165	-13.44
223.4	-13.44
223.635	-13.44
223.869	-22.44
224.104	-22.44
224.338	-19.44
224.573	-10.44
224.808	-16.44
225.042	2.56
225.277	-7.44
225.511	-14.44
225.746	11.56
225.98	7.56
226.215	17.56
226.449	11.56
226.683	32.56
226.918	18.56
227.152	24.56
227.387	44.56
227.621	52.56
227.856	33.56
228.09	38.56
228.324	38.56
228.559	63.56
228.793	62.56
229.027	61.56
229.262	55.56
229.496	68.56
229.73	73.56
229.964	63.56
230.199	55.56
230.433	71.56
230.667	61.56
230.901	73.56
231.136	81.56
231.37	81.56
231.604	71.56
231.838	78.56
232.072	73.56
232.306	79.56
232.541	86.56
232.775	68.56
233.009	85.56
233.243	91.56
233.477	57.56
233.711	70.56
233.945	79.56
234.179	78.56
234.413	70.56
234.647	81.56
234.881	74.56
235.115	74.56
235.349	73.56
235.583	59.56
235.817	65.56
236.051	74.56
236.285	88.56
236.519	88.56
236.753	72.56
236.987	77.56
237.221	77.56
237.455	69.56
237.689	78.56
237.922	66.56
238.156	79.56
238.39	74.56
238.624	76.56
238.858	65.56
239.091	74.56
239.325	82.56
239.559	84.56
239.793	87.56
240.027	82.56
240.26	65.56
240.494	75.56
240.728	78.56
240.961	73.56
241.195	77.56
241.429	61.56
241.662	79.56
241.896	74.56
242.13	72.56
242.363	62.56
242.597	75.56
242.83	70.56
243.064	73.56
243.298	75.56
243.531	67.56
243.765	76.56
243.998	63.56
244.232	86.56
244.465	78.56
244.699	81.56
244.932	76.56
245.166	79.56
245.399	80.56
245.633	88.56
245.866	84.56
246.099	77.56
246.333	71.56
246.566	74.56
246.8	71.56
247.033	69.56
247.266	76.56
247.5	85.56
247.733	71.56
247.966	70.56
248.2	82.56
248.433	76.56
248.666	76.56
248.899	86.56
249.133	62.56
249.366	97.56
249.599	88.56
249.832	73.56
250.066	81.56
250.299	82.56
250.532	73.56
250.765	71.56
250.998	65.56
251.231	78.56
251.465	72.56
251.698	69.56
251.931	73.56
252.164	83.56
252.397	70.56
252.63	69.56
252.863	76.56
253.096	61.56
253.329	77.56
253.562	81.56
253.795	75.56
254.028	57.56
254.261	70.56
254.494	87.56
254.727	87.56
254.96	92.56
255.193	76.56
255.426	77.56
255.659	78.56
255.892	79.56
256.124	93.56
256.357	78.56
256.59	85.56
256.823	80.56
257.056	96.56
257.289	72.56
257.521	83.56
257.754	84.56
257.987	73.56
258.22	78.56
258.452	84.56
258.685	72.56
258.918	72.56
259.151	85.56
259.383	63.56
259.616	79.56
259.849	68.56
260.081	78.56
260.314	76.56
260.547	75.56
260.779	82.56
261.012	81.56
261.244	84.56
261.477	78.56
261.71	85.56
261.942	95.56
262.175	116.56
262.407	73.56
262.64	86.56
262.872	76.56
263.105	74.56
263.337	85.56
263.57	85.56
263.802	90.56
264.035	63.56
264.267	83.56
264.499	86.56
264.732	82.56
264.964	72.56
265.197	74.56
265.429	80.56
265.661	68.56
265.894	85.56
266.126	95.56
266.358	84.56
266.591	88.56
266.823	61.56
267.055	70.56
267.287	66.56
267.52	78.56
267.752	82.56
267.984	82.56
268.216	79.56
268.448	86.56
268.681	93.56
268.913	72.56
269.145	56.56
269.377	74.56
269.609	84.56
269.841	76.56
270.073	76.56
270.306	86.56
270.538	76.56
270.77	92.56
271.002	79.56
271.234	72.56
271.466	82.56
271.698	70.56
271.93	87.56
272.162	71.56
272.394	75.56
272.626	71.56
272.858	78.56
273.09	76.56
273.322	84.56
273.553	96.56
273.785	80.56
274.017	79.56
274.249	79.56
274.481	74.56
274.713	83.56
274.945	88.56
275.176	84.56
275.408	74.56
275.64	85.56
275.872	82.56
276.104	78.56
276.335	78.56
276.567	96.56
276.799	93.56
277.031	99.56
277.262	84.56
277.494	82.56
277.726	89.56
277.957	82.56
278.189	64.56
278.421	72.56
278.652	89.56
278.884	57.56
279.115	79.56
279.347	74.56
279.579	84.56
279.81	87.56
280.042	77.56
280.273	102.56
280.505	92.56
280.736	80.56
280.968	73.56
281.199	84.56
281.431	86.56
281.662	87.56
281.894	79.56
282.125	95.56
282.356	99.56
282.588	120.56
282.819	102.56
283.051	82.56
283.282	78.56
283.513	96.56
283.745	77.56
283.976	85.56
284.207	74.56
284.439	89.56
284.67	74.56
284.901	87.56
285.132	76.56
285.364	86.56
285.595	84.56
285.826	75.56
286.057	99.56
286.288	89.56
286.52	86.56
286.751	87.56
286.982	95.56
287.213	91.56
287.444	90.56
287.675	77.56
287.906	78.56
288.138	87.56
288.369	102.56
288.6	89.56
288.831	80.56
289.062	84.56
289.293	74.56
289.524	90.56
289.755	79.56
289.986	84.56
290.217	84.56
290.448	92.56
290.679	72.56
290.91	82.56
291.141	87.56
291.371	87.56
291.602	73.56
291.833	72.56
292.064	92.56
292.295	91.56
292.526	88.56
292.757	94.56
292.987	89.56
293.218	95.56
293.449	86.56
293.68	86.56
293.91	66.56
294.141	90.56
294.372	87.56
294.603	89.56
294.833	77.56
295.064	85.56
295.295	88.56
295.525	84.56
295.756	90.56
295.987	95.56
296.217	121.56
296.448	110.56
296.679	94.56
296.909	98.56
297.14	89.56
297.37	95.56
297.601	69.56
297.831	74.56
298.062	84.56
298.292	86.56
298.523	90.56
298.753	93.56
298.984	81.56
299.214	84.56
299.445	91.56
299.675	89.56
299.905	91.56
300.136	94.56
300.366	87.56
300.597	89.56
300.827	88.56
301.057	103.56
301.288	93.56
301.518	90.56
301.748	86.56
301.979	102.56
302.209	89.56
302.439	84.56
302.669	92.56
302.9	93.56
303.13	90.56
303.36	87.56
303.59	101.56
303.82	95.56
304.051	75.56
304.281	80.56
304.511	97.56
304.741	88.56
304.971	81.56
305.201	93.56
305.431	80.56
305.661	81.56
305.891	90.56
306.121	95.56
306.352	110.56
306.582	111.56
306.812	90.56
307.042	96.56
307.272	88.56
307.502	85.56
307.731	101.56
307.961	92.56
308.191	92.56
308.421	102.56
308.651	72.56
308.881	90.56
309.111	92.56
309.341	86.56
309.571	90.56
309.8	80.56
310.03	90.56
310.26	82.56
310.49	97.56
310.72	94.56
310.949	98.56
311.179	91.56
311.409	90.56
311.639	90.56
311.868	85.56
312.098	88.56
312.328	90.56
312.557	100.56
312.787	89.56
313.017	94.56
313.246	72.56
313.476	79.56
313.706	93.56
313.935	90.56
314.165	89.56
314.394	101.56
314.624	104.56
314.853	92.56
315.083	94.56
315.312	85.56
315.542	85.56
315.771	84.56
316.001	77.56
316.23	98.56
316.46	84.56
316.689	91.56
316.919	89.56
317.148	78.56
317.377	87.56
317.607	83.56
317.836	84.56
318.065	89.56
318.295	100.56
318.524	82.56
318.753	87.56
318.983	89.56
319.212	81.56
319.441	99.56
319.67	113.56
319.9	83.56
320.129	84.56
320.358	87.56
320.587	91.56
320.816	87.56
321.046	92.56
321.275	88.56
321.504	96.56
321.733	96.56
321.962	98.56
322.191	108.56
322.42	106.56
322.649	118.56
322.878	100.56
323.108	108.56
323.337	114.56
323.566	116.56
323.795	140.56
324.024	179.56
324.253	332.56
324.482	738.56
324.71	1540.56
324.939	1994.56
325.168	726.56
325.397	237.56
325.626	140.56
325.855	127.56
326.084	109.56
326.313	110.56
326.542	153.56
326.77	200.56
326.999	417.56
327.228	865.56
327.457	1570.56
327.686	1260.56
327.914	341.56
328.143	200.56
328.372	161.56
328.6	133.56
328.829	108.56
329.058	110.56
329.287	116.56
329.515	94.56
329.744	120.56
329.972	150.56
330.201	197.56
330.43	230.56
330.658	154.56
330.887	151.56
331.115	116.56
331.344	82.56
331.572	96.56
331.801	89.56
332.03	93.56
332.258	87.56
332.486	96.56
332.715	92.56
332.943	105.56
333.172	105.56
333.4	96.56
333.629	108.56
333.857	129.56
334.085	141.56
334.314	186.56
334.542	287.56
334.771	266.56
334.999	137.56
335.227	99.56
335.455	102.56
335.684	93.56
335.912	97.56
336.14	98.56
336.369	85.56
336.597	105.56
336.825	81.56
337.053	72.56
337.281	100.56
337.51	76.56
337.738	87.56
337.966	84.56
338.194	88.56
338.422	95.56
338.65	86.56
338.878	84.56
339.106	84.56
339.334	89.56
339.562	72.56
339.79	85.56
340.018	96.56
340.246	83.56
340.474	84.56
340.702	95.56
340.93	86.56
341.158	96.56
341.386	97.56
341.614	96.56
341.842	87.56
342.07	84.56
342.298	88.56
342.526	86.56
342.754	86.56
342.981	92.56
343.209	87.56
343.437	91.56
343.665	69.56
343.893	100.56
344.12	87.56
344.348	94.56
344.576	94.56
344.804	86.56
345.031	80.56
345.259	89.56
345.487	77.56
345.714	82.56
345.942	92.56
346.17	96.56
346.397	73.56
346.625	79.56
346.853	88.56
347.08	89.56
347.308	89.56
347.535	98.56
347.763	90.56
347.99	85.56
348.218	85.56
348.445	98.56
348.673	103.56
348.9	89.56
349.128	99.56
349.355	86.56
349.583	94.56
349.81	88.56
350.037	89.56
350.265	98.56
350.492	94.56
350.72	96.56
350.947	93.56
351.174	103.56
351.402	90.56
351.629	104.56
351.856	98.56
352.083	100.56
352.311	100.56
352.538	84.56
352.765	92.56
352.992	97.56
353.22	96.56
353.447	102.56
353.674	95.56
353.901	91.56
354.128	90.56
354.355	84.56
354.583	97.56
354.81	93.56
355.037	84.56
355.264	98.56
355.491	81.56
355.718	89.56
355.945	86.56
356.172	93.56
356.399	81.56
356.626	88.56
356.853	105.56
357.08	70.56
357.307	79.56
357.534	80.56
357.761	92.56
357.988	86.56
358.215	86.56
358.441	88.56
358.668	85.56
358.895	92.56
359.122	98.56
359.349	81.56
359.576	59.56
359.802	82.56
360.029	91.56
360.256	92.56
360.483	91.56
360.709	85.56
360.936	85.56
361.163	82.56
361.39	75.56
361.616	84.56
361.843	70.56
362.07	86.56
362.296	91.56
362.523	96.56
362.749	89.56
362.976	101.56
363.203	89.56
363.429	100.56
363.656	77.56
363.882	78.56
364.109	88.56
364.335	96.56
364.562	80.56
364.788	81.56
365.015	104.56
365.241	98.56
365.468	102.56
365.694	82.56
365.92	91.56
366.147	90.56
366.373	98.56
366.599	96.56
366.826	89.56
367.052	92.56
367.278	68.56
367.505	81.56
367.731	93.56
367.957	65.56
368.184	85.56
368.41	96.56
368.636	92.56
368.862	112.56
369.089	95.56
369.315	90.56
369.541	93.56
369.767	102.56
369.993	81.56
370.219	100.56
370.445	98.56
370.672	94.56
370.898	95.56
371.124	89.56
371.35	76.56
371.576	82.56
371.802	75.56
372.028	80.56
372.254	85.56
372.48	87.56
372.706	76.56
372.932	95.56
373.158	83.56
373.384	88.56
373.61	96.56
373.835	90.56
374.061	83.56
374.287	83.56
374.513	79.56
374.739	90.56
374.965	79.56
375.191	79.56
375.416	84.56
375.642	98.56
375.868	87.56
376.094	87.56
376.319	76.56
376.545	83.56
376.771	83.56
376.997	93.56
377.222	85.56
377.448	79.56
377.674	81.56
377.899	86.56
378.125	80.56
378.35	94.56
378.576	97.56
378.802	83.56
379.027	90.56
379.253	100.56
379.478	102.56
379.704	93.56
379.929	94.56
380.155	95.56
380.38	96.56
380.606	86.56
380.831	100.56
381.057	91.56
381.282	84.56
381.507	80.56
381.733	103.56
381.958	96.56
382.184	94.56
382.409	98.56
382.634	108.56
382.86	96.56
383.085	88.56
383.31	97.56
383.535	98.56
383.761	91.56
383.986	110.56
384.211	102.56
384.436	102.56
384.662	105.56
384.887	105.56
385.112	90.56
385.337	88.56
385.562	101.56
385.787	104.56
386.013	103.56
386.238	113.56
386.463	112.56
386.688	101.56
386.913	119.56
387.138	111.56
387.363	91.56
387.588	79.56
387.813	101.56
388.038	100.56
388.263	108.56
388.488	97.56
388.713	81.56
388.938	86.56
389.163	91.56
389.387	94.56
389.612	83.56
389.837	78.56
390.062	81.56
390.287	80.56
390.512	90.56
390.736	82.56
390.961	84.56
391.186	83.56
391.411	99.56
391.636	95.56
391.86	88.56
392.085	78.56
392.31	83.56
392.534	84.56
392.759	78.56
392.984	90.56
393.208	95.56
393.433	124.56
393.658	104.56
393.882	89.56
394.107	73.56
394.331	94.56
394.556	81.56
394.78	88.56
395.005	88.56
395.229	81.56
395.454	77.56
395.678	80.56
395.903	75.56
396.127	74.56
396.352	84.56
396.576	79.56
396.801	100.56
397.025	103.56
397.249	93.56
397.474	85.56
397.698	81.56
397.922	86.56
398.147	74.56
398.371	85.56
398.595	97.56
398.82	70.56
399.044	79.56
399.268	69.56
399.492	92.56
399.717	65.56
399.941	85.56
400.165	86.56
400.389	91.56
400.613	85.56
400.837	79.56
401.062	83.56
401.286	91.56
401.51	87.56
401.734	93.56
401.958	95.56
402.182	113.56
402.406	126.56
402.63	108.56
402.854	84.56
403.078	74.56
403.302	78.56
403.526	81.56
403.75	73.56
403.974	88.56
404.198	63.56
404.422	73.56
404.645	78.56
404.869	81.56
405.093	88.56
405.317	98.56
405.541	84.56
405.765	86.56
405.988	113.56
406.212	170.56
406.436	195.56
406.66	118.56
406.883	89.56
407.107	83.56
407.331	83.56
407.555	91.56
407.778	90.56
408.002	93.56
408.226	87.56
408.449	68.56
408.673	83.56
408.896	98.56
409.12	84.56
409.344	79.56
409.567	83.56
409.791	84.56
410.014	87.56
410.238	89.56
410.461	85.56
410.685	78.56
410.908	86.56
411.132	112.56
411.355	71.56
411.578	90.56
411.802	75.56
412.025	76.56
412.249	89.56
412.472	96.56
412.695	85.56
412.919	85.56
413.142	75.56
413.365	65.56
413.589	81.56
413.812	88.56
414.035	90.56
414.258	85.56
414.482	83.56
414.705	96.56
414.928	82.56
415.151	102.56
415.374	94.56
415.597	84.56
415.821	98.56
416.044	84.56
416.267	92.56
416.49	76.56
416.713	82.56
416.936	86.56
417.159	87.56
417.382	87.56
417.605	78.56
417.828	98.56
418.051	87.56
418.274	96.56
418.497	86.56
418.72	76.56
418.943	85.56
419.166	84.56
419.389	98.56
419.611	84.56
419.834	86.56
420.057	74.56
420.28	87.56
420.503	76.56
420.726	65.56
420.948	70.56
421.171	78.56
421.394	79.56
421.617	85.56
421.839	82.56
422.062	90.56
422.285	85.56
422.507	99.56
422.73	107.56
422.953	99.56
423.175	79.56
423.398	86.56
423.621	91.56
423.843	79.56
424.066	71.56
424.288	88.56
424.511	81.56
424.733	86.56
424.956	119.56
425.178	94.56
425.401	92.56
425.623	101.56
425.846	76.56
426.068	88.56
426.291	91.56
426.513	81.56
426.735	89.56
426.958	85.56
427.18	107.56
427.402	125.56
427.625	137.56
427.847	128.56
428.069	108.56
428.292	94.56
428.514	77.56
428.736	85.56
428.958	84.56
429.181	88.56
429.403	87.56
429.625	85.56
429.847	82.56
430.069	100.56
430.292	101.56
430.514	83.56
430.736	74.56
430.958	73.56
431.18	75.56
431.402	87.56
431.624	83.56
431.846	91.56
432.068	78.56
432.29	71.56
432.512	74.56
432.734	99.56
432.956	84.56
433.178	95.56
433.4	75.56
433.622	85.56
433.844	74.56
434.066	88.56
434.287	79.56
434.509	80.56
434.731	82.56
434.953	78.56
435.175	85.56
435.397	87.56
435.618	89.56
435.84	98.56
436.062	98.56
436.284	113.56
436.505	94.56
436.727	86.56
436.949	84.56
437.17	87.56
437.392	81.56
437.614	88.56
437.835	99.56
438.057	92.56
438.278	100.56
438.5	95.56
438.721	111.56
438.943	91.56
439.165	76.56
439.386	89.56
439.608	82.56
439.829	90.56
440.05	110.56
440.272	118.56
440.493	98.56
440.715	79.56
440.936	73.56
441.158	80.56
441.379	72.56
441.6	97.56
441.822	78.56
442.043	72.56
442.264	100.56
442.486	79.56
442.707	84.56
442.928	107.56
443.149	123.56
443.371	118.56
443.592	101.56
443.813	95.56
444.034	96.56
444.255	77.56
444.476	84.56
444.698	84.56
444.919	77.56
445.14	130.56
445.361	125.56
445.582	117.56
445.803	128.56
446.024	121.56
446.245	123.56
446.466	88.56
446.687	93.56
446.908	84.56
447.129	89.56
447.35	92.56
447.571	71.56
447.792	94.56
448.013	90.56
448.234	89.56
448.455	91.56
448.675	92.56
448.896	104.56
449.117	96.56
449.338	92.56
449.559	119.56
449.779	131.56
450	83.56
450.221	72.56
450.442	87.56
450.662	89.56
450.883	97.56
451.104	106.56
451.324	88.56
451.545	82.56
451.766	72.56
451.986	83.56
452.207	87.56
452.428	86.56
452.648	89.56
452.869	102.56
453.089	91.56
453.31	97.56
453.53	88.56
453.751	92.56
453.971	105.56
454.192	103.56
454.412	80.56
454.633	75.56
454.853	79.56
455.073	79.56
455.294	66.56
455.514	80.56
455.734	82.56
455.955	84.56
456.175	81.56
456.395	72.56
456.616	81.56
456.836	72.56
457.056	75.56
457.276	76.56
457.497	78.56
457.717	75.56
457.937	70.56
458.157	72.56
458.377	87.56
458.598	107.56
458.818	141.56
459.038	141.56
459.258	104.56
459.478	84.56
459.698	78.56
459.918	80.56
460.138	83.56
460.358	76.56
460.578	82.56
460.798	76.56
461.018	76.56
461.238	90.56
461.458	82.56
461.678	88.56
461.898	92.56
462.118	85.56
462.338	70.56
462.558	82.56
462.777	83.56
462.997	82.56
463.217	72.56
463.437	82.56
463.657	79.56
463.876	77.56
464.096	92.56
464.316	80.56
464.536	96.56
464.755	91.56
464.975	106.56
465.195	129.56
465.414	149.56
465.634	96.56
465.854	86.56
466.073	64.56
466.293	72.56
466.512	84.56
466.732	76.56
466.951	98.56
467.171	92.56
467.391	85.56
467.61	92.56
467.829	104.56
468.049	149.56
468.268	162.56
468.488	88.56
468.707	93.56
468.927	85.56
469.146	78.56
469.365	76.56
469.585	81.56
469.804	78.56
470.023	80.56
470.243	75.56
470.462	92.56
470.681	102.56
470.901	84.56
471.12	76.56
471.339	89.56
471.558	93.56
471.777	78.56
471.997	101.56
472.216	212.56
472.435	341.56
472.654	145.56
472.873	74.56
473.092	69.56
473.311	90.56
473.53	68.56
473.749	81.56
473.968	82.56
474.187	98.56
474.406	89.56
474.625	79.56
474.844	94.56
475.063	77.56
475.282	87.56
475.501	93.56
475.72	94.56
475.939	82.56
476.158	75.56
476.377	81.56
476.596	102.56
476.814	87.56
477.033	81.56
477.252	97.56
477.471	84.56
477.69	85.56
477.908	88.56
478.127	89.56
478.346	97.56
478.564	88.56
478.783	88.56
479.002	89.56
479.22	92.56
479.439	85.56
479.658	82.56
479.876	87.56
480.095	93.56
480.313	98.56
480.532	97.56
480.751	113.56
480.969	200.56
481.188	607.56
481.406	372.56
481.624	122.56
481.843	98.56
482.061	87.56
482.28	86.56
482.498	84.56
482.717	80.56
482.935	97.56
483.153	87.56
483.372	84.56
483.59	84.56
483.808	85.56
484.027	94.56
484.245	73.56
484.463	95.56
484.681	99.56
484.9	73.56
485.118	100.56
485.336	102.56
485.554	100.56
485.772	116.56
485.99	96.56
486.209	104.56
486.427	114.56
486.645	86.56
486.863	110.56
487.081	105.56
487.299	74.56
487.517	77.56
487.735	103.56
487.953	97.56
488.171	83.56
488.389	90.56
488.607	103.56
488.825	80.56
489.043	96.56
489.261	96.56
489.479	75.56
489.696	76.56
489.914	83.56
490.132	79.56
490.35	84.56
490.568	78.56
490.786	81.56
491.003	84.56
491.221	82.56
491.439	69.56
491.657	88.56
491.874	88.56
492.092	79.56
492.31	83.56
492.527	89.56
492.745	77.56
492.963	67.56
493.18	102.56
493.398	72.56
493.615	77.56
493.833	93.56
494.05	88.56
494.268	75.56
494.485	87.56
494.703	87.56
494.92	78.56
495.138	103.56
495.355	86.56
495.573	81.56
495.79	84.56
496.008	102.56
496.225	90.56
496.442	84.56
496.66	95.56
496.877	70.56
497.094	89.56
497.312	81.56
497.529	96.56
497.746	79.56
497.963	96.56
498.181	79.56
498.398	75.56
498.615	99.56
498.832	95.56
499.049	91.56
499.267	89.56
499.484	79.56
499.701	83.56
499.918	68.56
500.135	96.56
500.352	80.56
500.569	75.56
500.786	90.56
501.003	72.56
501.22	88.56
501.437	105.56
501.654	86.56
501.871	98.56
502.088	79.56
502.305	81.56
502.522	85.56
502.739	94.56
502.956	93.56
503.172	89.56
503.389	75.56
503.606	99.56
503.823	93.56
504.04	90.56
504.256	97.56
504.473	83.56
504.69	92.56
504.907	89.56
505.123	82.56
505.34	97.56
505.557	78.56
505.773	88.56
505.99	84.56
506.207	71.56
506.423	81.56
506.64	66.56
506.856	77.56
507.073	86.56
507.289	75.56
507.506	79.56
507.722	101.56
507.939	88.56
508.155	80.56
508.372	83.56
508.588	83.56
508.805	90.56
509.021	80.56
509.238	90.56
509.454	94.56
509.67	83.56
509.887	95.56
510.103	106.56
510.319	180.56
510.536	668.56
510.752	2101.56
510.968	593.56
511.184	137.56
511.401	113.56
511.617	104.56
511.833	78.56
512.049	95.56
512.265	82.56
512.481	77.56
512.698	78.56
512.914	78.56
513.13	93.56
513.346	97.56
513.562	93.56
513.778	101.56
513.994	84.56
514.21	116.56
514.426	116.56
514.642	115.56
514.858	134.56
515.074	156.56
515.29	394.56
515.506	1343.56
515.721	469.56
515.937	128.56
516.153	86.56
516.369	100.56
516.585	82.56
516.801	94.56
517.016	95.56
517.232	84.56
