Data from Circ_1993_H10_HRD10591_00031.txt Node
Date: Wed Jan 03 11:44:08 EST 2024
User: Yrep
Spectrometer: HR+D1059
Trigger mode: 1
Integration Time (sec): 1.000000E-1
Scans to average: 1
Electric dark correction enabled: true
Nonlinearity correction enabled: false
Boxcar width: 0
XAxis mode: Wavelengths
Number of Pixels in Spectrum: 2048
>>>>>Begin Spectral Data<<<<<
223.165	-18.56
223.4	-18.56
223.635	-18.56
223.869	-15.56
224.104	-19.56
224.338	-18.56
224.573	-15.56
224.808	-12.56
225.042	-2.56
225.277	-1.56
225.511	-1.56
225.746	13.44
225.98	0.44
226.215	-2.56
226.449	15.44
226.683	21.44
226.918	29.44
227.152	28.44
227.387	41.44
227.621	50.44
227.856	53.44
228.09	51.44
228.324	66.44
228.559	58.44
228.793	70.44
229.027	70.44
229.262	65.44
229.496	76.44
229.73	89.44
229.964	75.44
230.199	59.44
230.433	85.44
230.667	87.44
230.901	77.44
231.136	62.44
231.37	79.44
231.604	75.44
231.838	92.44
232.072	85.44
232.306	79.44
232.541	80.44
232.775	84.44
233.009	97.44
233.243	73.44
233.477	86.44
233.711	79.44
233.945	68.44
234.179	80.44
234.413	87.44
234.647	88.44
234.881	72.44
235.115	97.44
235.349	70.44
235.583	72.44
235.817	86.44
236.051	86.44
236.285	91.44
236.519	75.44
236.753	79.44
236.987	84.44
237.221	76.44
237.455	94.44
237.689	75.44
237.922	91.44
238.156	89.44
238.39	73.44
238.624	66.44
238.858	74.44
239.091	96.44
239.325	94.44
239.559	89.44
239.793	88.44
240.027	76.44
240.26	84.44
240.494	67.44
240.728	89.44
240.961	61.44
241.195	70.44
241.429	67.44
241.662	100.44
241.896	78.44
242.13	65.44
242.363	75.44
242.597	79.44
242.83	75.44
243.064	94.44
243.298	83.44
243.531	79.44
243.765	87.44
243.998	84.44
244.232	80.44
244.465	95.44
244.699	77.44
244.932	79.44
245.166	77.44
245.399	67.44
245.633	79.44
245.866	80.44
246.099	87.44
246.333	94.44
246.566	81.44
246.8	78.44
247.033	76.44
247.266	86.44
247.5	79.44
247.733	87.44
247.966	81.44
248.2	85.44
248.433	79.44
248.666	72.44
248.899	87.44
249.133	81.44
249.366	103.44
249.599	93.44
249.832	77.44
250.066	78.44
250.299	78.44
250.532	91.44
250.765	85.44
250.998	96.44
251.231	80.44
251.465	64.44
251.698	68.44
251.931	81.44
252.164	71.44
252.397	69.44
252.63	73.44
252.863	74.44
253.096	89.44
253.329	84.44
253.562	92.44
253.795	88.44
254.028	81.44
254.261	77.44
254.494	73.44
254.727	77.44
254.96	82.44
255.193	88.44
255.426	84.44
255.659	91.44
255.892	87.44
256.124	82.44
256.357	83.44
256.59	95.44
256.823	88.44
257.056	86.44
257.289	85.44
257.521	87.44
257.754	79.44
257.987	96.44
258.22	87.44
258.452	80.44
258.685	81.44
258.918	87.44
259.151	87.44
259.383	90.44
259.616	73.44
259.849	96.44
260.081	93.44
260.314	82.44
260.547	93.44
260.779	79.44
261.012	82.44
261.244	80.44
261.477	88.44
261.71	97.44
261.942	104.44
262.175	99.44
262.407	91.44
262.64	84.44
262.872	77.44
263.105	95.44
263.337	85.44
263.57	89.44
263.802	64.44
264.035	81.44
264.267	83.44
264.499	86.44
264.732	93.44
264.964	89.44
265.197	93.44
265.429	97.44
265.661	93.44
265.894	92.44
266.126	88.44
266.358	93.44
266.591	85.44
266.823	81.44
267.055	95.44
267.287	91.44
267.52	81.44
267.752	89.44
267.984	85.44
268.216	79.44
268.448	75.44
268.681	69.44
268.913	75.44
269.145	79.44
269.377	83.44
269.609	82.44
269.841	86.44
270.073	92.44
270.306	80.44
270.538	91.44
270.77	75.44
271.002	83.44
271.234	92.44
271.466	94.44
271.698	102.44
271.93	91.44
272.162	88.44
272.394	93.44
272.626	104.44
272.858	88.44
273.09	100.44
273.322	97.44
273.553	92.44
273.785	89.44
274.017	75.44
274.249	93.44
274.481	90.44
274.713	99.44
274.945	85.44
275.176	96.44
275.408	100.44
275.64	95.44
275.872	94.44
276.104	96.44
276.335	96.44
276.567	94.44
276.799	97.44
277.031	111.44
277.262	102.44
277.494	87.44
277.726	84.44
277.957	99.44
278.189	96.44
278.421	84.44
278.652	93.44
278.884	94.44
279.115	89.44
279.347	85.44
279.579	93.44
279.81	86.44
280.042	99.44
280.273	95.44
280.505	92.44
280.736	88.44
280.968	100.44
281.199	71.44
281.431	92.44
281.662	88.44
281.894	73.44
282.125	97.44
282.356	115.44
282.588	118.44
282.819	120.44
283.051	99.44
283.282	86.44
283.513	93.44
283.745	82.44
283.976	85.44
284.207	97.44
284.439	86.44
284.67	87.44
284.901	83.44
285.132	86.44
285.364	78.44
285.595	91.44
285.826	85.44
286.057	101.44
286.288	76.44
286.52	88.44
286.751	92.44
286.982	83.44
287.213	90.44
287.444	91.44
287.675	96.44
287.906	103.44
288.138	99.44
288.369	89.44
288.6	102.44
288.831	87.44
289.062	89.44
289.293	85.44
289.524	87.44
289.755	89.44
289.986	89.44
290.217	108.44
290.448	87.44
290.679	93.44
290.91	98.44
291.141	79.44
291.371	83.44
291.602	94.44
291.833	96.44
292.064	85.44
292.295	89.44
292.526	86.44
292.757	81.44
292.987	99.44
293.218	97.44
293.449	91.44
293.68	96.44
293.91	91.44
294.141	84.44
294.372	91.44
294.603	93.44
294.833	100.44
295.064	83.44
295.295	99.44
295.525	100.44
295.756	96.44
295.987	105.44
296.217	129.44
296.448	104.44
296.679	93.44
296.909	86.44
297.14	89.44
297.37	90.44
297.601	99.44
297.831	100.44
298.062	97.44
298.292	92.44
298.523	89.44
298.753	96.44
298.984	98.44
299.214	95.44
299.445	98.44
299.675	97.44
299.905	99.44
300.136	83.44
300.366	86.44
300.597	95.44
300.827	87.44
301.057	98.44
301.288	96.44
301.518	86.44
301.748	94.44
301.979	106.44
302.209	88.44
302.439	85.44
302.669	92.44
302.9	90.44
303.13	92.44
303.36	96.44
303.59	111.44
303.82	100.44
304.051	101.44
304.281	88.44
304.511	109.44
304.741	98.44
304.971	87.44
305.201	88.44
305.431	87.44
305.661	86.44
305.891	91.44
306.121	100.44
306.352	104.44
306.582	112.44
306.812	90.44
307.042	81.44
307.272	99.44
307.502	93.44
307.731	104.44
307.961	99.44
308.191	95.44
308.421	92.44
308.651	93.44
308.881	101.44
309.111	100.44
309.341	95.44
309.571	115.44
309.8	104.44
310.03	106.44
310.26	97.44
310.49	83.44
310.72	95.44
310.949	117.44
311.179	95.44
311.409	103.44
311.639	97.44
311.868	99.44
312.098	93.44
312.328	98.44
312.557	99.44
312.787	98.44
313.017	97.44
313.246	88.44
313.476	73.44
313.706	92.44
313.935	101.44
314.165	105.44
314.394	98.44
314.624	100.44
314.853	93.44
315.083	102.44
315.312	93.44
315.542	104.44
315.771	102.44
316.001	97.44
316.23	103.44
316.46	95.44
316.689	91.44
316.919	108.44
317.148	90.44
317.377	95.44
317.607	92.44
317.836	92.44
318.065	103.44
318.295	89.44
318.524	96.44
318.753	96.44
318.983	100.44
319.212	106.44
319.441	109.44
319.67	106.44
319.9	100.44
320.129	99.44
320.358	88.44
320.587	85.44
320.816	96.44
321.046	102.44
321.275	99.44
321.504	93.44
321.733	96.44
321.962	108.44
322.191	104.44
322.42	103.44
322.649	99.44
322.878	100.44
323.108	115.44
323.337	109.44
323.566	142.44
323.795	149.44
324.024	195.44
324.253	345.44
324.482	735.44
324.71	1492.44
324.939	1928.44
325.168	711.44
325.397	234.44
325.626	142.44
325.855	121.44
326.084	125.44
326.313	132.44
326.542	156.44
326.77	217.44
326.999	416.44
327.228	825.44
327.457	1523.44
327.686	1197.44
327.914	338.44
328.143	193.44
328.372	157.44
328.6	136.44
328.829	113.44
329.058	115.44
329.287	136.44
329.515	107.44
329.744	115.44
329.972	94.44
330.201	137.44
330.43	158.44
330.658	131.44
330.887	128.44
331.115	104.44
331.344	87.44
331.572	98.44
331.801	105.44
332.03	93.44
332.258	96.44
332.486	94.44
332.715	100.44
332.943	105.44
333.172	96.44
333.4	101.44
333.629	108.44
333.857	106.44
334.085	121.44
334.314	144.44
334.542	183.44
334.771	175.44
334.999	105.44
335.227	104.44
335.455	103.44
335.684	99.44
335.912	106.44
336.14	96.44
336.369	80.44
336.597	81.44
336.825	106.44
337.053	99.44
337.281	105.44
337.51	95.44
337.738	116.44
337.966	89.44
338.194	108.44
338.422	109.44
338.65	101.44
338.878	85.44
339.106	93.44
339.334	79.44
339.562	88.44
339.79	111.44
340.018	104.44
340.246	103.44
340.474	97.44
340.702	100.44
340.93	81.44
341.158	89.44
341.386	89.44
341.614	95.44
341.842	97.44
342.07	96.44
342.298	94.44
342.526	84.44
342.754	83.44
342.981	90.44
343.209	94.44
343.437	99.44
343.665	87.44
343.893	89.44
344.12	105.44
344.348	103.44
344.576	99.44
344.804	91.44
345.031	87.44
345.259	99.44
345.487	93.44
345.714	107.44
345.942	104.44
346.17	83.44
346.397	92.44
346.625	89.44
346.853	95.44
347.08	96.44
347.308	102.44
347.535	95.44
347.763	91.44
347.99	114.44
348.218	99.44
348.445	101.44
348.673	98.44
348.9	96.44
349.128	98.44
349.355	106.44
349.583	100.44
349.81	102.44
350.037	101.44
350.265	100.44
350.492	100.44
350.72	96.44
350.947	108.44
351.174	95.44
351.402	101.44
351.629	118.44
351.856	108.44
352.083	109.44
352.311	104.44
352.538	120.44
352.765	104.44
352.992	103.44
353.22	99.44
353.447	106.44
353.674	107.44
353.901	103.44
354.128	83.44
354.355	108.44
354.583	105.44
354.81	104.44
355.037	84.44
355.264	82.44
355.491	109.44
355.718	103.44
355.945	94.44
356.172	93.44
356.399	85.44
356.626	95.44
356.853	96.44
357.08	108.44
357.307	110.44
357.534	109.44
357.761	93.44
357.988	101.44
358.215	105.44
358.441	112.44
358.668	92.44
358.895	93.44
359.122	94.44
359.349	102.44
359.576	92.44
359.802	108.44
360.029	111.44
360.256	100.44
360.483	100.44
360.709	83.44
360.936	111.44
361.163	101.44
361.39	86.44
361.616	88.44
361.843	95.44
362.07	99.44
362.296	105.44
362.523	97.44
362.749	80.44
362.976	100.44
363.203	109.44
363.429	93.44
363.656	88.44
363.882	101.44
364.109	102.44
364.335	85.44
364.562	105.44
364.788	89.44
365.015	91.44
365.241	99.44
365.468	105.44
365.694	94.44
365.92	102.44
366.147	87.44
366.373	88.44
366.599	79.44
366.826	89.44
367.052	77.44
367.278	89.44
367.505	96.44
367.731	95.44
367.957	94.44
368.184	87.44
368.41	89.44
368.636	113.44
368.862	124.44
369.089	110.44
369.315	100.44
369.541	91.44
369.767	107.44
369.993	97.44
370.219	106.44
370.445	87.44
370.672	88.44
370.898	82.44
371.124	81.44
371.35	85.44
371.576	88.44
371.802	105.44
372.028	87.44
372.254	94.44
372.48	83.44
372.706	95.44
372.932	99.44
373.158	92.44
373.384	97.44
373.61	92.44
373.835	97.44
374.061	89.44
374.287	96.44
374.513	100.44
374.739	96.44
374.965	98.44
375.191	101.44
375.416	95.44
375.642	90.44
375.868	95.44
376.094	98.44
376.319	94.44
376.545	88.44
376.771	104.44
376.997	83.44
377.222	98.44
377.448	86.44
377.674	87.44
377.899	103.44
378.125	103.44
378.35	94.44
378.576	102.44
378.802	100.44
379.027	111.44
379.253	98.44
379.478	93.44
379.704	93.44
379.929	92.44
380.155	89.44
380.38	102.44
380.606	109.44
380.831	93.44
381.057	103.44
381.282	101.44
381.507	91.44
381.733	113.44
381.958	113.44
382.184	106.44
382.409	116.44
382.634	111.44
382.86	104.44
383.085	110.44
383.31	109.44
383.535	105.44
383.761	121.44
383.986	113.44
384.211	105.44
384.436	113.44
384.662	118.44
384.887	116.44
385.112	104.44
385.337	130.44
385.562	119.44
385.787	115.44
386.013	116.44
386.238	125.44
386.463	116.44
386.688	127.44
386.913	118.44
387.138	110.44
387.363	117.44
387.588	100.44
387.813	114.44
388.038	126.44
388.263	136.44
388.488	117.44
388.713	99.44
388.938	88.44
389.163	105.44
389.387	100.44
389.612	88.44
389.837	101.44
390.062	100.44
390.287	92.44
390.512	98.44
390.736	98.44
390.961	101.44
391.186	108.44
391.411	93.44
391.636	88.44
391.86	75.44
392.085	107.44
392.31	102.44
392.534	97.44
392.759	101.44
392.984	104.44
393.208	117.44
393.433	139.44
393.658	132.44
393.882	84.44
394.107	92.44
394.331	90.44
394.556	94.44
394.78	104.44
395.005	72.44
395.229	94.44
395.454	87.44
395.678	103.44
395.903	89.44
396.127	98.44
396.352	91.44
396.576	94.44
396.801	109.44
397.025	119.44
397.249	99.44
397.474	81.44
397.698	96.44
397.922	90.44
398.147	97.44
398.371	94.44
398.595	93.44
398.82	88.44
399.044	95.44
399.268	95.44
399.492	88.44
399.717	99.44
399.941	95.44
400.165	91.44
400.389	91.44
400.613	83.44
400.837	82.44
401.062	91.44
401.286	96.44
401.51	94.44
401.734	101.44
401.958	106.44
402.182	116.44
402.406	166.44
402.63	112.44
402.854	90.44
403.078	91.44
403.302	88.44
403.526	103.44
403.75	104.44
403.974	93.44
404.198	94.44
404.422	73.44
404.645	87.44
404.869	96.44
405.093	101.44
405.317	109.44
405.541	105.44
405.765	90.44
405.988	105.44
406.212	163.44
406.436	184.44
406.66	128.44
406.883	87.44
407.107	109.44
407.331	87.44
407.555	99.44
407.778	96.44
408.002	93.44
408.226	87.44
408.449	95.44
408.673	78.44
408.896	93.44
409.12	105.44
409.344	83.44
409.567	89.44
409.791	114.44
410.014	99.44
410.238	84.44
410.461	96.44
410.685	96.44
410.908	99.44
411.132	110.44
411.355	96.44
411.578	93.44
411.802	96.44
412.025	98.44
412.249	103.44
412.472	104.44
412.695	95.44
412.919	91.44
413.142	97.44
413.365	85.44
413.589	87.44
413.812	91.44
414.035	86.44
414.258	81.44
414.482	92.44
414.705	120.44
414.928	83.44
415.151	105.44
415.374	116.44
415.597	84.44
415.821	87.44
416.044	85.44
416.267	91.44
416.49	87.44
416.713	84.44
416.936	84.44
417.159	107.44
417.382	90.44
417.605	92.44
417.828	90.44
418.051	88.44
418.274	99.44
418.497	92.44
418.72	97.44
418.943	89.44
419.166	76.44
419.389	97.44
419.611	93.44
419.834	87.44
420.057	97.44
420.28	97.44
420.503	83.44
420.726	93.44
420.948	95.44
421.171	112.44
421.394	99.44
421.617	99.44
421.839	94.44
422.062	95.44
422.285	89.44
422.507	102.44
422.73	122.44
422.953	98.44
423.175	96.44
423.398	80.44
423.621	98.44
423.843	85.44
424.066	96.44
424.288	88.44
424.511	92.44
424.733	99.44
424.956	95.44
425.178	103.44
425.401	75.44
425.623	98.44
425.846	100.44
426.068	82.44
426.291	93.44
426.513	93.44
426.735	94.44
426.958	99.44
427.18	92.44
427.402	126.44
427.625	144.44
427.847	125.44
428.069	112.44
428.292	95.44
428.514	88.44
428.736	77.44
428.958	77.44
429.181	83.44
429.403	97.44
429.625	84.44
429.847	79.44
430.069	100.44
430.292	93.44
430.514	99.44
430.736	81.44
430.958	93.44
431.18	79.44
431.402	77.44
431.624	88.44
431.846	82.44
432.068	80.44
432.29	105.44
432.512	91.44
432.734	100.44
432.956	92.44
433.178	103.44
433.4	99.44
433.622	86.44
433.844	92.44
434.066	98.44
434.287	93.44
434.509	101.44
434.731	105.44
434.953	98.44
435.175	92.44
435.397	91.44
435.618	90.44
435.84	109.44
436.062	121.44
436.284	94.44
436.505	107.44
436.727	97.44
436.949	94.44
437.17	90.44
437.392	93.44
437.614	102.44
437.835	110.44
438.057	104.44
438.278	105.44
438.5	101.44
438.721	117.44
438.943	100.44
439.165	98.44
439.386	90.44
439.608	103.44
439.829	91.44
440.05	113.44
440.272	144.44
440.493	93.44
440.715	93.44
440.936	86.44
441.158	88.44
441.379	73.44
441.6	101.44
441.822	93.44
442.043	101.44
442.264	103.44
442.486	100.44
442.707	97.44
442.928	106.44
443.149	118.44
443.371	109.44
443.592	123.44
443.813	117.44
444.034	108.44
444.255	93.44
444.476	78.44
444.698	92.44
444.919	94.44
445.14	142.44
445.361	112.44
445.582	114.44
445.803	131.44
446.024	111.44
446.245	126.44
446.466	108.44
446.687	89.44
446.908	103.44
447.129	96.44
447.35	93.44
447.571	85.44
447.792	79.44
448.013	87.44
448.234	101.44
448.455	99.44
448.675	98.44
448.896	118.44
449.117	104.44
449.338	103.44
449.559	119.44
449.779	120.44
450	95.44
450.221	94.44
450.442	78.44
450.662	104.44
450.883	93.44
451.104	110.44
451.324	84.44
451.545	96.44
451.766	85.44
451.986	100.44
452.207	96.44
452.428	81.44
452.648	89.44
452.869	92.44
453.089	101.44
453.31	118.44
453.53	109.44
453.751	100.44
453.971	89.44
454.192	92.44
454.412	98.44
454.633	84.44
454.853	98.44
455.073	93.44
455.294	92.44
455.514	91.44
455.734	95.44
455.955	94.44
456.175	97.44
456.395	87.44
456.616	105.44
456.836	93.44
457.056	91.44
457.276	78.44
457.497	77.44
457.717	83.44
457.937	76.44
458.157	95.44
458.377	88.44
458.598	108.44
458.818	128.44
459.038	145.44
459.258	108.44
459.478	87.44
459.698	81.44
459.918	96.44
460.138	84.44
460.358	88.44
460.578	90.44
460.798	89.44
461.018	68.44
461.238	83.44
461.458	80.44
461.678	84.44
461.898	75.44
462.118	84.44
462.338	98.44
462.558	82.44
462.777	93.44
462.997	86.44
463.217	91.44
463.437	83.44
463.657	107.44
463.876	90.44
464.096	90.44
464.316	91.44
464.536	92.44
464.755	92.44
464.975	99.44
465.195	157.44
465.414	147.44
465.634	106.44
465.854	97.44
466.073	75.44
466.293	84.44
466.512	96.44
466.732	72.44
466.951	88.44
467.171	96.44
467.391	112.44
467.61	96.44
467.829	95.44
468.049	109.44
468.268	134.44
468.488	93.44
468.707	93.44
468.927	77.44
469.146	80.44
469.365	83.44
469.585	85.44
469.804	98.44
470.023	92.44
470.243	93.44
470.462	97.44
470.681	105.44
470.901	91.44
471.12	94.44
471.339	92.44
471.558	81.44
471.777	95.44
471.997	107.44
472.216	150.44
472.435	196.44
472.654	91.44
472.873	83.44
473.092	93.44
473.311	91.44
473.53	80.44
473.749	84.44
473.968	81.44
474.187	90.44
474.406	96.44
474.625	76.44
474.844	79.44
475.063	93.44
475.282	101.44
475.501	92.44
475.72	96.44
475.939	83.44
476.158	89.44
476.377	93.44
476.596	94.44
476.814	84.44
477.033	88.44
477.252	90.44
477.471	84.44
477.69	85.44
477.908	97.44
478.127	97.44
478.346	89.44
478.564	83.44
478.783	100.44
479.002	95.44
479.22	82.44
479.439	99.44
479.658	109.44
479.876	99.44
480.095	97.44
480.313	112.44
480.532	91.44
480.751	104.44
480.969	151.44
481.188	303.44
481.406	207.44
481.624	101.44
481.843	87.44
482.061	90.44
482.28	100.44
482.498	84.44
482.717	87.44
482.935	99.44
483.153	85.44
483.372	73.44
483.59	93.44
483.808	99.44
484.027	90.44
484.245	106.44
484.463	102.44
484.681	96.44
484.9	75.44
485.118	97.44
485.336	106.44
485.554	103.44
485.772	107.44
485.99	110.44
486.209	116.44
486.427	105.44
486.645	102.44
486.863	112.44
487.081	104.44
487.299	96.44
487.517	89.44
487.735	83.44
487.953	101.44
488.171	93.44
488.389	95.44
488.607	112.44
488.825	92.44
489.043	92.44
489.261	87.44
489.479	111.44
489.696	89.44
489.914	90.44
490.132	91.44
490.35	87.44
490.568	82.44
490.786	99.44
491.003	96.44
491.221	88.44
491.439	85.44
491.657	87.44
491.874	94.44
492.092	86.44
492.31	95.44
492.527	104.44
492.745	95.44
492.963	94.44
493.18	80.44
493.398	81.44
493.615	103.44
493.833	95.44
494.05	87.44
494.268	77.44
494.485	81.44
494.703	84.44
494.92	106.44
495.138	76.44
495.355	95.44
495.573	99.44
495.79	89.44
496.008	90.44
496.225	94.44
496.442	102.44
496.66	102.44
496.877	92.44
497.094	88.44
497.312	83.44
497.529	98.44
497.746	100.44
497.963	99.44
498.181	103.44
498.398	96.44
498.615	115.44
498.832	103.44
499.049	93.44
499.267	93.44
499.484	88.44
499.701	86.44
499.918	92.44
500.135	77.44
500.352	102.44
500.569	87.44
500.786	88.44
501.003	77.44
501.22	91.44
501.437	92.44
501.654	87.44
501.871	93.44
502.088	96.44
502.305	108.44
502.522	116.44
502.739	103.44
502.956	93.44
503.172	80.44
503.389	96.44
503.606	93.44
503.823	102.44
504.04	104.44
504.256	100.44
504.473	79.44
504.69	89.44
504.907	87.44
505.123	88.44
505.34	91.44
505.557	95.44
505.773	91.44
505.99	105.44
506.207	86.44
506.423	87.44
506.64	84.44
506.856	92.44
507.073	89.44
507.289	100.44
507.506	99.44
507.722	108.44
507.939	99.44
508.155	99.44
508.372	99.44
508.588	88.44
508.805	99.44
509.021	101.44
509.238	101.44
509.454	88.44
509.67	93.44
509.887	109.44
510.103	139.44
510.319	184.44
510.536	648.44
510.752	1893.44
510.968	549.44
511.184	139.44
511.401	128.44
511.617	98.44
511.833	80.44
512.049	100.44
512.265	99.44
512.481	97.44
512.698	106.44
512.914	83.44
513.13	102.44
513.346	96.44
513.562	93.44
513.778	108.44
513.994	96.44
514.21	119.44
514.426	118.44
