Data from Circ_1993_H10_HRD10591_00049.txt Node
Date: Wed Jan 03 11:44:11 EST 2024
User: Yrep
Spectrometer: HR+D1059
Trigger mode: 1
Integration Time (sec): 1.000000E-1
Scans to average: 1
Electric dark correction enabled: true
Nonlinearity correction enabled: false
Boxcar width: 0
XAxis mode: Wavelengths
Number of Pixels in Spectrum: 2048
>>>>>Begin Spectral Data<<<<<
223.165	-19.38
223.4	-19.38
223.635	-19.38
223.869	-21.38
224.104	-24.38
224.338	-13.38
224.573	-7.38
224.808	-13.38
225.042	-13.38
225.277	-4.38
225.511	-5.38
225.746	12.62
225.98	13.62
226.215	18.62
226.449	18.62
226.683	18.62
226.918	10.62
227.152	29.62
227.387	29.62
227.621	23.62
227.856	50.62
228.09	31.62
228.324	41.62
228.559	49.62
228.793	48.62
229.027	67.62
229.262	59.62
229.496	72.62
229.73	71.62
229.964	71.62
230.199	76.62
230.433	89.62
230.667	74.62
230.901	71.62
231.136	71.62
231.37	75.62
231.604	55.62
231.838	76.62
232.072	66.62
232.306	81.62
232.541	75.62
232.775	79.62
233.009	82.62
233.243	78.62
233.477	67.62
233.711	86.62
233.945	88.62
234.179	69.62
234.413	69.62
234.647	89.62
234.881	77.62
235.115	93.62
235.349	77.62
235.583	79.62
235.817	73.62
236.051	66.62
236.285	71.62
236.519	85.62
236.753	72.62
236.987	73.62
237.221	83.62
237.455	76.62
237.689	65.62
237.922	64.62
238.156	87.62
238.39	76.62
238.624	69.62
238.858	67.62
239.091	64.62
239.325	85.62
239.559	84.62
239.793	87.62
240.027	67.62
240.26	78.62
240.494	83.62
240.728	77.62
240.961	56.62
241.195	69.62
241.429	62.62
241.662	75.62
241.896	77.62
242.13	79.62
242.363	79.62
242.597	81.62
242.83	84.62
243.064	74.62
243.298	56.62
243.531	60.62
243.765	73.62
243.998	74.62
244.232	86.62
244.465	81.62
244.699	85.62
244.932	66.62
245.166	80.62
245.399	67.62
245.633	75.62
245.866	81.62
246.099	75.62
246.333	87.62
246.566	82.62
246.8	61.62
247.033	67.62
247.266	75.62
247.5	65.62
247.733	62.62
247.966	81.62
248.2	73.62
248.433	66.62
248.666	89.62
248.899	74.62
249.133	84.62
249.366	95.62
249.599	97.62
249.832	77.62
250.066	72.62
250.299	69.62
250.532	82.62
250.765	66.62
250.998	87.62
251.231	73.62
251.465	85.62
251.698	62.62
251.931	75.62
252.164	77.62
252.397	87.62
252.63	69.62
252.863	75.62
253.096	85.62
253.329	78.62
253.562	80.62
253.795	71.62
254.028	69.62
254.261	72.62
254.494	79.62
254.727	82.62
254.96	99.62
255.193	73.62
255.426	76.62
255.659	82.62
255.892	83.62
256.124	73.62
256.357	71.62
256.59	87.62
256.823	83.62
257.056	77.62
257.289	81.62
257.521	66.62
257.754	71.62
257.987	74.62
258.22	93.62
258.452	84.62
258.685	93.62
258.918	75.62
259.151	75.62
259.383	72.62
259.616	72.62
259.849	77.62
260.081	70.62
260.314	69.62
260.547	69.62
260.779	75.62
261.012	77.62
261.244	82.62
261.477	88.62
261.71	88.62
261.942	110.62
262.175	104.62
262.407	85.62
262.64	69.62
262.872	75.62
263.105	78.62
263.337	71.62
263.57	78.62
263.802	66.62
264.035	84.62
264.267	76.62
264.499	71.62
264.732	82.62
264.964	74.62
265.197	78.62
265.429	74.62
265.661	82.62
265.894	86.62
266.126	70.62
266.358	85.62
266.591	81.62
266.823	71.62
267.055	73.62
267.287	90.62
267.52	74.62
267.752	85.62
267.984	90.62
268.216	77.62
268.448	76.62
268.681	87.62
268.913	77.62
269.145	91.62
269.377	80.62
269.609	77.62
269.841	57.62
270.073	80.62
270.306	86.62
270.538	82.62
270.77	79.62
271.002	74.62
271.234	77.62
271.466	77.62
271.698	80.62
271.93	69.62
272.162	70.62
272.394	75.62
272.626	80.62
272.858	79.62
273.09	76.62
273.322	85.62
273.553	64.62
273.785	71.62
274.017	81.62
274.249	81.62
274.481	91.62
274.713	80.62
274.945	85.62
275.176	67.62
275.408	82.62
275.64	78.62
275.872	77.62
276.104	82.62
276.335	83.62
276.567	98.62
276.799	99.62
277.031	77.62
277.262	80.62
277.494	75.62
277.726	86.62
277.957	67.62
278.189	80.62
278.421	77.62
278.652	85.62
278.884	80.62
279.115	80.62
279.347	91.62
279.579	72.62
279.81	82.62
280.042	86.62
280.273	82.62
280.505	76.62
280.736	82.62
280.968	90.62
281.199	92.62
281.431	93.62
281.662	85.62
281.894	73.62
282.125	92.62
282.356	106.62
282.588	114.62
282.819	101.62
283.051	81.62
283.282	80.62
283.513	85.62
283.745	73.62
283.976	88.62
284.207	87.62
284.439	70.62
284.67	85.62
284.901	86.62
285.132	80.62
285.364	75.62
285.595	86.62
285.826	82.62
286.057	86.62
286.288	81.62
286.52	90.62
286.751	82.62
286.982	85.62
287.213	86.62
287.444	98.62
287.675	73.62
287.906	84.62
288.138	94.62
288.369	70.62
288.6	88.62
288.831	81.62
289.062	85.62
289.293	77.62
289.524	85.62
289.755	81.62
289.986	86.62
290.217	78.62
290.448	88.62
290.679	82.62
290.91	86.62
291.141	81.62
291.371	81.62
291.602	80.62
291.833	75.62
292.064	67.62
292.295	80.62
292.526	70.62
292.757	75.62
292.987	96.62
293.218	84.62
293.449	85.62
293.68	77.62
293.91	86.62
294.141	82.62
294.372	84.62
294.603	87.62
294.833	91.62
295.064	94.62
295.295	82.62
295.525	94.62
295.756	90.62
295.987	93.62
296.217	122.62
296.448	114.62
296.679	94.62
296.909	81.62
297.14	80.62
297.37	76.62
297.601	75.62
297.831	84.62
298.062	75.62
298.292	69.62
298.523	74.62
298.753	77.62
298.984	64.62
299.214	77.62
299.445	94.62
299.675	94.62
299.905	92.62
300.136	74.62
300.366	81.62
300.597	88.62
300.827	79.62
301.057	89.62
301.288	96.62
301.518	81.62
301.748	84.62
301.979	108.62
302.209	81.62
302.439	90.62
302.669	80.62
302.9	93.62
303.13	88.62
303.36	84.62
303.59	106.62
303.82	99.62
304.051	88.62
304.281	85.62
304.511	87.62
304.741	90.62
304.971	84.62
305.201	88.62
305.431	87.62
305.661	93.62
305.891	84.62
306.121	86.62
306.352	89.62
306.582	82.62
306.812	88.62
307.042	85.62
307.272	87.62
307.502	85.62
307.731	95.62
307.961	93.62
308.191	80.62
308.421	91.62
308.651	73.62
308.881	93.62
309.111	74.62
309.341	83.62
309.571	90.62
309.8	77.62
310.03	87.62
310.26	72.62
310.49	89.62
310.72	81.62
310.949	94.62
311.179	81.62
311.409	90.62
311.639	86.62
311.868	91.62
312.098	96.62
312.328	79.62
312.557	95.62
312.787	103.62
313.017	97.62
313.246	74.62
313.476	80.62
313.706	85.62
313.935	91.62
314.165	81.62
314.394	97.62
314.624	88.62
314.853	81.62
315.083	85.62
315.312	91.62
315.542	87.62
315.771	91.62
316.001	80.62
316.23	94.62
316.46	93.62
316.689	89.62
316.919	86.62
317.148	95.62
317.377	91.62
317.607	100.62
317.836	84.62
318.065	101.62
318.295	79.62
318.524	80.62
318.753	88.62
318.983	79.62
319.212	85.62
319.441	107.62
319.67	96.62
319.9	81.62
320.129	78.62
320.358	88.62
320.587	81.62
320.816	107.62
321.046	85.62
321.275	90.62
321.504	79.62
321.733	93.62
321.962	82.62
322.191	99.62
322.42	104.62
322.649	97.62
322.878	103.62
323.108	105.62
323.337	119.62
323.566	113.62
323.795	123.62
324.024	174.62
324.253	295.62
324.482	647.62
324.71	1275.62
324.939	1617.62
325.168	634.62
325.397	204.62
325.626	133.62
325.855	110.62
326.084	113.62
326.313	113.62
326.542	144.62
326.77	193.62
326.999	357.62
327.228	725.62
327.457	1301.62
327.686	1017.62
327.914	297.62
328.143	182.62
328.372	173.62
328.6	121.62
328.829	108.62
329.058	106.62
329.287	109.62
329.515	82.62
329.744	91.62
329.972	103.62
330.201	143.62
330.43	189.62
330.658	124.62
330.887	126.62
331.115	104.62
331.344	87.62
331.572	97.62
331.801	99.62
332.03	83.62
332.258	90.62
332.486	78.62
332.715	88.62
332.943	90.62
333.172	88.62
333.4	89.62
333.629	99.62
333.857	99.62
334.085	104.62
334.314	157.62
334.542	224.62
334.771	208.62
334.999	113.62
335.227	90.62
335.455	93.62
335.684	101.62
335.912	86.62
336.14	92.62
336.369	94.62
336.597	99.62
336.825	93.62
337.053	88.62
337.281	85.62
337.51	83.62
337.738	77.62
337.966	87.62
338.194	92.62
338.422	94.62
338.65	91.62
338.878	88.62
339.106	89.62
339.334	95.62
339.562	87.62
339.79	94.62
340.018	90.62
340.246	77.62
340.474	87.62
340.702	77.62
340.93	79.62
341.158	93.62
341.386	85.62
341.614	86.62
341.842	84.62
342.07	106.62
342.298	71.62
342.526	94.62
342.754	77.62
342.981	78.62
343.209	79.62
343.437	93.62
343.665	84.62
343.893	86.62
344.12	92.62
344.348	91.62
344.576	94.62
344.804	90.62
345.031	77.62
345.259	81.62
345.487	91.62
345.714	94.62
345.942	82.62
346.17	81.62
346.397	81.62
346.625	93.62
346.853	70.62
347.08	79.62
347.308	76.62
347.535	83.62
347.763	88.62
347.99	85.62
348.218	71.62
348.445	91.62
348.673	102.62
348.9	89.62
349.128	93.62
349.355	81.62
349.583	95.62
349.81	107.62
350.037	92.62
350.265	87.62
350.492	74.62
350.72	92.62
350.947	91.62
351.174	89.62
351.402	90.62
351.629	98.62
351.856	92.62
352.083	99.62
352.311	97.62
352.538	89.62
352.765	104.62
352.992	98.62
353.22	98.62
353.447	83.62
353.674	96.62
353.901	104.62
354.128	73.62
354.355	95.62
354.583	102.62
354.81	93.62
355.037	92.62
355.264	106.62
355.491	90.62
355.718	73.62
355.945	95.62
356.172	77.62
356.399	98.62
356.626	96.62
356.853	85.62
357.08	92.62
357.307	86.62
357.534	86.62
357.761	78.62
357.988	100.62
358.215	84.62
358.441	102.62
358.668	87.62
358.895	85.62
359.122	88.62
359.349	85.62
359.576	77.62
359.802	93.62
360.029	89.62
360.256	90.62
360.483	92.62
360.709	80.62
360.936	85.62
361.163	80.62
361.39	86.62
361.616	80.62
361.843	81.62
362.07	82.62
362.296	94.62
362.523	95.62
362.749	85.62
362.976	82.62
363.203	86.62
363.429	80.62
363.656	90.62
363.882	82.62
364.109	100.62
364.335	74.62
364.562	79.62
364.788	90.62
365.015	77.62
365.241	87.62
365.468	106.62
365.694	99.62
365.92	73.62
366.147	77.62
366.373	77.62
366.599	79.62
366.826	88.62
367.052	76.62
367.278	81.62
367.505	81.62
367.731	82.62
367.957	84.62
368.184	87.62
368.41	83.62
368.636	88.62
368.862	111.62
369.089	100.62
369.315	74.62
369.541	81.62
369.767	100.62
369.993	83.62
370.219	89.62
370.445	74.62
370.672	83.62
370.898	81.62
371.124	86.62
371.35	75.62
371.576	83.62
371.802	82.62
372.028	88.62
372.254	81.62
372.48	73.62
372.706	86.62
372.932	89.62
373.158	92.62
373.384	91.62
373.61	71.62
373.835	75.62
374.061	89.62
374.287	83.62
374.513	89.62
374.739	71.62
374.965	95.62
375.191	78.62
375.416	84.62
375.642	95.62
375.868	85.62
376.094	71.62
376.319	79.62
376.545	83.62
376.771	85.62
376.997	82.62
377.222	76.62
377.448	87.62
377.674	77.62
377.899	93.62
378.125	85.62
378.35	95.62
378.576	93.62
378.802	79.62
379.027	89.62
379.253	103.62
379.478	91.62
379.704	81.62
379.929	82.62
380.155	111.62
380.38	92.62
380.606	97.62
380.831	82.62
381.057	96.62
381.282	108.62
381.507	91.62
381.733	89.62
381.958	88.62
382.184	103.62
382.409	96.62
382.634	101.62
382.86	100.62
383.085	105.62
383.31	95.62
383.535	99.62
383.761	109.62
383.986	98.62
384.211	86.62
384.436	98.62
384.662	97.62
384.887	106.62
385.112	113.62
385.337	98.62
385.562	94.62
385.787	116.62
386.013	98.62
386.238	95.62
386.463	102.62
386.688	107.62
386.913	93.62
387.138	108.62
387.363	101.62
387.588	104.62
387.813	102.62
388.038	114.62
388.263	117.62
388.488	117.62
388.713	96.62
388.938	90.62
389.163	88.62
389.387	81.62
389.612	78.62
389.837	78.62
390.062	82.62
390.287	100.62
390.512	82.62
390.736	88.62
390.961	80.62
391.186	102.62
391.411	89.62
391.636	82.62
391.86	83.62
392.085	96.62
392.31	71.62
392.534	77.62
392.759	88.62
392.984	96.62
393.208	102.62
393.433	114.62
393.658	99.62
393.882	92.62
394.107	84.62
394.331	83.62
394.556	78.62
394.78	85.62
395.005	94.62
395.229	89.62
395.454	94.62
395.678	93.62
395.903	73.62
396.127	83.62
396.352	89.62
396.576	84.62
396.801	85.62
397.025	107.62
397.249	90.62
397.474	66.62
397.698	69.62
397.922	85.62
398.147	85.62
398.371	84.62
398.595	88.62
398.82	83.62
399.044	96.62
399.268	66.62
399.492	77.62
399.717	77.62
399.941	83.62
400.165	98.62
400.389	81.62
400.613	96.62
400.837	84.62
401.062	75.62
401.286	83.62
401.51	75.62
401.734	81.62
401.958	90.62
402.182	106.62
402.406	137.62
402.63	118.62
402.854	85.62
403.078	85.62
403.302	94.62
403.526	90.62
403.75	88.62
403.974	85.62
404.198	81.62
404.422	96.62
404.645	86.62
404.869	99.62
405.093	95.62
405.317	75.62
405.541	79.62
405.765	90.62
405.988	118.62
406.212	147.62
406.436	191.62
406.66	122.62
406.883	91.62
407.107	95.62
407.331	86.62
407.555	85.62
407.778	89.62
408.002	87.62
408.226	83.62
408.449	85.62
408.673	82.62
408.896	90.62
409.12	88.62
409.344	82.62
409.567	79.62
409.791	91.62
410.014	99.62
410.238	88.62
410.461	90.62
410.685	87.62
410.908	106.62
411.132	91.62
411.355	94.62
411.578	93.62
411.802	84.62
412.025	82.62
412.249	83.62
412.472	93.62
412.695	97.62
412.919	95.62
413.142	100.62
413.365	80.62
413.589	85.62
413.812	82.62
414.035	86.62
414.258	83.62
414.482	67.62
414.705	91.62
414.928	85.62
415.151	86.62
415.374	81.62
415.597	93.62
415.821	85.62
416.044	93.62
416.267	89.62
416.49	73.62
416.713	87.62
416.936	67.62
417.159	94.62
417.382	105.62
417.605	90.62
417.828	83.62
418.051	92.62
418.274	85.62
418.497	77.62
418.72	82.62
418.943	93.62
419.166	79.62
419.389	94.62
419.611	85.62
419.834	103.62
420.057	80.62
420.28	88.62
420.503	81.62
420.726	78.62
420.948	93.62
421.171	85.62
421.394	83.62
421.617	81.62
421.839	93.62
422.062	99.62
422.285	88.62
422.507	104.62
422.73	89.62
422.953	102.62
423.175	104.62
423.398	82.62
423.621	100.62
423.843	77.62
424.066	82.62
424.288	91.62
424.511	95.62
424.733	86.62
424.956	95.62
425.178	85.62
425.401	77.62
425.623	99.62
425.846	82.62
426.068	86.62
426.291	82.62
426.513	79.62
426.735	91.62
426.958	86.62
427.18	87.62
427.402	112.62
427.625	143.62
427.847	124.62
428.069	113.62
428.292	89.62
428.514	85.62
428.736	82.62
428.958	84.62
429.181	86.62
429.403	88.62
429.625	86.62
429.847	83.62
430.069	83.62
430.292	90.62
430.514	83.62
430.736	76.62
430.958	88.62
431.18	84.62
431.402	74.62
431.624	89.62
431.846	91.62
432.068	90.62
432.29	81.62
432.512	94.62
432.734	80.62
432.956	70.62
433.178	90.62
433.4	82.62
433.622	85.62
433.844	83.62
434.066	74.62
434.287	74.62
434.509	87.62
434.731	77.62
434.953	90.62
435.175	88.62
435.397	87.62
435.618	84.62
435.84	93.62
436.062	105.62
436.284	101.62
436.505	104.62
436.727	92.62
436.949	86.62
437.17	89.62
437.392	67.62
437.614	82.62
437.835	96.62
438.057	111.62
438.278	101.62
438.5	96.62
438.721	106.62
438.943	96.62
439.165	92.62
439.386	85.62
439.608	92.62
439.829	87.62
440.05	109.62
440.272	120.62
440.493	93.62
440.715	77.62
440.936	77.62
441.158	90.62
441.379	88.62
441.6	85.62
441.822	90.62
442.043	81.62
442.264	95.62
442.486	87.62
442.707	90.62
442.928	104.62
443.149	108.62
443.371	95.62
443.592	108.62
443.813	102.62
444.034	100.62
444.255	89.62
444.476	88.62
444.698	66.62
444.919	86.62
445.14	133.62
445.361	106.62
445.582	96.62
445.803	110.62
446.024	122.62
446.245	119.62
446.466	92.62
446.687	63.62
446.908	82.62
447.129	91.62
447.35	98.62
447.571	73.62
447.792	85.62
448.013	86.62
448.234	104.62
448.455	86.62
448.675	100.62
448.896	119.62
449.117	104.62
449.338	91.62
449.559	109.62
449.779	122.62
450	85.62
450.221	83.62
450.442	83.62
450.662	87.62
450.883	101.62
451.104	95.62
451.324	100.62
451.545	96.62
451.766	90.62
451.986	91.62
452.207	93.62
452.428	85.62
452.648	95.62
452.869	108.62
453.089	106.62
453.31	113.62
453.53	93.62
453.751	89.62
453.971	96.62
454.192	101.62
454.412	91.62
454.633	86.62
454.853	83.62
455.073	90.62
455.294	83.62
455.514	97.62
455.734	77.62
455.955	89.62
456.175	94.62
456.395	81.62
456.616	94.62
456.836	91.62
457.056	85.62
457.276	80.62
457.497	67.62
457.717	66.62
457.937	75.62
458.157	58.62
458.377	87.62
458.598	83.62
458.818	112.62
459.038	120.62
459.258	95.62
459.478	80.62
459.698	77.62
459.918	89.62
460.138	79.62
460.358	83.62
460.578	82.62
460.798	90.62
461.018	77.62
461.238	73.62
461.458	75.62
461.678	66.62
461.898	83.62
462.118	86.62
462.338	98.62
462.558	79.62
462.777	83.62
462.997	95.62
463.217	85.62
463.437	91.62
463.657	80.62
463.876	93.62
464.096	82.62
464.316	82.62
464.536	88.62
464.755	81.62
464.975	97.62
465.195	144.62
465.414	135.62
465.634	92.62
465.854	94.62
466.073	75.62
466.293	82.62
466.512	76.62
466.732	96.62
466.951	75.62
467.171	85.62
467.391	91.62
467.61	79.62
467.829	81.62
468.049	109.62
468.268	122.62
468.488	79.62
468.707	92.62
468.927	77.62
469.146	71.62
469.365	80.62
469.585	76.62
469.804	94.62
470.023	94.62
470.243	83.62
470.462	95.62
470.681	95.62
470.901	93.62
471.12	102.62
471.339	85.62
471.558	83.62
471.777	86.62
471.997	121.62
472.216	183.62
472.435	256.62
472.654	116.62
472.873	89.62
473.092	80.62
473.311	82.62
473.53	69.62
473.749	71.62
473.968	91.62
474.187	89.62
474.406	91.62
474.625	86.62
474.844	78.62
475.063	86.62
475.282	92.62
475.501	82.62
475.72	90.62
475.939	82.62
476.158	82.62
476.377	95.62
476.596	90.62
476.814	93.62
477.033	91.62
477.252	72.62
477.471	71.62
477.69	83.62
477.908	78.62
478.127	83.62
478.346	70.62
478.564	97.62
478.783	98.62
479.002	96.62
479.22	74.62
479.439	90.62
479.658	93.62
479.876	82.62
480.095	88.62
480.313	97.62
480.532	88.62
480.751	87.62
480.969	171.62
481.188	424.62
481.406	282.62
481.624	107.62
481.843	90.62
482.061	92.62
482.28	81.62
482.498	89.62
482.717	76.62
482.935	77.62
483.153	78.62
483.372	71.62
483.59	81.62
483.808	79.62
484.027	85.62
484.245	82.62
484.463	90.62
484.681	94.62
484.9	94.62
485.118	97.62
485.336	86.62
485.554	98.62
485.772	105.62
485.99	104.62
486.209	99.62
486.427	96.62
486.645	96.62
486.863	118.62
487.081	115.62
487.299	81.62
487.517	82.62
487.735	97.62
487.953	83.62
488.171	83.62
488.389	96.62
488.607	107.62
488.825	85.62
489.043	77.62
489.261	90.62
489.479	86.62
489.696	87.62
489.914	87.62
490.132	77.62
490.35	86.62
490.568	78.62
490.786	91.62
491.003	87.62
491.221	78.62
491.439	70.62
491.657	86.62
491.874	94.62
492.092	91.62
492.31	94.62
492.527	97.62
492.745	87.62
492.963	78.62
493.18	99.62
493.398	84.62
493.615	87.62
493.833	90.62
494.05	70.62
494.268	91.62
494.485	87.62
494.703	97.62
494.92	87.62
495.138	90.62
495.355	91.62
495.573	90.62
495.79	88.62
496.008	84.62
496.225	84.62
496.442	90.62
496.66	83.62
496.877	83.62
497.094	84.62
497.312	96.62
497.529	90.62
497.746	95.62
497.963	85.62
498.181	79.62
498.398	84.62
498.615	83.62
498.832	97.62
499.049	88.62
499.267	85.62
499.484	88.62
499.701	88.62
499.918	95.62
500.135	88.62
500.352	99.62
500.569	89.62
500.786	87.62
501.003	73.62
501.22	81.62
501.437	83.62
501.654	91.62
501.871	101.62
502.088	74.62
502.305	81.62
502.522	92.62
502.739	90.62
502.956	85.62
503.172	87.62
503.389	108.62
503.606	89.62
503.823	99.62
504.04	90.62
504.256	77.62
504.473	73.62
504.69	88.62
504.907	93.62
505.123	97.62
505.34	90.62
505.557	85.62
505.773	72.62
505.99	74.62
506.207	86.62
506.423	77.62
506.64	83.62
506.856	80.62
507.073	92.62
507.289	94.62
507.506	97.62
507.722	92.62
507.939	112.62
508.155	92.62
508.372	93.62
508.588	78.62
508.805	88.62
509.021	78.62
509.238	91.62
509.454	93.62
509.67	91.62
509.887	110.62
510.103	125.62
510.319	197.62
510.536	619.62
510.752	1867.62
510.968	539.62
511.184	122.62
511.401	104.62
511.617	95.62
511.833	92.62
512.049	92.62
512.265	89.62
512.481	78.62
512.698	88.62
512.914	89.62
513.13	95.62
513.346	88.62
513.562	95.62
513.778	89.62
513.994	82.62
514.21	105.62
514.426	105.62
514.642	126.62
514.858	109.62
515.074	129.62
515.29	352.62
515.506	1117.62
515.721	416.62
515.937	139.62
516.153	98.62
516.369	87.62
516.585	89.62
516.801	93.62
517.016	85.62
517.232	85.62
517.448	82.62
