Data from Circ_1993_H10_HRD10591_00092.txt Node
Date: Wed Jan 03 11:44:20 EST 2024
User: Yrep
Spectrometer: HR+D1059
Trigger mode: 1
Integration Time (sec): 1.000000E-1
Scans to average: 1
Electric dark correction enabled: true
Nonlinearity correction enabled: false
Boxcar width: 0
XAxis mode: Wavelengths
Number of Pixels in Spectrum: 2048
>>>>>Begin Spectral Data<<<<<
223.165	-19.94
223.4	-19.94
223.635	-19.94
223.869	-26.94
224.104	-33.94
224.338	-0.94
224.573	-15.94
224.808	-14.94
225.042	-5.94
225.277	-14.94
225.511	-1.94
225.746	3.06
225.98	17.06
226.215	14.06
226.449	22.06
226.683	24.06
226.918	19.06
227.152	36.06
227.387	26.06
227.621	50.06
227.856	56.06
228.09	49.06
228.324	57.06
228.559	44.06
228.793	70.06
229.027	72.06
229.262	72.06
229.496	57.06
229.73	80.06
229.964	70.06
230.199	64.06
230.433	80.06
230.667	67.06
230.901	67.06
231.136	96.06
231.37	70.06
231.604	91.06
231.838	84.06
232.072	85.06
232.306	88.06
232.541	82.06
232.775	75.06
233.009	64.06
233.243	81.06
233.477	76.06
233.711	82.06
233.945	91.06
234.179	67.06
234.413	72.06
234.647	75.06
234.881	89.06
235.115	70.06
235.349	81.06
235.583	67.06
235.817	83.06
236.051	67.06
236.285	76.06
236.519	87.06
236.753	83.06
236.987	77.06
237.221	77.06
237.455	68.06
237.689	85.06
237.922	80.06
238.156	64.06
238.39	65.06
238.624	78.06
238.858	82.06
239.091	64.06
239.325	69.06
239.559	81.06
239.793	74.06
240.027	88.06
240.26	77.06
240.494	84.06
240.728	77.06
240.961	76.06
241.195	90.06
241.429	65.06
241.662	76.06
241.896	62.06
242.13	71.06
242.363	74.06
242.597	79.06
242.83	90.06
243.064	66.06
243.298	79.06
243.531	69.06
243.765	76.06
243.998	88.06
244.232	85.06
244.465	74.06
244.699	80.06
244.932	72.06
245.166	84.06
245.399	71.06
245.633	80.06
245.866	80.06
246.099	82.06
246.333	76.06
246.566	74.06
246.8	82.06
247.033	68.06
247.266	79.06
247.5	64.06
247.733	72.06
247.966	89.06
248.2	72.06
248.433	78.06
248.666	88.06
248.899	93.06
249.133	92.06
249.366	99.06
249.599	92.06
249.832	61.06
250.066	82.06
250.299	82.06
250.532	74.06
250.765	97.06
250.998	72.06
251.231	80.06
251.465	63.06
251.698	69.06
251.931	70.06
252.164	84.06
252.397	81.06
252.63	101.06
252.863	70.06
253.096	76.06
253.329	77.06
253.562	79.06
253.795	73.06
254.028	78.06
254.261	83.06
254.494	70.06
254.727	88.06
254.96	86.06
255.193	82.06
255.426	90.06
255.659	75.06
255.892	78.06
256.124	81.06
256.357	85.06
256.59	86.06
256.823	85.06
257.056	86.06
257.289	93.06
257.521	85.06
257.754	86.06
257.987	88.06
258.22	79.06
258.452	74.06
258.685	72.06
258.918	85.06
259.151	92.06
259.383	66.06
259.616	74.06
259.849	103.06
260.081	83.06
260.314	82.06
260.547	63.06
260.779	74.06
261.012	86.06
261.244	78.06
261.477	91.06
261.71	86.06
261.942	98.06
262.175	95.06
262.407	72.06
262.64	80.06
262.872	76.06
263.105	93.06
263.337	76.06
263.57	85.06
263.802	79.06
264.035	83.06
264.267	77.06
264.499	82.06
264.732	72.06
264.964	66.06
265.197	81.06
265.429	76.06
265.661	84.06
265.894	75.06
266.126	69.06
266.358	91.06
266.591	68.06
266.823	81.06
267.055	80.06
267.287	83.06
267.52	91.06
267.752	89.06
267.984	84.06
268.216	82.06
268.448	78.06
268.681	86.06
268.913	96.06
269.145	95.06
269.377	76.06
269.609	68.06
269.841	69.06
270.073	75.06
270.306	86.06
270.538	82.06
270.77	83.06
271.002	90.06
271.234	69.06
271.466	77.06
271.698	75.06
271.93	90.06
272.162	84.06
272.394	91.06
272.626	81.06
272.858	89.06
273.09	82.06
273.322	100.06
273.553	93.06
273.785	70.06
274.017	81.06
274.249	78.06
274.481	77.06
274.713	84.06
274.945	92.06
275.176	79.06
275.408	89.06
275.64	84.06
275.872	93.06
276.104	84.06
276.335	89.06
276.567	96.06
276.799	88.06
277.031	97.06
277.262	97.06
277.494	82.06
277.726	81.06
277.957	87.06
278.189	90.06
278.421	88.06
278.652	89.06
278.884	93.06
279.115	93.06
279.347	94.06
279.579	85.06
279.81	80.06
280.042	89.06
280.273	93.06
280.505	82.06
280.736	88.06
280.968	80.06
281.199	93.06
281.431	100.06
281.662	84.06
281.894	81.06
282.125	90.06
282.356	120.06
282.588	115.06
282.819	107.06
283.051	79.06
283.282	82.06
283.513	81.06
283.745	92.06
283.976	92.06
284.207	91.06
284.439	77.06
284.67	95.06
284.901	81.06
285.132	88.06
285.364	73.06
285.595	82.06
285.826	90.06
286.057	90.06
286.288	83.06
286.52	98.06
286.751	84.06
286.982	102.06
287.213	85.06
287.444	81.06
287.675	82.06
287.906	84.06
288.138	96.06
288.369	99.06
288.6	91.06
288.831	93.06
289.062	93.06
289.293	89.06
289.524	90.06
289.755	103.06
289.986	84.06
290.217	78.06
290.448	73.06
290.679	84.06
290.91	89.06
291.141	72.06
291.371	76.06
291.602	99.06
291.833	89.06
292.064	87.06
292.295	81.06
292.526	96.06
292.757	104.06
292.987	87.06
293.218	89.06
293.449	84.06
293.68	89.06
293.91	92.06
294.141	86.06
294.372	95.06
294.603	95.06
294.833	78.06
295.064	86.06
295.295	81.06
295.525	87.06
295.756	90.06
295.987	108.06
296.217	123.06
296.448	109.06
296.679	90.06
296.909	87.06
297.14	96.06
297.37	94.06
297.601	87.06
297.831	85.06
298.062	80.06
298.292	91.06
298.523	89.06
298.753	81.06
298.984	85.06
299.214	95.06
299.445	94.06
299.675	84.06
299.905	89.06
300.136	86.06
300.366	85.06
300.597	92.06
300.827	90.06
301.057	82.06
301.288	101.06
301.518	83.06
301.748	93.06
301.979	101.06
302.209	74.06
302.439	85.06
302.669	60.06
302.9	81.06
303.13	86.06
303.36	92.06
303.59	84.06
303.82	104.06
304.051	84.06
304.281	77.06
304.511	97.06
304.741	85.06
304.971	95.06
305.201	97.06
305.431	78.06
305.661	87.06
305.891	77.06
306.121	85.06
306.352	103.06
306.582	94.06
306.812	77.06
307.042	82.06
307.272	111.06
307.502	102.06
307.731	90.06
307.961	100.06
308.191	82.06
308.421	96.06
308.651	87.06
308.881	92.06
309.111	89.06
309.341	101.06
309.571	113.06
309.8	96.06
310.03	89.06
310.26	99.06
310.49	90.06
310.72	73.06
310.949	95.06
311.179	93.06
311.409	86.06
311.639	97.06
311.868	92.06
312.098	96.06
312.328	95.06
312.557	96.06
312.787	97.06
313.017	101.06
313.246	93.06
313.476	105.06
313.706	83.06
313.935	106.06
314.165	91.06
314.394	93.06
314.624	92.06
314.853	80.06
315.083	97.06
315.312	91.06
315.542	82.06
315.771	96.06
316.001	90.06
316.23	92.06
316.46	87.06
316.689	83.06
316.919	94.06
317.148	96.06
317.377	89.06
317.607	80.06
317.836	83.06
318.065	96.06
318.295	67.06
318.524	92.06
318.753	85.06
318.983	89.06
319.212	100.06
319.441	104.06
319.67	105.06
319.9	85.06
320.129	83.06
320.358	96.06
320.587	91.06
320.816	96.06
321.046	92.06
321.275	86.06
321.504	108.06
321.733	100.06
321.962	81.06
322.191	93.06
322.42	111.06
322.649	106.06
322.878	118.06
323.108	97.06
323.337	111.06
323.566	116.06
323.795	140.06
324.024	172.06
324.253	313.06
324.482	614.06
324.71	1288.06
324.939	1687.06
325.168	636.06
325.397	207.06
325.626	133.06
325.855	118.06
326.084	113.06
326.313	114.06
326.542	126.06
326.77	203.06
326.999	369.06
327.228	755.06
327.457	1352.06
327.686	1062.06
327.914	309.06
328.143	200.06
328.372	178.06
328.6	126.06
328.829	105.06
329.058	111.06
329.287	124.06
329.515	92.06
329.744	99.06
329.972	146.06
330.201	206.06
330.43	259.06
330.658	170.06
330.887	124.06
331.115	104.06
331.344	80.06
331.572	96.06
331.801	111.06
332.03	88.06
332.258	109.06
332.486	88.06
332.715	100.06
332.943	89.06
333.172	91.06
333.4	95.06
333.629	114.06
333.857	117.06
334.085	128.06
334.314	208.06
334.542	325.06
334.771	284.06
334.999	130.06
335.227	100.06
335.455	102.06
335.684	97.06
335.912	96.06
336.14	101.06
336.369	104.06
336.597	102.06
336.825	93.06
337.053	91.06
337.281	93.06
337.51	92.06
337.738	99.06
337.966	82.06
338.194	94.06
338.422	109.06
338.65	90.06
338.878	102.06
339.106	96.06
339.334	92.06
339.562	96.06
339.79	86.06
340.018	89.06
340.246	86.06
340.474	78.06
340.702	89.06
340.93	89.06
341.158	80.06
341.386	98.06
341.614	83.06
341.842	86.06
342.07	92.06
342.298	100.06
342.526	92.06
342.754	80.06
342.981	87.06
343.209	92.06
343.437	97.06
343.665	94.06
343.893	96.06
344.12	80.06
344.348	83.06
344.576	88.06
344.804	92.06
345.031	104.06
345.259	93.06
345.487	88.06
345.714	83.06
345.942	90.06
346.17	104.06
346.397	88.06
346.625	93.06
346.853	80.06
347.08	86.06
347.308	95.06
347.535	102.06
347.763	97.06
347.99	101.06
348.218	96.06
348.445	93.06
348.673	99.06
348.9	88.06
349.128	95.06
349.355	93.06
349.583	85.06
349.81	86.06
350.037	89.06
350.265	107.06
350.492	97.06
350.72	94.06
350.947	84.06
351.174	99.06
351.402	119.06
351.629	92.06
351.856	108.06
352.083	97.06
352.311	85.06
352.538	100.06
352.765	102.06
352.992	100.06
353.22	108.06
353.447	96.06
353.674	105.06
353.901	98.06
354.128	76.06
354.355	89.06
354.583	101.06
354.81	96.06
355.037	105.06
355.264	98.06
355.491	101.06
355.718	94.06
355.945	98.06
356.172	89.06
356.399	98.06
356.626	100.06
356.853	92.06
357.08	84.06
357.307	87.06
357.534	109.06
357.761	94.06
357.988	94.06
358.215	90.06
358.441	91.06
358.668	89.06
358.895	91.06
359.122	89.06
359.349	91.06
359.576	94.06
359.802	102.06
360.029	96.06
360.256	101.06
360.483	88.06
360.709	92.06
360.936	96.06
361.163	90.06
361.39	77.06
361.616	90.06
361.843	76.06
362.07	78.06
362.296	109.06
362.523	82.06
362.749	97.06
362.976	79.06
363.203	95.06
363.429	98.06
363.656	106.06
363.882	85.06
364.109	96.06
364.335	86.06
364.562	91.06
364.788	74.06
365.015	92.06
365.241	120.06
365.468	107.06
365.694	102.06
365.92	82.06
366.147	90.06
366.373	74.06
366.599	74.06
366.826	94.06
367.052	83.06
367.278	90.06
367.505	81.06
367.731	85.06
367.957	91.06
368.184	87.06
368.41	89.06
368.636	98.06
368.862	101.06
369.089	98.06
369.315	91.06
369.541	86.06
369.767	94.06
369.993	91.06
370.219	90.06
370.445	89.06
370.672	84.06
370.898	88.06
371.124	74.06
371.35	87.06
371.576	100.06
371.802	88.06
372.028	84.06
372.254	82.06
372.48	90.06
372.706	79.06
372.932	84.06
373.158	98.06
373.384	84.06
373.61	91.06
373.835	84.06
374.061	83.06
374.287	95.06
374.513	99.06
374.739	81.06
374.965	92.06
375.191	97.06
375.416	90.06
375.642	82.06
375.868	92.06
376.094	84.06
376.319	98.06
376.545	88.06
376.771	85.06
376.997	83.06
377.222	72.06
377.448	101.06
377.674	85.06
377.899	102.06
378.125	105.06
378.35	86.06
378.576	94.06
378.802	90.06
379.027	98.06
379.253	93.06
379.478	98.06
379.704	83.06
379.929	91.06
380.155	85.06
380.38	73.06
380.606	90.06
380.831	82.06
381.057	94.06
381.282	91.06
381.507	88.06
381.733	84.06
381.958	87.06
382.184	100.06
382.409	80.06
382.634	92.06
382.86	107.06
383.085	94.06
383.31	101.06
383.535	97.06
383.761	89.06
383.986	95.06
384.211	99.06
384.436	85.06
384.662	95.06
384.887	101.06
385.112	94.06
385.337	91.06
385.562	101.06
385.787	101.06
386.013	105.06
386.238	115.06
386.463	105.06
386.688	105.06
386.913	108.06
387.138	107.06
387.363	102.06
387.588	91.06
387.813	83.06
388.038	90.06
388.263	115.06
388.488	103.06
388.713	88.06
388.938	98.06
389.163	93.06
389.387	94.06
389.612	97.06
389.837	108.06
390.062	85.06
390.287	88.06
390.512	90.06
390.736	101.06
390.961	91.06
391.186	86.06
391.411	92.06
391.636	95.06
391.86	96.06
392.085	87.06
392.31	90.06
392.534	83.06
392.759	80.06
392.984	88.06
393.208	88.06
393.433	112.06
393.658	100.06
393.882	73.06
394.107	80.06
394.331	90.06
394.556	83.06
394.78	91.06
395.005	83.06
395.229	93.06
395.454	83.06
395.678	90.06
395.903	78.06
396.127	72.06
396.352	91.06
396.576	85.06
396.801	92.06
397.025	96.06
397.249	100.06
397.474	91.06
397.698	88.06
397.922	72.06
398.147	85.06
398.371	84.06
398.595	88.06
398.82	78.06
399.044	79.06
399.268	88.06
399.492	77.06
399.717	82.06
399.941	89.06
400.165	97.06
400.389	90.06
400.613	72.06
400.837	73.06
401.062	69.06
401.286	86.06
401.51	93.06
401.734	88.06
401.958	74.06
402.182	104.06
402.406	129.06
402.63	103.06
402.854	86.06
403.078	73.06
403.302	69.06
403.526	88.06
403.75	80.06
403.974	88.06
404.198	80.06
404.422	80.06
404.645	96.06
404.869	91.06
405.093	105.06
405.317	106.06
405.541	90.06
405.765	92.06
405.988	116.06
406.212	133.06
406.436	165.06
406.66	131.06
406.883	96.06
407.107	84.06
407.331	97.06
407.555	99.06
407.778	91.06
408.002	91.06
408.226	85.06
408.449	77.06
408.673	98.06
408.896	89.06
409.12	76.06
409.344	96.06
409.567	86.06
409.791	85.06
410.014	90.06
410.238	90.06
410.461	94.06
410.685	97.06
410.908	86.06
411.132	105.06
411.355	103.06
411.578	96.06
411.802	101.06
412.025	80.06
412.249	88.06
412.472	87.06
412.695	105.06
412.919	94.06
413.142	95.06
413.365	88.06
413.589	78.06
413.812	95.06
414.035	94.06
414.258	76.06
414.482	92.06
414.705	90.06
414.928	75.06
415.151	91.06
415.374	78.06
415.597	88.06
415.821	81.06
416.044	89.06
416.267	98.06
416.49	90.06
416.713	95.06
416.936	90.06
417.159	89.06
417.382	87.06
417.605	98.06
417.828	85.06
418.051	94.06
418.274	85.06
418.497	98.06
418.72	99.06
418.943	96.06
419.166	95.06
419.389	85.06
419.611	88.06
419.834	97.06
420.057	90.06
420.28	85.06
420.503	88.06
420.726	70.06
420.948	94.06
421.171	104.06
421.394	88.06
421.617	93.06
421.839	88.06
422.062	88.06
422.285	85.06
422.507	99.06
422.73	100.06
422.953	96.06
423.175	98.06
423.398	105.06
423.621	78.06
423.843	78.06
424.066	82.06
424.288	84.06
424.511	96.06
424.733	93.06
424.956	98.06
425.178	83.06
425.401	105.06
425.623	103.06
425.846	91.06
426.068	91.06
426.291	85.06
426.513	78.06
426.735	77.06
426.958	107.06
427.18	109.06
427.402	113.06
427.625	137.06
427.847	131.06
428.069	119.06
428.292	83.06
428.514	88.06
428.736	83.06
428.958	86.06
429.181	97.06
429.403	74.06
429.625	93.06
429.847	68.06
430.069	84.06
430.292	64.06
430.514	85.06
430.736	81.06
430.958	93.06
431.18	75.06
431.402	83.06
431.624	89.06
431.846	93.06
432.068	96.06
432.29	91.06
432.512	86.06
432.734	83.06
432.956	96.06
433.178	99.06
433.4	94.06
433.622	77.06
433.844	97.06
434.066	101.06
434.287	92.06
434.509	95.06
434.731	82.06
434.953	85.06
435.175	91.06
435.397	94.06
435.618	100.06
435.84	100.06
436.062	112.06
436.284	115.06
436.505	107.06
436.727	100.06
436.949	97.06
437.17	87.06
437.392	88.06
437.614	94.06
437.835	93.06
438.057	90.06
438.278	90.06
438.5	100.06
438.721	106.06
438.943	91.06
439.165	81.06
439.386	81.06
439.608	92.06
439.829	98.06
440.05	112.06
440.272	102.06
440.493	92.06
440.715	93.06
440.936	65.06
441.158	89.06
441.379	88.06
441.6	96.06
441.822	96.06
442.043	82.06
442.264	90.06
442.486	96.06
442.707	94.06
442.928	80.06
443.149	122.06
443.371	115.06
443.592	88.06
443.813	106.06
444.034	103.06
444.255	99.06
444.476	93.06
444.698	82.06
444.919	73.06
445.14	131.06
445.361	113.06
445.582	99.06
445.803	112.06
446.024	125.06
446.245	128.06
446.466	94.06
446.687	84.06
446.908	89.06
447.129	78.06
447.35	83.06
447.571	93.06
447.792	93.06
448.013	95.06
448.234	98.06
448.455	95.06
448.675	93.06
448.896	101.06
449.117	96.06
449.338	92.06
449.559	135.06
449.779	123.06
450	101.06
450.221	90.06
450.442	74.06
450.662	89.06
450.883	82.06
451.104	96.06
451.324	92.06
451.545	88.06
451.766	81.06
451.986	90.06
452.207	80.06
452.428	83.06
452.648	96.06
452.869	84.06
453.089	97.06
453.31	107.06
453.53	94.06
453.751	85.06
453.971	98.06
454.192	99.06
454.412	70.06
454.633	86.06
454.853	85.06
455.073	82.06
455.294	90.06
455.514	82.06
455.734	89.06
455.955	84.06
456.175	76.06
456.395	73.06
456.616	86.06
456.836	86.06
457.056	80.06
457.276	86.06
457.497	76.06
457.717	79.06
457.937	79.06
458.157	84.06
458.377	78.06
458.598	91.06
458.818	111.06
459.038	138.06
459.258	98.06
459.478	77.06
459.698	86.06
459.918	86.06
460.138	89.06
460.358	76.06
460.578	79.06
460.798	84.06
461.018	78.06
461.238	74.06
461.458	82.06
461.678	68.06
461.898	88.06
462.118	99.06
462.338	82.06
462.558	77.06
462.777	70.06
462.997	82.06
463.217	88.06
463.437	86.06
463.657	103.06
463.876	76.06
464.096	90.06
464.316	89.06
464.536	84.06
464.755	88.06
464.975	96.06
465.195	125.06
465.414	137.06
465.634	76.06
465.854	82.06
466.073	90.06
466.293	86.06
466.512	90.06
466.732	94.06
466.951	97.06
467.171	98.06
467.391	105.06
467.61	98.06
467.829	110.06
468.049	155.06
468.268	185.06
468.488	107.06
468.707	70.06
468.927	83.06
469.146	83.06
469.365	91.06
469.585	95.06
469.804	96.06
470.023	92.06
470.243	80.06
470.462	102.06
470.681	105.06
470.901	91.06
471.12	88.06
471.339	79.06
471.558	75.06
471.777	94.06
471.997	104.06
472.216	237.06
472.435	431.06
472.654	150.06
472.873	96.06
473.092	90.06
473.311	90.06
473.53	86.06
473.749	75.06
473.968	100.06
474.187	94.06
474.406	78.06
474.625	94.06
474.844	86.06
475.063	84.06
475.282	85.06
475.501	84.06
475.72	83.06
475.939	88.06
476.158	80.06
476.377	89.06
476.596	93.06
476.814	81.06
477.033	95.06
477.252	76.06
477.471	74.06
477.69	85.06
477.908	78.06
478.127	97.06
478.346	93.06
478.564	82.06
478.783	96.06
479.002	86.06
479.22	101.06
479.439	95.06
479.658	80.06
479.876	90.06
480.095	92.06
480.313	87.06
480.532	94.06
480.751	114.06
480.969	236.06
481.188	763.06
481.406	426.06
481.624	126.06
481.843	92.06
482.061	89.06
482.28	72.06
482.498	88.06
482.717	79.06
482.935	88.06
483.153	95.06
483.372	82.06
483.59	88.06
483.808	100.06
484.027	97.06
484.245	82.06
484.463	93.06
484.681	93.06
484.9	80.06
485.118	95.06
485.336	82.06
485.554	87.06
485.772	101.06
485.99	97.06
486.209	115.06
486.427	112.06
486.645	119.06
486.863	115.06
487.081	101.06
487.299	104.06
487.517	84.06
487.735	101.06
487.953	76.06
488.171	103.06
488.389	102.06
488.607	101.06
488.825	83.06
489.043	98.06
489.261	88.06
489.479	75.06
489.696	91.06
489.914	79.06
490.132	95.06
490.35	83.06
490.568	94.06
490.786	80.06
491.003	84.06
491.221	96.06
491.439	84.06
491.657	86.06
491.874	102.06
492.092	77.06
492.31	93.06
492.527	90.06
492.745	76.06
492.963	86.06
493.18	90.06
493.398	87.06
493.615	89.06
493.833	101.06
494.05	99.06
494.268	102.06
494.485	84.06
494.703	91.06
494.92	102.06
495.138	91.06
495.355	98.06
495.573	91.06
495.79	93.06
496.008	97.06
496.225	88.06
496.442	99.06
496.66	90.06
496.877	74.06
497.094	89.06
497.312	92.06
497.529	93.06
497.746	95.06
497.963	84.06
498.181	77.06
498.398	87.06
498.615	98.06
498.832	83.06
499.049	99.06
499.267	99.06
499.484	84.06
499.701	79.06
499.918	97.06
500.135	91.06
500.352	87.06
500.569	82.06
500.786	72.06
501.003	88.06
501.22	94.06
501.437	72.06
501.654	94.06
501.871	104.06
502.088	94.06
502.305	93.06
502.522	78.06
502.739	101.06
502.956	94.06
503.172	91.06
503.389	92.06
503.606	86.06
503.823	97.06
504.04	85.06
504.256	91.06
504.473	86.06
504.69	90.06
504.907	93.06
505.123	84.06
505.34	77.06
505.557	92.06
505.773	83.06
505.99	90.06
506.207	76.06
506.423	77.06
506.64	78.06
506.856	69.06
507.073	89.06
507.289	95.06
507.506	93.06
507.722	107.06
507.939	97.06
508.155	79.06
508.372	85.06
508.588	95.06
508.805	78.06
509.021	94.06
509.238	89.06
509.454	91.06
509.67	93.06
509.887	89.06
510.103	116.06
510.319	183.06
510.536	573.06
510.752	1637.06
510.968	492.06
511.184	123.06
511.401	101.06
511.617	99.06
511.833	92.06
512.049	78.06
512.265	84.06
512.481	97.06
512.698	76.06
512.914	88.06
513.13	86.06
513.346	100.06
513.562	92.06
513.778	93.06
513.994	95.06
514.21	94.06
514.426	87.06
514.642	107.06
514.858	123.06
515.074	144.06
515.29	316.06
515.506	947.06
515.721	366.06
515.937	129.06
516.153	92.06
516.369	99.06
516.585	90.06
