Data from Circ_1993_H10_HRD10591_00044.txt Node
Date: Wed Jan 03 11:44:10 EST 2024
User: Yrep
Spectrometer: HR+D1059
Trigger mode: 1
Integration Time (sec): 1.000000E-1
Scans to average: 1
Electric dark correction enabled: true
Nonlinearity correction enabled: false
Boxcar width: 0
XAxis mode: Wavelengths
Number of Pixels in Spectrum: 2048
>>>>>Begin Spectral Data<<<<<
223.165	-20.12
223.4	-20.12
223.635	-20.12
223.869	-29.12
224.104	-26.12
224.338	-5.12
224.573	-23.12
224.808	-2.12
225.042	-21.12
225.277	-12.12
225.511	-4.12
225.746	4.88
225.98	6.88
226.215	17.88
226.449	20.88
226.683	31.88
226.918	21.88
227.152	38.88
227.387	35.88
227.621	39.88
227.856	43.88
228.09	53.88
228.324	52.88
228.559	52.88
228.793	70.88
229.027	57.88
229.262	73.88
229.496	61.88
229.73	78.88
229.964	83.88
230.199	80.88
230.433	68.88
230.667	77.88
230.901	77.88
231.136	70.88
231.37	85.88
231.604	97.88
231.838	66.88
232.072	83.88
232.306	85.88
232.541	84.88
232.775	91.88
233.009	79.88
233.243	77.88
233.477	90.88
233.711	71.88
233.945	80.88
234.179	73.88
234.413	76.88
234.647	89.88
234.881	66.88
235.115	82.88
235.349	88.88
235.583	80.88
235.817	75.88
236.051	81.88
236.285	86.88
236.519	74.88
236.753	76.88
236.987	84.88
237.221	74.88
237.455	73.88
237.689	77.88
237.922	71.88
238.156	78.88
238.39	71.88
238.624	84.88
238.858	91.88
239.091	77.88
239.325	74.88
239.559	79.88
239.793	75.88
240.027	101.88
240.26	81.88
240.494	77.88
240.728	81.88
240.961	79.88
241.195	85.88
241.429	77.88
241.662	76.88
241.896	74.88
242.13	60.88
242.363	76.88
242.597	83.88
242.83	71.88
243.064	93.88
243.298	67.88
243.531	80.88
243.765	89.88
243.998	78.88
244.232	79.88
244.465	82.88
244.699	82.88
244.932	76.88
245.166	81.88
245.399	79.88
245.633	74.88
245.866	89.88
246.099	74.88
246.333	76.88
246.566	74.88
246.8	75.88
247.033	77.88
247.266	77.88
247.5	68.88
247.733	81.88
247.966	94.88
248.2	74.88
248.433	88.88
248.666	78.88
248.899	79.88
249.133	73.88
249.366	100.88
249.599	81.88
249.832	81.88
250.066	67.88
250.299	85.88
250.532	79.88
250.765	98.88
250.998	81.88
251.231	68.88
251.465	79.88
251.698	75.88
251.931	75.88
252.164	78.88
252.397	68.88
252.63	85.88
252.863	75.88
253.096	69.88
253.329	88.88
253.562	82.88
253.795	73.88
254.028	82.88
254.261	77.88
254.494	89.88
254.727	92.88
254.96	66.88
255.193	78.88
255.426	75.88
255.659	65.88
255.892	68.88
256.124	78.88
256.357	102.88
256.59	85.88
256.823	69.88
257.056	82.88
257.289	81.88
257.521	78.88
257.754	86.88
257.987	67.88
258.22	78.88
258.452	82.88
258.685	77.88
258.918	66.88
259.151	73.88
259.383	84.88
259.616	67.88
259.849	91.88
260.081	76.88
260.314	83.88
260.547	86.88
260.779	85.88
261.012	89.88
261.244	79.88
261.477	83.88
261.71	87.88
261.942	110.88
262.175	109.88
262.407	86.88
262.64	81.88
262.872	79.88
263.105	92.88
263.337	66.88
263.57	81.88
263.802	77.88
264.035	87.88
264.267	82.88
264.499	93.88
264.732	75.88
264.964	105.88
265.197	81.88
265.429	86.88
265.661	82.88
265.894	82.88
266.126	84.88
266.358	85.88
266.591	83.88
266.823	88.88
267.055	81.88
267.287	85.88
267.52	77.88
267.752	75.88
267.984	73.88
268.216	82.88
268.448	99.88
268.681	95.88
268.913	83.88
269.145	94.88
269.377	83.88
269.609	70.88
269.841	80.88
270.073	72.88
270.306	58.88
270.538	67.88
270.77	82.88
271.002	88.88
271.234	92.88
271.466	92.88
271.698	78.88
271.93	77.88
272.162	91.88
272.394	100.88
272.626	70.88
272.858	93.88
273.09	81.88
273.322	90.88
273.553	88.88
273.785	97.88
274.017	85.88
274.249	83.88
274.481	88.88
274.713	79.88
274.945	91.88
275.176	81.88
275.408	97.88
275.64	92.88
275.872	84.88
276.104	83.88
276.335	79.88
276.567	99.88
276.799	99.88
277.031	100.88
277.262	86.88
277.494	103.88
277.726	78.88
277.957	92.88
278.189	87.88
278.421	88.88
278.652	77.88
278.884	77.88
279.115	96.88
279.347	94.88
279.579	87.88
279.81	109.88
280.042	73.88
280.273	82.88
280.505	90.88
280.736	93.88
280.968	87.88
281.199	96.88
281.431	87.88
281.662	92.88
281.894	94.88
282.125	101.88
282.356	101.88
282.588	115.88
282.819	97.88
283.051	93.88
283.282	79.88
283.513	90.88
283.745	95.88
283.976	98.88
284.207	93.88
284.439	80.88
284.67	90.88
284.901	94.88
285.132	79.88
285.364	87.88
285.595	80.88
285.826	86.88
286.057	78.88
286.288	84.88
286.52	87.88
286.751	91.88
286.982	83.88
287.213	86.88
287.444	93.88
287.675	88.88
287.906	93.88
288.138	73.88
288.369	91.88
288.6	86.88
288.831	85.88
289.062	79.88
289.293	88.88
289.524	93.88
289.755	83.88
289.986	90.88
290.217	87.88
290.448	96.88
290.679	83.88
290.91	78.88
291.141	90.88
291.371	90.88
291.602	81.88
291.833	102.88
292.064	90.88
292.295	90.88
292.526	93.88
292.757	74.88
292.987	78.88
293.218	93.88
293.449	81.88
293.68	83.88
293.91	95.88
294.141	82.88
294.372	92.88
294.603	95.88
294.833	95.88
295.064	90.88
295.295	94.88
295.525	85.88
295.756	94.88
295.987	111.88
296.217	113.88
296.448	103.88
296.679	97.88
296.909	87.88
297.14	94.88
297.37	95.88
297.601	92.88
297.831	97.88
298.062	81.88
298.292	89.88
298.523	82.88
298.753	83.88
298.984	91.88
299.214	85.88
299.445	98.88
299.675	93.88
299.905	110.88
300.136	89.88
300.366	90.88
300.597	93.88
300.827	91.88
301.057	92.88
301.288	93.88
301.518	90.88
301.748	86.88
301.979	109.88
302.209	87.88
302.439	88.88
302.669	80.88
302.9	85.88
303.13	99.88
303.36	83.88
303.59	96.88
303.82	98.88
304.051	91.88
304.281	86.88
304.511	88.88
304.741	73.88
304.971	87.88
305.201	84.88
305.431	91.88
305.661	79.88
305.891	92.88
306.121	88.88
306.352	103.88
306.582	104.88
306.812	82.88
307.042	83.88
307.272	98.88
307.502	109.88
307.731	110.88
307.961	98.88
308.191	73.88
308.421	85.88
308.651	86.88
308.881	88.88
309.111	100.88
309.341	97.88
309.571	97.88
309.8	93.88
310.03	100.88
310.26	99.88
310.49	91.88
310.72	97.88
310.949	118.88
311.179	98.88
311.409	88.88
311.639	101.88
311.868	98.88
312.098	106.88
312.328	100.88
312.557	84.88
312.787	87.88
313.017	95.88
313.246	86.88
313.476	94.88
313.706	94.88
313.935	86.88
314.165	94.88
314.394	95.88
314.624	85.88
314.853	104.88
315.083	83.88
315.312	90.88
315.542	79.88
315.771	94.88
316.001	89.88
316.23	89.88
316.46	84.88
316.689	95.88
316.919	105.88
317.148	99.88
317.377	98.88
317.607	85.88
317.836	82.88
318.065	94.88
318.295	86.88
318.524	82.88
318.753	98.88
318.983	95.88
319.212	98.88
319.441	97.88
319.67	104.88
319.9	86.88
320.129	96.88
320.358	95.88
320.587	82.88
320.816	83.88
321.046	87.88
321.275	97.88
321.504	94.88
321.733	97.88
321.962	96.88
322.191	100.88
322.42	109.88
322.649	110.88
322.878	103.88
323.108	103.88
323.337	119.88
323.566	112.88
323.795	127.88
324.024	161.88
324.253	320.88
324.482	654.88
324.71	1311.88
324.939	1717.88
325.168	644.88
325.397	207.88
325.626	132.88
325.855	111.88
326.084	113.88
326.313	110.88
326.542	134.88
326.77	214.88
326.999	355.88
327.228	759.88
327.457	1309.88
327.686	1049.88
327.914	306.88
328.143	181.88
328.372	150.88
328.6	138.88
328.829	105.88
329.058	123.88
329.287	115.88
329.515	93.88
329.744	94.88
329.972	113.88
330.201	159.88
330.43	175.88
330.658	131.88
330.887	126.88
331.115	121.88
331.344	103.88
331.572	103.88
331.801	106.88
332.03	99.88
332.258	109.88
332.486	81.88
332.715	91.88
332.943	93.88
333.172	84.88
333.4	82.88
333.629	101.88
333.857	112.88
334.085	122.88
334.314	158.88
334.542	211.88
334.771	207.88
334.999	117.88
335.227	97.88
335.455	98.88
335.684	103.88
335.912	110.88
336.14	89.88
336.369	100.88
336.597	104.88
336.825	101.88
337.053	97.88
337.281	91.88
337.51	95.88
337.738	90.88
337.966	93.88
338.194	87.88
338.422	81.88
338.65	96.88
338.878	95.88
339.106	89.88
339.334	95.88
339.562	86.88
339.79	84.88
340.018	88.88
340.246	98.88
340.474	96.88
340.702	90.88
340.93	91.88
341.158	91.88
341.386	78.88
341.614	96.88
341.842	84.88
342.07	74.88
342.298	101.88
342.526	92.88
342.754	106.88
342.981	69.88
343.209	98.88
343.437	111.88
343.665	86.88
343.893	102.88
344.12	86.88
344.348	86.88
344.576	97.88
344.804	89.88
345.031	96.88
345.259	84.88
345.487	96.88
345.714	97.88
345.942	90.88
346.17	93.88
346.397	89.88
346.625	95.88
346.853	86.88
347.08	90.88
347.308	87.88
347.535	105.88
347.763	109.88
347.99	107.88
348.218	92.88
348.445	96.88
348.673	96.88
348.9	95.88
349.128	97.88
349.355	95.88
349.583	100.88
349.81	87.88
350.037	93.88
350.265	95.88
350.492	98.88
350.72	100.88
350.947	107.88
351.174	114.88
351.402	104.88
351.629	102.88
351.856	107.88
352.083	91.88
352.311	102.88
352.538	92.88
352.765	89.88
352.992	114.88
353.22	101.88
353.447	115.88
353.674	99.88
353.901	99.88
354.128	83.88
354.355	108.88
354.583	91.88
354.81	89.88
355.037	102.88
355.264	102.88
355.491	99.88
355.718	103.88
355.945	102.88
356.172	91.88
356.399	94.88
356.626	102.88
356.853	81.88
357.08	90.88
357.307	101.88
357.534	98.88
357.761	99.88
357.988	97.88
358.215	93.88
358.441	103.88
358.668	88.88
358.895	96.88
359.122	77.88
359.349	85.88
359.576	92.88
359.802	82.88
360.029	111.88
360.256	109.88
360.483	110.88
360.709	96.88
360.936	87.88
361.163	92.88
361.39	93.88
361.616	108.88
361.843	89.88
362.07	83.88
362.296	96.88
362.523	90.88
362.749	78.88
362.976	81.88
363.203	96.88
363.429	87.88
363.656	79.88
363.882	87.88
364.109	113.88
364.335	108.88
364.562	74.88
364.788	95.88
365.015	101.88
365.241	84.88
365.468	113.88
365.694	94.88
365.92	95.88
366.147	97.88
366.373	82.88
366.599	90.88
366.826	88.88
367.052	69.88
367.278	93.88
367.505	73.88
367.731	91.88
367.957	89.88
368.184	86.88
368.41	82.88
368.636	98.88
368.862	124.88
369.089	112.88
369.315	83.88
369.541	99.88
369.767	76.88
369.993	105.88
370.219	86.88
370.445	86.88
370.672	81.88
370.898	94.88
371.124	77.88
371.35	100.88
371.576	98.88
371.802	96.88
372.028	84.88
372.254	85.88
372.48	104.88
372.706	95.88
372.932	83.88
373.158	100.88
373.384	95.88
373.61	93.88
373.835	83.88
374.061	90.88
374.287	75.88
374.513	108.88
374.739	88.88
374.965	78.88
375.191	93.88
375.416	101.88
375.642	91.88
375.868	98.88
376.094	89.88
376.319	78.88
376.545	96.88
376.771	104.88
376.997	90.88
377.222	97.88
377.448	86.88
377.674	91.88
377.899	73.88
378.125	91.88
378.35	96.88
378.576	85.88
378.802	93.88
379.027	96.88
379.253	92.88
379.478	102.88
379.704	112.88
379.929	99.88
380.155	99.88
380.38	91.88
380.606	110.88
380.831	111.88
381.057	97.88
381.282	98.88
381.507	103.88
381.733	105.88
381.958	88.88
382.184	107.88
382.409	105.88
382.634	103.88
382.86	99.88
383.085	109.88
383.31	131.88
383.535	109.88
383.761	121.88
383.986	108.88
384.211	100.88
384.436	92.88
384.662	100.88
384.887	107.88
385.112	104.88
385.337	112.88
385.562	118.88
385.787	85.88
386.013	116.88
386.238	131.88
386.463	129.88
386.688	100.88
386.913	123.88
387.138	113.88
387.363	108.88
387.588	104.88
387.813	115.88
388.038	104.88
388.263	114.88
388.488	110.88
388.713	93.88
388.938	92.88
389.163	99.88
389.387	90.88
389.612	109.88
389.837	89.88
390.062	102.88
390.287	92.88
390.512	101.88
390.736	111.88
390.961	83.88
391.186	94.88
391.411	80.88
391.636	101.88
391.86	93.88
392.085	81.88
392.31	95.88
392.534	83.88
392.759	86.88
392.984	95.88
393.208	111.88
393.433	130.88
393.658	134.88
393.882	84.88
394.107	74.88
394.331	87.88
394.556	91.88
394.78	98.88
395.005	85.88
395.229	93.88
395.454	80.88
395.678	85.88
395.903	93.88
396.127	86.88
396.352	91.88
396.576	86.88
396.801	100.88
397.025	110.88
397.249	106.88
397.474	93.88
397.698	102.88
397.922	95.88
398.147	99.88
398.371	96.88
398.595	86.88
398.82	92.88
399.044	80.88
399.268	98.88
399.492	97.88
399.717	97.88
399.941	95.88
400.165	99.88
400.389	85.88
400.613	98.88
400.837	88.88
401.062	94.88
401.286	79.88
401.51	79.88
401.734	79.88
401.958	107.88
402.182	118.88
402.406	143.88
402.63	114.88
402.854	80.88
403.078	90.88
403.302	74.88
403.526	84.88
403.75	89.88
403.974	86.88
404.198	100.88
404.422	81.88
404.645	91.88
404.869	81.88
405.093	95.88
405.317	109.88
405.541	94.88
405.765	85.88
405.988	102.88
406.212	145.88
406.436	182.88
406.66	133.88
406.883	94.88
407.107	88.88
407.331	95.88
407.555	111.88
407.778	100.88
408.002	93.88
408.226	77.88
408.449	101.88
408.673	86.88
408.896	89.88
409.12	100.88
409.344	89.88
409.567	82.88
409.791	98.88
410.014	91.88
410.238	102.88
410.461	84.88
410.685	100.88
410.908	82.88
411.132	106.88
411.355	110.88
411.578	90.88
411.802	97.88
412.025	90.88
412.249	90.88
412.472	82.88
412.695	99.88
412.919	96.88
413.142	80.88
413.365	80.88
413.589	96.88
413.812	98.88
414.035	90.88
414.258	89.88
414.482	94.88
414.705	95.88
414.928	98.88
415.151	92.88
415.374	94.88
415.597	103.88
415.821	80.88
416.044	99.88
416.267	88.88
416.49	86.88
416.713	94.88
416.936	93.88
417.159	87.88
417.382	78.88
417.605	86.88
417.828	96.88
418.051	90.88
418.274	87.88
418.497	93.88
418.72	79.88
418.943	86.88
419.166	65.88
419.389	95.88
419.611	84.88
419.834	91.88
420.057	96.88
420.28	85.88
420.503	73.88
420.726	92.88
420.948	87.88
421.171	93.88
421.394	91.88
421.617	90.88
421.839	86.88
422.062	90.88
422.285	89.88
422.507	97.88
422.73	107.88
422.953	117.88
423.175	107.88
423.398	79.88
423.621	93.88
423.843	94.88
424.066	89.88
424.288	91.88
424.511	102.88
424.733	94.88
424.956	96.88
425.178	83.88
425.401	98.88
425.623	84.88
425.846	89.88
426.068	79.88
426.291	93.88
426.513	88.88
426.735	83.88
426.958	95.88
427.18	114.88
427.402	116.88
427.625	151.88
427.847	129.88
428.069	117.88
428.292	90.88
428.514	80.88
428.736	86.88
428.958	87.88
429.181	83.88
429.403	94.88
429.625	75.88
429.847	84.88
430.069	94.88
430.292	85.88
430.514	97.88
430.736	77.88
430.958	89.88
431.18	89.88
431.402	95.88
431.624	88.88
431.846	91.88
432.068	74.88
432.29	93.88
432.512	95.88
432.734	93.88
432.956	95.88
433.178	101.88
433.4	92.88
433.622	94.88
433.844	78.88
434.066	91.88
434.287	86.88
434.509	84.88
434.731	93.88
434.953	85.88
435.175	90.88
435.397	81.88
435.618	95.88
435.84	97.88
436.062	96.88
436.284	109.88
436.505	107.88
436.727	106.88
436.949	96.88
437.17	94.88
437.392	93.88
437.614	102.88
437.835	108.88
438.057	112.88
438.278	112.88
438.5	96.88
438.721	113.88
438.943	84.88
439.165	96.88
439.386	87.88
439.608	92.88
439.829	94.88
440.05	115.88
440.272	101.88
440.493	91.88
440.715	82.88
440.936	102.88
441.158	105.88
441.379	93.88
441.6	82.88
441.822	95.88
442.043	90.88
442.264	89.88
442.486	84.88
442.707	79.88
442.928	97.88
443.149	126.88
443.371	97.88
443.592	95.88
443.813	109.88
444.034	97.88
444.255	110.88
444.476	83.88
444.698	77.88
444.919	86.88
445.14	128.88
445.361	118.88
445.582	109.88
445.803	122.88
446.024	108.88
446.245	130.88
446.466	85.88
446.687	81.88
446.908	87.88
447.129	88.88
447.35	88.88
447.571	91.88
447.792	92.88
448.013	93.88
448.234	105.88
448.455	114.88
448.675	101.88
448.896	113.88
449.117	95.88
449.338	107.88
449.559	109.88
449.779	109.88
450	95.88
450.221	83.88
450.442	90.88
450.662	99.88
450.883	98.88
451.104	110.88
451.324	88.88
451.545	102.88
451.766	84.88
451.986	87.88
452.207	89.88
452.428	91.88
452.648	97.88
452.869	108.88
453.089	108.88
453.31	101.88
453.53	89.88
453.751	88.88
453.971	104.88
454.192	109.88
454.412	96.88
454.633	82.88
454.853	93.88
455.073	69.88
455.294	90.88
455.514	95.88
455.734	88.88
455.955	93.88
456.175	89.88
456.395	79.88
456.616	87.88
456.836	88.88
457.056	92.88
457.276	81.88
457.497	84.88
457.717	90.88
457.937	78.88
458.157	77.88
458.377	73.88
458.598	104.88
458.818	137.88
459.038	138.88
459.258	114.88
459.478	89.88
459.698	97.88
459.918	97.88
460.138	86.88
460.358	91.88
460.578	93.88
460.798	76.88
461.018	90.88
461.238	83.88
461.458	84.88
461.678	84.88
461.898	89.88
462.118	96.88
462.338	83.88
462.558	86.88
462.777	86.88
462.997	97.88
463.217	92.88
463.437	82.88
463.657	77.88
463.876	79.88
464.096	90.88
464.316	91.88
464.536	107.88
464.755	91.88
464.975	121.88
465.195	140.88
465.414	134.88
465.634	91.88
465.854	65.88
466.073	79.88
466.293	101.88
466.512	91.88
466.732	96.88
466.951	95.88
467.171	93.88
467.391	87.88
467.61	93.88
467.829	103.88
468.049	110.88
468.268	118.88
468.488	90.88
468.707	93.88
468.927	98.88
469.146	91.88
469.365	88.88
469.585	88.88
469.804	82.88
470.023	105.88
470.243	81.88
470.462	103.88
470.681	92.88
470.901	96.88
471.12	101.88
471.339	98.88
471.558	91.88
471.777	97.88
471.997	90.88
472.216	161.88
472.435	244.88
472.654	113.88
472.873	104.88
473.092	92.88
473.311	101.88
473.53	98.88
473.749	71.88
473.968	87.88
474.187	89.88
474.406	89.88
474.625	90.88
474.844	108.88
475.063	78.88
475.282	90.88
475.501	86.88
475.72	90.88
475.939	97.88
476.158	85.88
476.377	87.88
476.596	93.88
476.814	96.88
477.033	94.88
477.252	89.88
477.471	85.88
477.69	97.88
477.908	79.88
478.127	85.88
478.346	89.88
478.564	90.88
478.783	93.88
479.002	84.88
479.22	87.88
479.439	110.88
479.658	99.88
479.876	92.88
480.095	95.88
480.313	85.88
480.532	92.88
480.751	111.88
480.969	182.88
481.188	402.88
481.406	260.88
481.624	112.88
481.843	98.88
482.061	92.88
482.28	98.88
482.498	97.88
482.717	93.88
482.935	83.88
483.153	87.88
483.372	88.88
483.59	100.88
483.808	86.88
484.027	77.88
484.245	97.88
484.463	100.88
484.681	99.88
484.9	98.88
485.118	101.88
485.336	89.88
485.554	92.88
485.772	107.88
485.99	110.88
486.209	119.88
486.427	102.88
486.645	117.88
486.863	114.88
487.081	101.88
487.299	112.88
487.517	95.88
487.735	100.88
487.953	96.88
488.171	97.88
488.389	89.88
488.607	95.88
488.825	88.88
489.043	91.88
489.261	98.88
489.479	86.88
489.696	85.88
489.914	81.88
490.132	94.88
490.35	98.88
490.568	93.88
490.786	84.88
491.003	88.88
491.221	95.88
491.439	98.88
491.657	96.88
491.874	75.88
492.092	87.88
492.31	81.88
492.527	93.88
492.745	90.88
492.963	85.88
493.18	100.88
493.398	95.88
493.615	83.88
493.833	92.88
494.05	90.88
494.268	97.88
494.485	77.88
494.703	83.88
494.92	91.88
495.138	80.88
495.355	86.88
495.573	100.88
495.79	91.88
496.008	108.88
496.225	91.88
496.442	77.88
496.66	100.88
496.877	84.88
497.094	98.88
497.312	90.88
497.529	94.88
497.746	91.88
497.963	93.88
498.181	83.88
498.398	94.88
498.615	97.88
498.832	92.88
499.049	93.88
499.267	93.88
499.484	84.88
499.701	79.88
499.918	102.88
500.135	83.88
500.352	81.88
500.569	84.88
500.786	81.88
501.003	89.88
501.22	88.88
501.437	98.88
501.654	86.88
501.871	111.88
502.088	93.88
502.305	103.88
502.522	95.88
502.739	82.88
502.956	94.88
503.172	80.88
503.389	91.88
503.606	100.88
503.823	91.88
504.04	97.88
504.256	101.88
504.473	87.88
504.69	95.88
504.907	103.88
505.123	97.88
505.34	92.88
505.557	100.88
505.773	106.88
505.99	97.88
506.207	81.88
506.423	103.88
506.64	87.88
506.856	101.88
507.073	102.88
507.289	103.88
507.506	95.88
507.722	94.88
507.939	102.88
508.155	103.88
508.372	93.88
508.588	70.88
508.805	88.88
509.021	101.88
509.238	102.88
509.454	93.88
509.67	100.88
509.887	97.88
510.103	115.88
510.319	202.88
510.536	651.88
510.752	1948.88
510.968	554.88
511.184	151.88
511.401	104.88
511.617	97.88
511.833	82.88
512.049	93.88
512.265	86.88
512.481	90.88
512.698	87.88
512.914	98.88
513.13	91.88
513.346	104.88
513.562	103.88
513.778	106.88
513.994	99.88
514.21	111.88
514.426	101.88
514.642	127.88
514.858	127.88
515.074	151.88
515.29	366.88
515.506	1173.88
