Data from Circ_1993_H10_HRD10591_00053.txt Node
Date: Wed Jan 03 11:44:12 EST 2024
User: Yrep
Spectrometer: HR+D1059
Trigger mode: 1
Integration Time (sec): 1.000000E-1
Scans to average: 1
Electric dark correction enabled: true
Nonlinearity correction enabled: false
Boxcar width: 0
XAxis mode: Wavelengths
Number of Pixels in Spectrum: 2048
>>>>>Begin Spectral Data<<<<<
223.165	-25.62
223.4	-25.62
223.635	-25.62
223.869	-15.62
224.104	-28.62
224.338	-14.62
224.573	-26.62
224.808	-14.62
225.042	-4.62
225.277	10.38
225.511	0.38
225.746	8.38
225.98	11.38
226.215	23.38
226.449	9.38
226.683	16.38
226.918	23.38
227.152	27.38
227.387	35.38
227.621	45.38
227.856	47.38
228.09	36.38
228.324	43.38
228.559	45.38
228.793	51.38
229.027	77.38
229.262	59.38
229.496	79.38
229.73	101.38
229.964	78.38
230.199	71.38
230.433	77.38
230.667	76.38
230.901	82.38
231.136	73.38
231.37	80.38
231.604	83.38
231.838	82.38
232.072	86.38
232.306	83.38
232.541	71.38
232.775	81.38
233.009	97.38
233.243	84.38
233.477	81.38
233.711	75.38
233.945	79.38
234.179	73.38
234.413	79.38
234.647	100.38
234.881	82.38
235.115	80.38
235.349	84.38
235.583	75.38
235.817	82.38
236.051	77.38
236.285	76.38
236.519	79.38
236.753	92.38
236.987	77.38
237.221	89.38
237.455	79.38
237.689	73.38
237.922	76.38
238.156	64.38
238.39	87.38
238.624	84.38
238.858	73.38
239.091	81.38
239.325	91.38
239.559	89.38
239.793	73.38
240.027	92.38
240.26	81.38
240.494	86.38
240.728	78.38
240.961	63.38
241.195	76.38
241.429	85.38
241.662	81.38
241.896	92.38
242.13	86.38
242.363	77.38
242.597	82.38
242.83	72.38
243.064	78.38
243.298	78.38
243.531	71.38
243.765	88.38
243.998	63.38
244.232	78.38
244.465	92.38
244.699	81.38
244.932	72.38
245.166	64.38
245.399	77.38
245.633	84.38
245.866	79.38
246.099	77.38
246.333	78.38
246.566	75.38
246.8	77.38
247.033	66.38
247.266	83.38
247.5	83.38
247.733	82.38
247.966	86.38
248.2	80.38
248.433	81.38
248.666	78.38
248.899	97.38
249.133	82.38
249.366	80.38
249.599	94.38
249.832	69.38
250.066	81.38
250.299	86.38
250.532	83.38
250.765	85.38
250.998	85.38
251.231	79.38
251.465	70.38
251.698	74.38
251.931	77.38
252.164	78.38
252.397	76.38
252.63	86.38
252.863	69.38
253.096	73.38
253.329	82.38
253.562	91.38
253.795	80.38
254.028	77.38
254.261	70.38
254.494	88.38
254.727	95.38
254.96	97.38
255.193	76.38
255.426	81.38
255.659	83.38
255.892	87.38
256.124	79.38
256.357	75.38
256.59	85.38
256.823	79.38
257.056	74.38
257.289	77.38
257.521	83.38
257.754	89.38
257.987	79.38
258.22	81.38
258.452	85.38
258.685	85.38
258.918	75.38
259.151	71.38
259.383	75.38
259.616	81.38
259.849	76.38
260.081	78.38
260.314	100.38
260.547	71.38
260.779	65.38
261.012	70.38
261.244	87.38
261.477	80.38
261.71	81.38
261.942	92.38
262.175	103.38
262.407	90.38
262.64	73.38
262.872	77.38
263.105	76.38
263.337	93.38
263.57	90.38
263.802	84.38
264.035	86.38
264.267	76.38
264.499	82.38
264.732	78.38
264.964	87.38
265.197	85.38
265.429	81.38
265.661	77.38
265.894	80.38
266.126	86.38
266.358	85.38
266.591	84.38
266.823	98.38
267.055	79.38
267.287	91.38
267.52	87.38
267.752	75.38
267.984	90.38
268.216	78.38
268.448	72.38
268.681	88.38
268.913	85.38
269.145	86.38
269.377	69.38
269.609	75.38
269.841	81.38
270.073	82.38
270.306	98.38
270.538	98.38
270.77	89.38
271.002	74.38
271.234	78.38
271.466	85.38
271.698	85.38
271.93	80.38
272.162	95.38
272.394	87.38
272.626	92.38
272.858	97.38
273.09	84.38
273.322	78.38
273.553	96.38
273.785	76.38
274.017	76.38
274.249	83.38
274.481	79.38
274.713	85.38
274.945	94.38
275.176	84.38
275.408	79.38
275.64	89.38
275.872	110.38
276.104	82.38
276.335	95.38
276.567	96.38
276.799	105.38
277.031	90.38
277.262	88.38
277.494	94.38
277.726	98.38
277.957	81.38
278.189	88.38
278.421	92.38
278.652	78.38
278.884	86.38
279.115	92.38
279.347	81.38
279.579	78.38
279.81	82.38
280.042	82.38
280.273	90.38
280.505	82.38
280.736	78.38
280.968	86.38
281.199	86.38
281.431	95.38
281.662	93.38
281.894	97.38
282.125	94.38
282.356	111.38
282.588	119.38
282.819	110.38
283.051	81.38
283.282	87.38
283.513	93.38
283.745	92.38
283.976	102.38
284.207	89.38
284.439	82.38
284.67	90.38
284.901	92.38
285.132	86.38
285.364	82.38
285.595	95.38
285.826	92.38
286.057	93.38
286.288	99.38
286.52	79.38
286.751	71.38
286.982	93.38
287.213	96.38
287.444	93.38
287.675	99.38
287.906	86.38
288.138	66.38
288.369	79.38
288.6	86.38
288.831	77.38
289.062	86.38
289.293	87.38
289.524	89.38
289.755	101.38
289.986	71.38
290.217	86.38
290.448	82.38
290.679	95.38
290.91	92.38
291.141	97.38
291.371	101.38
291.602	93.38
291.833	89.38
292.064	93.38
292.295	75.38
292.526	84.38
292.757	76.38
292.987	65.38
293.218	97.38
293.449	86.38
293.68	89.38
293.91	90.38
294.141	105.38
294.372	87.38
294.603	91.38
294.833	92.38
295.064	81.38
295.295	83.38
295.525	90.38
295.756	95.38
295.987	106.38
296.217	133.38
296.448	114.38
296.679	99.38
296.909	80.38
297.14	90.38
297.37	100.38
297.601	106.38
297.831	97.38
298.062	96.38
298.292	94.38
298.523	91.38
298.753	92.38
298.984	90.38
299.214	86.38
299.445	105.38
299.675	101.38
299.905	89.38
300.136	105.38
300.366	84.38
300.597	96.38
300.827	97.38
301.057	101.38
301.288	98.38
301.518	85.38
301.748	100.38
301.979	103.38
302.209	84.38
302.439	91.38
302.669	87.38
302.9	95.38
303.13	92.38
303.36	89.38
303.59	100.38
303.82	102.38
304.051	84.38
304.281	82.38
304.511	87.38
304.741	98.38
304.971	76.38
305.201	92.38
305.431	94.38
305.661	82.38
305.891	88.38
306.121	90.38
306.352	96.38
306.582	89.38
306.812	99.38
307.042	98.38
307.272	92.38
307.502	92.38
307.731	102.38
307.961	100.38
308.191	82.38
308.421	90.38
308.651	83.38
308.881	93.38
309.111	91.38
309.341	99.38
309.571	112.38
309.8	89.38
310.03	84.38
310.26	95.38
310.49	89.38
310.72	95.38
310.949	86.38
311.179	95.38
311.409	94.38
311.639	102.38
311.868	93.38
312.098	83.38
312.328	79.38
312.557	100.38
312.787	98.38
313.017	102.38
313.246	99.38
313.476	92.38
313.706	93.38
313.935	99.38
314.165	99.38
314.394	101.38
314.624	91.38
314.853	97.38
315.083	93.38
315.312	100.38
315.542	100.38
315.771	106.38
316.001	80.38
316.23	90.38
316.46	90.38
316.689	87.38
316.919	85.38
317.148	83.38
317.377	98.38
317.607	82.38
317.836	94.38
318.065	87.38
318.295	89.38
318.524	99.38
318.753	87.38
318.983	95.38
319.212	106.38
319.441	109.38
319.67	102.38
319.9	82.38
320.129	89.38
320.358	100.38
320.587	91.38
320.816	93.38
321.046	109.38
321.275	98.38
321.504	91.38
321.733	80.38
321.962	96.38
322.191	100.38
322.42	92.38
322.649	104.38
322.878	110.38
323.108	97.38
323.337	121.38
323.566	128.38
323.795	130.38
324.024	185.38
324.253	319.38
324.482	708.38
324.71	1391.38
324.939	1881.38
325.168	702.38
325.397	207.38
325.626	136.38
325.855	117.38
326.084	117.38
326.313	118.38
326.542	141.38
326.77	205.38
326.999	401.38
327.228	811.38
327.457	1497.38
327.686	1159.38
327.914	322.38
328.143	203.38
328.372	163.38
328.6	143.38
328.829	113.38
329.058	124.38
329.287	126.38
329.515	97.38
329.744	101.38
329.972	128.38
330.201	162.38
330.43	203.38
330.658	158.38
330.887	134.38
331.115	111.38
331.344	101.38
331.572	97.38
331.801	101.38
332.03	117.38
332.258	115.38
332.486	98.38
332.715	88.38
332.943	106.38
333.172	93.38
333.4	92.38
333.629	126.38
333.857	118.38
334.085	114.38
334.314	146.38
334.542	239.38
334.771	214.38
334.999	117.38
335.227	97.38
335.455	102.38
335.684	92.38
335.912	103.38
336.14	98.38
336.369	101.38
336.597	103.38
336.825	102.38
337.053	89.38
337.281	99.38
337.51	92.38
337.738	101.38
337.966	87.38
338.194	108.38
338.422	93.38
338.65	89.38
338.878	94.38
339.106	85.38
339.334	90.38
339.562	93.38
339.79	98.38
340.018	93.38
340.246	111.38
340.474	95.38
340.702	107.38
340.93	94.38
341.158	100.38
341.386	79.38
341.614	90.38
341.842	88.38
342.07	103.38
342.298	88.38
342.526	80.38
342.754	84.38
342.981	77.38
343.209	105.38
343.437	110.38
343.665	88.38
343.893	81.38
344.12	90.38
344.348	93.38
344.576	91.38
344.804	100.38
345.031	97.38
345.259	116.38
345.487	97.38
345.714	106.38
345.942	93.38
346.17	89.38
346.397	82.38
346.625	97.38
346.853	95.38
347.08	100.38
347.308	98.38
347.535	101.38
347.763	93.38
347.99	91.38
348.218	93.38
348.445	89.38
348.673	99.38
348.9	93.38
349.128	81.38
349.355	93.38
349.583	102.38
349.81	83.38
350.037	90.38
350.265	95.38
350.492	94.38
350.72	80.38
350.947	85.38
351.174	114.38
351.402	101.38
351.629	105.38
351.856	102.38
352.083	105.38
352.311	94.38
352.538	86.38
352.765	100.38
352.992	113.38
353.22	103.38
353.447	102.38
353.674	87.38
353.901	97.38
354.128	95.38
354.355	93.38
354.583	99.38
354.81	95.38
355.037	87.38
355.264	102.38
355.491	101.38
355.718	100.38
355.945	112.38
356.172	100.38
356.399	100.38
356.626	91.38
356.853	82.38
357.08	88.38
357.307	89.38
357.534	87.38
357.761	82.38
357.988	102.38
358.215	111.38
358.441	96.38
358.668	97.38
358.895	92.38
359.122	91.38
359.349	81.38
359.576	93.38
359.802	97.38
360.029	122.38
360.256	107.38
360.483	103.38
360.709	98.38
360.936	96.38
361.163	94.38
361.39	90.38
361.616	94.38
361.843	91.38
362.07	82.38
362.296	98.38
362.523	96.38
362.749	80.38
362.976	80.38
363.203	86.38
363.429	81.38
363.656	84.38
363.882	91.38
364.109	84.38
364.335	97.38
364.562	86.38
364.788	93.38
365.015	92.38
365.241	107.38
365.468	100.38
365.694	94.38
365.92	82.38
366.147	88.38
366.373	95.38
366.599	99.38
366.826	86.38
367.052	109.38
367.278	89.38
367.505	87.38
367.731	85.38
367.957	91.38
368.184	77.38
368.41	91.38
368.636	103.38
368.862	118.38
369.089	110.38
369.315	99.38
369.541	93.38
369.767	91.38
369.993	92.38
370.219	76.38
370.445	85.38
370.672	80.38
370.898	90.38
371.124	82.38
371.35	89.38
371.576	82.38
371.802	84.38
372.028	85.38
372.254	94.38
372.48	89.38
372.706	90.38
372.932	70.38
373.158	97.38
373.384	107.38
373.61	102.38
373.835	86.38
374.061	99.38
374.287	81.38
374.513	84.38
374.739	103.38
374.965	81.38
375.191	93.38
375.416	82.38
375.642	77.38
375.868	85.38
376.094	98.38
376.319	88.38
376.545	94.38
376.771	88.38
376.997	93.38
377.222	84.38
377.448	101.38
377.674	92.38
377.899	95.38
378.125	100.38
378.35	95.38
378.576	88.38
378.802	90.38
379.027	98.38
379.253	81.38
379.478	96.38
379.704	93.38
379.929	92.38
380.155	100.38
380.38	101.38
380.606	91.38
380.831	99.38
381.057	104.38
381.282	98.38
381.507	95.38
381.733	124.38
381.958	100.38
382.184	96.38
382.409	104.38
382.634	97.38
382.86	99.38
383.085	89.38
383.31	115.38
383.535	107.38
383.761	97.38
383.986	92.38
384.211	97.38
384.436	102.38
384.662	110.38
384.887	108.38
385.112	96.38
385.337	109.38
385.562	123.38
385.787	119.38
386.013	114.38
386.238	112.38
386.463	89.38
386.688	114.38
386.913	116.38
387.138	119.38
387.363	110.38
387.588	89.38
387.813	109.38
388.038	88.38
388.263	99.38
388.488	124.38
388.713	94.38
388.938	98.38
389.163	98.38
389.387	101.38
389.612	100.38
389.837	77.38
390.062	102.38
390.287	89.38
390.512	85.38
390.736	95.38
390.961	79.38
391.186	85.38
391.411	100.38
391.636	93.38
391.86	99.38
392.085	89.38
392.31	100.38
392.534	85.38
392.759	90.38
392.984	103.38
393.208	103.38
393.433	131.38
393.658	108.38
393.882	92.38
394.107	83.38
394.331	77.38
394.556	76.38
394.78	94.38
395.005	99.38
395.229	83.38
395.454	95.38
395.678	70.38
395.903	82.38
396.127	100.38
396.352	87.38
396.576	94.38
396.801	102.38
397.025	105.38
397.249	101.38
397.474	89.38
397.698	75.38
397.922	93.38
398.147	82.38
398.371	90.38
398.595	86.38
398.82	85.38
399.044	76.38
399.268	79.38
399.492	100.38
399.717	93.38
399.941	89.38
400.165	90.38
400.389	94.38
400.613	77.38
400.837	103.38
401.062	100.38
401.286	85.38
401.51	87.38
401.734	91.38
401.958	107.38
402.182	118.38
402.406	136.38
402.63	100.38
402.854	93.38
403.078	75.38
403.302	89.38
403.526	97.38
403.75	87.38
403.974	94.38
404.198	76.38
404.422	84.38
404.645	93.38
404.869	95.38
405.093	100.38
405.317	98.38
405.541	103.38
405.765	90.38
405.988	108.38
406.212	146.38
406.436	199.38
406.66	133.38
406.883	111.38
407.107	98.38
407.331	90.38
407.555	95.38
407.778	91.38
408.002	83.38
408.226	111.38
408.449	102.38
408.673	86.38
408.896	80.38
409.12	101.38
409.344	91.38
409.567	71.38
409.791	79.38
410.014	88.38
410.238	94.38
410.461	87.38
410.685	98.38
410.908	110.38
411.132	102.38
411.355	106.38
411.578	95.38
411.802	89.38
412.025	93.38
412.249	91.38
412.472	90.38
412.695	100.38
412.919	79.38
413.142	93.38
413.365	76.38
413.589	85.38
413.812	106.38
414.035	101.38
414.258	89.38
414.482	97.38
414.705	96.38
414.928	95.38
415.151	90.38
415.374	102.38
415.597	83.38
415.821	89.38
416.044	76.38
416.267	72.38
416.49	93.38
416.713	77.38
416.936	97.38
417.159	92.38
417.382	69.38
417.605	81.38
417.828	86.38
418.051	93.38
418.274	105.38
418.497	106.38
418.72	98.38
418.943	93.38
419.166	89.38
419.389	81.38
419.611	89.38
419.834	97.38
420.057	88.38
420.28	89.38
420.503	83.38
420.726	99.38
420.948	98.38
421.171	97.38
421.394	99.38
421.617	79.38
421.839	89.38
422.062	89.38
422.285	92.38
422.507	98.38
422.73	116.38
422.953	97.38
423.175	93.38
423.398	83.38
423.621	78.38
423.843	95.38
424.066	94.38
424.288	93.38
424.511	84.38
424.733	108.38
424.956	114.38
425.178	112.38
425.401	107.38
425.623	103.38
425.846	105.38
426.068	89.38
426.291	80.38
426.513	84.38
426.735	99.38
426.958	94.38
427.18	112.38
427.402	104.38
427.625	154.38
427.847	139.38
428.069	118.38
428.292	96.38
428.514	90.38
428.736	85.38
428.958	79.38
429.181	97.38
429.403	83.38
429.625	83.38
429.847	101.38
430.069	83.38
430.292	78.38
430.514	80.38
430.736	90.38
430.958	86.38
431.18	90.38
431.402	108.38
431.624	79.38
431.846	79.38
432.068	94.38
432.29	90.38
432.512	93.38
432.734	71.38
432.956	82.38
433.178	91.38
433.4	97.38
433.622	83.38
433.844	100.38
434.066	91.38
434.287	69.38
434.509	92.38
434.731	89.38
434.953	90.38
435.175	86.38
435.397	85.38
435.618	91.38
435.84	94.38
436.062	122.38
436.284	116.38
436.505	111.38
436.727	106.38
436.949	85.38
437.17	75.38
437.392	94.38
437.614	95.38
437.835	101.38
438.057	128.38
438.278	102.38
438.5	92.38
438.721	117.38
438.943	97.38
439.165	100.38
439.386	77.38
439.608	93.38
439.829	95.38
440.05	118.38
440.272	140.38
440.493	97.38
440.715	89.38
440.936	86.38
441.158	103.38
441.379	95.38
441.6	92.38
441.822	97.38
442.043	103.38
442.264	112.38
442.486	98.38
442.707	90.38
442.928	99.38
443.149	124.38
443.371	107.38
443.592	101.38
443.813	100.38
444.034	106.38
444.255	92.38
444.476	80.38
444.698	94.38
444.919	81.38
445.14	140.38
445.361	133.38
445.582	103.38
445.803	122.38
446.024	126.38
446.245	132.38
446.466	96.38
446.687	98.38
446.908	83.38
447.129	82.38
447.35	106.38
447.571	91.38
447.792	95.38
448.013	96.38
448.234	102.38
448.455	107.38
448.675	106.38
448.896	117.38
449.117	99.38
449.338	93.38
449.559	123.38
449.779	130.38
450	100.38
450.221	84.38
450.442	79.38
450.662	92.38
450.883	95.38
451.104	99.38
451.324	98.38
451.545	89.38
451.766	89.38
451.986	87.38
452.207	82.38
452.428	95.38
452.648	91.38
452.869	116.38
453.089	106.38
453.31	100.38
453.53	98.38
453.751	100.38
453.971	105.38
454.192	103.38
454.412	91.38
454.633	86.38
454.853	86.38
455.073	92.38
455.294	93.38
455.514	97.38
455.734	86.38
455.955	90.38
456.175	93.38
456.395	75.38
456.616	91.38
456.836	99.38
457.056	93.38
457.276	100.38
457.497	94.38
457.717	89.38
457.937	87.38
458.157	83.38
458.377	83.38
458.598	96.38
458.818	132.38
459.038	140.38
459.258	109.38
459.478	102.38
459.698	95.38
459.918	83.38
460.138	93.38
460.358	81.38
460.578	89.38
460.798	91.38
461.018	86.38
461.238	75.38
461.458	94.38
461.678	89.38
461.898	103.38
462.118	87.38
462.338	94.38
462.558	81.38
462.777	70.38
462.997	83.38
463.217	89.38
463.437	81.38
463.657	74.38
463.876	77.38
464.096	86.38
464.316	88.38
464.536	98.38
464.755	92.38
464.975	109.38
465.195	138.38
465.414	155.38
465.634	94.38
465.854	93.38
466.073	84.38
466.293	103.38
466.512	98.38
466.732	86.38
466.951	93.38
467.171	102.38
467.391	92.38
467.61	98.38
467.829	91.38
468.049	119.38
468.268	147.38
468.488	96.38
468.707	95.38
468.927	92.38
469.146	70.38
469.365	94.38
469.585	89.38
469.804	100.38
470.023	94.38
470.243	105.38
470.462	95.38
470.681	98.38
470.901	99.38
471.12	99.38
471.339	81.38
471.558	98.38
471.777	99.38
471.997	120.38
472.216	197.38
472.435	292.38
472.654	128.38
472.873	91.38
473.092	86.38
473.311	83.38
473.53	94.38
473.749	83.38
473.968	86.38
474.187	104.38
474.406	82.38
474.625	83.38
474.844	90.38
475.063	82.38
475.282	95.38
475.501	86.38
475.72	85.38
475.939	73.38
476.158	74.38
476.377	83.38
476.596	93.38
476.814	94.38
477.033	84.38
477.252	92.38
477.471	79.38
477.69	87.38
477.908	103.38
478.127	77.38
478.346	87.38
478.564	92.38
478.783	98.38
479.002	104.38
479.22	84.38
479.439	101.38
479.658	102.38
479.876	92.38
480.095	90.38
480.313	101.38
480.532	93.38
480.751	115.38
480.969	187.38
481.188	487.38
481.406	323.38
481.624	109.38
481.843	101.38
482.061	83.38
482.28	95.38
482.498	86.38
482.717	77.38
482.935	89.38
483.153	80.38
483.372	76.38
483.59	91.38
483.808	101.38
484.027	89.38
484.245	96.38
484.463	98.38
484.681	100.38
484.9	88.38
485.118	94.38
485.336	92.38
485.554	96.38
485.772	109.38
485.99	110.38
486.209	112.38
486.427	104.38
486.645	115.38
486.863	129.38
487.081	110.38
487.299	103.38
487.517	95.38
487.735	99.38
487.953	115.38
488.171	95.38
488.389	91.38
488.607	96.38
488.825	89.38
489.043	85.38
489.261	94.38
489.479	90.38
489.696	90.38
489.914	93.38
490.132	93.38
490.35	86.38
490.568	102.38
490.786	96.38
491.003	96.38
491.221	95.38
491.439	83.38
491.657	93.38
491.874	97.38
492.092	82.38
492.31	91.38
492.527	82.38
492.745	98.38
492.963	76.38
493.18	101.38
493.398	96.38
493.615	97.38
493.833	92.38
494.05	106.38
494.268	89.38
494.485	82.38
494.703	92.38
494.92	91.38
495.138	95.38
495.355	108.38
495.573	91.38
495.79	100.38
496.008	92.38
496.225	100.38
496.442	97.38
496.66	83.38
496.877	77.38
497.094	78.38
497.312	93.38
497.529	79.38
497.746	88.38
497.963	103.38
498.181	84.38
498.398	97.38
498.615	90.38
498.832	95.38
499.049	93.38
499.267	102.38
499.484	86.38
499.701	103.38
499.918	81.38
500.135	82.38
500.352	85.38
500.569	75.38
500.786	101.38
501.003	75.38
501.22	83.38
501.437	106.38
501.654	97.38
501.871	111.38
502.088	89.38
502.305	85.38
502.522	93.38
502.739	85.38
502.956	95.38
503.172	99.38
503.389	94.38
503.606	98.38
503.823	91.38
504.04	99.38
504.256	98.38
504.473	101.38
504.69	78.38
504.907	78.38
505.123	99.38
505.34	91.38
505.557	100.38
505.773	86.38
505.99	72.38
506.207	86.38
506.423	82.38
506.64	91.38
506.856	92.38
507.073	82.38
507.289	102.38
507.506	78.38
507.722	105.38
507.939	106.38
508.155	93.38
508.372	87.38
508.588	92.38
508.805	84.38
509.021	89.38
509.238	98.38
509.454	94.38
509.67	95.38
509.887	99.38
510.103	117.38
510.319	203.38
510.536	640.38
510.752	2003.38
510.968	570.38
511.184	155.38
511.401	96.38
511.617	106.38
511.833	104.38
512.049	109.38
512.265	84.38
512.481	90.38
512.698	81.38
512.914	91.38
513.13	99.38
513.346	98.38
513.562	94.38
513.778	99.38
513.994	97.38
514.21	101.38
514.426	114.38
514.642	107.38
514.858	127.38
515.074	167.38
515.29	410.38
