Data from Circ_1993_H10_HRD10591_00047.txt Node
Date: Wed Jan 03 11:44:11 EST 2024
User: Yrep
Spectrometer: HR+D1059
Trigger mode: 1
Integration Time (sec): 1.000000E-1
Scans to average: 1
Electric dark correction enabled: true
Nonlinearity correction enabled: false
Boxcar width: 0
XAxis mode: Wavelengths
Number of Pixels in Spectrum: 2048
>>>>>Begin Spectral Data<<<<<
223.165	-15.38
223.4	-15.38
223.635	-15.38
223.869	-20.38
224.104	-29.38
224.338	-19.38
224.573	-3.38
224.808	-8.38
225.042	-7.38
225.277	-10.38
225.511	-1.38
225.746	-6.38
225.98	-1.38
226.215	24.62
226.449	9.62
226.683	32.62
226.918	23.62
227.152	32.62
227.387	46.62
227.621	46.62
227.856	53.62
228.09	46.62
228.324	44.62
228.559	54.62
228.793	55.62
229.027	59.62
229.262	70.62
229.496	59.62
229.73	62.62
229.964	74.62
230.199	78.62
230.433	66.62
230.667	88.62
230.901	78.62
231.136	79.62
231.37	81.62
231.604	88.62
231.838	88.62
232.072	74.62
232.306	74.62
232.541	78.62
232.775	68.62
233.009	96.62
233.243	70.62
233.477	73.62
233.711	82.62
233.945	71.62
234.179	70.62
234.413	92.62
234.647	75.62
234.881	74.62
235.115	67.62
235.349	80.62
235.583	72.62
235.817	80.62
236.051	89.62
236.285	76.62
236.519	88.62
236.753	92.62
236.987	81.62
237.221	81.62
237.455	75.62
237.689	77.62
237.922	60.62
238.156	67.62
238.39	76.62
238.624	79.62
238.858	67.62
239.091	67.62
239.325	60.62
239.559	70.62
239.793	59.62
240.027	71.62
240.26	80.62
240.494	64.62
240.728	68.62
240.961	77.62
241.195	80.62
241.429	72.62
241.662	60.62
241.896	71.62
242.13	73.62
242.363	64.62
242.597	79.62
242.83	74.62
243.064	75.62
243.298	77.62
243.531	80.62
243.765	88.62
243.998	74.62
244.232	67.62
244.465	79.62
244.699	79.62
244.932	89.62
245.166	75.62
245.399	73.62
245.633	75.62
245.866	76.62
246.099	78.62
246.333	68.62
246.566	78.62
246.8	74.62
247.033	67.62
247.266	82.62
247.5	77.62
247.733	68.62
247.966	79.62
248.2	73.62
248.433	60.62
248.666	74.62
248.899	76.62
249.133	76.62
249.366	108.62
249.599	93.62
249.832	87.62
250.066	79.62
250.299	84.62
250.532	83.62
250.765	83.62
250.998	83.62
251.231	94.62
251.465	76.62
251.698	67.62
251.931	62.62
252.164	74.62
252.397	72.62
252.63	72.62
252.863	78.62
253.096	78.62
253.329	74.62
253.562	70.62
253.795	82.62
254.028	74.62
254.261	81.62
254.494	76.62
254.727	82.62
254.96	80.62
255.193	75.62
255.426	68.62
255.659	87.62
255.892	77.62
256.124	66.62
256.357	70.62
256.59	78.62
256.823	77.62
257.056	84.62
257.289	79.62
257.521	68.62
257.754	89.62
257.987	74.62
258.22	91.62
258.452	76.62
258.685	74.62
258.918	84.62
259.151	88.62
259.383	90.62
259.616	80.62
259.849	70.62
260.081	92.62
260.314	91.62
260.547	64.62
260.779	80.62
261.012	74.62
261.244	80.62
261.477	81.62
261.71	94.62
261.942	92.62
262.175	89.62
262.407	91.62
262.64	80.62
262.872	87.62
263.105	82.62
263.337	95.62
263.57	88.62
263.802	77.62
264.035	74.62
264.267	92.62
264.499	73.62
264.732	75.62
264.964	91.62
265.197	84.62
265.429	86.62
265.661	73.62
265.894	73.62
266.126	78.62
266.358	82.62
266.591	72.62
266.823	75.62
267.055	81.62
267.287	72.62
267.52	84.62
267.752	86.62
267.984	80.62
268.216	85.62
268.448	89.62
268.681	91.62
268.913	73.62
269.145	81.62
269.377	94.62
269.609	87.62
269.841	79.62
270.073	82.62
270.306	72.62
270.538	68.62
270.77	70.62
271.002	82.62
271.234	82.62
271.466	73.62
271.698	73.62
271.93	85.62
272.162	67.62
272.394	86.62
272.626	85.62
272.858	83.62
273.09	70.62
273.322	75.62
273.553	80.62
273.785	93.62
274.017	85.62
274.249	75.62
274.481	65.62
274.713	94.62
274.945	83.62
275.176	82.62
275.408	83.62
275.64	88.62
275.872	90.62
276.104	81.62
276.335	93.62
276.567	81.62
276.799	107.62
277.031	85.62
277.262	81.62
277.494	94.62
277.726	79.62
277.957	94.62
278.189	68.62
278.421	87.62
278.652	75.62
278.884	94.62
279.115	79.62
279.347	82.62
279.579	89.62
279.81	66.62
280.042	85.62
280.273	102.62
280.505	97.62
280.736	95.62
280.968	86.62
281.199	92.62
281.431	79.62
281.662	81.62
281.894	79.62
282.125	90.62
282.356	114.62
282.588	131.62
282.819	103.62
283.051	94.62
283.282	80.62
283.513	80.62
283.745	74.62
283.976	93.62
284.207	84.62
284.439	65.62
284.67	74.62
284.901	76.62
285.132	79.62
285.364	82.62
285.595	82.62
285.826	90.62
286.057	83.62
286.288	74.62
286.52	78.62
286.751	73.62
286.982	93.62
287.213	82.62
287.444	97.62
287.675	83.62
287.906	87.62
288.138	88.62
288.369	94.62
288.6	86.62
288.831	79.62
289.062	68.62
289.293	80.62
289.524	82.62
289.755	81.62
289.986	88.62
290.217	70.62
290.448	75.62
290.679	87.62
290.91	80.62
291.141	82.62
291.371	74.62
291.602	76.62
291.833	91.62
292.064	89.62
292.295	94.62
292.526	71.62
292.757	72.62
292.987	82.62
293.218	87.62
293.449	80.62
293.68	90.62
293.91	84.62
294.141	80.62
294.372	86.62
294.603	80.62
294.833	89.62
295.064	85.62
295.295	80.62
295.525	84.62
295.756	91.62
295.987	101.62
296.217	115.62
296.448	113.62
296.679	77.62
296.909	88.62
297.14	87.62
297.37	82.62
297.601	90.62
297.831	92.62
298.062	99.62
298.292	88.62
298.523	89.62
298.753	97.62
298.984	83.62
299.214	92.62
299.445	94.62
299.675	81.62
299.905	103.62
300.136	92.62
300.366	97.62
300.597	90.62
300.827	87.62
301.057	87.62
301.288	77.62
301.518	95.62
301.748	69.62
301.979	98.62
302.209	89.62
302.439	74.62
302.669	81.62
302.9	79.62
303.13	83.62
303.36	87.62
303.59	104.62
303.82	93.62
304.051	85.62
304.281	90.62
304.511	100.62
304.741	98.62
304.971	94.62
305.201	96.62
305.431	66.62
305.661	84.62
305.891	67.62
306.121	91.62
306.352	96.62
306.582	82.62
306.812	83.62
307.042	95.62
307.272	94.62
307.502	87.62
307.731	89.62
307.961	91.62
308.191	92.62
308.421	91.62
308.651	82.62
308.881	95.62
309.111	88.62
309.341	83.62
309.571	94.62
309.8	87.62
310.03	89.62
310.26	89.62
310.49	87.62
310.72	99.62
310.949	92.62
311.179	93.62
311.409	86.62
311.639	90.62
311.868	98.62
312.098	87.62
312.328	91.62
312.557	102.62
312.787	81.62
313.017	83.62
313.246	81.62
313.476	95.62
313.706	100.62
313.935	83.62
314.165	98.62
314.394	94.62
314.624	102.62
314.853	106.62
315.083	94.62
315.312	84.62
315.542	84.62
315.771	85.62
316.001	89.62
316.23	95.62
316.46	78.62
316.689	92.62
316.919	86.62
317.148	84.62
317.377	99.62
317.607	90.62
317.836	99.62
318.065	79.62
318.295	85.62
318.524	90.62
318.753	82.62
318.983	92.62
319.212	97.62
319.441	106.62
319.67	92.62
319.9	98.62
320.129	91.62
320.358	86.62
320.587	83.62
320.816	101.62
321.046	84.62
321.275	92.62
321.504	88.62
321.733	102.62
321.962	88.62
322.191	92.62
322.42	98.62
322.649	103.62
322.878	86.62
323.108	108.62
323.337	113.62
323.566	110.62
323.795	136.62
324.024	182.62
324.253	319.62
324.482	675.62
324.71	1359.62
324.939	1734.62
325.168	626.62
325.397	208.62
325.626	137.62
325.855	115.62
326.084	108.62
326.313	121.62
326.542	146.62
326.77	194.62
326.999	385.62
327.228	767.62
327.457	1382.62
327.686	1084.62
327.914	319.62
328.143	191.62
328.372	150.62
328.6	118.62
328.829	99.62
329.058	107.62
329.287	111.62
329.515	100.62
329.744	111.62
329.972	120.62
330.201	150.62
330.43	178.62
330.658	143.62
330.887	123.62
331.115	113.62
331.344	92.62
331.572	99.62
331.801	112.62
332.03	92.62
332.258	86.62
332.486	83.62
332.715	71.62
332.943	76.62
333.172	89.62
333.4	89.62
333.629	114.62
333.857	113.62
334.085	126.62
334.314	138.62
334.542	184.62
334.771	183.62
334.999	111.62
335.227	97.62
335.455	108.62
335.684	94.62
335.912	83.62
336.14	98.62
336.369	107.62
336.597	88.62
336.825	98.62
337.053	98.62
337.281	86.62
337.51	84.62
337.738	90.62
337.966	86.62
338.194	93.62
338.422	97.62
338.65	86.62
338.878	95.62
339.106	76.62
339.334	89.62
339.562	79.62
339.79	89.62
340.018	81.62
340.246	80.62
340.474	93.62
340.702	94.62
340.93	106.62
341.158	83.62
341.386	95.62
341.614	87.62
341.842	86.62
342.07	82.62
342.298	90.62
342.526	97.62
342.754	74.62
342.981	74.62
343.209	86.62
343.437	95.62
343.665	80.62
343.893	86.62
344.12	90.62
344.348	81.62
344.576	87.62
344.804	92.62
345.031	89.62
345.259	79.62
345.487	86.62
345.714	93.62
345.942	87.62
346.17	85.62
346.397	93.62
346.625	75.62
346.853	110.62
347.08	87.62
347.308	96.62
347.535	97.62
347.763	86.62
347.99	97.62
348.218	101.62
348.445	92.62
348.673	92.62
348.9	98.62
349.128	89.62
349.355	97.62
349.583	85.62
349.81	90.62
350.037	77.62
350.265	92.62
350.492	94.62
350.72	98.62
350.947	116.62
351.174	100.62
351.402	103.62
351.629	100.62
351.856	114.62
352.083	113.62
352.311	107.62
352.538	100.62
352.765	107.62
352.992	99.62
353.22	109.62
353.447	105.62
353.674	104.62
353.901	81.62
354.128	95.62
354.355	99.62
354.583	108.62
354.81	83.62
355.037	100.62
355.264	85.62
355.491	82.62
355.718	96.62
355.945	96.62
356.172	96.62
356.399	98.62
356.626	77.62
356.853	103.62
357.08	102.62
357.307	93.62
357.534	86.62
357.761	89.62
357.988	92.62
358.215	99.62
358.441	88.62
358.668	83.62
358.895	101.62
359.122	94.62
359.349	89.62
359.576	80.62
359.802	91.62
360.029	93.62
360.256	105.62
360.483	103.62
360.709	81.62
360.936	83.62
361.163	90.62
361.39	94.62
361.616	103.62
361.843	94.62
362.07	101.62
362.296	78.62
362.523	78.62
362.749	87.62
362.976	75.62
363.203	89.62
363.429	77.62
363.656	71.62
363.882	93.62
364.109	101.62
364.335	91.62
364.562	102.62
364.788	92.62
365.015	83.62
365.241	94.62
365.468	99.62
365.694	104.62
365.92	95.62
366.147	87.62
366.373	76.62
366.599	84.62
366.826	83.62
367.052	84.62
367.278	98.62
367.505	84.62
367.731	85.62
367.957	84.62
368.184	94.62
368.41	89.62
368.636	94.62
368.862	114.62
369.089	102.62
369.315	93.62
369.541	89.62
369.767	94.62
369.993	98.62
370.219	90.62
370.445	89.62
370.672	78.62
370.898	95.62
371.124	86.62
371.35	98.62
371.576	94.62
371.802	78.62
372.028	90.62
372.254	85.62
372.48	80.62
372.706	98.62
372.932	89.62
373.158	88.62
373.384	83.62
373.61	87.62
373.835	89.62
374.061	86.62
374.287	99.62
374.513	77.62
374.739	92.62
374.965	89.62
375.191	81.62
375.416	80.62
375.642	76.62
375.868	99.62
376.094	87.62
376.319	74.62
376.545	91.62
376.771	104.62
376.997	90.62
377.222	73.62
377.448	89.62
377.674	91.62
377.899	96.62
378.125	94.62
378.35	92.62
378.576	95.62
378.802	81.62
379.027	83.62
379.253	98.62
379.478	84.62
379.704	93.62
379.929	95.62
380.155	85.62
380.38	103.62
380.606	82.62
380.831	93.62
381.057	106.62
381.282	101.62
381.507	85.62
381.733	90.62
381.958	105.62
382.184	93.62
382.409	119.62
382.634	103.62
382.86	103.62
383.085	102.62
383.31	103.62
383.535	98.62
383.761	87.62
383.986	100.62
384.211	92.62
384.436	104.62
384.662	113.62
384.887	97.62
385.112	96.62
385.337	100.62
385.562	103.62
385.787	102.62
386.013	112.62
386.238	120.62
386.463	115.62
386.688	114.62
386.913	95.62
387.138	95.62
387.363	98.62
387.588	103.62
387.813	112.62
388.038	109.62
388.263	116.62
388.488	104.62
388.713	93.62
388.938	82.62
389.163	82.62
389.387	119.62
389.612	86.62
389.837	89.62
390.062	86.62
390.287	86.62
390.512	83.62
390.736	74.62
390.961	81.62
391.186	91.62
391.411	83.62
391.636	90.62
391.86	92.62
392.085	76.62
392.31	80.62
392.534	101.62
392.759	84.62
392.984	82.62
393.208	113.62
393.433	115.62
393.658	106.62
393.882	95.62
394.107	93.62
394.331	91.62
394.556	90.62
394.78	83.62
395.005	90.62
395.229	92.62
395.454	76.62
395.678	78.62
395.903	93.62
396.127	76.62
396.352	88.62
396.576	72.62
396.801	90.62
397.025	102.62
397.249	86.62
397.474	92.62
397.698	83.62
397.922	70.62
398.147	91.62
398.371	86.62
398.595	75.62
398.82	83.62
399.044	91.62
399.268	85.62
399.492	92.62
399.717	82.62
399.941	81.62
400.165	86.62
400.389	95.62
400.613	93.62
400.837	98.62
401.062	84.62
401.286	71.62
401.51	95.62
401.734	99.62
401.958	101.62
402.182	107.62
402.406	143.62
402.63	109.62
402.854	83.62
403.078	75.62
403.302	82.62
403.526	82.62
403.75	86.62
403.974	91.62
404.198	78.62
404.422	87.62
404.645	82.62
404.869	74.62
405.093	94.62
405.317	95.62
405.541	98.62
405.765	95.62
405.988	92.62
406.212	145.62
406.436	158.62
406.66	131.62
406.883	100.62
407.107	97.62
407.331	99.62
407.555	97.62
407.778	87.62
408.002	91.62
408.226	91.62
408.449	76.62
408.673	85.62
408.896	82.62
409.12	100.62
409.344	94.62
409.567	74.62
409.791	71.62
410.014	96.62
410.238	85.62
410.461	91.62
410.685	78.62
410.908	89.62
411.132	96.62
411.355	94.62
411.578	104.62
411.802	89.62
412.025	89.62
412.249	91.62
412.472	81.62
412.695	91.62
412.919	87.62
413.142	83.62
413.365	86.62
413.589	74.62
413.812	83.62
414.035	99.62
414.258	85.62
414.482	80.62
414.705	78.62
414.928	86.62
415.151	87.62
415.374	95.62
415.597	83.62
415.821	75.62
416.044	85.62
416.267	98.62
416.49	80.62
416.713	100.62
416.936	87.62
417.159	80.62
417.382	91.62
417.605	85.62
417.828	89.62
418.051	101.62
418.274	86.62
418.497	83.62
418.72	69.62
418.943	80.62
419.166	91.62
419.389	91.62
419.611	89.62
419.834	89.62
420.057	89.62
420.28	84.62
420.503	90.62
420.726	87.62
420.948	84.62
421.171	88.62
421.394	91.62
421.617	90.62
421.839	83.62
422.062	89.62
422.285	74.62
422.507	87.62
422.73	99.62
422.953	93.62
423.175	77.62
423.398	82.62
423.621	91.62
423.843	79.62
424.066	100.62
424.288	87.62
424.511	94.62
424.733	100.62
424.956	106.62
425.178	80.62
425.401	84.62
425.623	99.62
425.846	95.62
426.068	79.62
426.291	74.62
426.513	94.62
426.735	82.62
426.958	89.62
427.18	94.62
427.402	122.62
427.625	137.62
427.847	126.62
428.069	110.62
428.292	82.62
428.514	88.62
428.736	93.62
428.958	97.62
429.181	78.62
429.403	72.62
429.625	78.62
429.847	67.62
430.069	100.62
430.292	100.62
430.514	98.62
430.736	90.62
430.958	97.62
431.18	86.62
431.402	76.62
431.624	86.62
431.846	76.62
432.068	93.62
432.29	85.62
432.512	86.62
432.734	86.62
432.956	82.62
433.178	85.62
433.4	86.62
433.622	94.62
433.844	92.62
434.066	81.62
434.287	85.62
434.509	87.62
434.731	99.62
434.953	83.62
435.175	98.62
435.397	83.62
435.618	87.62
435.84	90.62
436.062	122.62
436.284	117.62
436.505	93.62
436.727	83.62
436.949	97.62
437.17	82.62
437.392	67.62
437.614	77.62
437.835	106.62
438.057	105.62
438.278	90.62
438.5	80.62
438.721	108.62
438.943	99.62
439.165	86.62
439.386	82.62
439.608	104.62
439.829	86.62
440.05	98.62
440.272	111.62
440.493	94.62
440.715	95.62
440.936	83.62
441.158	87.62
441.379	84.62
441.6	99.62
441.822	85.62
442.043	76.62
442.264	110.62
442.486	99.62
442.707	92.62
442.928	93.62
443.149	106.62
443.371	129.62
443.592	104.62
443.813	102.62
444.034	100.62
444.255	87.62
444.476	95.62
444.698	80.62
444.919	87.62
445.14	126.62
445.361	127.62
445.582	120.62
445.803	124.62
446.024	122.62
446.245	112.62
446.466	101.62
446.687	89.62
446.908	78.62
447.129	69.62
447.35	78.62
447.571	91.62
447.792	88.62
448.013	107.62
448.234	96.62
448.455	101.62
448.675	106.62
448.896	103.62
449.117	84.62
449.338	98.62
449.559	137.62
449.779	119.62
450	82.62
450.221	79.62
450.442	88.62
450.662	92.62
450.883	77.62
451.104	97.62
451.324	64.62
451.545	82.62
451.766	66.62
451.986	83.62
452.207	83.62
452.428	94.62
452.648	87.62
452.869	107.62
453.089	106.62
453.31	98.62
453.53	91.62
453.751	85.62
453.971	99.62
454.192	99.62
454.412	85.62
454.633	88.62
454.853	89.62
455.073	91.62
455.294	81.62
455.514	110.62
455.734	99.62
455.955	92.62
456.175	68.62
456.395	85.62
456.616	72.62
456.836	68.62
457.056	63.62
457.276	92.62
457.497	79.62
457.717	80.62
457.937	93.62
458.157	92.62
458.377	81.62
458.598	94.62
458.818	119.62
459.038	128.62
459.258	116.62
459.478	87.62
459.698	84.62
459.918	88.62
460.138	88.62
460.358	75.62
460.578	84.62
460.798	76.62
461.018	60.62
461.238	103.62
461.458	89.62
461.678	79.62
461.898	90.62
462.118	83.62
462.338	70.62
462.558	79.62
462.777	75.62
462.997	75.62
463.217	73.62
463.437	83.62
463.657	79.62
463.876	90.62
464.096	76.62
464.316	88.62
464.536	91.62
464.755	86.62
464.975	106.62
465.195	116.62
465.414	124.62
465.634	74.62
465.854	82.62
466.073	83.62
466.293	90.62
466.512	80.62
466.732	79.62
466.951	79.62
467.171	88.62
467.391	84.62
467.61	98.62
467.829	109.62
468.049	103.62
468.268	116.62
468.488	89.62
468.707	76.62
468.927	86.62
469.146	81.62
469.365	79.62
469.585	82.62
469.804	78.62
470.023	85.62
470.243	94.62
470.462	88.62
470.681	100.62
470.901	79.62
471.12	90.62
471.339	92.62
471.558	91.62
471.777	97.62
471.997	119.62
472.216	134.62
472.435	250.62
472.654	120.62
472.873	91.62
473.092	90.62
473.311	87.62
473.53	77.62
473.749	86.62
473.968	86.62
474.187	106.62
474.406	86.62
474.625	86.62
474.844	76.62
475.063	79.62
475.282	93.62
475.501	86.62
475.72	95.62
475.939	83.62
476.158	84.62
476.377	86.62
476.596	83.62
476.814	88.62
477.033	92.62
477.252	87.62
477.471	72.62
477.69	78.62
477.908	83.62
478.127	92.62
478.346	98.62
478.564	82.62
478.783	87.62
479.002	84.62
479.22	94.62
479.439	89.62
479.658	85.62
479.876	94.62
480.095	74.62
480.313	79.62
480.532	94.62
480.751	96.62
480.969	160.62
481.188	391.62
481.406	248.62
481.624	96.62
481.843	91.62
482.061	92.62
482.28	73.62
482.498	82.62
482.717	91.62
482.935	86.62
483.153	97.62
483.372	80.62
483.59	86.62
483.808	82.62
484.027	84.62
484.245	97.62
484.463	94.62
484.681	91.62
484.9	98.62
485.118	97.62
485.336	98.62
485.554	88.62
485.772	89.62
485.99	86.62
486.209	95.62
486.427	111.62
486.645	95.62
486.863	98.62
487.081	106.62
487.299	91.62
487.517	102.62
487.735	80.62
487.953	89.62
488.171	102.62
488.389	96.62
488.607	100.62
488.825	99.62
489.043	88.62
489.261	90.62
489.479	85.62
489.696	77.62
489.914	88.62
490.132	76.62
490.35	92.62
490.568	91.62
490.786	85.62
491.003	91.62
491.221	93.62
491.439	96.62
491.657	85.62
491.874	95.62
492.092	78.62
492.31	73.62
492.527	91.62
492.745	82.62
492.963	83.62
493.18	98.62
493.398	78.62
493.615	104.62
493.833	80.62
494.05	76.62
494.268	95.62
494.485	89.62
494.703	87.62
494.92	68.62
495.138	79.62
495.355	81.62
495.573	99.62
495.79	92.62
496.008	98.62
496.225	84.62
496.442	93.62
496.66	94.62
496.877	112.62
497.094	102.62
497.312	87.62
497.529	86.62
497.746	95.62
497.963	99.62
498.181	95.62
498.398	104.62
498.615	102.62
498.832	89.62
499.049	84.62
499.267	91.62
499.484	73.62
499.701	89.62
499.918	87.62
500.135	81.62
500.352	95.62
500.569	82.62
500.786	83.62
501.003	97.62
501.22	82.62
501.437	78.62
501.654	104.62
501.871	94.62
502.088	71.62
502.305	95.62
502.522	89.62
502.739	80.62
502.956	85.62
503.172	81.62
503.389	84.62
503.606	104.62
503.823	92.62
504.04	94.62
504.256	91.62
504.473	83.62
504.69	103.62
504.907	100.62
505.123	82.62
505.34	91.62
505.557	74.62
505.773	85.62
505.99	86.62
506.207	77.62
506.423	94.62
506.64	75.62
506.856	79.62
507.073	79.62
507.289	89.62
507.506	98.62
507.722	100.62
507.939	115.62
508.155	91.62
508.372	87.62
508.588	93.62
508.805	86.62
509.021	79.62
509.238	91.62
509.454	80.62
509.67	89.62
509.887	88.62
510.103	117.62
510.319	176.62
510.536	623.62
510.752	1898.62
510.968	526.62
511.184	134.62
511.401	108.62
511.617	103.62
511.833	80.62
512.049	79.62
512.265	100.62
512.481	97.62
512.698	94.62
512.914	88.62
513.13	83.62
513.346	89.62
513.562	95.62
513.778	98.62
513.994	80.62
514.21	89.62
514.426	111.62
514.642	123.62
514.858	116.62
515.074	146.62
515.29	375.62
515.506	1132.62
515.721	431.62
515.937	134.62
516.153	100.62
516.369	94.62
516.585	87.62
516.801	80.62
