Data from Circ_1993_H10_HRD10591_00009.txt Node
Date: Wed Jan 03 11:44:03 EST 2024
User: Yrep
Spectrometer: HR+D1059
Trigger mode: 1
Integration Time (sec): 1.000000E-1
Scans to average: 1
Electric dark correction enabled: true
Nonlinearity correction enabled: false
Boxcar width: 0
XAxis mode: Wavelengths
Number of Pixels in Spectrum: 2048
>>>>>Begin Spectral Data<<<<<
223.165	-10.56
223.4	-10.56
223.635	-10.56
223.869	-16.56
224.104	-29.56
224.338	-22.56
224.573	-14.56
224.808	-12.56
225.042	-2.56
225.277	-24.56
225.511	-2.56
225.746	-9.56
225.98	18.44
226.215	18.44
226.449	24.44
226.683	23.44
226.918	37.44
227.152	23.44
227.387	38.44
227.621	36.44
227.856	57.44
228.09	64.44
228.324	48.44
228.559	59.44
228.793	66.44
229.027	69.44
229.262	61.44
229.496	70.44
229.73	76.44
229.964	74.44
230.199	62.44
230.433	69.44
230.667	78.44
230.901	82.44
231.136	74.44
231.37	78.44
231.604	74.44
231.838	74.44
232.072	88.44
232.306	93.44
232.541	70.44
232.775	75.44
233.009	80.44
233.243	82.44
233.477	78.44
233.711	64.44
233.945	83.44
234.179	74.44
234.413	77.44
234.647	78.44
234.881	82.44
235.115	76.44
235.349	92.44
235.583	78.44
235.817	76.44
236.051	86.44
236.285	76.44
236.519	78.44
236.753	81.44
236.987	73.44
237.221	95.44
237.455	78.44
237.689	79.44
237.922	80.44
238.156	61.44
238.39	71.44
238.624	91.44
238.858	80.44
239.091	69.44
239.325	90.44
239.559	82.44
239.793	84.44
240.027	88.44
240.26	82.44
240.494	87.44
240.728	74.44
240.961	78.44
241.195	76.44
241.429	71.44
241.662	68.44
241.896	81.44
242.13	78.44
242.363	72.44
242.597	90.44
242.83	88.44
243.064	74.44
243.298	82.44
243.531	83.44
243.765	73.44
243.998	91.44
244.232	82.44
244.465	78.44
244.699	84.44
244.932	60.44
245.166	80.44
245.399	76.44
245.633	85.44
245.866	78.44
246.099	93.44
246.333	80.44
246.566	80.44
246.8	76.44
247.033	77.44
247.266	87.44
247.5	86.44
247.733	82.44
247.966	90.44
248.2	86.44
248.433	88.44
248.666	79.44
248.899	84.44
249.133	76.44
249.366	90.44
249.599	104.44
249.832	90.44
250.066	84.44
250.299	91.44
250.532	86.44
250.765	78.44
250.998	83.44
251.231	85.44
251.465	77.44
251.698	79.44
251.931	83.44
252.164	90.44
252.397	83.44
252.63	67.44
252.863	79.44
253.096	79.44
253.329	89.44
253.562	91.44
253.795	97.44
254.028	98.44
254.261	81.44
254.494	88.44
254.727	65.44
254.96	86.44
255.193	72.44
255.426	92.44
255.659	88.44
255.892	86.44
256.124	79.44
256.357	86.44
256.59	86.44
256.823	94.44
257.056	82.44
257.289	67.44
257.521	84.44
257.754	94.44
257.987	66.44
258.22	80.44
258.452	82.44
258.685	93.44
258.918	78.44
259.151	71.44
259.383	85.44
259.616	74.44
259.849	87.44
260.081	82.44
260.314	105.44
260.547	79.44
260.779	85.44
261.012	83.44
261.244	84.44
261.477	80.44
261.71	78.44
261.942	97.44
262.175	90.44
262.407	76.44
262.64	68.44
262.872	98.44
263.105	89.44
263.337	83.44
263.57	84.44
263.802	100.44
264.035	96.44
264.267	93.44
264.499	80.44
264.732	93.44
264.964	92.44
265.197	84.44
265.429	86.44
265.661	86.44
265.894	90.44
266.126	85.44
266.358	92.44
266.591	87.44
266.823	88.44
267.055	67.44
267.287	90.44
267.52	90.44
267.752	89.44
267.984	82.44
268.216	91.44
268.448	101.44
268.681	82.44
268.913	85.44
269.145	82.44
269.377	83.44
269.609	75.44
269.841	83.44
270.073	69.44
270.306	80.44
270.538	78.44
270.77	89.44
271.002	95.44
271.234	89.44
271.466	82.44
271.698	80.44
271.93	79.44
272.162	91.44
272.394	84.44
272.626	91.44
272.858	92.44
273.09	70.44
273.322	91.44
273.553	93.44
273.785	83.44
274.017	94.44
274.249	93.44
274.481	92.44
274.713	77.44
274.945	72.44
275.176	74.44
275.408	103.44
275.64	84.44
275.872	80.44
276.104	83.44
276.335	64.44
276.567	83.44
276.799	94.44
277.031	100.44
277.262	98.44
277.494	98.44
277.726	79.44
277.957	85.44
278.189	70.44
278.421	99.44
278.652	92.44
278.884	82.44
279.115	87.44
279.347	97.44
279.579	88.44
279.81	79.44
280.042	92.44
280.273	110.44
280.505	84.44
280.736	98.44
280.968	95.44
281.199	101.44
281.431	108.44
281.662	76.44
281.894	89.44
282.125	107.44
282.356	111.44
282.588	119.44
282.819	97.44
283.051	100.44
283.282	82.44
283.513	76.44
283.745	94.44
283.976	79.44
284.207	80.44
284.439	88.44
284.67	83.44
284.901	92.44
285.132	81.44
285.364	91.44
285.595	91.44
285.826	99.44
286.057	83.44
286.288	66.44
286.52	85.44
286.751	93.44
286.982	99.44
287.213	95.44
287.444	87.44
287.675	82.44
287.906	82.44
288.138	85.44
288.369	89.44
288.6	95.44
288.831	87.44
289.062	92.44
289.293	87.44
289.524	90.44
289.755	97.44
289.986	103.44
290.217	83.44
290.448	85.44
290.679	86.44
290.91	87.44
291.141	88.44
291.371	85.44
291.602	93.44
291.833	82.44
292.064	85.44
292.295	87.44
292.526	90.44
292.757	93.44
292.987	95.44
293.218	76.44
293.449	78.44
293.68	99.44
293.91	88.44
294.141	94.44
294.372	82.44
294.603	80.44
294.833	86.44
295.064	83.44
295.295	79.44
295.525	93.44
295.756	96.44
295.987	106.44
296.217	112.44
296.448	111.44
296.679	76.44
296.909	95.44
297.14	91.44
297.37	98.44
297.601	86.44
297.831	85.44
298.062	97.44
298.292	75.44
298.523	92.44
298.753	81.44
298.984	100.44
299.214	92.44
299.445	93.44
299.675	103.44
299.905	110.44
300.136	94.44
300.366	94.44
300.597	101.44
300.827	91.44
301.057	88.44
301.288	99.44
301.518	86.44
301.748	88.44
301.979	104.44
302.209	83.44
302.439	86.44
302.669	76.44
302.9	86.44
303.13	88.44
303.36	90.44
303.59	89.44
303.82	101.44
304.051	99.44
304.281	99.44
304.511	83.44
304.741	104.44
304.971	88.44
305.201	106.44
305.431	95.44
305.661	103.44
305.891	95.44
306.121	105.44
306.352	76.44
306.582	108.44
306.812	104.44
307.042	78.44
307.272	87.44
307.502	94.44
307.731	84.44
307.961	91.44
308.191	95.44
308.421	98.44
308.651	90.44
308.881	102.44
309.111	93.44
309.341	95.44
309.571	90.44
309.8	111.44
310.03	90.44
310.26	95.44
310.49	92.44
310.72	107.44
310.949	94.44
311.179	100.44
311.409	91.44
311.639	73.44
311.868	110.44
312.098	99.44
312.328	90.44
312.557	102.44
312.787	95.44
313.017	98.44
313.246	90.44
313.476	90.44
313.706	95.44
313.935	110.44
314.165	94.44
314.394	93.44
314.624	89.44
314.853	93.44
315.083	78.44
315.312	92.44
315.542	85.44
315.771	87.44
316.001	91.44
316.23	95.44
316.46	89.44
316.689	102.44
316.919	91.44
317.148	98.44
317.377	92.44
317.607	98.44
317.836	92.44
318.065	94.44
318.295	99.44
318.524	83.44
318.753	86.44
318.983	93.44
319.212	106.44
319.441	99.44
319.67	118.44
319.9	89.44
320.129	103.44
320.358	85.44
320.587	89.44
320.816	103.44
321.046	91.44
321.275	101.44
321.504	98.44
321.733	102.44
321.962	89.44
322.191	104.44
322.42	92.44
322.649	100.44
322.878	107.44
323.108	104.44
323.337	110.44
323.566	112.44
323.795	133.44
324.024	172.44
324.253	283.44
324.482	589.44
324.71	1163.44
324.939	1515.44
325.168	570.44
325.397	198.44
325.626	136.44
325.855	111.44
326.084	120.44
326.313	133.44
326.542	138.44
326.77	187.44
326.999	332.44
327.228	690.44
327.457	1218.44
327.686	967.44
327.914	283.44
328.143	149.44
328.372	128.44
328.6	119.44
328.829	108.44
329.058	121.44
329.287	110.44
329.515	92.44
329.744	92.44
329.972	99.44
330.201	106.44
330.43	109.44
330.658	108.44
330.887	109.44
331.115	109.44
331.344	101.44
331.572	103.44
331.801	108.44
332.03	95.44
332.258	97.44
332.486	93.44
332.715	96.44
332.943	103.44
333.172	82.44
333.4	95.44
333.629	95.44
333.857	103.44
334.085	107.44
334.314	116.44
334.542	122.44
334.771	133.44
334.999	114.44
335.227	93.44
335.455	102.44
335.684	101.44
335.912	88.44
336.14	100.44
336.369	87.44
336.597	93.44
336.825	94.44
337.053	89.44
337.281	90.44
337.51	99.44
337.738	106.44
337.966	102.44
338.194	87.44
338.422	84.44
338.65	94.44
338.878	93.44
339.106	84.44
339.334	95.44
339.562	96.44
339.79	102.44
340.018	110.44
340.246	95.44
340.474	80.44
340.702	91.44
340.93	84.44
341.158	82.44
341.386	84.44
341.614	106.44
341.842	88.44
342.07	102.44
342.298	87.44
342.526	101.44
342.754	72.44
342.981	99.44
343.209	92.44
343.437	96.44
343.665	105.44
343.893	87.44
344.12	100.44
344.348	87.44
344.576	98.44
344.804	85.44
345.031	96.44
345.259	99.44
345.487	88.44
345.714	101.44
345.942	104.44
346.17	85.44
346.397	103.44
346.625	101.44
346.853	88.44
347.08	83.44
347.308	83.44
347.535	77.44
347.763	80.44
347.99	91.44
348.218	107.44
348.445	98.44
348.673	92.44
348.9	86.44
349.128	100.44
349.355	94.44
349.583	91.44
349.81	96.44
350.037	107.44
350.265	90.44
350.492	87.44
350.72	103.44
350.947	102.44
351.174	100.44
351.402	119.44
351.629	88.44
351.856	95.44
352.083	120.44
352.311	102.44
352.538	100.44
352.765	103.44
352.992	107.44
353.22	108.44
353.447	92.44
353.674	107.44
353.901	102.44
354.128	108.44
354.355	105.44
354.583	97.44
354.81	105.44
355.037	103.44
355.264	106.44
355.491	97.44
355.718	101.44
355.945	99.44
356.172	109.44
356.399	98.44
356.626	95.44
356.853	105.44
357.08	102.44
357.307	101.44
357.534	116.44
357.761	114.44
357.988	99.44
358.215	117.44
358.441	114.44
358.668	110.44
358.895	117.44
359.122	99.44
359.349	83.44
359.576	95.44
359.802	98.44
360.029	99.44
360.256	107.44
360.483	96.44
360.709	93.44
360.936	95.44
361.163	94.44
361.39	95.44
361.616	95.44
361.843	107.44
362.07	94.44
362.296	84.44
362.523	90.44
362.749	82.44
362.976	83.44
363.203	74.44
363.429	86.44
363.656	102.44
363.882	86.44
364.109	87.44
364.335	83.44
364.562	84.44
364.788	84.44
365.015	94.44
365.241	103.44
365.468	107.44
365.694	99.44
365.92	87.44
366.147	90.44
366.373	91.44
366.599	96.44
366.826	84.44
367.052	87.44
367.278	99.44
367.505	97.44
367.731	90.44
367.957	82.44
368.184	93.44
368.41	97.44
368.636	118.44
368.862	106.44
369.089	111.44
369.315	96.44
369.541	81.44
369.767	92.44
369.993	96.44
370.219	98.44
370.445	88.44
370.672	85.44
370.898	83.44
371.124	86.44
371.35	96.44
371.576	100.44
371.802	98.44
372.028	97.44
372.254	87.44
372.48	88.44
372.706	98.44
372.932	78.44
373.158	111.44
373.384	110.44
373.61	102.44
373.835	91.44
374.061	82.44
374.287	91.44
374.513	106.44
374.739	106.44
374.965	91.44
375.191	95.44
375.416	119.44
375.642	95.44
375.868	110.44
376.094	86.44
376.319	96.44
376.545	93.44
376.771	89.44
376.997	100.44
377.222	103.44
377.448	100.44
377.674	105.44
377.899	104.44
378.125	115.44
378.35	90.44
378.576	90.44
378.802	104.44
379.027	115.44
379.253	100.44
379.478	114.44
379.704	104.44
379.929	129.44
380.155	114.44
380.38	111.44
380.606	123.44
380.831	117.44
381.057	133.44
381.282	123.44
381.507	118.44
381.733	126.44
381.958	128.44
382.184	142.44
382.409	144.44
382.634	143.44
382.86	139.44
383.085	144.44
383.31	116.44
383.535	110.44
383.761	150.44
383.986	128.44
384.211	142.44
384.436	132.44
384.662	143.44
384.887	162.44
385.112	161.44
385.337	160.44
385.562	176.44
385.787	157.44
386.013	159.44
386.238	175.44
386.463	137.44
386.688	155.44
386.913	164.44
387.138	179.44
387.363	154.44
387.588	129.44
387.813	129.44
388.038	163.44
388.263	185.44
388.488	174.44
388.713	124.44
388.938	90.44
389.163	103.44
389.387	97.44
389.612	89.44
389.837	97.44
390.062	106.44
390.287	83.44
390.512	92.44
390.736	94.44
390.961	94.44
391.186	91.44
391.411	103.44
391.636	108.44
391.86	91.44
392.085	91.44
392.31	95.44
392.534	90.44
392.759	101.44
392.984	109.44
393.208	145.44
393.433	190.44
393.658	168.44
393.882	106.44
394.107	79.44
394.331	79.44
394.556	90.44
394.78	92.44
395.005	100.44
395.229	97.44
395.454	93.44
395.678	93.44
395.903	94.44
396.127	104.44
396.352	90.44
396.576	109.44
396.801	141.44
397.025	164.44
397.249	114.44
397.474	106.44
397.698	102.44
397.922	87.44
398.147	89.44
398.371	81.44
398.595	92.44
398.82	95.44
399.044	97.44
399.268	91.44
399.492	101.44
399.717	83.44
399.941	87.44
400.165	96.44
400.389	84.44
400.613	87.44
400.837	83.44
401.062	102.44
401.286	72.44
401.51	94.44
401.734	82.44
401.958	95.44
402.182	113.44
402.406	135.44
402.63	101.44
402.854	103.44
403.078	86.44
403.302	108.44
403.526	85.44
403.75	86.44
403.974	80.44
404.198	97.44
404.422	98.44
404.645	82.44
404.869	91.44
405.093	104.44
405.317	101.44
405.541	83.44
405.765	93.44
405.988	98.44
406.212	135.44
406.436	167.44
406.66	119.44
406.883	106.44
407.107	99.44
407.331	88.44
407.555	105.44
407.778	102.44
408.002	103.44
408.226	93.44
408.449	92.44
408.673	85.44
408.896	87.44
409.12	100.44
409.344	92.44
409.567	99.44
409.791	105.44
410.014	99.44
410.238	107.44
410.461	99.44
410.685	99.44
410.908	98.44
411.132	103.44
411.355	110.44
411.578	103.44
411.802	86.44
412.025	76.44
412.249	87.44
412.472	88.44
412.695	100.44
412.919	96.44
413.142	88.44
413.365	99.44
413.589	105.44
413.812	100.44
414.035	86.44
414.258	99.44
414.482	91.44
414.705	108.44
414.928	96.44
415.151	106.44
415.374	104.44
415.597	90.44
415.821	112.44
416.044	107.44
416.267	98.44
416.49	96.44
416.713	102.44
416.936	103.44
417.159	96.44
417.382	87.44
417.605	94.44
417.828	108.44
418.051	96.44
418.274	97.44
418.497	101.44
418.72	93.44
418.943	85.44
419.166	95.44
419.389	108.44
419.611	110.44
419.834	97.44
420.057	92.44
420.28	91.44
420.503	100.44
420.726	87.44
420.948	100.44
421.171	106.44
421.394	97.44
421.617	91.44
421.839	99.44
422.062	91.44
422.285	103.44
422.507	127.44
422.73	150.44
422.953	136.44
423.175	108.44
423.398	105.44
423.621	92.44
423.843	82.44
424.066	80.44
424.288	94.44
424.511	97.44
424.733	91.44
424.956	116.44
425.178	99.44
425.401	100.44
425.623	102.44
425.846	95.44
426.068	84.44
426.291	83.44
426.513	101.44
426.735	91.44
426.958	88.44
427.18	99.44
427.402	116.44
427.625	126.44
427.847	119.44
428.069	106.44
428.292	93.44
428.514	95.44
428.736	82.44
428.958	100.44
429.181	89.44
429.403	92.44
429.625	86.44
429.847	93.44
430.069	90.44
430.292	95.44
430.514	100.44
430.736	89.44
430.958	87.44
431.18	92.44
431.402	82.44
431.624	70.44
431.846	73.44
432.068	86.44
432.29	92.44
432.512	88.44
432.734	99.44
432.956	81.44
433.178	102.44
433.4	100.44
433.622	103.44
433.844	108.44
434.066	90.44
434.287	94.44
434.509	107.44
434.731	92.44
434.953	85.44
435.175	85.44
435.397	98.44
435.618	80.44
435.84	100.44
436.062	84.44
436.284	103.44
436.505	95.44
436.727	101.44
436.949	101.44
437.17	80.44
437.392	96.44
437.614	90.44
437.835	79.44
438.057	105.44
438.278	102.44
438.5	100.44
438.721	112.44
438.943	93.44
439.165	96.44
439.386	92.44
439.608	101.44
439.829	99.44
440.05	96.44
440.272	113.44
440.493	86.44
440.715	93.44
440.936	86.44
441.158	83.44
441.379	72.44
441.6	94.44
441.822	83.44
442.043	74.44
442.264	101.44
442.486	102.44
442.707	79.44
442.928	105.44
443.149	88.44
443.371	101.44
443.592	109.44
443.813	111.44
444.034	99.44
444.255	98.44
444.476	95.44
444.698	92.44
444.919	95.44
445.14	125.44
445.361	114.44
445.582	101.44
445.803	115.44
446.024	107.44
446.245	106.44
446.466	109.44
446.687	100.44
446.908	99.44
447.129	81.44
447.35	101.44
447.571	76.44
447.792	95.44
448.013	98.44
448.234	101.44
448.455	91.44
448.675	98.44
448.896	108.44
449.117	102.44
449.338	105.44
449.559	113.44
449.779	120.44
450	96.44
450.221	83.44
450.442	86.44
450.662	95.44
450.883	101.44
451.104	90.44
451.324	92.44
451.545	95.44
451.766	99.44
451.986	86.44
452.207	90.44
452.428	76.44
452.648	94.44
452.869	100.44
453.089	97.44
453.31	102.44
453.53	99.44
453.751	88.44
453.971	97.44
454.192	93.44
454.412	93.44
454.633	100.44
454.853	91.44
455.073	94.44
455.294	84.44
455.514	98.44
455.734	78.44
455.955	89.44
456.175	99.44
456.395	75.44
456.616	78.44
456.836	79.44
457.056	83.44
457.276	91.44
457.497	81.44
457.717	78.44
457.937	91.44
458.157	94.44
458.377	92.44
458.598	97.44
458.818	119.44
459.038	133.44
459.258	107.44
459.478	93.44
459.698	94.44
459.918	91.44
460.138	84.44
460.358	99.44
460.578	70.44
460.798	94.44
461.018	85.44
461.238	94.44
461.458	85.44
461.678	85.44
461.898	88.44
462.118	86.44
462.338	89.44
462.558	89.44
462.777	87.44
462.997	79.44
463.217	96.44
463.437	90.44
463.657	87.44
463.876	90.44
464.096	98.44
464.316	92.44
464.536	102.44
464.755	86.44
464.975	95.44
465.195	133.44
465.414	128.44
465.634	95.44
465.854	82.44
466.073	85.44
466.293	86.44
466.512	99.44
466.732	84.44
466.951	79.44
467.171	95.44
467.391	83.44
467.61	98.44
467.829	95.44
468.049	99.44
468.268	108.44
468.488	94.44
468.707	97.44
468.927	89.44
469.146	94.44
469.365	82.44
469.585	99.44
469.804	86.44
470.023	96.44
470.243	96.44
470.462	92.44
470.681	100.44
470.901	80.44
471.12	93.44
471.339	92.44
471.558	89.44
471.777	94.44
471.997	77.44
472.216	111.44
472.435	120.44
472.654	96.44
472.873	95.44
473.092	90.44
473.311	87.44
473.53	84.44
473.749	83.44
473.968	76.44
474.187	106.44
474.406	85.44
474.625	92.44
474.844	93.44
475.063	89.44
475.282	79.44
475.501	84.44
475.72	91.44
475.939	97.44
476.158	84.44
476.377	106.44
476.596	99.44
476.814	79.44
477.033	100.44
477.252	110.44
477.471	92.44
477.69	82.44
477.908	76.44
478.127	78.44
478.346	83.44
478.564	73.44
478.783	99.44
479.002	83.44
479.22	72.44
479.439	94.44
479.658	103.44
479.876	79.44
480.095	86.44
480.313	91.44
480.532	91.44
480.751	105.44
480.969	113.44
481.188	175.44
481.406	129.44
481.624	95.44
481.843	91.44
482.061	80.44
482.28	102.44
482.498	84.44
482.717	94.44
482.935	98.44
483.153	96.44
483.372	91.44
483.59	75.44
483.808	87.44
484.027	103.44
484.245	101.44
484.463	99.44
484.681	98.44
484.9	96.44
485.118	90.44
485.336	95.44
485.554	113.44
485.772	125.44
485.99	126.44
486.209	102.44
486.427	121.44
486.645	108.44
486.863	124.44
487.081	114.44
487.299	108.44
487.517	110.44
487.735	92.44
487.953	94.44
488.171	82.44
488.389	84.44
488.607	86.44
488.825	95.44
489.043	90.44
489.261	96.44
489.479	104.44
489.696	92.44
489.914	110.44
490.132	92.44
490.35	90.44
490.568	96.44
490.786	95.44
491.003	81.44
491.221	79.44
491.439	96.44
491.657	86.44
491.874	97.44
492.092	89.44
492.31	84.44
492.527	81.44
492.745	93.44
492.963	85.44
493.18	106.44
493.398	96.44
493.615	90.44
493.833	101.44
494.05	87.44
494.268	94.44
494.485	98.44
494.703	94.44
494.92	91.44
495.138	83.44
495.355	82.44
495.573	92.44
495.79	101.44
496.008	107.44
496.225	88.44
496.442	91.44
496.66	97.44
496.877	103.44
497.094	91.44
497.312	91.44
497.529	86.44
497.746	87.44
497.963	83.44
498.181	87.44
498.398	97.44
498.615	98.44
498.832	99.44
499.049	95.44
499.267	83.44
499.484	96.44
499.701	88.44
499.918	104.44
500.135	86.44
500.352	91.44
500.569	100.44
500.786	98.44
501.003	84.44
501.22	96.44
501.437	83.44
501.654	96.44
501.871	105.44
502.088	97.44
502.305	89.44
502.522	93.44
502.739	98.44
502.956	92.44
503.172	82.44
503.389	98.44
503.606	105.44
503.823	88.44
504.04	97.44
504.256	93.44
504.473	91.44
504.69	91.44
504.907	99.44
505.123	93.44
505.34	90.44
505.557	89.44
505.773	97.44
505.99	93.44
506.207	83.44
506.423	92.44
506.64	89.44
506.856	104.44
507.073	92.44
507.289	99.44
507.506	107.44
507.722	104.44
507.939	97.44
508.155	96.44
508.372	77.44
508.588	94.44
508.805	81.44
509.021	100.44
509.238	96.44
509.454	90.44
509.67	106.44
509.887	102.44
510.103	107.44
510.319	169.44
510.536	541.44
510.752	1498.44
510.968	458.44
511.184	107.44
511.401	97.44
511.617	103.44
511.833	104.44
512.049	80.44
512.265	88.44
512.481	106.44
512.698	96.44
512.914	81.44
513.13	100.44
513.346	77.44
513.562	88.44
513.778	93.44
513.994	90.44
514.21	97.44
514.426	114.44
514.642	110.44
