Data from Circ_1993_H10_HRD10591_00067.txt Node
Date: Wed Jan 03 11:44:15 EST 2024
User: Yrep
Spectrometer: HR+D1059
Trigger mode: 1
Integration Time (sec): 1.000000E-1
Scans to average: 1
Electric dark correction enabled: true
Nonlinearity correction enabled: false
Boxcar width: 0
XAxis mode: Wavelengths
Number of Pixels in Spectrum: 2048
>>>>>Begin Spectral Data<<<<<
223.165	-4.75
223.4	-4.75
223.635	-4.75
223.869	-9.75
224.104	-18.75
224.338	-15.75
224.573	-4.75
224.808	-10.75
225.042	-7.75
225.277	-0.75
225.511	-6.75
225.746	5.25
225.98	-6.75
226.215	15.25
226.449	13.25
226.683	19.25
226.918	11.25
227.152	22.25
227.387	28.25
227.621	38.25
227.856	51.25
228.09	55.25
228.324	46.25
228.559	53.25
228.793	75.25
229.027	73.25
229.262	73.25
229.496	84.25
229.73	81.25
229.964	78.25
230.199	69.25
230.433	83.25
230.667	88.25
230.901	77.25
231.136	78.25
231.37	81.25
231.604	86.25
231.838	83.25
232.072	80.25
232.306	96.25
232.541	78.25
232.775	77.25
233.009	61.25
233.243	87.25
233.477	90.25
233.711	84.25
233.945	81.25
234.179	68.25
234.413	83.25
234.647	91.25
234.881	84.25
235.115	85.25
235.349	85.25
235.583	81.25
235.817	75.25
236.051	73.25
236.285	82.25
236.519	75.25
236.753	67.25
236.987	71.25
237.221	81.25
237.455	83.25
237.689	82.25
237.922	74.25
238.156	68.25
238.39	78.25
238.624	79.25
238.858	79.25
239.091	66.25
239.325	83.25
239.559	77.25
239.793	82.25
240.027	90.25
240.26	80.25
240.494	74.25
240.728	81.25
240.961	77.25
241.195	84.25
241.429	84.25
241.662	91.25
241.896	65.25
242.13	68.25
242.363	63.25
242.597	74.25
242.83	85.25
243.064	89.25
243.298	77.25
243.531	81.25
243.765	86.25
243.998	88.25
244.232	85.25
244.465	73.25
244.699	75.25
244.932	68.25
245.166	66.25
245.399	81.25
245.633	89.25
245.866	79.25
246.099	76.25
246.333	78.25
246.566	92.25
246.8	77.25
247.033	84.25
247.266	89.25
247.5	79.25
247.733	68.25
247.966	79.25
248.2	58.25
248.433	70.25
248.666	63.25
248.899	67.25
249.133	72.25
249.366	101.25
249.599	94.25
249.832	79.25
250.066	91.25
250.299	78.25
250.532	69.25
250.765	79.25
250.998	86.25
251.231	76.25
251.465	78.25
251.698	78.25
251.931	86.25
252.164	83.25
252.397	73.25
252.63	77.25
252.863	85.25
253.096	75.25
253.329	83.25
253.562	78.25
253.795	57.25
254.028	85.25
254.261	75.25
254.494	77.25
254.727	80.25
254.96	86.25
255.193	87.25
255.426	71.25
255.659	95.25
255.892	111.25
256.124	71.25
256.357	86.25
256.59	87.25
256.823	86.25
257.056	80.25
257.289	84.25
257.521	93.25
257.754	89.25
257.987	66.25
258.22	94.25
258.452	81.25
258.685	90.25
258.918	89.25
259.151	75.25
259.383	87.25
259.616	82.25
259.849	82.25
260.081	85.25
260.314	92.25
260.547	86.25
260.779	78.25
261.012	84.25
261.244	77.25
261.477	85.25
261.71	92.25
261.942	106.25
262.175	123.25
262.407	89.25
262.64	85.25
262.872	63.25
263.105	90.25
263.337	93.25
263.57	89.25
263.802	100.25
264.035	95.25
264.267	80.25
264.499	92.25
264.732	75.25
264.964	84.25
265.197	94.25
265.429	93.25
265.661	74.25
265.894	87.25
266.126	78.25
266.358	70.25
266.591	83.25
266.823	85.25
267.055	90.25
267.287	93.25
267.52	68.25
267.752	84.25
267.984	104.25
268.216	82.25
268.448	83.25
268.681	87.25
268.913	85.25
269.145	71.25
269.377	76.25
269.609	87.25
269.841	85.25
270.073	85.25
270.306	91.25
270.538	78.25
270.77	77.25
271.002	91.25
271.234	94.25
271.466	105.25
271.698	78.25
271.93	85.25
272.162	93.25
272.394	82.25
272.626	87.25
272.858	77.25
273.09	91.25
273.322	87.25
273.553	84.25
273.785	85.25
274.017	98.25
274.249	95.25
274.481	80.25
274.713	94.25
274.945	91.25
275.176	79.25
275.408	82.25
275.64	102.25
275.872	87.25
276.104	83.25
276.335	78.25
276.567	101.25
276.799	109.25
277.031	95.25
277.262	95.25
277.494	92.25
277.726	87.25
277.957	90.25
278.189	91.25
278.421	67.25
278.652	83.25
278.884	93.25
279.115	96.25
279.347	96.25
279.579	91.25
279.81	88.25
280.042	96.25
280.273	86.25
280.505	90.25
280.736	94.25
280.968	83.25
281.199	85.25
281.431	78.25
281.662	84.25
281.894	93.25
282.125	109.25
282.356	115.25
282.588	126.25
282.819	107.25
283.051	88.25
283.282	95.25
283.513	105.25
283.745	88.25
283.976	83.25
284.207	87.25
284.439	80.25
284.67	82.25
284.901	80.25
285.132	86.25
285.364	78.25
285.595	82.25
285.826	78.25
286.057	93.25
286.288	69.25
286.52	94.25
286.751	87.25
286.982	76.25
287.213	93.25
287.444	81.25
287.675	97.25
287.906	86.25
288.138	92.25
288.369	97.25
288.6	88.25
288.831	90.25
289.062	85.25
289.293	73.25
289.524	89.25
289.755	78.25
289.986	97.25
290.217	89.25
290.448	81.25
290.679	76.25
290.91	74.25
291.141	84.25
291.371	100.25
291.602	97.25
291.833	75.25
292.064	86.25
292.295	91.25
292.526	95.25
292.757	86.25
292.987	92.25
293.218	89.25
293.449	83.25
293.68	89.25
293.91	86.25
294.141	89.25
294.372	83.25
294.603	86.25
294.833	75.25
295.064	91.25
295.295	92.25
295.525	84.25
295.756	82.25
295.987	103.25
296.217	129.25
296.448	117.25
296.679	100.25
296.909	105.25
297.14	97.25
297.37	94.25
297.601	83.25
297.831	82.25
298.062	89.25
298.292	86.25
298.523	82.25
298.753	77.25
298.984	77.25
299.214	86.25
299.445	94.25
299.675	91.25
299.905	87.25
300.136	95.25
300.366	88.25
300.597	91.25
300.827	99.25
301.057	87.25
301.288	97.25
301.518	89.25
301.748	85.25
301.979	93.25
302.209	100.25
302.439	70.25
302.669	94.25
302.9	96.25
303.13	93.25
303.36	103.25
303.59	102.25
303.82	100.25
304.051	112.25
304.281	90.25
304.511	95.25
304.741	94.25
304.971	97.25
305.201	88.25
305.431	87.25
305.661	94.25
305.891	87.25
306.121	84.25
306.352	101.25
306.582	112.25
306.812	101.25
307.042	101.25
307.272	103.25
307.502	97.25
307.731	101.25
307.961	102.25
308.191	102.25
308.421	86.25
308.651	81.25
308.881	92.25
309.111	99.25
309.341	93.25
309.571	85.25
309.8	90.25
310.03	90.25
310.26	85.25
310.49	88.25
310.72	99.25
310.949	94.25
311.179	99.25
311.409	90.25
311.639	92.25
311.868	108.25
312.098	106.25
312.328	98.25
312.557	103.25
312.787	92.25
313.017	103.25
313.246	90.25
313.476	89.25
313.706	99.25
313.935	90.25
314.165	97.25
314.394	87.25
314.624	103.25
314.853	104.25
315.083	93.25
315.312	98.25
315.542	86.25
315.771	91.25
316.001	68.25
316.23	96.25
316.46	93.25
316.689	81.25
316.919	98.25
317.148	84.25
317.377	88.25
317.607	95.25
317.836	83.25
318.065	90.25
318.295	81.25
318.524	85.25
318.753	85.25
318.983	98.25
319.212	99.25
319.441	100.25
319.67	103.25
319.9	86.25
320.129	73.25
320.358	102.25
320.587	101.25
320.816	92.25
321.046	95.25
321.275	102.25
321.504	97.25
321.733	91.25
321.962	103.25
322.191	103.25
322.42	105.25
322.649	105.25
322.878	110.25
323.108	104.25
323.337	111.25
323.566	123.25
323.795	132.25
324.024	197.25
324.253	339.25
324.482	737.25
324.71	1467.25
324.939	1997.25
325.168	729.25
325.397	232.25
325.626	137.25
325.855	130.25
326.084	119.25
326.313	104.25
326.542	149.25
326.77	205.25
326.999	390.25
327.228	809.25
327.457	1490.25
327.686	1229.25
327.914	349.25
328.143	210.25
328.372	175.25
328.6	135.25
328.829	106.25
329.058	115.25
329.287	118.25
329.515	106.25
329.744	126.25
329.972	157.25
330.201	197.25
330.43	237.25
330.658	155.25
330.887	137.25
331.115	114.25
331.344	97.25
331.572	91.25
331.801	107.25
332.03	103.25
332.258	102.25
332.486	98.25
332.715	82.25
332.943	93.25
333.172	108.25
333.4	95.25
333.629	115.25
333.857	111.25
334.085	140.25
334.314	183.25
334.542	296.25
334.771	279.25
334.999	139.25
335.227	87.25
335.455	93.25
335.684	103.25
335.912	102.25
336.14	94.25
336.369	105.25
336.597	99.25
336.825	98.25
337.053	92.25
337.281	102.25
337.51	87.25
337.738	82.25
337.966	84.25
338.194	102.25
338.422	92.25
338.65	96.25
338.878	94.25
339.106	94.25
339.334	90.25
339.562	85.25
339.79	105.25
340.018	96.25
340.246	93.25
340.474	104.25
340.702	102.25
340.93	94.25
341.158	86.25
341.386	84.25
341.614	105.25
341.842	99.25
342.07	88.25
342.298	101.25
342.526	89.25
342.754	89.25
342.981	83.25
343.209	77.25
343.437	108.25
343.665	108.25
343.893	98.25
344.12	94.25
344.348	83.25
344.576	86.25
344.804	76.25
345.031	86.25
345.259	95.25
345.487	93.25
345.714	87.25
345.942	92.25
346.17	77.25
346.397	96.25
346.625	107.25
346.853	95.25
347.08	82.25
347.308	86.25
347.535	99.25
347.763	106.25
347.99	95.25
348.218	101.25
348.445	110.25
348.673	106.25
348.9	100.25
349.128	81.25
349.355	97.25
349.583	97.25
349.81	88.25
350.037	99.25
350.265	86.25
350.492	94.25
350.72	96.25
350.947	100.25
351.174	98.25
351.402	97.25
351.629	99.25
351.856	91.25
352.083	105.25
352.311	102.25
352.538	111.25
352.765	105.25
352.992	100.25
353.22	106.25
353.447	94.25
353.674	94.25
353.901	100.25
354.128	110.25
354.355	85.25
354.583	99.25
354.81	86.25
355.037	98.25
355.264	98.25
355.491	80.25
355.718	85.25
355.945	99.25
356.172	99.25
356.399	85.25
356.626	107.25
356.853	105.25
357.08	82.25
357.307	80.25
357.534	93.25
357.761	89.25
357.988	95.25
358.215	93.25
358.441	97.25
358.668	99.25
358.895	99.25
359.122	99.25
359.349	76.25
359.576	76.25
359.802	116.25
360.029	110.25
360.256	117.25
360.483	96.25
360.709	88.25
360.936	93.25
361.163	82.25
361.39	88.25
361.616	85.25
361.843	77.25
362.07	94.25
362.296	89.25
362.523	81.25
362.749	79.25
362.976	85.25
363.203	86.25
363.429	70.25
363.656	87.25
363.882	75.25
364.109	89.25
364.335	93.25
364.562	100.25
364.788	93.25
365.015	108.25
365.241	103.25
365.468	105.25
365.694	102.25
365.92	110.25
366.147	94.25
366.373	93.25
366.599	70.25
366.826	92.25
367.052	70.25
367.278	83.25
367.505	99.25
367.731	76.25
367.957	92.25
368.184	93.25
368.41	99.25
368.636	95.25
368.862	122.25
369.089	98.25
369.315	92.25
369.541	89.25
369.767	97.25
369.993	96.25
370.219	89.25
370.445	95.25
370.672	103.25
370.898	82.25
371.124	86.25
371.35	83.25
371.576	88.25
371.802	91.25
372.028	91.25
372.254	81.25
372.48	58.25
372.706	90.25
372.932	89.25
373.158	67.25
373.384	82.25
373.61	98.25
373.835	88.25
374.061	79.25
374.287	88.25
374.513	93.25
374.739	103.25
374.965	98.25
375.191	86.25
375.416	84.25
375.642	87.25
375.868	89.25
376.094	97.25
376.319	87.25
376.545	86.25
376.771	97.25
376.997	81.25
377.222	87.25
377.448	90.25
377.674	88.25
377.899	84.25
378.125	101.25
378.35	85.25
378.576	82.25
378.802	89.25
379.027	75.25
379.253	87.25
379.478	87.25
379.704	105.25
379.929	89.25
380.155	88.25
380.38	95.25
380.606	97.25
380.831	94.25
381.057	100.25
381.282	100.25
381.507	101.25
381.733	106.25
381.958	108.25
382.184	99.25
382.409	104.25
382.634	94.25
382.86	96.25
383.085	98.25
383.31	98.25
383.535	97.25
383.761	95.25
383.986	102.25
384.211	101.25
384.436	93.25
384.662	94.25
384.887	93.25
385.112	107.25
385.337	107.25
385.562	101.25
385.787	110.25
386.013	106.25
386.238	112.25
386.463	103.25
386.688	114.25
386.913	89.25
387.138	110.25
387.363	97.25
387.588	113.25
387.813	97.25
388.038	113.25
388.263	110.25
388.488	106.25
388.713	96.25
388.938	85.25
389.163	92.25
389.387	93.25
389.612	97.25
389.837	93.25
390.062	93.25
390.287	90.25
390.512	89.25
390.736	84.25
390.961	83.25
391.186	89.25
391.411	96.25
391.636	95.25
391.86	80.25
392.085	79.25
392.31	79.25
392.534	84.25
392.759	95.25
392.984	102.25
393.208	100.25
393.433	109.25
393.658	123.25
393.882	83.25
394.107	84.25
394.331	83.25
394.556	83.25
394.78	94.25
395.005	89.25
395.229	82.25
395.454	89.25
395.678	91.25
395.903	91.25
396.127	97.25
396.352	82.25
396.576	85.25
396.801	85.25
397.025	102.25
397.249	79.25
397.474	94.25
397.698	91.25
397.922	78.25
398.147	94.25
398.371	93.25
398.595	68.25
398.82	73.25
399.044	83.25
399.268	85.25
399.492	97.25
399.717	94.25
399.941	95.25
400.165	91.25
400.389	87.25
400.613	90.25
400.837	99.25
401.062	87.25
401.286	69.25
401.51	85.25
401.734	89.25
401.958	105.25
402.182	118.25
402.406	133.25
402.63	97.25
402.854	90.25
403.078	88.25
403.302	78.25
403.526	90.25
403.75	97.25
403.974	66.25
404.198	91.25
404.422	96.25
404.645	91.25
404.869	107.25
405.093	102.25
405.317	94.25
405.541	91.25
405.765	93.25
405.988	110.25
406.212	151.25
406.436	207.25
406.66	128.25
406.883	102.25
407.107	84.25
407.331	103.25
407.555	83.25
407.778	100.25
408.002	82.25
408.226	79.25
408.449	89.25
408.673	84.25
408.896	101.25
409.12	96.25
409.344	83.25
409.567	100.25
409.791	91.25
410.014	99.25
410.238	82.25
410.461	93.25
410.685	107.25
410.908	95.25
411.132	113.25
411.355	98.25
411.578	98.25
411.802	93.25
412.025	86.25
412.249	100.25
412.472	98.25
412.695	101.25
412.919	94.25
413.142	94.25
413.365	79.25
413.589	83.25
413.812	84.25
414.035	94.25
414.258	85.25
414.482	93.25
414.705	98.25
414.928	83.25
415.151	93.25
415.374	84.25
415.597	75.25
415.821	79.25
416.044	82.25
416.267	94.25
416.49	89.25
416.713	94.25
416.936	101.25
417.159	91.25
417.382	88.25
417.605	86.25
417.828	98.25
418.051	90.25
418.274	90.25
418.497	88.25
418.72	87.25
418.943	85.25
419.166	82.25
419.389	97.25
419.611	82.25
419.834	83.25
420.057	91.25
420.28	83.25
420.503	89.25
420.726	91.25
420.948	85.25
421.171	91.25
421.394	92.25
421.617	77.25
421.839	107.25
422.062	84.25
422.285	89.25
422.507	107.25
422.73	116.25
422.953	90.25
423.175	78.25
423.398	99.25
423.621	101.25
423.843	100.25
424.066	80.25
424.288	82.25
424.511	84.25
424.733	91.25
424.956	100.25
425.178	94.25
425.401	109.25
425.623	73.25
425.846	91.25
426.068	93.25
426.291	90.25
426.513	90.25
426.735	99.25
426.958	101.25
427.18	106.25
427.402	125.25
427.625	137.25
427.847	142.25
428.069	123.25
428.292	97.25
428.514	94.25
428.736	95.25
428.958	84.25
429.181	87.25
429.403	90.25
429.625	90.25
429.847	71.25
430.069	92.25
430.292	91.25
430.514	87.25
430.736	78.25
430.958	85.25
431.18	78.25
431.402	90.25
431.624	87.25
431.846	99.25
432.068	98.25
432.29	109.25
432.512	79.25
432.734	74.25
432.956	83.25
433.178	95.25
433.4	91.25
433.622	98.25
433.844	95.25
434.066	98.25
434.287	80.25
434.509	90.25
434.731	86.25
434.953	91.25
435.175	92.25
435.397	100.25
435.618	81.25
435.84	105.25
436.062	114.25
436.284	105.25
436.505	107.25
436.727	103.25
436.949	89.25
437.17	96.25
437.392	88.25
437.614	76.25
437.835	99.25
438.057	106.25
438.278	106.25
438.5	101.25
438.721	117.25
438.943	107.25
439.165	88.25
439.386	88.25
439.608	94.25
439.829	96.25
440.05	113.25
440.272	123.25
440.493	100.25
440.715	89.25
440.936	93.25
441.158	84.25
441.379	78.25
441.6	86.25
441.822	96.25
442.043	86.25
442.264	101.25
442.486	109.25
442.707	90.25
442.928	108.25
443.149	121.25
443.371	124.25
443.592	103.25
443.813	113.25
444.034	103.25
444.255	85.25
444.476	69.25
444.698	77.25
444.919	81.25
445.14	128.25
445.361	125.25
445.582	114.25
445.803	122.25
446.024	112.25
446.245	123.25
446.466	91.25
446.687	106.25
446.908	95.25
447.129	92.25
447.35	82.25
447.571	102.25
447.792	91.25
448.013	103.25
448.234	92.25
448.455	87.25
448.675	101.25
448.896	117.25
449.117	91.25
449.338	107.25
449.559	125.25
449.779	127.25
450	90.25
450.221	88.25
450.442	84.25
450.662	97.25
450.883	93.25
451.104	94.25
451.324	85.25
451.545	75.25
451.766	81.25
451.986	102.25
452.207	99.25
452.428	83.25
452.648	89.25
452.869	109.25
453.089	102.25
453.31	96.25
453.53	102.25
453.751	110.25
453.971	102.25
454.192	91.25
454.412	87.25
454.633	84.25
454.853	90.25
455.073	81.25
455.294	86.25
455.514	91.25
455.734	90.25
455.955	83.25
456.175	81.25
456.395	96.25
456.616	75.25
456.836	87.25
457.056	93.25
457.276	76.25
457.497	77.25
457.717	75.25
457.937	93.25
458.157	94.25
458.377	88.25
458.598	116.25
458.818	131.25
459.038	141.25
459.258	107.25
459.478	81.25
459.698	95.25
459.918	99.25
460.138	85.25
460.358	81.25
460.578	85.25
460.798	94.25
461.018	94.25
461.238	83.25
461.458	105.25
461.678	87.25
461.898	100.25
462.118	91.25
462.338	96.25
462.558	89.25
462.777	75.25
462.997	92.25
463.217	71.25
463.437	91.25
463.657	86.25
463.876	84.25
464.096	102.25
464.316	89.25
464.536	94.25
464.755	75.25
464.975	114.25
465.195	159.25
465.414	153.25
465.634	94.25
465.854	96.25
466.073	92.25
466.293	80.25
466.512	87.25
466.732	74.25
466.951	94.25
467.171	92.25
467.391	104.25
467.61	110.25
467.829	105.25
468.049	144.25
468.268	159.25
468.488	116.25
468.707	89.25
468.927	98.25
469.146	91.25
469.365	80.25
469.585	85.25
469.804	108.25
470.023	105.25
470.243	91.25
470.462	99.25
470.681	101.25
470.901	82.25
471.12	85.25
471.339	84.25
471.558	96.25
471.777	96.25
471.997	113.25
472.216	204.25
472.435	369.25
472.654	137.25
472.873	106.25
473.092	96.25
473.311	89.25
473.53	82.25
473.749	94.25
473.968	94.25
474.187	106.25
474.406	85.25
474.625	88.25
474.844	90.25
475.063	87.25
475.282	107.25
475.501	91.25
475.72	101.25
475.939	93.25
476.158	97.25
476.377	84.25
476.596	97.25
476.814	97.25
477.033	97.25
477.252	102.25
477.471	106.25
477.69	107.25
477.908	65.25
478.127	77.25
478.346	86.25
478.564	92.25
478.783	98.25
479.002	96.25
479.22	88.25
479.439	86.25
479.658	101.25
479.876	95.25
480.095	92.25
480.313	93.25
480.532	107.25
480.751	109.25
480.969	217.25
481.188	612.25
481.406	372.25
481.624	123.25
481.843	84.25
482.061	92.25
482.28	92.25
482.498	93.25
482.717	89.25
482.935	76.25
483.153	88.25
483.372	97.25
483.59	90.25
483.808	93.25
484.027	92.25
484.245	102.25
484.463	94.25
484.681	84.25
484.9	91.25
485.118	102.25
485.336	112.25
485.554	90.25
485.772	107.25
485.99	104.25
486.209	104.25
486.427	100.25
486.645	116.25
486.863	99.25
487.081	89.25
487.299	116.25
487.517	103.25
487.735	102.25
487.953	93.25
488.171	108.25
488.389	98.25
488.607	98.25
488.825	94.25
489.043	93.25
489.261	84.25
489.479	89.25
489.696	93.25
489.914	85.25
490.132	93.25
490.35	96.25
490.568	81.25
490.786	98.25
491.003	103.25
491.221	93.25
491.439	81.25
491.657	90.25
491.874	96.25
492.092	84.25
492.31	95.25
492.527	96.25
492.745	87.25
492.963	86.25
493.18	95.25
493.398	87.25
493.615	111.25
493.833	89.25
494.05	98.25
494.268	81.25
494.485	94.25
494.703	86.25
494.92	102.25
495.138	83.25
495.355	66.25
495.573	99.25
495.79	87.25
496.008	84.25
496.225	90.25
496.442	95.25
496.66	82.25
496.877	91.25
497.094	92.25
497.312	87.25
497.529	84.25
497.746	93.25
497.963	76.25
498.181	80.25
498.398	92.25
498.615	113.25
498.832	108.25
499.049	83.25
499.267	93.25
499.484	90.25
499.701	92.25
499.918	96.25
500.135	91.25
500.352	101.25
500.569	71.25
500.786	82.25
501.003	89.25
501.22	86.25
501.437	103.25
501.654	96.25
501.871	106.25
502.088	79.25
502.305	93.25
502.522	94.25
502.739	81.25
502.956	83.25
503.172	78.25
503.389	96.25
503.606	115.25
503.823	89.25
504.04	96.25
504.256	90.25
504.473	84.25
504.69	93.25
504.907	93.25
505.123	86.25
505.34	91.25
505.557	89.25
505.773	101.25
505.99	87.25
506.207	91.25
506.423	97.25
506.64	99.25
506.856	102.25
507.073	102.25
507.289	92.25
507.506	98.25
507.722	100.25
507.939	109.25
508.155	91.25
508.372	90.25
508.588	93.25
508.805	93.25
509.021	90.25
509.238	105.25
509.454	105.25
509.67	97.25
509.887	103.25
510.103	133.25
510.319	209.25
510.536	697.25
510.752	2187.25
510.968	596.25
511.184	149.25
511.401	126.25
511.617	93.25
511.833	95.25
512.049	91.25
512.265	85.25
512.481	102.25
512.698	81.25
512.914	100.25
513.13	93.25
513.346	93.25
513.562	94.25
513.778	102.25
513.994	103.25
514.21	92.25
514.426	97.25
514.642	128.25
514.858	121.25
515.074	147.25
515.29	405.25
515.506	1323.25
