Data from Circ_1993_H10_HRD10591_00039.txt Node
Date: Wed Jan 03 11:44:09 EST 2024
User: Yrep
Spectrometer: HR+D1059
Trigger mode: 1
Integration Time (sec): 1.000000E-1
Scans to average: 1
Electric dark correction enabled: true
Nonlinearity correction enabled: false
Boxcar width: 0
XAxis mode: Wavelengths
Number of Pixels in Spectrum: 2048
>>>>>Begin Spectral Data<<<<<
223.165	-26.12
223.4	-26.12
223.635	-26.12
223.869	-19.12
224.104	2.88
224.338	-24.12
224.573	-21.12
224.808	-20.12
225.042	-11.12
225.277	7.88
225.511	9.88
225.746	-13.12
225.98	3.88
226.215	22.88
226.449	19.88
226.683	20.88
226.918	27.88
227.152	18.88
227.387	22.88
227.621	23.88
227.856	35.88
228.09	54.88
228.324	56.88
228.559	46.88
228.793	64.88
229.027	63.88
229.262	55.88
229.496	75.88
229.73	76.88
229.964	73.88
230.199	65.88
230.433	76.88
230.667	74.88
230.901	85.88
231.136	100.88
231.37	88.88
231.604	71.88
231.838	71.88
232.072	81.88
232.306	84.88
232.541	78.88
232.775	80.88
233.009	68.88
233.243	82.88
233.477	69.88
233.711	66.88
233.945	90.88
234.179	71.88
234.413	80.88
234.647	71.88
234.881	74.88
235.115	90.88
235.349	88.88
235.583	80.88
235.817	84.88
236.051	74.88
236.285	67.88
236.519	76.88
236.753	91.88
236.987	71.88
237.221	85.88
237.455	86.88
237.689	76.88
237.922	92.88
238.156	76.88
238.39	91.88
238.624	68.88
238.858	82.88
239.091	82.88
239.325	81.88
239.559	71.88
239.793	74.88
240.027	69.88
240.26	74.88
240.494	79.88
240.728	66.88
240.961	77.88
241.195	79.88
241.429	69.88
241.662	58.88
241.896	74.88
242.13	62.88
242.363	76.88
242.597	86.88
242.83	89.88
243.064	82.88
243.298	79.88
243.531	69.88
243.765	82.88
243.998	68.88
244.232	76.88
244.465	70.88
244.699	83.88
244.932	80.88
245.166	80.88
245.399	79.88
245.633	83.88
245.866	86.88
246.099	81.88
246.333	83.88
246.566	78.88
246.8	80.88
247.033	82.88
247.266	58.88
247.5	71.88
247.733	81.88
247.966	79.88
248.2	81.88
248.433	79.88
248.666	87.88
248.899	88.88
249.133	87.88
249.366	96.88
249.599	80.88
249.832	85.88
250.066	89.88
250.299	88.88
250.532	93.88
250.765	86.88
250.998	89.88
251.231	74.88
251.465	69.88
251.698	77.88
251.931	70.88
252.164	69.88
252.397	83.88
252.63	81.88
252.863	72.88
253.096	83.88
253.329	82.88
253.562	75.88
253.795	77.88
254.028	85.88
254.261	79.88
254.494	83.88
254.727	72.88
254.96	86.88
255.193	82.88
255.426	73.88
255.659	79.88
255.892	88.88
256.124	100.88
256.357	82.88
256.59	83.88
256.823	85.88
257.056	75.88
257.289	87.88
257.521	77.88
257.754	90.88
257.987	77.88
258.22	80.88
258.452	71.88
258.685	100.88
258.918	91.88
259.151	84.88
259.383	88.88
259.616	68.88
259.849	79.88
260.081	82.88
260.314	78.88
260.547	74.88
260.779	89.88
261.012	85.88
261.244	83.88
261.477	98.88
261.71	81.88
261.942	106.88
262.175	98.88
262.407	83.88
262.64	86.88
262.872	68.88
263.105	83.88
263.337	80.88
263.57	77.88
263.802	100.88
264.035	82.88
264.267	77.88
264.499	85.88
264.732	95.88
264.964	93.88
265.197	87.88
265.429	87.88
265.661	77.88
265.894	67.88
266.126	94.88
266.358	86.88
266.591	81.88
266.823	64.88
267.055	75.88
267.287	98.88
267.52	80.88
267.752	87.88
267.984	82.88
268.216	82.88
268.448	78.88
268.681	93.88
268.913	81.88
269.145	95.88
269.377	84.88
269.609	91.88
269.841	89.88
270.073	92.88
270.306	90.88
270.538	88.88
270.77	88.88
271.002	87.88
271.234	100.88
271.466	95.88
271.698	72.88
271.93	80.88
272.162	96.88
272.394	86.88
272.626	94.88
272.858	94.88
273.09	79.88
273.322	84.88
273.553	86.88
273.785	89.88
274.017	80.88
274.249	70.88
274.481	90.88
274.713	82.88
274.945	95.88
275.176	94.88
275.408	84.88
275.64	97.88
275.872	90.88
276.104	87.88
276.335	91.88
276.567	94.88
276.799	95.88
277.031	89.88
277.262	108.88
277.494	94.88
277.726	84.88
277.957	95.88
278.189	90.88
278.421	75.88
278.652	78.88
278.884	92.88
279.115	92.88
279.347	102.88
279.579	84.88
279.81	86.88
280.042	85.88
280.273	99.88
280.505	85.88
280.736	99.88
280.968	91.88
281.199	87.88
281.431	92.88
281.662	84.88
281.894	85.88
282.125	100.88
282.356	106.88
282.588	117.88
282.819	101.88
283.051	94.88
283.282	95.88
283.513	90.88
283.745	83.88
283.976	82.88
284.207	101.88
284.439	85.88
284.67	95.88
284.901	98.88
285.132	90.88
285.364	94.88
285.595	84.88
285.826	78.88
286.057	88.88
286.288	84.88
286.52	92.88
286.751	70.88
286.982	86.88
287.213	84.88
287.444	95.88
287.675	94.88
287.906	91.88
288.138	82.88
288.369	100.88
288.6	85.88
288.831	74.88
289.062	99.88
289.293	86.88
289.524	94.88
289.755	82.88
289.986	75.88
290.217	98.88
290.448	93.88
290.679	93.88
290.91	102.88
291.141	86.88
291.371	87.88
291.602	81.88
291.833	78.88
292.064	94.88
292.295	65.88
292.526	84.88
292.757	87.88
292.987	91.88
293.218	82.88
293.449	76.88
293.68	74.88
293.91	76.88
294.141	97.88
294.372	96.88
294.603	105.88
294.833	77.88
295.064	91.88
295.295	90.88
295.525	101.88
295.756	84.88
295.987	92.88
296.217	117.88
296.448	88.88
296.679	77.88
296.909	87.88
297.14	90.88
297.37	96.88
297.601	86.88
297.831	81.88
298.062	92.88
298.292	91.88
298.523	92.88
298.753	91.88
298.984	87.88
299.214	100.88
299.445	102.88
299.675	98.88
299.905	93.88
300.136	84.88
300.366	87.88
300.597	77.88
300.827	91.88
301.057	103.88
301.288	93.88
301.518	90.88
301.748	86.88
301.979	108.88
302.209	85.88
302.439	77.88
302.669	102.88
302.9	85.88
303.13	94.88
303.36	85.88
303.59	98.88
303.82	99.88
304.051	96.88
304.281	69.88
304.511	86.88
304.741	80.88
304.971	92.88
305.201	82.88
305.431	87.88
305.661	86.88
305.891	95.88
306.121	106.88
306.352	97.88
306.582	96.88
306.812	90.88
307.042	93.88
307.272	84.88
307.502	101.88
307.731	111.88
307.961	94.88
308.191	96.88
308.421	92.88
308.651	96.88
308.881	100.88
309.111	98.88
309.341	91.88
309.571	89.88
309.8	91.88
310.03	100.88
310.26	93.88
310.49	92.88
310.72	88.88
310.949	92.88
311.179	103.88
311.409	107.88
311.639	95.88
311.868	98.88
312.098	91.88
312.328	100.88
312.557	95.88
312.787	100.88
313.017	111.88
313.246	89.88
313.476	93.88
313.706	102.88
313.935	101.88
314.165	91.88
314.394	90.88
314.624	88.88
314.853	88.88
315.083	83.88
315.312	96.88
315.542	95.88
315.771	82.88
316.001	87.88
316.23	83.88
316.46	99.88
316.689	84.88
316.919	80.88
317.148	90.88
317.377	92.88
317.607	77.88
317.836	92.88
318.065	95.88
318.295	93.88
318.524	96.88
318.753	88.88
318.983	96.88
319.212	87.88
319.441	94.88
319.67	97.88
319.9	92.88
320.129	96.88
320.358	90.88
320.587	95.88
320.816	94.88
321.046	104.88
321.275	103.88
321.504	87.88
321.733	91.88
321.962	89.88
322.191	114.88
322.42	99.88
322.649	101.88
322.878	106.88
323.108	115.88
323.337	103.88
323.566	122.88
323.795	124.88
324.024	159.88
324.253	314.88
324.482	604.88
324.71	1247.88
324.939	1592.88
325.168	606.88
325.397	204.88
325.626	142.88
325.855	114.88
326.084	116.88
326.313	117.88
326.542	128.88
326.77	175.88
326.999	343.88
327.228	679.88
327.457	1247.88
327.686	1012.88
327.914	287.88
328.143	180.88
328.372	145.88
328.6	116.88
328.829	97.88
329.058	110.88
329.287	104.88
329.515	112.88
329.744	106.88
329.972	103.88
330.201	155.88
330.43	160.88
330.658	128.88
330.887	124.88
331.115	113.88
331.344	102.88
331.572	80.88
331.801	106.88
332.03	92.88
332.258	95.88
332.486	99.88
332.715	98.88
332.943	101.88
333.172	100.88
333.4	107.88
333.629	120.88
333.857	112.88
334.085	113.88
334.314	144.88
334.542	190.88
334.771	182.88
334.999	111.88
335.227	91.88
335.455	99.88
335.684	108.88
335.912	98.88
336.14	107.88
336.369	84.88
336.597	92.88
336.825	97.88
337.053	93.88
337.281	106.88
337.51	88.88
337.738	101.88
337.966	91.88
338.194	82.88
338.422	90.88
338.65	88.88
338.878	90.88
339.106	101.88
339.334	99.88
339.562	95.88
339.79	80.88
340.018	100.88
340.246	96.88
340.474	71.88
340.702	99.88
340.93	83.88
341.158	99.88
341.386	106.88
341.614	91.88
341.842	88.88
342.07	95.88
342.298	109.88
342.526	76.88
342.754	99.88
342.981	95.88
343.209	93.88
343.437	82.88
343.665	98.88
343.893	93.88
344.12	83.88
344.348	84.88
344.576	85.88
344.804	103.88
345.031	89.88
345.259	99.88
345.487	85.88
345.714	91.88
345.942	86.88
346.17	79.88
346.397	107.88
346.625	95.88
346.853	94.88
347.08	88.88
347.308	88.88
347.535	87.88
347.763	95.88
347.99	93.88
348.218	94.88
348.445	96.88
348.673	104.88
348.9	93.88
349.128	90.88
349.355	86.88
349.583	105.88
349.81	101.88
350.037	96.88
350.265	88.88
350.492	102.88
350.72	85.88
350.947	99.88
351.174	113.88
351.402	95.88
351.629	95.88
351.856	98.88
352.083	94.88
352.311	108.88
352.538	108.88
352.765	106.88
352.992	112.88
353.22	111.88
353.447	99.88
353.674	87.88
353.901	102.88
354.128	115.88
354.355	99.88
354.583	98.88
354.81	100.88
355.037	96.88
355.264	90.88
355.491	96.88
355.718	84.88
355.945	85.88
356.172	97.88
356.399	86.88
356.626	93.88
356.853	99.88
357.08	88.88
357.307	96.88
357.534	90.88
357.761	94.88
357.988	100.88
358.215	109.88
358.441	88.88
358.668	108.88
358.895	104.88
359.122	85.88
359.349	87.88
359.576	96.88
359.802	102.88
360.029	101.88
360.256	101.88
360.483	102.88
360.709	89.88
360.936	87.88
361.163	85.88
361.39	101.88
361.616	98.88
361.843	102.88
362.07	101.88
362.296	87.88
362.523	101.88
362.749	99.88
362.976	100.88
363.203	99.88
363.429	90.88
363.656	94.88
363.882	90.88
364.109	93.88
364.335	94.88
364.562	95.88
364.788	97.88
365.015	82.88
365.241	103.88
365.468	106.88
365.694	110.88
365.92	93.88
366.147	98.88
366.373	96.88
366.599	87.88
366.826	86.88
367.052	91.88
367.278	95.88
367.505	77.88
367.731	78.88
367.957	87.88
368.184	91.88
368.41	84.88
368.636	103.88
368.862	89.88
369.089	114.88
369.315	103.88
369.541	102.88
369.767	101.88
369.993	87.88
370.219	74.88
370.445	86.88
370.672	102.88
370.898	84.88
371.124	89.88
371.35	83.88
371.576	86.88
371.802	94.88
372.028	90.88
372.254	97.88
372.48	86.88
372.706	86.88
372.932	91.88
373.158	97.88
373.384	98.88
373.61	103.88
373.835	81.88
374.061	103.88
374.287	86.88
374.513	101.88
374.739	79.88
374.965	88.88
375.191	92.88
375.416	110.88
375.642	94.88
375.868	96.88
376.094	82.88
376.319	93.88
376.545	90.88
376.771	69.88
376.997	99.88
377.222	87.88
377.448	98.88
377.674	90.88
377.899	90.88
378.125	102.88
378.35	95.88
378.576	102.88
378.802	76.88
379.027	83.88
379.253	94.88
379.478	93.88
379.704	88.88
379.929	88.88
380.155	110.88
380.38	99.88
380.606	86.88
380.831	88.88
381.057	90.88
381.282	104.88
381.507	99.88
381.733	98.88
381.958	99.88
382.184	123.88
382.409	109.88
382.634	111.88
382.86	114.88
383.085	119.88
383.31	117.88
383.535	104.88
383.761	109.88
383.986	100.88
384.211	100.88
384.436	118.88
384.662	110.88
384.887	115.88
385.112	114.88
385.337	117.88
385.562	116.88
385.787	103.88
386.013	106.88
386.238	117.88
386.463	117.88
386.688	120.88
386.913	125.88
387.138	124.88
387.363	122.88
387.588	115.88
387.813	112.88
388.038	117.88
388.263	123.88
388.488	127.88
388.713	111.88
388.938	102.88
389.163	92.88
389.387	90.88
389.612	97.88
389.837	80.88
390.062	84.88
390.287	92.88
390.512	95.88
390.736	92.88
390.961	86.88
391.186	93.88
391.411	95.88
391.636	89.88
391.86	88.88
392.085	79.88
392.31	75.88
392.534	94.88
392.759	94.88
392.984	96.88
393.208	113.88
393.433	129.88
393.658	115.88
393.882	99.88
394.107	86.88
394.331	88.88
394.556	97.88
394.78	83.88
395.005	98.88
395.229	87.88
395.454	95.88
395.678	95.88
395.903	86.88
396.127	88.88
396.352	94.88
396.576	84.88
396.801	115.88
397.025	122.88
397.249	110.88
397.474	91.88
397.698	98.88
397.922	103.88
398.147	71.88
398.371	97.88
398.595	94.88
398.82	76.88
399.044	89.88
399.268	93.88
399.492	91.88
399.717	90.88
399.941	99.88
400.165	103.88
400.389	91.88
400.613	86.88
400.837	81.88
401.062	87.88
401.286	83.88
401.51	63.88
401.734	95.88
401.958	88.88
402.182	114.88
402.406	141.88
402.63	110.88
402.854	99.88
403.078	103.88
403.302	87.88
403.526	90.88
403.75	92.88
403.974	94.88
404.198	84.88
404.422	76.88
404.645	99.88
404.869	86.88
405.093	98.88
405.317	81.88
405.541	99.88
405.765	89.88
405.988	103.88
406.212	134.88
406.436	182.88
406.66	123.88
406.883	93.88
407.107	89.88
407.331	94.88
407.555	97.88
407.778	101.88
408.002	93.88
408.226	99.88
408.449	96.88
408.673	98.88
408.896	94.88
409.12	90.88
409.344	95.88
409.567	102.88
409.791	96.88
410.014	95.88
410.238	98.88
410.461	83.88
410.685	107.88
410.908	111.88
411.132	106.88
411.355	103.88
411.578	90.88
411.802	99.88
412.025	86.88
412.249	84.88
412.472	90.88
412.695	98.88
412.919	106.88
413.142	95.88
413.365	69.88
413.589	98.88
413.812	83.88
414.035	98.88
414.258	79.88
414.482	108.88
414.705	110.88
414.928	96.88
415.151	95.88
415.374	86.88
415.597	102.88
415.821	97.88
416.044	85.88
416.267	82.88
416.49	99.88
416.713	100.88
416.936	72.88
417.159	88.88
417.382	93.88
417.605	97.88
417.828	95.88
418.051	92.88
418.274	94.88
418.497	82.88
418.72	96.88
418.943	82.88
419.166	96.88
419.389	97.88
419.611	98.88
419.834	95.88
420.057	94.88
420.28	92.88
420.503	87.88
420.726	101.88
420.948	99.88
421.171	86.88
421.394	94.88
421.617	96.88
421.839	104.88
422.062	101.88
422.285	97.88
422.507	115.88
422.73	107.88
422.953	108.88
423.175	91.88
423.398	97.88
423.621	90.88
423.843	94.88
424.066	85.88
424.288	86.88
424.511	82.88
424.733	92.88
424.956	87.88
425.178	79.88
425.401	95.88
425.623	92.88
425.846	91.88
426.068	82.88
426.291	100.88
426.513	87.88
426.735	99.88
426.958	99.88
427.18	102.88
427.402	115.88
427.625	143.88
427.847	118.88
428.069	116.88
428.292	88.88
428.514	96.88
428.736	88.88
428.958	77.88
429.181	84.88
429.403	90.88
429.625	83.88
429.847	98.88
430.069	91.88
430.292	92.88
430.514	89.88
430.736	76.88
430.958	81.88
431.18	89.88
431.402	93.88
431.624	82.88
431.846	90.88
432.068	97.88
432.29	87.88
432.512	95.88
432.734	83.88
432.956	95.88
433.178	103.88
433.4	92.88
433.622	88.88
433.844	92.88
434.066	87.88
434.287	88.88
434.509	74.88
434.731	85.88
434.953	82.88
435.175	94.88
435.397	92.88
435.618	97.88
435.84	88.88
436.062	103.88
436.284	109.88
436.505	102.88
436.727	96.88
436.949	83.88
437.17	96.88
437.392	83.88
437.614	91.88
437.835	103.88
438.057	104.88
438.278	104.88
438.5	102.88
438.721	112.88
438.943	88.88
439.165	88.88
439.386	94.88
439.608	79.88
439.829	103.88
440.05	123.88
440.272	115.88
440.493	104.88
440.715	81.88
440.936	84.88
441.158	83.88
441.379	89.88
441.6	80.88
441.822	88.88
442.043	92.88
442.264	97.88
442.486	102.88
442.707	91.88
442.928	96.88
443.149	109.88
443.371	112.88
443.592	98.88
443.813	94.88
444.034	111.88
444.255	86.88
444.476	77.88
444.698	77.88
444.919	92.88
445.14	131.88
445.361	127.88
445.582	102.88
445.803	127.88
446.024	126.88
446.245	115.88
446.466	106.88
446.687	97.88
446.908	83.88
447.129	84.88
447.35	91.88
447.571	88.88
447.792	85.88
448.013	99.88
448.234	101.88
448.455	89.88
448.675	108.88
448.896	106.88
449.117	88.88
449.338	92.88
449.559	116.88
449.779	109.88
450	96.88
450.221	94.88
450.442	85.88
450.662	103.88
450.883	98.88
451.104	98.88
451.324	89.88
451.545	82.88
451.766	89.88
451.986	81.88
452.207	98.88
452.428	102.88
452.648	94.88
452.869	104.88
453.089	99.88
453.31	102.88
453.53	103.88
453.751	106.88
453.971	83.88
454.192	94.88
454.412	82.88
454.633	94.88
454.853	92.88
455.073	96.88
455.294	92.88
455.514	101.88
455.734	86.88
455.955	81.88
456.175	87.88
456.395	84.88
456.616	79.88
456.836	96.88
457.056	87.88
457.276	86.88
457.497	80.88
457.717	88.88
457.937	86.88
458.157	99.88
458.377	95.88
458.598	104.88
458.818	113.88
459.038	117.88
459.258	99.88
459.478	84.88
459.698	84.88
459.918	85.88
460.138	84.88
460.358	76.88
460.578	73.88
460.798	102.88
461.018	87.88
461.238	75.88
461.458	82.88
461.678	76.88
461.898	91.88
462.118	90.88
462.338	92.88
462.558	95.88
462.777	93.88
462.997	87.88
463.217	99.88
463.437	88.88
463.657	78.88
463.876	79.88
464.096	87.88
464.316	95.88
464.536	85.88
464.755	94.88
464.975	108.88
465.195	115.88
465.414	127.88
465.634	91.88
465.854	86.88
466.073	85.88
466.293	93.88
466.512	94.88
466.732	84.88
466.951	90.88
467.171	87.88
467.391	97.88
467.61	93.88
467.829	104.88
468.049	113.88
468.268	129.88
468.488	101.88
468.707	93.88
468.927	73.88
469.146	97.88
469.365	82.88
469.585	87.88
469.804	94.88
470.023	90.88
470.243	92.88
470.462	95.88
470.681	102.88
470.901	95.88
471.12	89.88
471.339	94.88
471.558	88.88
471.777	90.88
471.997	103.88
472.216	130.88
472.435	218.88
472.654	112.88
472.873	86.88
473.092	86.88
473.311	82.88
473.53	80.88
473.749	86.88
473.968	100.88
474.187	91.88
474.406	96.88
474.625	85.88
474.844	92.88
475.063	88.88
475.282	99.88
475.501	89.88
475.72	94.88
475.939	81.88
476.158	84.88
476.377	96.88
476.596	88.88
476.814	94.88
477.033	94.88
477.252	90.88
477.471	93.88
477.69	85.88
477.908	90.88
478.127	108.88
478.346	101.88
478.564	94.88
478.783	86.88
479.002	97.88
479.22	93.88
479.439	96.88
479.658	91.88
479.876	95.88
480.095	102.88
480.313	91.88
480.532	80.88
480.751	97.88
480.969	139.88
481.188	322.88
481.406	232.88
481.624	106.88
481.843	86.88
482.061	81.88
482.28	74.88
482.498	85.88
482.717	78.88
482.935	93.88
483.153	104.88
483.372	84.88
483.59	92.88
483.808	85.88
484.027	111.88
484.245	90.88
484.463	87.88
484.681	93.88
484.9	88.88
485.118	91.88
485.336	88.88
485.554	98.88
485.772	99.88
485.99	108.88
486.209	108.88
486.427	97.88
486.645	117.88
486.863	122.88
487.081	98.88
487.299	76.88
487.517	98.88
487.735	92.88
487.953	92.88
488.171	97.88
488.389	102.88
488.607	92.88
488.825	79.88
489.043	86.88
489.261	87.88
489.479	96.88
489.696	88.88
489.914	91.88
490.132	86.88
490.35	84.88
490.568	98.88
490.786	83.88
491.003	98.88
491.221	102.88
491.439	96.88
491.657	90.88
491.874	90.88
492.092	88.88
492.31	85.88
492.527	90.88
492.745	83.88
492.963	67.88
493.18	81.88
493.398	96.88
493.615	99.88
493.833	104.88
494.05	71.88
494.268	87.88
494.485	94.88
494.703	85.88
494.92	84.88
495.138	71.88
495.355	85.88
495.573	87.88
495.79	88.88
496.008	102.88
496.225	103.88
496.442	86.88
496.66	82.88
496.877	92.88
497.094	93.88
497.312	107.88
497.529	98.88
497.746	104.88
497.963	87.88
498.181	80.88
498.398	98.88
498.615	105.88
498.832	102.88
499.049	84.88
499.267	84.88
499.484	101.88
499.701	110.88
499.918	98.88
500.135	87.88
500.352	88.88
500.569	86.88
500.786	90.88
501.003	96.88
501.22	91.88
501.437	101.88
501.654	98.88
501.871	90.88
502.088	91.88
502.305	84.88
502.522	96.88
502.739	90.88
502.956	87.88
503.172	96.88
503.389	108.88
503.606	71.88
503.823	100.88
504.04	87.88
504.256	92.88
504.473	100.88
504.69	97.88
504.907	103.88
505.123	95.88
505.34	77.88
505.557	95.88
505.773	91.88
505.99	80.88
506.207	81.88
506.423	75.88
506.64	94.88
506.856	102.88
507.073	91.88
507.289	94.88
507.506	96.88
507.722	119.88
507.939	116.88
508.155	85.88
508.372	104.88
508.588	98.88
508.805	95.88
509.021	98.88
509.238	94.88
509.454	101.88
509.67	97.88
509.887	102.88
510.103	118.88
510.319	188.88
510.536	609.88
510.752	1756.88
510.968	526.88
511.184	154.88
511.401	106.88
511.617	92.88
511.833	97.88
512.049	79.88
512.265	80.88
512.481	96.88
512.698	99.88
512.914	82.88
513.13	104.88
513.346	94.88
513.562	99.88
513.778	89.88
513.994	88.88
514.21	89.88
514.426	113.88
514.642	125.88
514.858	100.88
515.074	132.88
515.29	330.88
515.506	1072.88
515.721	386.88
