Data from Circ_1993_H10_HRD10591_00008.txt Node
Date: Wed Jan 03 11:44:03 EST 2024
User: Yrep
Spectrometer: HR+D1059
Trigger mode: 1
Integration Time (sec): 1.000000E-1
Scans to average: 1
Electric dark correction enabled: true
Nonlinearity correction enabled: false
Boxcar width: 0
XAxis mode: Wavelengths
Number of Pixels in Spectrum: 2048
>>>>>Begin Spectral Data<<<<<
223.165	-11.81
223.4	-11.81
223.635	-11.81
223.869	-20.81
224.104	-7.81
224.338	-9.81
224.573	-17.81
224.808	-24.81
225.042	-16.81
225.277	-6.81
225.511	-4.81
225.746	-3.81
225.98	5.19
226.215	6.19
226.449	13.19
226.683	30.19
226.918	27.19
227.152	43.19
227.387	34.19
227.621	45.19
227.856	30.19
228.09	51.19
228.324	54.19
228.559	68.19
228.793	159.19
229.027	416.19
229.262	461.19
229.496	570.19
229.73	737.19
229.964	746.19
230.199	533.19
230.433	472.19
230.667	461.19
230.901	437.19
231.136	431.19
231.37	428.19
231.604	442.19
231.838	445.19
232.072	450.19
232.306	459.19
232.541	483.19
232.775	446.19
233.009	454.19
233.243	450.19
233.477	478.19
233.711	481.19
233.945	497.19
234.179	500.19
234.413	506.19
234.647	475.19
234.881	498.19
235.115	513.19
235.349	530.19
235.583	526.19
235.817	560.19
236.051	579.19
236.285	603.19
236.519	600.19
236.753	697.19
236.987	867.19
237.221	1220.19
237.455	1355.19
237.689	866.19
237.922	693.19
238.156	702.19
238.39	627.19
238.624	636.19
238.858	651.19
239.091	648.19
239.325	631.19
239.559	686.19
239.793	694.19
240.027	757.19
240.26	844.19
240.494	884.19
240.728	920.19
240.961	871.19
241.195	804.19
241.429	760.19
241.662	754.19
241.896	754.19
242.13	768.19
242.363	748.19
242.597	785.19
242.83	826.19
243.064	799.19
243.298	795.19
243.531	808.19
243.765	836.19
243.998	838.19
244.232	818.19
244.465	897.19
244.699	897.19
244.932	888.19
245.166	864.19
245.399	899.19
245.633	906.19
245.866	912.19
246.099	903.19
246.333	932.19
246.566	977.19
246.8	968.19
247.033	984.19
247.266	1022.19
247.5	1075.19
247.733	1114.19
247.966	1108.19
248.2	1136.19
248.433	1134.19
248.666	1177.19
248.899	1282.19
249.133	1373.19
249.366	1368.19
249.599	1258.19
249.832	1198.19
250.066	1174.19
250.299	1232.19
250.532	1321.19
250.765	1457.19
250.998	1641.19
251.231	1563.19
251.465	1434.19
251.698	1392.19
251.931	1354.19
252.164	1370.19
252.397	1428.19
252.63	1408.19
252.863	1491.19
253.096	1597.19
253.329	1679.19
253.562	1590.19
253.795	1521.19
254.028	1530.19
254.261	1550.19
254.494	1745.19
254.727	2054.19
254.96	2056.19
255.193	1865.19
255.426	1653.19
255.659	1588.19
255.892	1580.19
256.124	1628.19
256.357	1566.19
256.59	1554.19
256.823	1507.19
257.056	1508.19
257.289	1501.19
257.521	1528.19
257.754	1528.19
257.987	1490.19
258.22	1514.19
258.452	1490.19
258.685	1509.19
258.918	1537.19
259.151	1551.19
259.383	1667.19
259.616	1651.19
259.849	1736.19
260.081	1854.19
260.314	2000.19
260.547	1926.19
260.779	1766.19
261.012	1717.19
261.244	1653.19
261.477	1644.19
261.71	1674.19
261.942	1682.19
262.175	1727.19
262.407	1670.19
262.64	1619.19
262.872	1668.19
263.105	1593.19
263.337	1616.19
263.57	1647.19
263.802	1661.19
264.035	1645.19
264.267	1659.19
264.499	1662.19
264.732	1699.19
264.964	1706.19
265.197	1685.19
265.429	1718.19
265.661	1713.19
265.894	1714.19
266.126	1718.19
266.358	1762.19
266.591	1802.19
266.823	1849.19
267.055	1866.19
267.287	1844.19
267.52	1850.19
267.752	1865.19
267.984	1842.19
268.216	1892.19
268.448	1924.19
268.681	1955.19
268.913	2090.19
269.145	2206.19
269.377	2258.19
269.609	2172.19
269.841	2231.19
270.073	2286.19
270.306	2523.19
270.538	2674.19
270.77	2522.19
271.002	2403.19
271.234	2397.19
271.466	2521.19
271.698	2585.19
271.93	2632.19
272.162	2616.19
272.394	2546.19
272.626	2414.19
272.858	2314.19
273.09	2252.19
273.322	2246.19
273.553	2155.19
273.785	2167.19
274.017	2165.19
274.249	2209.19
274.481	2259.19
274.713	2224.19
274.945	2271.19
275.176	2193.19
275.408	2211.19
275.64	2257.19
275.872	2210.19
276.104	2249.19
276.335	2302.19
276.567	2367.19
276.799	2478.19
277.031	2718.19
277.262	2794.19
277.494	2750.19
277.726	2500.19
277.957	2482.19
278.189	2425.19
278.421	2346.19
278.652	2411.19
278.884	2401.19
279.115	2331.19
279.347	2355.19
279.579	2376.19
279.81	2370.19
280.042	2341.19
280.273	2382.19
280.505	2440.19
280.736	2433.19
280.968	2404.19
281.199	2389.19
281.431	2406.19
281.662	2437.19
281.894	2485.19
282.125	2515.19
282.356	2651.19
282.588	2753.19
282.819	2611.19
283.051	2547.19
283.282	2485.19
283.513	2537.19
283.745	2545.19
283.976	2617.19
284.207	2624.19
284.439	2653.19
284.67	2578.19
284.901	2623.19
285.132	2617.19
285.364	2639.19
285.595	2614.19
285.826	2664.19
286.057	2626.19
286.288	2608.19
286.52	2660.19
286.751	2662.19
286.982	2690.19
287.213	2674.19
287.444	2746.19
287.675	2793.19
287.906	2867.19
288.138	2948.19
288.369	2880.19
288.6	2881.19
288.831	2851.19
289.062	2806.19
289.293	2766.19
289.524	2823.19
289.755	2758.19
289.986	2863.19
290.217	2808.19
290.448	2805.19
290.679	2796.19
290.91	2808.19
291.141	2803.19
291.371	2812.19
291.602	2814.19
291.833	2794.19
292.064	2870.19
292.295	2772.19
292.526	2823.19
292.757	2846.19
292.987	2812.19
293.218	2825.19
293.449	2858.19
293.68	2868.19
293.91	2818.19
294.141	2830.19
294.372	2852.19
294.603	2838.19
294.833	2901.19
295.064	2905.19
295.295	2875.19
295.525	2918.19
295.756	2929.19
295.987	2977.19
296.217	3158.19
296.448	3095.19
296.679	2937.19
296.909	2935.19
297.14	2952.19
297.37	3029.19
297.601	3058.19
297.831	3090.19
298.062	3102.19
298.292	3057.19
298.523	3117.19
298.753	3107.19
298.984	3080.19
299.214	3107.19
299.445	3134.19
299.675	3095.19
299.905	3163.19
300.136	3103.19
300.366	3144.19
300.597	3167.19
300.827	3195.19
301.057	3340.19
301.288	3372.19
301.518	3320.19
301.748	3315.19
301.979	3426.19
302.209	3374.19
302.439	3435.19
302.669	3356.19
302.9	3302.19
303.13	3248.19
303.36	3379.19
303.59	3342.19
303.82	3387.19
304.051	3419.19
304.281	3327.19
304.511	3291.19
304.741	3283.19
304.971	3278.19
305.201	3233.19
305.431	3263.19
305.661	3288.19
305.891	3282.19
306.121	3308.19
306.352	3351.19
306.582	3332.19
306.812	3280.19
307.042	3311.19
307.272	3301.19
307.502	3223.19
307.731	3262.19
307.961	3253.19
308.191	3284.19
308.421	3312.19
308.651	3330.19
308.881	3308.19
309.111	3424.19
309.341	3412.19
309.571	3445.19
309.8	3496.19
310.03	3526.19
310.26	3543.19
310.49	3539.19
310.72	3669.19
310.949	3768.19
311.179	3624.19
311.409	3569.19
311.639	3603.19
311.868	3606.19
312.098	3663.19
312.328	3738.19
312.557	3891.19
312.787	3890.19
313.017	3764.19
313.246	3704.19
313.476	3673.19
313.706	3733.19
313.935	3804.19
314.165	3927.19
314.394	3910.19
314.624	3874.19
314.853	3785.19
315.083	3748.19
315.312	3758.19
315.542	3723.19
315.771	3687.19
316.001	3644.19
316.23	3674.19
316.46	3680.19
316.689	3732.19
316.919	3714.19
317.148	3771.19
317.377	3756.19
317.607	3700.19
317.836	3698.19
318.065	3675.19
318.295	3641.19
318.524	3649.19
318.753	3643.19
318.983	3693.19
319.212	3699.19
319.441	3712.19
319.67	3804.19
319.9	3693.19
320.129	3697.19
320.358	3705.19
320.587	3747.19
320.816	3832.19
321.046	3814.19
321.275	3866.19
321.504	3821.19
321.733	3852.19
321.962	3919.19
322.191	3948.19
322.42	4043.19
322.649	4064.19
322.878	4095.19
323.108	4250.19
323.337	4434.19
323.566	4588.19
323.795	4861.19
324.024	5269.19
324.253	6750.19
324.482	9973.19
324.71	14426.19
324.939	15620.19
325.168	11004.19
325.397	6099.19
325.626	5066.19
325.855	4778.19
326.084	4620.19
326.313	4622.19
326.542	4801.19
326.77	5289.19
326.999	6564.19
327.228	9316.19
327.457	13426.19
327.686	12581.19
327.914	6864.19
328.143	5528.19
328.372	5309.19
328.6	5014.19
328.829	5055.19
329.058	5181.19
329.287	5186.19
329.515	4886.19
329.744	4663.19
329.972	4768.19
330.201	4892.19
330.43	5155.19
330.658	5315.19
330.887	5555.19
331.115	5178.19
331.344	4903.19
331.572	4820.19
331.801	4981.19
332.03	4931.19
332.258	4940.19
332.486	4908.19
332.715	5011.19
332.943	5176.19
333.172	5322.19
333.4	5437.19
333.629	5546.19
333.857	5603.19
334.085	5693.19
334.314	5560.19
334.542	5742.19
334.771	5540.19
334.999	5394.19
335.227	5290.19
335.455	5135.19
335.684	5062.19
335.912	5066.19
336.14	4939.19
336.369	4942.19
336.597	5032.19
336.825	4971.19
337.053	4924.19
337.281	4768.19
337.51	4670.19
337.738	4698.19
337.966	4664.19
338.194	4666.19
338.422	4621.19
338.65	4543.19
338.878	4496.19
339.106	4544.19
339.334	4487.19
339.562	4514.19
339.79	4360.19
340.018	4394.19
340.246	4408.19
340.474	4376.19
340.702	4376.19
340.93	4427.19
341.158	4392.19
341.386	4374.19
341.614	4390.19
341.842	4367.19
342.07	4278.19
342.298	4298.19
342.526	4336.19
342.754	4267.19
342.981	4282.19
343.209	4436.19
343.437	4681.19
343.665	4975.19
343.893	5161.19
344.12	5126.19
344.348	4987.19
344.576	4736.19
344.804	4720.19
345.031	4632.19
345.259	4587.19
345.487	4457.19
345.714	4342.19
345.942	4226.19
346.17	4275.19
346.397	4170.19
346.625	4189.19
346.853	4218.19
347.08	4173.19
347.308	4207.19
347.535	4249.19
347.763	4303.19
347.99	4251.19
348.218	4267.19
348.445	4260.19
348.673	4248.19
348.9	4223.19
349.128	4099.19
349.355	4055.19
349.583	4080.19
349.81	4081.19
350.037	4065.19
350.265	4102.19
350.492	4092.19
350.72	4115.19
350.947	4138.19
351.174	4127.19
351.402	4202.19
351.629	4156.19
351.856	4198.19
352.083	4199.19
352.311	4228.19
352.538	4198.19
352.765	4205.19
352.992	4135.19
353.22	4108.19
353.447	4065.19
353.674	3990.19
353.901	3947.19
354.128	3968.19
354.355	3954.19
354.583	3941.19
354.81	3948.19
355.037	3995.19
355.264	4010.19
355.491	3921.19
355.718	4004.19
355.945	3967.19
356.172	4032.19
356.399	4046.19
356.626	4039.19
356.853	3923.19
357.08	3959.19
357.307	4012.19
357.534	4064.19
357.761	4006.19
357.988	4032.19
358.215	3989.19
358.441	4034.19
358.668	4096.19
358.895	4087.19
359.122	4080.19
359.349	4147.19
359.576	4246.19
359.802	4411.19
360.029	4524.19
360.256	4519.19
360.483	4419.19
360.709	4230.19
360.936	4202.19
361.163	4234.19
361.39	4185.19
361.616	4197.19
361.843	4163.19
362.07	4135.19
362.296	4113.19
362.523	4128.19
362.749	4153.19
362.976	4177.19
363.203	4052.19
363.429	3997.19
363.656	4048.19
363.882	4068.19
364.109	4030.19
364.335	3997.19
364.562	4020.19
364.788	4068.19
365.015	4043.19
365.241	4059.19
365.468	4096.19
365.694	4098.19
365.92	4018.19
366.147	4007.19
366.373	4029.19
366.599	4061.19
366.826	4060.19
367.052	4058.19
367.278	4098.19
367.505	4092.19
367.731	4014.19
367.957	4028.19
368.184	4099.19
368.41	4195.19
368.636	4172.19
368.862	4241.19
369.089	4146.19
369.315	4185.19
369.541	4168.19
369.767	4260.19
369.993	4196.19
370.219	4218.19
370.445	4183.19
370.672	4212.19
370.898	4238.19
371.124	4398.19
371.35	4324.19
371.576	4286.19
371.802	4308.19
372.028	4334.19
372.254	4362.19
372.48	4373.19
372.706	4523.19
372.932	4431.19
373.158	4402.19
373.384	4412.19
373.61	4418.19
373.835	4347.19
374.061	4440.19
374.287	4473.19
374.513	4502.19
374.739	4770.19
374.965	4769.19
375.191	4827.19
375.416	4701.19
375.642	4554.19
375.868	4563.19
376.094	4436.19
376.319	4444.19
376.545	4406.19
376.771	4386.19
376.997	4395.19
377.222	4391.19
377.448	4337.19
377.674	4314.19
377.899	4323.19
378.125	4284.19
378.35	4317.19
378.576	4372.19
378.802	4346.19
379.027	4396.19
379.253	4376.19
379.478	4282.19
379.704	4355.19
379.929	4355.19
380.155	4391.19
380.38	4371.19
380.606	4426.19
380.831	4362.19
381.057	4432.19
381.282	4405.19
381.507	4444.19
381.733	4524.19
381.958	4453.19
382.184	4566.19
382.409	4689.19
382.634	4604.19
382.86	4692.19
383.085	4679.19
383.31	4816.19
383.535	4855.19
383.761	4901.19
383.986	4978.19
384.211	5030.19
384.436	5145.19
384.662	5239.19
384.887	5276.19
385.112	5328.19
385.337	5386.19
385.562	5412.19
385.787	5313.19
386.013	5502.19
386.238	5537.19
386.463	5421.19
386.688	5364.19
386.913	5287.19
387.138	5366.19
387.363	5283.19
387.588	5193.19
387.813	5290.19
388.038	5265.19
388.263	5368.19
388.488	5353.19
388.713	5222.19
388.938	5206.19
389.163	5147.19
389.387	5210.19
389.612	5100.19
389.837	5106.19
390.062	5132.19
390.287	5109.19
390.512	5106.19
390.736	5182.19
390.961	5308.19
391.186	5376.19
391.411	5522.19
391.636	5627.19
391.86	5808.19
392.085	5824.19
392.31	5805.19
392.534	5656.19
392.759	5516.19
392.984	5478.19
393.208	5722.19
393.433	5856.19
393.658	5739.19
393.882	5545.19
394.107	5476.19
394.331	5483.19
394.556	5449.19
394.78	5523.19
395.005	5519.19
395.229	5616.19
395.454	5811.19
395.678	5842.19
395.903	5819.19
396.127	5900.19
396.352	5770.19
396.576	5631.19
396.801	5673.19
397.025	5803.19
397.249	5759.19
397.474	5846.19
397.698	5887.19
397.922	5965.19
398.147	6170.19
398.371	6268.19
398.595	6313.19
398.82	6588.19
399.044	7201.19
399.268	7932.19
399.492	8994.19
399.717	9597.19
399.941	9342.19
400.165	8822.19
400.389	8124.19
400.613	7306.19
400.837	6983.19
401.062	6755.19
401.286	6614.19
401.51	6493.19
401.734	6477.19
401.958	6669.19
402.182	6746.19
402.406	6816.19
402.63	6975.19
402.854	7060.19
403.078	7128.19
403.302	7194.19
403.526	7400.19
403.75	7330.19
403.974	7455.19
404.198	7403.19
404.422	7541.19
404.645	7489.19
404.869	7379.19
405.093	7606.19
405.317	7675.19
405.541	7729.19
405.765	7340.19
405.988	7227.19
406.212	7480.19
406.436	7559.19
406.66	7721.19
406.883	7757.19
407.107	8250.19
407.331	8813.19
407.555	9281.19
407.778	8980.19
408.002	8266.19
408.226	7987.19
408.449	7827.19
408.673	7686.19
408.896	7835.19
409.12	7940.19
409.344	7546.19
409.567	7136.19
409.791	7101.19
410.014	7056.19
410.238	7046.19
410.461	7081.19
410.685	7079.19
410.908	7136.19
411.132	7286.19
411.355	7315.19
411.578	7027.19
411.802	6785.19
412.025	6794.19
412.249	6864.19
412.472	6921.19
412.695	7135.19
412.919	6717.19
413.142	6596.19
413.365	6497.19
413.589	6478.19
413.812	6443.19
414.035	6417.19
414.258	6385.19
414.482	6463.19
414.705	6503.19
414.928	6458.19
415.151	6489.19
415.374	6485.19
415.597	6374.19
415.821	6305.19
416.044	6346.19
416.267	6257.19
416.49	6248.19
416.713	6269.19
416.936	6380.19
417.159	6312.19
417.382	6428.19
417.605	6375.19
417.828	6498.19
418.051	6680.19
418.274	6546.19
418.497	6446.19
418.72	6604.19
418.943	6483.19
419.166	6871.19
419.389	7279.19
419.611	7188.19
419.834	6927.19
420.057	6843.19
420.28	6639.19
420.503	6500.19
420.726	6558.19
420.948	6670.19
421.171	7033.19
421.394	7043.19
421.617	6579.19
421.839	6558.19
422.062	6604.19
422.285	6762.19
422.507	7393.19
422.73	7943.19
422.953	7338.19
423.175	6982.19
423.398	7032.19
423.621	6990.19
423.843	7182.19
424.066	7155.19
424.288	7041.19
424.511	7292.19
424.733	7712.19
424.956	8092.19
425.178	7647.19
425.401	7767.19
425.623	7733.19
425.846	6763.19
426.068	6525.19
426.291	6568.19
426.513	6454.19
426.735	6582.19
426.958	7009.19
427.18	7646.19
427.402	8772.19
427.625	8700.19
427.847	7394.19
428.069	6865.19
428.292	6383.19
428.514	6096.19
428.736	5984.19
428.958	6046.19
429.181	5781.19
429.403	5772.19
429.625	5918.19
429.847	6288.19
430.069	6756.19
430.292	6234.19
430.514	5896.19
430.736	5788.19
430.958	5754.19
431.18	5625.19
431.402	5723.19
431.624	5675.19
431.846	5761.19
432.068	5732.19
432.29	5901.19
432.512	5694.19
432.734	5858.19
432.956	5767.19
433.178	5930.19
433.4	5773.19
433.622	5740.19
433.844	5807.19
434.066	5808.19
434.287	5931.19
434.509	6165.19
434.731	6324.19
434.953	6490.19
435.175	6591.19
435.397	6708.19
435.618	6584.19
435.84	6907.19
436.062	7628.19
436.284	7476.19
436.505	6485.19
436.727	6222.19
436.949	5953.19
437.17	5880.19
437.392	5723.19
437.614	5932.19
437.835	6322.19
438.057	7118.19
438.278	7871.19
438.5	7755.19
438.721	8368.19
438.943	7364.19
439.165	6330.19
439.386	6126.19
439.608	6237.19
439.829	6286.19
440.05	6564.19
440.272	6988.19
440.493	6355.19
440.715	6175.19
440.936	6091.19
441.158	6172.19
441.379	6292.19
441.6	6549.19
441.822	6778.19
442.043	7146.19
442.264	7868.19
442.486	7578.19
442.707	6900.19
442.928	6729.19
443.149	6870.19
443.371	7076.19
443.592	7527.19
443.813	8486.19
444.034	8441.19
444.255	7542.19
444.476	7286.19
444.698	7498.19
444.919	7592.19
445.14	7380.19
445.361	7179.19
445.582	7242.19
445.803	7802.19
446.024	8355.19
446.245	8024.19
446.466	7257.19
446.687	6365.19
446.908	6098.19
447.129	5799.19
447.35	5666.19
447.571	5626.19
447.792	5506.19
448.013	5630.19
448.234	5761.19
448.455	6380.19
448.675	7546.19
448.896	7949.19
449.117	6568.19
449.338	6747.19
449.559	8046.19
449.779	8211.19
450	6366.19
450.221	5740.19
450.442	5478.19
450.662	5441.19
450.883	5462.19
451.104	5555.19
451.324	5446.19
451.545	5289.19
451.766	5131.19
451.986	5065.19
452.207	5078.19
452.428	4974.19
452.648	5002.19
452.869	5040.19
453.089	5070.19
453.31	5225.19
453.53	5094.19
453.751	5014.19
453.971	5035.19
454.192	5167.19
454.412	4932.19
454.633	4944.19
454.853	4847.19
455.073	4904.19
455.294	5345.19
455.514	5762.19
455.734	5279.19
455.955	4796.19
456.175	4704.19
456.395	4645.19
456.616	4619.19
456.836	4672.19
457.056	4639.19
457.276	4519.19
457.497	4734.19
457.717	4736.19
457.937	4813.19
458.157	4914.19
458.377	5018.19
458.598	5322.19
458.818	5818.19
459.038	6584.19
459.258	6502.19
459.478	5910.19
459.698	5926.19
459.918	5869.19
460.138	6111.19
460.358	6326.19
460.578	6340.19
460.798	6396.19
461.018	6379.19
461.238	6230.19
461.458	6261.19
461.678	6189.19
461.898	6419.19
462.118	6421.19
462.338	6830.19
462.558	6856.19
462.777	7170.19
462.997	7766.19
463.217	8206.19
463.437	7938.19
463.657	7378.19
463.876	7203.19
464.096	7272.19
464.316	7165.19
464.536	7208.19
464.755	6965.19
464.975	6819.19
465.195	6966.19
465.414	6862.19
465.634	6136.19
465.854	5851.19
466.073	5707.19
466.293	5470.19
466.512	5386.19
466.732	5209.19
466.951	5316.19
467.171	5182.19
467.391	5334.19
467.61	5426.19
467.829	5272.19
468.049	5230.19
468.268	5115.19
468.488	5062.19
468.707	4988.19
468.927	4981.19
469.146	4968.19
469.365	5145.19
469.585	5067.19
469.804	5312.19
470.023	5480.19
470.243	5402.19
470.462	5500.19
470.681	5622.19
470.901	5559.19
471.12	5332.19
471.339	5336.19
471.558	5291.19
471.777	5152.19
471.997	5065.19
472.216	5187.19
472.435	5244.19
472.654	5116.19
472.873	5026.19
473.092	5004.19
473.311	4982.19
473.53	5006.19
473.749	5151.19
473.968	5661.19
474.187	6454.19
474.406	6009.19
474.625	5310.19
474.844	5034.19
475.063	4950.19
475.282	5050.19
475.501	5090.19
475.72	5091.19
475.939	5142.19
476.158	5212.19
476.377	5222.19
476.596	5192.19
476.814	5402.19
477.033	5403.19
477.252	5495.19
477.471	5670.19
477.69	5705.19
477.908	5791.19
478.127	6029.19
478.346	6065.19
478.564	6135.19
478.783	6182.19
479.002	6310.19
479.22	6329.19
479.439	6430.19
479.658	6524.19
479.876	6556.19
480.095	6775.19
480.313	7183.19
480.532	7035.19
480.751	6942.19
480.969	6826.19
481.188	7011.19
481.406	6745.19
481.624	6327.19
481.843	6192.19
482.061	5975.19
482.28	5999.19
482.498	5970.19
482.717	5937.19
482.935	5938.19
483.153	5910.19
483.372	5874.19
483.59	5890.19
483.808	5912.19
484.027	5882.19
484.245	5998.19
484.463	5972.19
484.681	6083.19
484.9	6171.19
485.118	6198.19
485.336	6269.19
485.554	6296.19
485.772	6347.19
485.99	6336.19
486.209	6464.19
486.427	6458.19
486.645	6319.19
486.863	6558.19
487.081	6417.19
487.299	6384.19
487.517	6391.19
487.735	6287.19
487.953	6333.19
