Data from Circ_1993_H10_HRD10591_00036.txt Node
Date: Wed Jan 03 11:44:09 EST 2024
User: Yrep
Spectrometer: HR+D1059
Trigger mode: 1
Integration Time (sec): 1.000000E-1
Scans to average: 1
Electric dark correction enabled: true
Nonlinearity correction enabled: false
Boxcar width: 0
XAxis mode: Wavelengths
Number of Pixels in Spectrum: 2048
>>>>>Begin Spectral Data<<<<<
223.165	-13.12
223.4	-13.12
223.635	-13.12
223.869	-32.12
224.104	-22.12
224.338	-7.12
224.573	-7.12
224.808	-4.12
225.042	-3.12
225.277	-3.12
225.511	-5.12
225.746	4.88
225.98	-7.12
226.215	7.88
226.449	22.88
226.683	21.88
226.918	22.88
227.152	23.88
227.387	25.88
227.621	38.88
227.856	59.88
228.09	37.88
228.324	37.88
228.559	47.88
228.793	67.88
229.027	50.88
229.262	78.88
229.496	78.88
229.73	73.88
229.964	83.88
230.199	86.88
230.433	77.88
230.667	65.88
230.901	70.88
231.136	75.88
231.37	75.88
231.604	81.88
231.838	64.88
232.072	62.88
232.306	71.88
232.541	64.88
232.775	91.88
233.009	88.88
233.243	80.88
233.477	72.88
233.711	79.88
233.945	78.88
234.179	75.88
234.413	77.88
234.647	66.88
234.881	57.88
235.115	82.88
235.349	86.88
235.583	76.88
235.817	76.88
236.051	77.88
236.285	75.88
236.519	70.88
236.753	74.88
236.987	77.88
237.221	80.88
237.455	90.88
237.689	64.88
237.922	79.88
238.156	73.88
238.39	72.88
238.624	62.88
238.858	79.88
239.091	72.88
239.325	83.88
239.559	96.88
239.793	84.88
240.027	76.88
240.26	75.88
240.494	73.88
240.728	80.88
240.961	77.88
241.195	79.88
241.429	67.88
241.662	71.88
241.896	67.88
242.13	77.88
242.363	87.88
242.597	75.88
242.83	75.88
243.064	68.88
243.298	71.88
243.531	76.88
243.765	92.88
243.998	74.88
244.232	77.88
244.465	80.88
244.699	83.88
244.932	72.88
245.166	81.88
245.399	63.88
245.633	72.88
245.866	71.88
246.099	63.88
246.333	73.88
246.566	64.88
246.8	46.88
247.033	65.88
247.266	74.88
247.5	79.88
247.733	79.88
247.966	90.88
248.2	81.88
248.433	82.88
248.666	76.88
248.899	78.88
249.133	80.88
249.366	97.88
249.599	90.88
249.832	75.88
250.066	79.88
250.299	67.88
250.532	76.88
250.765	74.88
250.998	72.88
251.231	80.88
251.465	83.88
251.698	81.88
251.931	72.88
252.164	77.88
252.397	87.88
252.63	76.88
252.863	86.88
253.096	66.88
253.329	65.88
253.562	73.88
253.795	74.88
254.028	59.88
254.261	65.88
254.494	75.88
254.727	80.88
254.96	90.88
255.193	71.88
255.426	90.88
255.659	79.88
255.892	85.88
256.124	65.88
256.357	99.88
256.59	86.88
256.823	84.88
257.056	88.88
257.289	73.88
257.521	86.88
257.754	78.88
257.987	80.88
258.22	84.88
258.452	85.88
258.685	73.88
258.918	88.88
259.151	70.88
259.383	71.88
259.616	83.88
259.849	69.88
260.081	80.88
260.314	80.88
260.547	84.88
260.779	90.88
261.012	74.88
261.244	83.88
261.477	77.88
261.71	91.88
261.942	91.88
262.175	101.88
262.407	80.88
262.64	72.88
262.872	87.88
263.105	84.88
263.337	58.88
263.57	65.88
263.802	90.88
264.035	66.88
264.267	82.88
264.499	86.88
264.732	99.88
264.964	72.88
265.197	64.88
265.429	81.88
265.661	67.88
265.894	84.88
266.126	87.88
266.358	90.88
266.591	86.88
266.823	77.88
267.055	71.88
267.287	62.88
267.52	76.88
267.752	90.88
267.984	71.88
268.216	76.88
268.448	82.88
268.681	98.88
268.913	92.88
269.145	79.88
269.377	80.88
269.609	62.88
269.841	79.88
270.073	71.88
270.306	87.88
270.538	68.88
270.77	80.88
271.002	94.88
271.234	86.88
271.466	62.88
271.698	65.88
271.93	90.88
272.162	78.88
272.394	82.88
272.626	86.88
272.858	72.88
273.09	98.88
273.322	95.88
273.553	71.88
273.785	78.88
274.017	96.88
274.249	73.88
274.481	90.88
274.713	68.88
274.945	67.88
275.176	70.88
275.408	70.88
275.64	86.88
275.872	83.88
276.104	87.88
276.335	80.88
276.567	99.88
276.799	96.88
277.031	99.88
277.262	91.88
277.494	85.88
277.726	88.88
277.957	77.88
278.189	86.88
278.421	84.88
278.652	90.88
278.884	87.88
279.115	98.88
279.347	63.88
279.579	88.88
279.81	75.88
280.042	99.88
280.273	100.88
280.505	87.88
280.736	87.88
280.968	78.88
281.199	88.88
281.431	92.88
281.662	76.88
281.894	94.88
282.125	98.88
282.356	106.88
282.588	123.88
282.819	106.88
283.051	85.88
283.282	82.88
283.513	76.88
283.745	83.88
283.976	65.88
284.207	73.88
284.439	84.88
284.67	61.88
284.901	88.88
285.132	80.88
285.364	80.88
285.595	80.88
285.826	78.88
286.057	86.88
286.288	105.88
286.52	67.88
286.751	85.88
286.982	82.88
287.213	83.88
287.444	105.88
287.675	80.88
287.906	89.88
288.138	78.88
288.369	90.88
288.6	94.88
288.831	86.88
289.062	76.88
289.293	83.88
289.524	75.88
289.755	85.88
289.986	65.88
290.217	91.88
290.448	76.88
290.679	75.88
290.91	92.88
291.141	86.88
291.371	79.88
291.602	75.88
291.833	96.88
292.064	85.88
292.295	78.88
292.526	84.88
292.757	82.88
292.987	72.88
293.218	106.88
293.449	78.88
293.68	91.88
293.91	90.88
294.141	79.88
294.372	83.88
294.603	79.88
294.833	82.88
295.064	79.88
295.295	98.88
295.525	87.88
295.756	98.88
295.987	114.88
296.217	128.88
296.448	105.88
296.679	89.88
296.909	89.88
297.14	89.88
297.37	83.88
297.601	80.88
297.831	84.88
298.062	84.88
298.292	81.88
298.523	89.88
298.753	71.88
298.984	74.88
299.214	74.88
299.445	74.88
299.675	79.88
299.905	98.88
300.136	88.88
300.366	82.88
300.597	86.88
300.827	98.88
301.057	90.88
301.288	95.88
301.518	107.88
301.748	81.88
301.979	106.88
302.209	94.88
302.439	85.88
302.669	81.88
302.9	107.88
303.13	85.88
303.36	99.88
303.59	95.88
303.82	105.88
304.051	106.88
304.281	78.88
304.511	101.88
304.741	84.88
304.971	79.88
305.201	92.88
305.431	82.88
305.661	79.88
305.891	82.88
306.121	82.88
306.352	105.88
306.582	98.88
306.812	86.88
307.042	100.88
307.272	88.88
307.502	82.88
307.731	83.88
307.961	73.88
308.191	105.88
308.421	84.88
308.651	94.88
308.881	85.88
309.111	98.88
309.341	94.88
309.571	94.88
309.8	89.88
310.03	93.88
310.26	87.88
310.49	93.88
310.72	95.88
310.949	92.88
311.179	93.88
311.409	82.88
311.639	92.88
311.868	87.88
312.098	85.88
312.328	97.88
312.557	96.88
312.787	101.88
313.017	76.88
313.246	83.88
313.476	96.88
313.706	91.88
313.935	91.88
314.165	93.88
314.394	94.88
314.624	92.88
314.853	82.88
315.083	82.88
315.312	88.88
315.542	90.88
315.771	73.88
316.001	78.88
316.23	81.88
316.46	81.88
316.689	75.88
316.919	97.88
317.148	87.88
317.377	95.88
317.607	86.88
317.836	83.88
318.065	94.88
318.295	81.88
318.524	89.88
318.753	92.88
318.983	82.88
319.212	107.88
319.441	81.88
319.67	96.88
319.9	96.88
320.129	97.88
320.358	91.88
320.587	89.88
320.816	100.88
321.046	94.88
321.275	91.88
321.504	91.88
321.733	97.88
321.962	91.88
322.191	86.88
322.42	100.88
322.649	88.88
322.878	94.88
323.108	108.88
323.337	105.88
323.566	116.88
323.795	141.88
324.024	172.88
324.253	345.88
324.482	699.88
324.71	1448.88
324.939	1860.88
325.168	692.88
325.397	218.88
325.626	132.88
325.855	126.88
326.084	126.88
326.313	124.88
326.542	151.88
326.77	215.88
326.999	408.88
327.228	802.88
327.457	1478.88
327.686	1180.88
327.914	343.88
328.143	176.88
328.372	152.88
328.6	117.88
328.829	106.88
329.058	123.88
329.287	115.88
329.515	100.88
329.744	106.88
329.972	103.88
330.201	142.88
330.43	154.88
330.658	112.88
330.887	115.88
331.115	106.88
331.344	95.88
331.572	84.88
331.801	96.88
332.03	93.88
332.258	90.88
332.486	79.88
332.715	88.88
332.943	99.88
333.172	97.88
333.4	92.88
333.629	109.88
333.857	100.88
334.085	124.88
334.314	141.88
334.542	186.88
334.771	166.88
334.999	105.88
335.227	94.88
335.455	90.88
335.684	101.88
335.912	78.88
336.14	90.88
336.369	98.88
336.597	73.88
336.825	91.88
337.053	106.88
337.281	96.88
337.51	97.88
337.738	96.88
337.966	88.88
338.194	96.88
338.422	89.88
338.65	90.88
338.878	91.88
339.106	91.88
339.334	99.88
339.562	84.88
339.79	83.88
340.018	80.88
340.246	74.88
340.474	76.88
340.702	91.88
340.93	81.88
341.158	89.88
341.386	95.88
341.614	109.88
341.842	92.88
342.07	96.88
342.298	98.88
342.526	100.88
342.754	81.88
342.981	88.88
343.209	95.88
343.437	87.88
343.665	88.88
343.893	87.88
344.12	78.88
344.348	76.88
344.576	88.88
344.804	100.88
345.031	92.88
345.259	81.88
345.487	87.88
345.714	79.88
345.942	75.88
346.17	80.88
346.397	82.88
346.625	109.88
346.853	85.88
347.08	91.88
347.308	80.88
347.535	87.88
347.763	92.88
347.99	92.88
348.218	101.88
348.445	86.88
348.673	94.88
348.9	85.88
349.128	94.88
349.355	97.88
349.583	95.88
349.81	86.88
350.037	93.88
350.265	92.88
350.492	86.88
350.72	81.88
350.947	97.88
351.174	91.88
351.402	96.88
351.629	110.88
351.856	94.88
352.083	98.88
352.311	76.88
352.538	107.88
352.765	115.88
352.992	109.88
353.22	103.88
353.447	106.88
353.674	90.88
353.901	97.88
354.128	87.88
354.355	92.88
354.583	91.88
354.81	86.88
355.037	104.88
355.264	86.88
355.491	90.88
355.718	91.88
355.945	104.88
356.172	97.88
356.399	77.88
356.626	93.88
356.853	97.88
357.08	89.88
357.307	82.88
357.534	81.88
357.761	92.88
357.988	94.88
358.215	79.88
358.441	96.88
358.668	87.88
358.895	95.88
359.122	92.88
359.349	92.88
359.576	90.88
359.802	94.88
360.029	114.88
360.256	103.88
360.483	107.88
360.709	85.88
360.936	93.88
361.163	94.88
361.39	86.88
361.616	88.88
361.843	86.88
362.07	90.88
362.296	79.88
362.523	87.88
362.749	86.88
362.976	88.88
363.203	97.88
363.429	88.88
363.656	81.88
363.882	82.88
364.109	92.88
364.335	92.88
364.562	87.88
364.788	70.88
365.015	84.88
365.241	90.88
365.468	98.88
365.694	84.88
365.92	75.88
366.147	97.88
366.373	81.88
366.599	89.88
366.826	86.88
367.052	88.88
367.278	90.88
367.505	75.88
367.731	80.88
367.957	95.88
368.184	87.88
368.41	86.88
368.636	107.88
368.862	112.88
369.089	113.88
369.315	90.88
369.541	95.88
369.767	82.88
369.993	87.88
370.219	81.88
370.445	79.88
370.672	82.88
370.898	81.88
371.124	70.88
371.35	92.88
371.576	86.88
371.802	77.88
372.028	77.88
372.254	77.88
372.48	100.88
372.706	84.88
372.932	79.88
373.158	84.88
373.384	91.88
373.61	89.88
373.835	75.88
374.061	86.88
374.287	95.88
374.513	93.88
374.739	75.88
374.965	82.88
375.191	77.88
375.416	82.88
375.642	72.88
375.868	85.88
376.094	107.88
376.319	86.88
376.545	101.88
376.771	84.88
376.997	90.88
377.222	89.88
377.448	84.88
377.674	91.88
377.899	97.88
378.125	98.88
378.35	82.88
378.576	78.88
378.802	95.88
379.027	88.88
379.253	83.88
379.478	84.88
379.704	89.88
379.929	90.88
380.155	83.88
380.38	94.88
380.606	109.88
380.831	90.88
381.057	94.88
381.282	111.88
381.507	97.88
381.733	92.88
381.958	86.88
382.184	97.88
382.409	115.88
382.634	99.88
382.86	109.88
383.085	103.88
383.31	106.88
383.535	94.88
383.761	113.88
383.986	99.88
384.211	95.88
384.436	103.88
384.662	112.88
384.887	106.88
385.112	90.88
385.337	103.88
385.562	102.88
385.787	98.88
386.013	106.88
386.238	115.88
386.463	115.88
386.688	112.88
386.913	119.88
387.138	99.88
387.363	105.88
387.588	104.88
387.813	107.88
388.038	105.88
388.263	117.88
388.488	119.88
388.713	88.88
388.938	86.88
389.163	104.88
389.387	100.88
389.612	83.88
389.837	80.88
390.062	99.88
390.287	97.88
390.512	78.88
390.736	95.88
390.961	96.88
391.186	92.88
391.411	97.88
391.636	87.88
391.86	87.88
392.085	75.88
392.31	88.88
392.534	80.88
392.759	82.88
392.984	90.88
393.208	82.88
393.433	126.88
393.658	107.88
393.882	79.88
394.107	87.88
394.331	76.88
394.556	88.88
394.78	93.88
395.005	90.88
395.229	85.88
395.454	74.88
395.678	80.88
395.903	83.88
396.127	79.88
396.352	83.88
396.576	88.88
396.801	92.88
397.025	107.88
397.249	90.88
397.474	95.88
397.698	103.88
397.922	92.88
398.147	88.88
398.371	82.88
398.595	80.88
398.82	92.88
399.044	82.88
399.268	92.88
399.492	75.88
399.717	84.88
399.941	79.88
400.165	98.88
400.389	74.88
400.613	84.88
400.837	88.88
401.062	88.88
401.286	77.88
401.51	86.88
401.734	92.88
401.958	83.88
402.182	120.88
402.406	135.88
402.63	114.88
402.854	87.88
403.078	99.88
403.302	78.88
403.526	88.88
403.75	68.88
403.974	83.88
404.198	80.88
404.422	84.88
404.645	109.88
404.869	74.88
405.093	93.88
405.317	93.88
405.541	88.88
405.765	92.88
405.988	107.88
406.212	155.88
406.436	203.88
406.66	130.88
406.883	94.88
407.107	95.88
407.331	100.88
407.555	93.88
407.778	100.88
408.002	91.88
408.226	82.88
408.449	77.88
408.673	77.88
408.896	86.88
409.12	89.88
409.344	91.88
409.567	86.88
409.791	87.88
410.014	82.88
410.238	94.88
410.461	95.88
410.685	87.88
410.908	91.88
411.132	89.88
411.355	85.88
411.578	86.88
411.802	79.88
412.025	100.88
412.249	76.88
412.472	103.88
412.695	109.88
412.919	80.88
413.142	84.88
413.365	84.88
413.589	61.88
413.812	90.88
414.035	96.88
414.258	82.88
414.482	88.88
414.705	90.88
414.928	79.88
415.151	74.88
415.374	85.88
415.597	90.88
415.821	88.88
416.044	80.88
416.267	87.88
416.49	87.88
416.713	91.88
416.936	79.88
417.159	88.88
417.382	86.88
417.605	93.88
417.828	76.88
418.051	89.88
418.274	81.88
418.497	80.88
418.72	91.88
418.943	79.88
419.166	75.88
419.389	72.88
419.611	78.88
419.834	81.88
420.057	89.88
420.28	83.88
420.503	86.88
420.726	75.88
420.948	84.88
421.171	87.88
421.394	83.88
421.617	89.88
421.839	79.88
422.062	95.88
422.285	76.88
422.507	91.88
422.73	97.88
422.953	95.88
423.175	103.88
423.398	84.88
423.621	95.88
423.843	84.88
424.066	92.88
424.288	81.88
424.511	82.88
424.733	87.88
424.956	99.88
425.178	82.88
425.401	90.88
425.623	98.88
425.846	85.88
426.068	104.88
426.291	86.88
426.513	84.88
426.735	82.88
426.958	99.88
427.18	101.88
427.402	139.88
427.625	150.88
427.847	119.88
428.069	121.88
428.292	100.88
428.514	92.88
428.736	84.88
428.958	82.88
429.181	93.88
429.403	86.88
429.625	78.88
429.847	89.88
430.069	88.88
430.292	84.88
430.514	88.88
430.736	80.88
430.958	92.88
431.18	87.88
431.402	85.88
431.624	76.88
431.846	75.88
432.068	85.88
432.29	72.88
432.512	83.88
432.734	82.88
432.956	90.88
433.178	91.88
433.4	101.88
433.622	102.88
433.844	93.88
434.066	94.88
434.287	89.88
434.509	77.88
434.731	84.88
434.953	93.88
435.175	81.88
435.397	80.88
435.618	101.88
435.84	105.88
436.062	115.88
436.284	104.88
436.505	84.88
436.727	86.88
436.949	79.88
437.17	87.88
437.392	77.88
437.614	81.88
437.835	109.88
438.057	103.88
438.278	96.88
438.5	91.88
438.721	98.88
438.943	105.88
439.165	73.88
439.386	88.88
439.608	87.88
439.829	92.88
440.05	124.88
440.272	131.88
440.493	93.88
440.715	78.88
440.936	86.88
441.158	82.88
441.379	79.88
441.6	99.88
441.822	96.88
442.043	94.88
442.264	105.88
442.486	89.88
442.707	101.88
442.928	104.88
443.149	106.88
443.371	107.88
443.592	106.88
443.813	108.88
444.034	104.88
444.255	97.88
444.476	76.88
444.698	87.88
444.919	85.88
445.14	137.88
445.361	125.88
445.582	89.88
445.803	113.88
446.024	119.88
446.245	103.88
446.466	88.88
446.687	96.88
446.908	90.88
447.129	92.88
447.35	68.88
447.571	89.88
447.792	104.88
448.013	81.88
448.234	90.88
448.455	86.88
448.675	100.88
448.896	105.88
449.117	110.88
449.338	98.88
449.559	117.88
449.779	117.88
450	82.88
450.221	86.88
450.442	90.88
450.662	91.88
450.883	91.88
451.104	96.88
451.324	78.88
451.545	93.88
451.766	71.88
451.986	89.88
452.207	73.88
452.428	88.88
452.648	91.88
452.869	102.88
453.089	100.88
453.31	114.88
453.53	88.88
453.751	99.88
453.971	101.88
454.192	97.88
454.412	81.88
454.633	74.88
454.853	87.88
455.073	84.88
455.294	77.88
455.514	86.88
455.734	87.88
455.955	90.88
456.175	87.88
456.395	81.88
456.616	83.88
456.836	72.88
457.056	91.88
457.276	76.88
457.497	91.88
457.717	74.88
457.937	96.88
458.157	80.88
458.377	88.88
458.598	103.88
458.818	135.88
459.038	138.88
459.258	94.88
459.478	82.88
459.698	82.88
459.918	77.88
460.138	65.88
460.358	87.88
460.578	89.88
460.798	94.88
461.018	83.88
461.238	90.88
461.458	74.88
461.678	78.88
461.898	84.88
462.118	86.88
462.338	80.88
462.558	82.88
462.777	86.88
462.997	79.88
463.217	56.88
463.437	92.88
463.657	100.88
463.876	80.88
464.096	95.88
464.316	86.88
464.536	87.88
464.755	90.88
464.975	89.88
465.195	136.88
465.414	136.88
465.634	96.88
465.854	77.88
466.073	100.88
466.293	83.88
466.512	81.88
466.732	87.88
466.951	88.88
467.171	90.88
467.391	80.88
467.61	97.88
467.829	100.88
468.049	109.88
468.268	119.88
468.488	89.88
468.707	89.88
468.927	95.88
469.146	93.88
469.365	76.88
469.585	98.88
469.804	81.88
470.023	95.88
470.243	88.88
470.462	97.88
470.681	102.88
470.901	95.88
471.12	90.88
471.339	86.88
471.558	75.88
471.777	92.88
471.997	90.88
472.216	156.88
472.435	208.88
472.654	106.88
472.873	75.88
473.092	84.88
473.311	89.88
473.53	72.88
473.749	89.88
473.968	89.88
474.187	108.88
474.406	89.88
474.625	88.88
474.844	88.88
475.063	92.88
475.282	75.88
475.501	81.88
475.72	89.88
475.939	95.88
476.158	78.88
476.377	83.88
476.596	83.88
476.814	86.88
477.033	82.88
477.252	78.88
477.471	88.88
477.69	103.88
477.908	95.88
478.127	71.88
478.346	90.88
478.564	74.88
478.783	87.88
479.002	89.88
479.22	95.88
479.439	97.88
479.658	95.88
479.876	83.88
480.095	93.88
480.313	93.88
480.532	90.88
480.751	87.88
480.969	132.88
481.188	307.88
481.406	214.88
481.624	102.88
481.843	91.88
482.061	91.88
482.28	90.88
482.498	82.88
482.717	78.88
482.935	78.88
483.153	97.88
483.372	74.88
483.59	89.88
483.808	87.88
484.027	79.88
484.245	74.88
484.463	84.88
484.681	77.88
484.9	92.88
485.118	91.88
485.336	92.88
485.554	98.88
485.772	107.88
485.99	94.88
486.209	99.88
486.427	114.88
486.645	101.88
486.863	91.88
487.081	111.88
487.299	86.88
487.517	92.88
487.735	97.88
487.953	93.88
488.171	77.88
488.389	99.88
488.607	86.88
488.825	93.88
489.043	79.88
489.261	88.88
489.479	86.88
489.696	79.88
489.914	72.88
490.132	86.88
490.35	95.88
490.568	83.88
490.786	95.88
491.003	91.88
491.221	81.88
491.439	76.88
491.657	107.88
491.874	86.88
492.092	88.88
492.31	105.88
492.527	81.88
492.745	83.88
492.963	95.88
493.18	96.88
493.398	82.88
493.615	103.88
493.833	98.88
494.05	78.88
494.268	98.88
494.485	78.88
494.703	79.88
494.92	92.88
495.138	83.88
495.355	92.88
495.573	78.88
495.79	83.88
496.008	87.88
496.225	80.88
496.442	103.88
496.66	80.88
496.877	80.88
497.094	66.88
497.312	77.88
497.529	87.88
497.746	91.88
497.963	79.88
498.181	88.88
498.398	93.88
498.615	98.88
498.832	85.88
499.049	93.88
499.267	94.88
499.484	85.88
499.701	81.88
499.918	80.88
500.135	80.88
500.352	86.88
500.569	92.88
500.786	88.88
501.003	91.88
501.22	81.88
501.437	89.88
501.654	92.88
501.871	93.88
502.088	82.88
502.305	90.88
502.522	82.88
502.739	87.88
502.956	100.88
503.172	85.88
503.389	98.88
503.606	109.88
503.823	95.88
504.04	89.88
504.256	73.88
504.473	95.88
504.69	83.88
504.907	85.88
505.123	94.88
505.34	78.88
505.557	83.88
505.773	87.88
505.99	98.88
506.207	96.88
506.423	82.88
506.64	99.88
506.856	101.88
507.073	91.88
507.289	92.88
507.506	89.88
507.722	107.88
507.939	96.88
508.155	95.88
508.372	93.88
508.588	90.88
508.805	91.88
509.021	96.88
509.238	100.88
509.454	91.88
509.67	83.88
509.887	105.88
510.103	112.88
510.319	194.88
510.536	655.88
510.752	2011.88
510.968	568.88
511.184	131.88
511.401	104.88
511.617	100.88
511.833	94.88
512.049	99.88
512.265	87.88
512.481	80.88
512.698	93.88
512.914	82.88
513.13	87.88
513.346	86.88
513.562	82.88
513.778	99.88
513.994	88.88
514.21	99.88
514.426	105.88
514.642	100.88
514.858	127.88
515.074	151.88
515.29	383.88
515.506	1184.88
515.721	437.88
515.937	151.88
516.153	112.88
516.369	87.88
516.585	86.88
516.801	86.88
517.016	87.88
