Data from Circ_1993_H10_HRD10591_00085.txt Node
Date: Wed Jan 03 11:44:19 EST 2024
User: Yrep
Spectrometer: HR+D1059
Trigger mode: 1
Integration Time (sec): 1.000000E-1
Scans to average: 1
Electric dark correction enabled: true
Nonlinearity correction enabled: false
Boxcar width: 0
XAxis mode: Wavelengths
Number of Pixels in Spectrum: 2048
>>>>>Begin Spectral Data<<<<<
223.165	-11.88
223.4	-11.88
223.635	-11.88
223.869	-7.88
224.104	-12.88
224.338	-22.88
224.573	-13.88
224.808	-12.88
225.042	-15.88
225.277	0.12
225.511	-5.88
225.746	-0.88
225.98	13.12
226.215	3.12
226.449	19.12
226.683	15.12
226.918	21.12
227.152	33.12
227.387	38.12
227.621	31.12
227.856	43.12
228.09	45.12
228.324	48.12
228.559	50.12
228.793	44.12
229.027	72.12
229.262	52.12
229.496	64.12
229.73	80.12
229.964	72.12
230.199	65.12
230.433	68.12
230.667	75.12
230.901	68.12
231.136	69.12
231.37	85.12
231.604	72.12
231.838	75.12
232.072	79.12
232.306	65.12
232.541	63.12
232.775	79.12
233.009	84.12
233.243	92.12
233.477	78.12
233.711	75.12
233.945	82.12
234.179	82.12
234.413	71.12
234.647	76.12
234.881	70.12
235.115	71.12
235.349	94.12
235.583	91.12
235.817	89.12
236.051	80.12
236.285	66.12
236.519	87.12
236.753	75.12
236.987	76.12
237.221	72.12
237.455	88.12
237.689	69.12
237.922	79.12
238.156	75.12
238.39	70.12
238.624	80.12
238.858	67.12
239.091	67.12
239.325	74.12
239.559	87.12
239.793	83.12
240.027	79.12
240.26	76.12
240.494	71.12
240.728	79.12
240.961	56.12
241.195	80.12
241.429	81.12
241.662	95.12
241.896	72.12
242.13	72.12
242.363	86.12
242.597	76.12
242.83	76.12
243.064	73.12
243.298	76.12
243.531	75.12
243.765	68.12
243.998	76.12
244.232	65.12
244.465	79.12
244.699	68.12
244.932	73.12
245.166	77.12
245.399	75.12
245.633	78.12
245.866	81.12
246.099	76.12
246.333	80.12
246.566	71.12
246.8	73.12
247.033	80.12
247.266	88.12
247.5	73.12
247.733	81.12
247.966	92.12
248.2	87.12
248.433	78.12
248.666	80.12
248.899	67.12
249.133	75.12
249.366	87.12
249.599	93.12
249.832	75.12
250.066	83.12
250.299	85.12
250.532	75.12
250.765	84.12
250.998	78.12
251.231	75.12
251.465	75.12
251.698	77.12
251.931	69.12
252.164	80.12
252.397	71.12
252.63	85.12
252.863	80.12
253.096	61.12
253.329	92.12
253.562	80.12
253.795	78.12
254.028	80.12
254.261	79.12
254.494	73.12
254.727	78.12
254.96	89.12
255.193	67.12
255.426	92.12
255.659	87.12
255.892	86.12
256.124	81.12
256.357	81.12
256.59	75.12
256.823	80.12
257.056	92.12
257.289	81.12
257.521	86.12
257.754	81.12
257.987	80.12
258.22	74.12
258.452	92.12
258.685	80.12
258.918	62.12
259.151	68.12
259.383	90.12
259.616	80.12
259.849	67.12
260.081	95.12
260.314	72.12
260.547	86.12
260.779	68.12
261.012	90.12
261.244	95.12
261.477	86.12
261.71	76.12
261.942	115.12
262.175	103.12
262.407	89.12
262.64	64.12
262.872	83.12
263.105	87.12
263.337	60.12
263.57	81.12
263.802	77.12
264.035	76.12
264.267	91.12
264.499	81.12
264.732	81.12
264.964	90.12
265.197	80.12
265.429	89.12
265.661	82.12
265.894	79.12
266.126	84.12
266.358	93.12
266.591	92.12
266.823	80.12
267.055	77.12
267.287	71.12
267.52	76.12
267.752	88.12
267.984	90.12
268.216	71.12
268.448	87.12
268.681	88.12
268.913	79.12
269.145	83.12
269.377	81.12
269.609	92.12
269.841	77.12
270.073	87.12
270.306	82.12
270.538	89.12
270.77	80.12
271.002	91.12
271.234	91.12
271.466	97.12
271.698	77.12
271.93	86.12
272.162	80.12
272.394	85.12
272.626	89.12
272.858	86.12
273.09	79.12
273.322	89.12
273.553	72.12
273.785	97.12
274.017	73.12
274.249	74.12
274.481	73.12
274.713	102.12
274.945	92.12
275.176	77.12
275.408	90.12
275.64	94.12
275.872	82.12
276.104	90.12
276.335	91.12
276.567	104.12
276.799	103.12
277.031	112.12
277.262	97.12
277.494	96.12
277.726	90.12
277.957	82.12
278.189	75.12
278.421	77.12
278.652	85.12
278.884	81.12
279.115	86.12
279.347	88.12
279.579	84.12
279.81	86.12
280.042	98.12
280.273	82.12
280.505	98.12
280.736	89.12
280.968	95.12
281.199	84.12
281.431	75.12
281.662	81.12
281.894	93.12
282.125	111.12
282.356	110.12
282.588	122.12
282.819	104.12
283.051	97.12
283.282	87.12
283.513	88.12
283.745	86.12
283.976	84.12
284.207	85.12
284.439	82.12
284.67	87.12
284.901	91.12
285.132	85.12
285.364	82.12
285.595	81.12
285.826	83.12
286.057	78.12
286.288	84.12
286.52	87.12
286.751	95.12
286.982	100.12
287.213	73.12
287.444	87.12
287.675	89.12
287.906	90.12
288.138	85.12
288.369	83.12
288.6	94.12
288.831	94.12
289.062	90.12
289.293	81.12
289.524	87.12
289.755	95.12
289.986	88.12
290.217	83.12
290.448	87.12
290.679	89.12
290.91	89.12
291.141	87.12
291.371	89.12
291.602	91.12
291.833	92.12
292.064	84.12
292.295	76.12
292.526	91.12
292.757	75.12
292.987	91.12
293.218	93.12
293.449	103.12
293.68	91.12
293.91	80.12
294.141	84.12
294.372	70.12
294.603	82.12
294.833	81.12
295.064	86.12
295.295	91.12
295.525	83.12
295.756	98.12
295.987	108.12
296.217	121.12
296.448	114.12
296.679	90.12
296.909	83.12
297.14	91.12
297.37	81.12
297.601	74.12
297.831	90.12
298.062	107.12
298.292	80.12
298.523	94.12
298.753	83.12
298.984	94.12
299.214	86.12
299.445	77.12
299.675	82.12
299.905	89.12
300.136	75.12
300.366	68.12
300.597	82.12
300.827	104.12
301.057	80.12
301.288	93.12
301.518	89.12
301.748	63.12
301.979	98.12
302.209	80.12
302.439	85.12
302.669	85.12
302.9	86.12
303.13	83.12
303.36	100.12
303.59	84.12
303.82	88.12
304.051	87.12
304.281	96.12
304.511	101.12
304.741	87.12
304.971	92.12
305.201	96.12
305.431	80.12
305.661	85.12
305.891	71.12
306.121	88.12
306.352	86.12
306.582	101.12
306.812	98.12
307.042	97.12
307.272	91.12
307.502	91.12
307.731	83.12
307.961	103.12
308.191	85.12
308.421	92.12
308.651	82.12
308.881	89.12
309.111	88.12
309.341	96.12
309.571	87.12
309.8	95.12
310.03	109.12
310.26	93.12
310.49	91.12
310.72	89.12
310.949	106.12
311.179	83.12
311.409	90.12
311.639	104.12
311.868	104.12
312.098	91.12
312.328	92.12
312.557	104.12
312.787	96.12
313.017	99.12
313.246	80.12
313.476	86.12
313.706	85.12
313.935	100.12
314.165	80.12
314.394	99.12
314.624	97.12
314.853	95.12
315.083	90.12
315.312	99.12
315.542	105.12
315.771	79.12
316.001	94.12
316.23	87.12
316.46	88.12
316.689	78.12
316.919	93.12
317.148	100.12
317.377	103.12
317.607	93.12
317.836	79.12
318.065	84.12
318.295	94.12
318.524	101.12
318.753	95.12
318.983	104.12
319.212	92.12
319.441	112.12
319.67	100.12
319.9	91.12
320.129	93.12
320.358	88.12
320.587	81.12
320.816	103.12
321.046	96.12
321.275	96.12
321.504	99.12
321.733	103.12
321.962	79.12
322.191	91.12
322.42	101.12
322.649	110.12
322.878	91.12
323.108	121.12
323.337	115.12
323.566	130.12
323.795	138.12
324.024	176.12
324.253	320.12
324.482	657.12
324.71	1427.12
324.939	1848.12
325.168	687.12
325.397	219.12
325.626	125.12
325.855	119.12
326.084	116.12
326.313	122.12
326.542	140.12
326.77	206.12
326.999	406.12
327.228	803.12
327.457	1452.12
327.686	1202.12
327.914	321.12
328.143	203.12
328.372	191.12
328.6	140.12
328.829	114.12
329.058	126.12
329.287	136.12
329.515	113.12
329.744	109.12
329.972	150.12
330.201	203.12
330.43	268.12
330.658	183.12
330.887	138.12
331.115	99.12
331.344	96.12
331.572	111.12
331.801	105.12
332.03	105.12
332.258	93.12
332.486	100.12
332.715	100.12
332.943	91.12
333.172	87.12
333.4	92.12
333.629	106.12
333.857	107.12
334.085	146.12
334.314	207.12
334.542	323.12
334.771	299.12
334.999	127.12
335.227	105.12
335.455	77.12
335.684	110.12
335.912	104.12
336.14	103.12
336.369	106.12
336.597	106.12
336.825	93.12
337.053	105.12
337.281	101.12
337.51	86.12
337.738	91.12
337.966	99.12
338.194	81.12
338.422	88.12
338.65	87.12
338.878	89.12
339.106	82.12
339.334	83.12
339.562	80.12
339.79	86.12
340.018	93.12
340.246	89.12
340.474	91.12
340.702	86.12
340.93	78.12
341.158	89.12
341.386	100.12
341.614	96.12
341.842	92.12
342.07	104.12
342.298	93.12
342.526	97.12
342.754	94.12
342.981	91.12
343.209	85.12
343.437	100.12
343.665	82.12
343.893	88.12
344.12	87.12
344.348	92.12
344.576	81.12
344.804	99.12
345.031	104.12
345.259	101.12
345.487	97.12
345.714	96.12
345.942	93.12
346.17	90.12
346.397	87.12
346.625	85.12
346.853	88.12
347.08	86.12
347.308	87.12
347.535	88.12
347.763	77.12
347.99	98.12
348.218	94.12
348.445	83.12
348.673	101.12
348.9	96.12
349.128	97.12
349.355	98.12
349.583	79.12
349.81	90.12
350.037	97.12
350.265	83.12
350.492	97.12
350.72	93.12
350.947	102.12
351.174	100.12
351.402	106.12
351.629	102.12
351.856	92.12
352.083	99.12
352.311	111.12
352.538	107.12
352.765	102.12
352.992	116.12
353.22	100.12
353.447	106.12
353.674	102.12
353.901	92.12
354.128	106.12
354.355	88.12
354.583	105.12
354.81	106.12
355.037	94.12
355.264	97.12
355.491	100.12
355.718	92.12
355.945	82.12
356.172	101.12
356.399	99.12
356.626	83.12
356.853	84.12
357.08	88.12
357.307	81.12
357.534	85.12
357.761	96.12
357.988	91.12
358.215	96.12
358.441	83.12
358.668	90.12
358.895	93.12
359.122	99.12
359.349	94.12
359.576	96.12
359.802	82.12
360.029	84.12
360.256	93.12
360.483	106.12
360.709	90.12
360.936	91.12
361.163	90.12
361.39	95.12
361.616	92.12
361.843	90.12
362.07	96.12
362.296	99.12
362.523	103.12
362.749	87.12
362.976	86.12
363.203	83.12
363.429	80.12
363.656	91.12
363.882	87.12
364.109	88.12
364.335	89.12
364.562	93.12
364.788	92.12
365.015	93.12
365.241	89.12
365.468	97.12
365.694	95.12
365.92	87.12
366.147	97.12
366.373	80.12
366.599	91.12
366.826	91.12
367.052	93.12
367.278	85.12
367.505	107.12
367.731	91.12
367.957	94.12
368.184	101.12
368.41	92.12
368.636	100.12
368.862	120.12
369.089	90.12
369.315	89.12
369.541	83.12
369.767	81.12
369.993	96.12
370.219	90.12
370.445	73.12
370.672	91.12
370.898	90.12
371.124	83.12
371.35	80.12
371.576	89.12
371.802	75.12
372.028	87.12
372.254	88.12
372.48	85.12
372.706	100.12
372.932	97.12
373.158	85.12
373.384	92.12
373.61	88.12
373.835	87.12
374.061	89.12
374.287	82.12
374.513	109.12
374.739	85.12
374.965	82.12
375.191	93.12
375.416	91.12
375.642	85.12
375.868	88.12
376.094	100.12
376.319	94.12
376.545	73.12
376.771	91.12
376.997	88.12
377.222	89.12
377.448	79.12
377.674	84.12
377.899	83.12
378.125	97.12
378.35	91.12
378.576	98.12
378.802	84.12
379.027	79.12
379.253	100.12
379.478	95.12
379.704	88.12
379.929	91.12
380.155	97.12
380.38	96.12
380.606	82.12
380.831	100.12
381.057	99.12
381.282	83.12
381.507	87.12
381.733	96.12
381.958	92.12
382.184	97.12
382.409	95.12
382.634	101.12
382.86	97.12
383.085	90.12
383.31	86.12
383.535	113.12
383.761	100.12
383.986	97.12
384.211	91.12
384.436	92.12
384.662	102.12
384.887	107.12
385.112	101.12
385.337	101.12
385.562	87.12
385.787	97.12
386.013	100.12
386.238	98.12
386.463	106.12
386.688	106.12
386.913	100.12
387.138	106.12
387.363	101.12
387.588	104.12
387.813	85.12
388.038	104.12
388.263	113.12
388.488	109.12
388.713	93.12
388.938	90.12
389.163	77.12
389.387	107.12
389.612	101.12
389.837	78.12
390.062	75.12
390.287	81.12
390.512	83.12
390.736	90.12
390.961	80.12
391.186	93.12
391.411	93.12
391.636	84.12
391.86	76.12
392.085	79.12
392.31	90.12
392.534	77.12
392.759	79.12
392.984	88.12
393.208	85.12
393.433	90.12
393.658	113.12
393.882	84.12
394.107	84.12
394.331	86.12
394.556	84.12
394.78	94.12
395.005	80.12
395.229	86.12
395.454	91.12
395.678	82.12
395.903	77.12
396.127	82.12
396.352	101.12
396.576	83.12
396.801	91.12
397.025	97.12
397.249	90.12
397.474	95.12
397.698	87.12
397.922	78.12
398.147	105.12
398.371	71.12
398.595	85.12
398.82	97.12
399.044	81.12
399.268	91.12
399.492	79.12
399.717	92.12
399.941	92.12
400.165	100.12
400.389	91.12
400.613	95.12
400.837	76.12
401.062	75.12
401.286	98.12
401.51	96.12
401.734	84.12
401.958	89.12
402.182	113.12
402.406	127.12
402.63	112.12
402.854	76.12
403.078	93.12
403.302	82.12
403.526	78.12
403.75	77.12
403.974	81.12
404.198	97.12
404.422	84.12
404.645	80.12
404.869	93.12
405.093	103.12
405.317	100.12
405.541	112.12
405.765	97.12
405.988	108.12
406.212	153.12
406.436	183.12
406.66	116.12
406.883	102.12
407.107	79.12
407.331	84.12
407.555	101.12
407.778	91.12
408.002	87.12
408.226	95.12
408.449	91.12
408.673	89.12
408.896	105.12
409.12	91.12
409.344	93.12
409.567	95.12
409.791	85.12
410.014	86.12
410.238	101.12
410.461	101.12
410.685	105.12
410.908	98.12
411.132	90.12
411.355	107.12
411.578	94.12
411.802	93.12
412.025	83.12
412.249	100.12
412.472	100.12
412.695	107.12
412.919	84.12
413.142	90.12
413.365	94.12
413.589	101.12
413.812	99.12
414.035	85.12
414.258	101.12
414.482	85.12
414.705	100.12
414.928	90.12
415.151	92.12
415.374	92.12
415.597	92.12
415.821	87.12
416.044	97.12
416.267	99.12
416.49	84.12
416.713	84.12
416.936	75.12
417.159	83.12
417.382	70.12
417.605	83.12
417.828	85.12
418.051	85.12
418.274	76.12
418.497	93.12
418.72	92.12
418.943	85.12
419.166	92.12
419.389	84.12
419.611	95.12
419.834	95.12
420.057	90.12
420.28	89.12
420.503	68.12
420.726	90.12
420.948	88.12
421.171	91.12
421.394	95.12
421.617	80.12
421.839	77.12
422.062	92.12
422.285	97.12
422.507	87.12
422.73	97.12
422.953	96.12
423.175	90.12
423.398	89.12
423.621	85.12
423.843	87.12
424.066	84.12
424.288	81.12
424.511	83.12
424.733	90.12
424.956	103.12
425.178	90.12
425.401	89.12
425.623	109.12
425.846	85.12
426.068	100.12
426.291	79.12
426.513	77.12
426.735	82.12
426.958	88.12
427.18	104.12
427.402	121.12
427.625	161.12
427.847	145.12
428.069	128.12
428.292	82.12
428.514	93.12
428.736	103.12
428.958	87.12
429.181	85.12
429.403	95.12
429.625	87.12
429.847	91.12
430.069	106.12
430.292	97.12
430.514	75.12
430.736	81.12
430.958	94.12
431.18	83.12
431.402	80.12
431.624	90.12
431.846	77.12
432.068	83.12
432.29	73.12
432.512	90.12
432.734	94.12
432.956	100.12
433.178	110.12
433.4	89.12
433.622	85.12
433.844	97.12
434.066	84.12
434.287	108.12
434.509	83.12
434.731	85.12
434.953	84.12
435.175	77.12
435.397	88.12
435.618	79.12
435.84	101.12
436.062	114.12
436.284	107.12
436.505	100.12
436.727	101.12
436.949	87.12
437.17	91.12
437.392	93.12
437.614	96.12
437.835	102.12
438.057	109.12
438.278	107.12
438.5	87.12
438.721	124.12
438.943	87.12
439.165	94.12
439.386	88.12
439.608	96.12
439.829	101.12
440.05	110.12
440.272	124.12
440.493	69.12
440.715	88.12
440.936	91.12
441.158	82.12
441.379	91.12
441.6	97.12
441.822	85.12
442.043	95.12
442.264	85.12
442.486	93.12
442.707	92.12
442.928	104.12
443.149	124.12
443.371	123.12
443.592	119.12
443.813	105.12
444.034	98.12
444.255	85.12
444.476	84.12
444.698	91.12
444.919	75.12
445.14	115.12
445.361	104.12
445.582	109.12
445.803	129.12
446.024	134.12
446.245	117.12
446.466	127.12
446.687	83.12
446.908	94.12
447.129	102.12
447.35	101.12
447.571	89.12
447.792	99.12
448.013	86.12
448.234	106.12
448.455	88.12
448.675	117.12
448.896	109.12
449.117	91.12
449.338	103.12
449.559	128.12
449.779	124.12
450	99.12
450.221	81.12
450.442	94.12
450.662	88.12
450.883	91.12
451.104	108.12
451.324	103.12
451.545	80.12
451.766	95.12
451.986	84.12
452.207	75.12
452.428	86.12
452.648	111.12
452.869	110.12
453.089	105.12
453.31	108.12
453.53	91.12
453.751	74.12
453.971	105.12
454.192	106.12
454.412	95.12
454.633	96.12
454.853	84.12
455.073	82.12
455.294	94.12
455.514	105.12
455.734	91.12
455.955	72.12
456.175	76.12
456.395	95.12
456.616	97.12
456.836	82.12
457.056	81.12
457.276	77.12
457.497	92.12
457.717	75.12
457.937	83.12
458.157	96.12
458.377	76.12
458.598	91.12
458.818	147.12
459.038	151.12
459.258	101.12
459.478	79.12
459.698	85.12
459.918	95.12
460.138	82.12
460.358	77.12
460.578	83.12
460.798	79.12
461.018	79.12
461.238	87.12
461.458	72.12
461.678	90.12
461.898	85.12
462.118	89.12
462.338	91.12
462.558	93.12
462.777	88.12
462.997	84.12
463.217	83.12
463.437	88.12
463.657	72.12
463.876	89.12
464.096	85.12
464.316	77.12
464.536	96.12
464.755	89.12
464.975	96.12
465.195	130.12
465.414	140.12
465.634	98.12
465.854	91.12
466.073	84.12
466.293	87.12
466.512	83.12
466.732	81.12
466.951	91.12
467.171	90.12
467.391	97.12
467.61	90.12
467.829	103.12
468.049	163.12
468.268	189.12
468.488	104.12
468.707	82.12
468.927	96.12
469.146	78.12
469.365	78.12
469.585	89.12
469.804	89.12
470.023	95.12
470.243	97.12
470.462	104.12
470.681	108.12
470.901	88.12
471.12	88.12
471.339	79.12
471.558	81.12
471.777	86.12
471.997	132.12
472.216	258.12
472.435	422.12
472.654	167.12
472.873	104.12
473.092	74.12
473.311	82.12
473.53	75.12
473.749	76.12
473.968	97.12
474.187	100.12
474.406	100.12
474.625	84.12
474.844	87.12
475.063	85.12
475.282	83.12
475.501	103.12
475.72	92.12
475.939	78.12
476.158	85.12
476.377	88.12
476.596	76.12
476.814	95.12
477.033	90.12
477.252	82.12
477.471	85.12
477.69	87.12
477.908	82.12
478.127	91.12
478.346	92.12
478.564	82.12
478.783	98.12
479.002	90.12
479.22	79.12
479.439	84.12
479.658	102.12
479.876	98.12
480.095	100.12
480.313	104.12
480.532	97.12
480.751	124.12
480.969	241.12
481.188	719.12
481.406	423.12
481.624	134.12
481.843	88.12
482.061	92.12
482.28	100.12
482.498	88.12
482.717	83.12
482.935	77.12
483.153	88.12
483.372	85.12
483.59	92.12
483.808	85.12
484.027	92.12
484.245	83.12
484.463	91.12
484.681	106.12
484.9	81.12
485.118	83.12
485.336	89.12
485.554	99.12
485.772	97.12
485.99	103.12
486.209	115.12
486.427	105.12
486.645	116.12
486.863	94.12
487.081	93.12
487.299	87.12
487.517	88.12
487.735	87.12
487.953	94.12
488.171	103.12
488.389	101.12
488.607	95.12
488.825	83.12
489.043	97.12
489.261	85.12
489.479	84.12
489.696	91.12
489.914	87.12
490.132	98.12
490.35	95.12
490.568	85.12
490.786	83.12
491.003	74.12
491.221	80.12
491.439	78.12
491.657	86.12
491.874	91.12
492.092	101.12
492.31	92.12
492.527	80.12
492.745	83.12
492.963	90.12
493.18	79.12
493.398	79.12
493.615	95.12
493.833	99.12
494.05	98.12
494.268	79.12
494.485	88.12
494.703	93.12
494.92	83.12
495.138	90.12
495.355	82.12
495.573	99.12
495.79	84.12
496.008	91.12
496.225	82.12
496.442	79.12
496.66	101.12
496.877	76.12
497.094	91.12
497.312	94.12
497.529	92.12
497.746	80.12
497.963	84.12
498.181	103.12
498.398	84.12
498.615	96.12
498.832	105.12
499.049	87.12
499.267	89.12
499.484	92.12
499.701	80.12
499.918	94.12
500.135	73.12
500.352	91.12
500.569	76.12
500.786	103.12
501.003	62.12
501.22	88.12
501.437	91.12
501.654	83.12
501.871	112.12
502.088	83.12
502.305	93.12
502.522	79.12
502.739	87.12
502.956	84.12
503.172	85.12
503.389	87.12
503.606	94.12
503.823	82.12
504.04	90.12
504.256	85.12
504.473	93.12
504.69	81.12
504.907	93.12
505.123	88.12
505.34	102.12
505.557	91.12
505.773	96.12
505.99	81.12
506.207	86.12
506.423	75.12
506.64	93.12
506.856	80.12
507.073	73.12
507.289	85.12
507.506	88.12
507.722	104.12
507.939	96.12
508.155	83.12
508.372	92.12
508.588	95.12
508.805	96.12
509.021	96.12
509.238	89.12
509.454	98.12
509.67	88.12
509.887	107.12
510.103	120.12
510.319	173.12
510.536	611.12
510.752	1819.12
510.968	513.12
511.184	144.12
511.401	97.12
511.617	95.12
511.833	94.12
512.049	96.12
512.265	105.12
512.481	99.12
512.698	89.12
512.914	102.12
513.13	97.12
513.346	88.12
513.562	86.12
513.778	87.12
513.994	86.12
514.21	97.12
514.426	110.12
514.642	134.12
514.858	111.12
515.074	131.12
515.29	358.12
515.506	1066.12
515.721	407.12
515.937	128.12
