Data from Circ_1993_H10_HRD10591_00061.txt Node
Date: Wed Jan 03 11:44:14 EST 2024
User: Yrep
Spectrometer: HR+D1059
Trigger mode: 1
Integration Time (sec): 1.000000E-1
Scans to average: 1
Electric dark correction enabled: true
Nonlinearity correction enabled: false
Boxcar width: 0
XAxis mode: Wavelengths
Number of Pixels in Spectrum: 2048
>>>>>Begin Spectral Data<<<<<
223.165	-12.12
223.4	-12.12
223.635	-12.12
223.869	-26.12
224.104	-22.12
224.338	-14.12
224.573	-14.12
224.808	-13.12
225.042	-8.12
225.277	-7.12
225.511	-10.12
225.746	11.88
225.98	9.88
226.215	2.88
226.449	9.88
226.683	12.88
226.918	31.88
227.152	47.88
227.387	43.88
227.621	37.88
227.856	33.88
228.09	47.88
228.324	54.88
228.559	60.88
228.793	50.88
229.027	68.88
229.262	65.88
229.496	61.88
229.73	79.88
229.964	75.88
230.199	78.88
230.433	98.88
230.667	63.88
230.901	88.88
231.136	83.88
231.37	83.88
231.604	85.88
231.838	75.88
232.072	74.88
232.306	101.88
232.541	77.88
232.775	82.88
233.009	75.88
233.243	79.88
233.477	67.88
233.711	77.88
233.945	74.88
234.179	87.88
234.413	83.88
234.647	81.88
234.881	81.88
235.115	66.88
235.349	83.88
235.583	91.88
235.817	86.88
236.051	62.88
236.285	76.88
236.519	82.88
236.753	73.88
236.987	84.88
237.221	81.88
237.455	90.88
237.689	65.88
237.922	71.88
238.156	67.88
238.39	74.88
238.624	73.88
238.858	66.88
239.091	86.88
239.325	74.88
239.559	77.88
239.793	72.88
240.027	83.88
240.26	68.88
240.494	70.88
240.728	86.88
240.961	81.88
241.195	67.88
241.429	90.88
241.662	68.88
241.896	60.88
242.13	61.88
242.363	69.88
242.597	74.88
242.83	71.88
243.064	67.88
243.298	79.88
243.531	86.88
243.765	78.88
243.998	71.88
244.232	88.88
244.465	96.88
244.699	89.88
244.932	87.88
245.166	80.88
245.399	75.88
245.633	61.88
245.866	84.88
246.099	74.88
246.333	81.88
246.566	87.88
246.8	88.88
247.033	73.88
247.266	67.88
247.5	69.88
247.733	68.88
247.966	83.88
248.2	73.88
248.433	74.88
248.666	82.88
248.899	79.88
249.133	73.88
249.366	98.88
249.599	86.88
249.832	91.88
250.066	73.88
250.299	85.88
250.532	86.88
250.765	78.88
250.998	77.88
251.231	71.88
251.465	82.88
251.698	68.88
251.931	73.88
252.164	73.88
252.397	85.88
252.63	85.88
252.863	78.88
253.096	79.88
253.329	78.88
253.562	81.88
253.795	89.88
254.028	62.88
254.261	90.88
254.494	83.88
254.727	83.88
254.96	87.88
255.193	79.88
255.426	71.88
255.659	80.88
255.892	82.88
256.124	90.88
256.357	82.88
256.59	85.88
256.823	87.88
257.056	87.88
257.289	80.88
257.521	82.88
257.754	76.88
257.987	70.88
258.22	79.88
258.452	73.88
258.685	72.88
258.918	68.88
259.151	86.88
259.383	85.88
259.616	89.88
259.849	85.88
260.081	79.88
260.314	84.88
260.547	80.88
260.779	69.88
261.012	76.88
261.244	74.88
261.477	87.88
261.71	81.88
261.942	108.88
262.175	129.88
262.407	97.88
262.64	74.88
262.872	77.88
263.105	82.88
263.337	90.88
263.57	83.88
263.802	88.88
264.035	67.88
264.267	79.88
264.499	79.88
264.732	98.88
264.964	81.88
265.197	91.88
265.429	64.88
265.661	91.88
265.894	80.88
266.126	82.88
266.358	75.88
266.591	80.88
266.823	80.88
267.055	73.88
267.287	70.88
267.52	83.88
267.752	87.88
267.984	85.88
268.216	78.88
268.448	79.88
268.681	87.88
268.913	79.88
269.145	76.88
269.377	88.88
269.609	82.88
269.841	93.88
270.073	72.88
270.306	79.88
270.538	82.88
270.77	74.88
271.002	93.88
271.234	77.88
271.466	88.88
271.698	70.88
271.93	93.88
272.162	73.88
272.394	80.88
272.626	88.88
272.858	90.88
273.09	106.88
273.322	79.88
273.553	77.88
273.785	81.88
274.017	75.88
274.249	88.88
274.481	92.88
274.713	85.88
274.945	89.88
275.176	97.88
275.408	93.88
275.64	72.88
275.872	76.88
276.104	93.88
276.335	95.88
276.567	96.88
276.799	114.88
277.031	101.88
277.262	92.88
277.494	92.88
277.726	85.88
277.957	73.88
278.189	77.88
278.421	86.88
278.652	81.88
278.884	73.88
279.115	80.88
279.347	96.88
279.579	88.88
279.81	79.88
280.042	79.88
280.273	89.88
280.505	86.88
280.736	76.88
280.968	85.88
281.199	95.88
281.431	78.88
281.662	87.88
281.894	76.88
282.125	91.88
282.356	123.88
282.588	128.88
282.819	114.88
283.051	94.88
283.282	93.88
283.513	86.88
283.745	93.88
283.976	79.88
284.207	81.88
284.439	95.88
284.67	86.88
284.901	88.88
285.132	85.88
285.364	92.88
285.595	100.88
285.826	79.88
286.057	85.88
286.288	90.88
286.52	98.88
286.751	107.88
286.982	101.88
287.213	74.88
287.444	83.88
287.675	81.88
287.906	86.88
288.138	84.88
288.369	88.88
288.6	86.88
288.831	77.88
289.062	79.88
289.293	90.88
289.524	88.88
289.755	89.88
289.986	74.88
290.217	90.88
290.448	68.88
290.679	82.88
290.91	95.88
291.141	79.88
291.371	85.88
291.602	82.88
291.833	93.88
292.064	96.88
292.295	93.88
292.526	100.88
292.757	92.88
292.987	94.88
293.218	84.88
293.449	96.88
293.68	97.88
293.91	87.88
294.141	78.88
294.372	78.88
294.603	86.88
294.833	82.88
295.064	82.88
295.295	91.88
295.525	85.88
295.756	88.88
295.987	113.88
296.217	135.88
296.448	119.88
296.679	89.88
296.909	100.88
297.14	100.88
297.37	93.88
297.601	82.88
297.831	81.88
298.062	90.88
298.292	67.88
298.523	85.88
298.753	73.88
298.984	88.88
299.214	93.88
299.445	87.88
299.675	91.88
299.905	96.88
300.136	80.88
300.366	86.88
300.597	92.88
300.827	75.88
301.057	87.88
301.288	103.88
301.518	96.88
301.748	89.88
301.979	97.88
302.209	97.88
302.439	70.88
302.669	96.88
302.9	85.88
303.13	81.88
303.36	92.88
303.59	108.88
303.82	108.88
304.051	88.88
304.281	96.88
304.511	87.88
304.741	95.88
304.971	79.88
305.201	94.88
305.431	102.88
305.661	90.88
305.891	108.88
306.121	95.88
306.352	91.88
306.582	98.88
306.812	101.88
307.042	95.88
307.272	100.88
307.502	107.88
307.731	105.88
307.961	90.88
308.191	91.88
308.421	104.88
308.651	98.88
308.881	89.88
309.111	86.88
309.341	96.88
309.571	99.88
309.8	87.88
310.03	97.88
310.26	101.88
310.49	95.88
310.72	91.88
310.949	98.88
311.179	88.88
311.409	106.88
311.639	95.88
311.868	104.88
312.098	89.88
312.328	91.88
312.557	105.88
312.787	99.88
313.017	100.88
313.246	100.88
313.476	98.88
313.706	84.88
313.935	92.88
314.165	100.88
314.394	97.88
314.624	107.88
314.853	97.88
315.083	86.88
315.312	101.88
315.542	107.88
315.771	90.88
316.001	86.88
316.23	89.88
316.46	99.88
316.689	112.88
316.919	92.88
317.148	78.88
317.377	90.88
317.607	83.88
317.836	83.88
318.065	80.88
318.295	94.88
318.524	92.88
318.753	80.88
318.983	89.88
319.212	105.88
319.441	123.88
319.67	111.88
319.9	89.88
320.129	90.88
320.358	104.88
320.587	86.88
320.816	95.88
321.046	78.88
321.275	71.88
321.504	96.88
321.733	105.88
321.962	97.88
322.191	95.88
322.42	100.88
322.649	111.88
322.878	99.88
323.108	112.88
323.337	112.88
323.566	122.88
323.795	132.88
324.024	186.88
324.253	369.88
324.482	735.88
324.71	1543.88
324.939	2020.88
325.168	745.88
325.397	228.88
325.626	137.88
325.855	123.88
326.084	106.88
326.313	126.88
326.542	154.88
326.77	226.88
326.999	431.88
327.228	879.88
327.457	1577.88
327.686	1227.88
327.914	361.88
328.143	187.88
328.372	187.88
328.6	135.88
328.829	114.88
329.058	118.88
329.287	131.88
329.515	109.88
329.744	112.88
329.972	124.88
330.201	171.88
330.43	220.88
330.658	160.88
330.887	133.88
331.115	122.88
331.344	88.88
331.572	104.88
331.801	100.88
332.03	116.88
332.258	91.88
332.486	87.88
332.715	79.88
332.943	92.88
333.172	84.88
333.4	102.88
333.629	96.88
333.857	139.88
334.085	130.88
334.314	183.88
334.542	259.88
334.771	255.88
334.999	135.88
335.227	109.88
335.455	101.88
335.684	98.88
335.912	93.88
336.14	101.88
336.369	90.88
336.597	98.88
336.825	99.88
337.053	94.88
337.281	81.88
337.51	93.88
337.738	111.88
337.966	89.88
338.194	80.88
338.422	89.88
338.65	87.88
338.878	69.88
339.106	95.88
339.334	84.88
339.562	86.88
339.79	98.88
340.018	78.88
340.246	91.88
340.474	97.88
340.702	86.88
340.93	92.88
341.158	92.88
341.386	99.88
341.614	106.88
341.842	97.88
342.07	81.88
342.298	93.88
342.526	86.88
342.754	85.88
342.981	75.88
343.209	87.88
343.437	97.88
343.665	88.88
343.893	99.88
344.12	78.88
344.348	90.88
344.576	98.88
344.804	88.88
345.031	94.88
345.259	94.88
345.487	99.88
345.714	92.88
345.942	87.88
346.17	92.88
346.397	95.88
346.625	89.88
346.853	84.88
347.08	94.88
347.308	103.88
347.535	91.88
347.763	91.88
347.99	95.88
348.218	95.88
348.445	97.88
348.673	93.88
348.9	97.88
349.128	92.88
349.355	91.88
349.583	108.88
349.81	97.88
350.037	97.88
350.265	87.88
350.492	80.88
350.72	73.88
350.947	111.88
351.174	109.88
351.402	113.88
351.629	89.88
351.856	86.88
352.083	101.88
352.311	109.88
352.538	90.88
352.765	97.88
352.992	114.88
353.22	101.88
353.447	90.88
353.674	93.88
353.901	90.88
354.128	69.88
354.355	101.88
354.583	87.88
354.81	92.88
355.037	92.88
355.264	101.88
355.491	91.88
355.718	83.88
355.945	104.88
356.172	105.88
356.399	90.88
356.626	87.88
356.853	88.88
357.08	100.88
357.307	98.88
357.534	101.88
357.761	93.88
357.988	105.88
358.215	85.88
358.441	85.88
358.668	82.88
358.895	89.88
359.122	95.88
359.349	83.88
359.576	83.88
359.802	116.88
360.029	92.88
360.256	111.88
360.483	103.88
360.709	87.88
360.936	103.88
361.163	94.88
361.39	92.88
361.616	92.88
361.843	103.88
362.07	88.88
362.296	87.88
362.523	98.88
362.749	86.88
362.976	86.88
363.203	88.88
363.429	92.88
363.656	90.88
363.882	95.88
364.109	82.88
364.335	98.88
364.562	92.88
364.788	80.88
365.015	96.88
365.241	94.88
365.468	104.88
365.694	107.88
365.92	92.88
366.147	82.88
366.373	75.88
366.599	89.88
366.826	100.88
367.052	84.88
367.278	90.88
367.505	85.88
367.731	79.88
367.957	82.88
368.184	96.88
368.41	104.88
368.636	102.88
368.862	105.88
369.089	85.88
369.315	82.88
369.541	92.88
369.767	76.88
369.993	88.88
370.219	101.88
370.445	71.88
370.672	84.88
370.898	81.88
371.124	83.88
371.35	84.88
371.576	99.88
371.802	95.88
372.028	90.88
372.254	85.88
372.48	81.88
372.706	83.88
372.932	86.88
373.158	59.88
373.384	81.88
373.61	100.88
373.835	81.88
374.061	92.88
374.287	99.88
374.513	92.88
374.739	95.88
374.965	104.88
375.191	82.88
375.416	81.88
375.642	92.88
375.868	80.88
376.094	82.88
376.319	78.88
376.545	65.88
376.771	89.88
376.997	96.88
377.222	84.88
377.448	89.88
377.674	94.88
377.899	86.88
378.125	79.88
378.35	95.88
378.576	89.88
378.802	91.88
379.027	104.88
379.253	82.88
379.478	95.88
379.704	87.88
379.929	98.88
380.155	89.88
380.38	91.88
380.606	92.88
380.831	94.88
381.057	98.88
381.282	96.88
381.507	93.88
381.733	95.88
381.958	87.88
382.184	97.88
382.409	101.88
382.634	93.88
382.86	101.88
383.085	99.88
383.31	88.88
383.535	101.88
383.761	93.88
383.986	100.88
384.211	87.88
384.436	89.88
384.662	95.88
384.887	112.88
385.112	105.88
385.337	109.88
385.562	91.88
385.787	101.88
386.013	113.88
386.238	113.88
386.463	115.88
386.688	113.88
386.913	102.88
387.138	106.88
387.363	101.88
387.588	97.88
387.813	96.88
388.038	100.88
388.263	111.88
388.488	85.88
388.713	85.88
388.938	89.88
389.163	102.88
389.387	90.88
389.612	90.88
389.837	99.88
390.062	88.88
390.287	87.88
390.512	100.88
390.736	94.88
390.961	88.88
391.186	85.88
391.411	98.88
391.636	99.88
391.86	82.88
392.085	77.88
392.31	78.88
392.534	83.88
392.759	81.88
392.984	92.88
393.208	103.88
393.433	125.88
393.658	114.88
393.882	82.88
394.107	91.88
394.331	99.88
394.556	88.88
394.78	92.88
395.005	83.88
395.229	83.88
395.454	83.88
395.678	90.88
395.903	86.88
396.127	88.88
396.352	92.88
396.576	94.88
396.801	109.88
397.025	116.88
397.249	83.88
397.474	103.88
397.698	93.88
397.922	79.88
398.147	91.88
398.371	80.88
398.595	86.88
398.82	87.88
399.044	89.88
399.268	68.88
399.492	79.88
399.717	86.88
399.941	77.88
400.165	88.88
400.389	90.88
400.613	90.88
400.837	84.88
401.062	86.88
401.286	92.88
401.51	101.88
401.734	95.88
401.958	88.88
402.182	121.88
402.406	140.88
402.63	119.88
402.854	97.88
403.078	78.88
403.302	84.88
403.526	82.88
403.75	89.88
403.974	81.88
404.198	78.88
404.422	89.88
404.645	92.88
404.869	81.88
405.093	105.88
405.317	103.88
405.541	91.88
405.765	94.88
405.988	111.88
406.212	144.88
406.436	204.88
406.66	140.88
406.883	106.88
407.107	91.88
407.331	96.88
407.555	83.88
407.778	99.88
408.002	92.88
408.226	86.88
408.449	93.88
408.673	85.88
408.896	84.88
409.12	104.88
409.344	75.88
409.567	76.88
409.791	84.88
410.014	100.88
410.238	98.88
410.461	93.88
410.685	100.88
410.908	93.88
411.132	110.88
411.355	98.88
411.578	91.88
411.802	91.88
412.025	100.88
412.249	81.88
412.472	90.88
412.695	100.88
412.919	97.88
413.142	85.88
413.365	78.88
413.589	83.88
413.812	79.88
414.035	91.88
414.258	88.88
414.482	95.88
414.705	85.88
414.928	93.88
415.151	91.88
415.374	92.88
415.597	85.88
415.821	96.88
416.044	92.88
416.267	101.88
416.49	82.88
416.713	85.88
416.936	91.88
417.159	84.88
417.382	84.88
417.605	96.88
417.828	83.88
418.051	78.88
418.274	83.88
418.497	77.88
418.72	93.88
418.943	66.88
419.166	87.88
419.389	96.88
419.611	84.88
419.834	96.88
420.057	81.88
420.28	93.88
420.503	85.88
420.726	77.88
420.948	80.88
421.171	73.88
421.394	80.88
421.617	91.88
421.839	87.88
422.062	93.88
422.285	93.88
422.507	95.88
422.73	123.88
422.953	104.88
423.175	96.88
423.398	87.88
423.621	87.88
423.843	95.88
424.066	84.88
424.288	85.88
424.511	84.88
424.733	89.88
424.956	100.88
425.178	97.88
425.401	98.88
425.623	92.88
425.846	84.88
426.068	102.88
426.291	81.88
426.513	87.88
426.735	93.88
426.958	83.88
427.18	107.88
427.402	113.88
427.625	145.88
427.847	141.88
428.069	127.88
428.292	87.88
428.514	88.88
428.736	82.88
428.958	75.88
429.181	75.88
429.403	84.88
429.625	88.88
429.847	84.88
430.069	100.88
430.292	84.88
430.514	82.88
430.736	77.88
430.958	90.88
431.18	98.88
431.402	86.88
431.624	96.88
431.846	83.88
432.068	84.88
432.29	74.88
432.512	73.88
432.734	86.88
432.956	89.88
433.178	77.88
433.4	75.88
433.622	90.88
433.844	77.88
434.066	84.88
434.287	91.88
434.509	86.88
434.731	91.88
434.953	75.88
435.175	90.88
435.397	68.88
435.618	74.88
435.84	99.88
436.062	113.88
436.284	94.88
436.505	95.88
436.727	107.88
436.949	87.88
437.17	68.88
437.392	83.88
437.614	88.88
437.835	103.88
438.057	108.88
438.278	115.88
438.5	101.88
438.721	104.88
438.943	94.88
439.165	86.88
439.386	88.88
439.608	89.88
439.829	102.88
440.05	111.88
440.272	129.88
440.493	97.88
440.715	90.88
440.936	82.88
441.158	79.88
441.379	74.88
441.6	108.88
441.822	98.88
442.043	99.88
442.264	101.88
442.486	92.88
442.707	96.88
442.928	94.88
443.149	107.88
443.371	109.88
443.592	116.88
443.813	101.88
444.034	119.88
444.255	89.88
444.476	91.88
444.698	75.88
444.919	99.88
445.14	121.88
445.361	122.88
445.582	101.88
445.803	122.88
446.024	123.88
446.245	113.88
446.466	106.88
446.687	80.88
446.908	85.88
447.129	79.88
447.35	84.88
447.571	75.88
447.792	86.88
448.013	88.88
448.234	98.88
448.455	91.88
448.675	107.88
448.896	109.88
449.117	105.88
449.338	91.88
449.559	127.88
449.779	119.88
450	100.88
450.221	84.88
450.442	88.88
450.662	79.88
450.883	106.88
451.104	97.88
451.324	90.88
451.545	92.88
451.766	93.88
451.986	90.88
452.207	87.88
452.428	97.88
452.648	90.88
452.869	99.88
453.089	114.88
453.31	107.88
453.53	91.88
453.751	77.88
453.971	96.88
454.192	120.88
454.412	83.88
454.633	77.88
454.853	93.88
455.073	86.88
455.294	81.88
455.514	97.88
455.734	93.88
455.955	80.88
456.175	96.88
456.395	91.88
456.616	68.88
456.836	85.88
457.056	91.88
457.276	78.88
457.497	76.88
457.717	83.88
457.937	81.88
458.157	79.88
458.377	73.88
458.598	84.88
458.818	124.88
459.038	144.88
459.258	111.88
459.478	89.88
459.698	83.88
459.918	87.88
460.138	82.88
460.358	82.88
460.578	90.88
460.798	93.88
461.018	88.88
461.238	83.88
461.458	78.88
461.678	91.88
461.898	79.88
462.118	85.88
462.338	70.88
462.558	71.88
462.777	72.88
462.997	94.88
463.217	84.88
463.437	97.88
463.657	81.88
463.876	85.88
464.096	91.88
464.316	82.88
464.536	87.88
464.755	91.88
464.975	120.88
465.195	170.88
465.414	148.88
465.634	100.88
465.854	88.88
466.073	67.88
466.293	88.88
466.512	93.88
466.732	67.88
466.951	84.88
467.171	99.88
467.391	95.88
467.61	103.88
467.829	100.88
468.049	125.88
468.268	144.88
468.488	83.88
468.707	83.88
468.927	94.88
469.146	80.88
469.365	75.88
469.585	79.88
469.804	93.88
470.023	95.88
470.243	88.88
470.462	107.88
470.681	102.88
470.901	85.88
471.12	93.88
471.339	90.88
471.558	81.88
471.777	85.88
471.997	110.88
472.216	195.88
472.435	334.88
472.654	153.88
472.873	96.88
473.092	84.88
473.311	98.88
473.53	76.88
473.749	88.88
473.968	103.88
474.187	90.88
474.406	101.88
474.625	78.88
474.844	98.88
475.063	98.88
475.282	90.88
475.501	92.88
475.72	96.88
475.939	75.88
476.158	81.88
476.377	96.88
476.596	99.88
476.814	86.88
477.033	77.88
477.252	97.88
477.471	78.88
477.69	76.88
477.908	81.88
478.127	80.88
478.346	72.88
478.564	80.88
478.783	77.88
479.002	103.88
479.22	88.88
479.439	104.88
479.658	109.88
479.876	82.88
480.095	83.88
480.313	98.88
480.532	80.88
480.751	107.88
480.969	208.88
481.188	551.88
481.406	348.88
481.624	114.88
481.843	106.88
482.061	104.88
482.28	87.88
482.498	101.88
482.717	88.88
482.935	95.88
483.153	92.88
483.372	87.88
483.59	93.88
483.808	91.88
484.027	91.88
484.245	90.88
484.463	86.88
484.681	88.88
484.9	101.88
485.118	96.88
485.336	89.88
485.554	100.88
485.772	85.88
485.99	102.88
486.209	112.88
486.427	101.88
486.645	101.88
486.863	114.88
487.081	99.88
487.299	103.88
487.517	101.88
487.735	97.88
487.953	92.88
488.171	100.88
488.389	91.88
488.607	89.88
488.825	93.88
489.043	90.88
489.261	90.88
489.479	83.88
489.696	88.88
489.914	87.88
490.132	82.88
490.35	83.88
490.568	81.88
490.786	89.88
491.003	92.88
491.221	96.88
491.439	90.88
491.657	79.88
491.874	101.88
492.092	92.88
492.31	106.88
492.527	103.88
492.745	100.88
492.963	97.88
493.18	81.88
493.398	101.88
493.615	91.88
493.833	98.88
494.05	85.88
494.268	89.88
494.485	91.88
494.703	82.88
494.92	80.88
495.138	85.88
495.355	84.88
495.573	100.88
495.79	95.88
496.008	78.88
496.225	97.88
496.442	97.88
496.66	95.88
496.877	87.88
497.094	94.88
497.312	82.88
497.529	88.88
497.746	99.88
497.963	80.88
498.181	87.88
498.398	91.88
498.615	89.88
498.832	96.88
499.049	91.88
499.267	83.88
499.484	81.88
499.701	90.88
499.918	96.88
500.135	100.88
500.352	85.88
500.569	83.88
500.786	106.88
501.003	97.88
501.22	87.88
501.437	85.88
501.654	79.88
501.871	103.88
502.088	100.88
502.305	79.88
502.522	77.88
502.739	86.88
502.956	88.88
503.172	94.88
503.389	81.88
503.606	90.88
503.823	94.88
504.04	81.88
504.256	92.88
504.473	71.88
504.69	90.88
504.907	88.88
505.123	83.88
505.34	79.88
505.557	93.88
505.773	92.88
505.99	84.88
506.207	88.88
506.423	89.88
506.64	98.88
506.856	95.88
507.073	88.88
507.289	92.88
507.506	99.88
507.722	113.88
507.939	105.88
508.155	94.88
508.372	90.88
508.588	79.88
508.805	88.88
509.021	99.88
509.238	96.88
509.454	104.88
509.67	108.88
509.887	98.88
510.103	132.88
510.319	215.88
510.536	720.88
510.752	2152.88
510.968	608.88
511.184	161.88
511.401	121.88
511.617	88.88
511.833	95.88
512.049	101.88
512.265	100.88
512.481	98.88
512.698	95.88
512.914	88.88
513.13	95.88
513.346	95.88
513.562	89.88
513.778	92.88
513.994	86.88
514.21	104.88
514.426	112.88
514.642	128.88
514.858	110.88
515.074	160.88
515.29	413.88
515.506	1307.88
515.721	487.88
515.937	140.88
